Data from foam1_polythene_foam_FLMS001491_00067.txt Node
Date: Wed Feb 08 10:55:14 GMT 2017
User: dcchb
Spectrometer: FLMS00149
Trigger mode: 0
Integration Time (sec): 2.000000E-2
Scans to average: 10
Electric dark correction enabled: true
Nonlinearity correction enabled: false
Boxcar width: 0
XAxis mode: Wavelengths
Number of Pixels in Spectrum: 2048
>>>>>Begin Spectral Data<<<<<
341.393	-3.35
341.776	-3.35
342.16	-3.35
342.543	-55.78
342.927	-74.76
343.31	-64.14
343.693	-51.26
344.077	-78.37
344.46	-59.62
344.843	-56.45
345.226	-25.49
345.61	-30.92
345.993	-8.77
346.376	-19.62
346.759	16.77
347.142	17.44
347.525	41.62
347.908	49.53
348.291	69.42
348.674	78.01
349.057	121.85
349.44	124.33
349.823	124.78
350.206	148.51
350.588	149.64
350.971	202.3
351.354	197.55
351.737	206.59
352.119	211.79
352.502	217.21
352.884	271.45
353.267	261.73
353.65	248.85
354.032	266.7
354.414	272.13
354.797	285.01
355.179	295.63
355.562	303.54
355.944	306.02
356.326	289.3
356.709	299.02
357.091	320.03
357.473	298.57
357.855	301.05
358.238	308.28
358.62	312.58
359.002	304.44
359.384	315.97
359.766	302.86
360.148	313.03
360.53	303.09
360.912	303.31
361.294	306.47
361.676	302.86
362.057	300.83
362.439	291.11
362.821	300.37
363.203	280.94
363.584	317.1
363.966	300.6
364.348	290.66
364.729	286.36
365.111	319.36
365.493	273.26
365.874	290.66
366.256	298.79
366.637	296.31
367.019	277.32
367.4	291.56
367.781	290.88
368.163	276.19
368.544	288.62
368.925	284.33
369.306	286.36
369.688	297.89
370.069	282.52
370.45	259.47
370.831	285.01
371.212	297.89
371.593	294.05
371.974	288.85
372.355	290.2
372.736	268.06
373.117	264.22
373.498	288.4
373.879	265.35
374.26	284.78
374.641	288.4
375.021	293.14
375.402	277.55
375.783	283.2
376.163	294.95
376.544	286.14
376.925	299.24
377.305	292.92
377.686	294.72
378.066	290.2
378.447	290.88
378.827	320.49
379.208	307.38
379.588	300.37
379.968	306.93
380.349	281.16
380.729	296.76
381.109	288.85
381.489	305.57
381.87	317.1
382.25	285.91
382.63	310.09
383.01	301.73
383.39	297.89
383.77	298.57
384.15	306.02
384.53	290.88
384.91	279.13
385.29	287.04
385.67	300.6
386.049	304.44
386.429	294.95
386.809	308.73
387.189	335.63
387.568	305.35
387.948	294.95
388.328	325.68
388.707	317.1
389.087	302.18
389.466	314.38
389.846	328.85
390.225	306.7
390.605	329.53
390.984	323.88
391.363	322.97
391.743	313.71
392.122	318.68
392.501	327.72
392.881	331.79
393.26	295.85
393.639	305.35
394.018	331.33
394.397	319.81
394.776	324.55
395.155	319.81
395.534	314.84
395.913	312.58
396.292	322.29
396.671	322.52
397.05	348.73
397.429	336.53
397.808	322.97
398.186	341.95
398.565	348.28
398.944	332.69
399.323	322.07
399.701	327.04
400.08	335.63
400.458	327.27
400.837	332.24
401.215	336.08
401.594	338.11
401.972	350.77
402.351	355.97
402.729	355.06
403.107	341.73
403.486	347.6
403.864	355.06
404.242	340.37
404.62	349.41
404.999	340.15
405.377	343.76
405.755	344.89
406.133	344.21
406.511	364.55
406.889	339.69
407.267	358
407.645	360.94
408.023	373.14
408.401	353.03
408.779	363.42
409.156	367.04
409.534	362.74
409.912	346.93
410.29	389.86
410.667	349.19
411.045	358.9
411.422	371.33
411.8	368.39
412.178	371.78
412.555	387.6
412.933	361.39
413.31	380.82
413.687	384.67
414.065	381.73
414.442	372.69
414.819	379.92
415.197	385.57
415.574	384.21
415.951	381.73
416.328	376.3
416.705	373.14
417.082	381.05
417.46	387.83
417.837	403.65
418.214	389.18
418.591	396.87
418.967	391.22
419.344	404.55
419.721	381.73
420.098	380.15
420.475	386.92
420.852	407.49
421.228	400.48
421.605	405.23
421.982	406.36
422.358	414.27
422.735	408.85
423.111	420.37
423.488	402.29
423.864	396.87
424.241	417.88
424.617	414.49
424.994	439.8
425.37	433.93
425.746	422.18
426.123	399.58
426.499	411.56
426.875	429.18
427.251	409.98
427.627	420.6
428.003	444.78
428.379	422.63
428.756	454.49
429.132	462.18
429.507	462.63
429.883	469.63
430.259	447.94
430.635	455.62
431.011	445.45
431.387	473.02
431.763	456.08
432.138	449.75
432.514	462.86
432.89	460.37
433.265	453.59
433.641	479.13
434.016	469.86
434.392	478
434.767	490.42
435.143	498.11
435.518	502.4
435.894	489.75
436.269	509.41
436.644	508.28
437.02	509.63
437.395	514.38
437.77	513.93
438.145	500.82
438.52	508.05
438.895	507.15
439.271	496.3
439.646	522.51
440.021	524.55
440.395	527.49
440.77	536.07
441.145	542.85
441.52	555.51
441.895	549.41
442.27	556.19
442.645	529.97
443.019	549.41
443.394	558.22
443.769	571.1
444.143	571.78
444.518	569.74
444.892	556.64
445.267	585.11
445.641	602.29
446.016	583.53
446.39	597.09
446.764	582.85
447.139	603.64
447.513	607.26
447.887	607.26
448.262	608.84
448.636	626.24
449.01	627.14
449.384	626.47
449.758	632.12
450.132	626.92
450.506	630.99
450.88	634.6
451.254	630.76
451.628	655.39
452.002	657.43
452.376	659.46
452.75	664.43
453.123	647.48
453.497	679.35
453.871	664.66
454.244	673.02
454.618	669.4
454.992	681.38
455.365	698.78
455.739	692.45
456.112	666.92
456.486	685.22
456.859	674.6
457.232	694.49
457.606	699.01
457.979	705.79
458.352	681.15
458.725	712.57
459.099	711.44
459.472	720.48
459.845	688.16
460.218	698.78
460.591	700.59
460.964	713.92
461.337	692.68
461.71	710.31
462.083	726.35
462.456	742.17
462.829	698.56
463.201	726.12
463.574	736.97
463.947	739.68
464.32	755.95
464.692	753.69
465.065	747.59
465.438	759.57
465.81	780.13
466.183	769.97
466.555	793.24
466.928	763.19
467.3	774.26
467.672	775.84
468.045	816.07
468.417	800.7
468.789	787.59
469.161	779.91
469.534	806.8
469.906	805.44
470.278	811.77
470.65	838.89
471.022	824.65
471.394	851.09
471.766	828.04
472.138	849.96
472.51	877.53
472.882	863.97
473.253	856.97
473.625	865.78
473.997	872.79
474.369	899.91
474.74	897.19
475.112	901.26
475.484	911.2
475.855	941.94
476.227	925.89
476.598	929.28
476.97	953.46
477.341	963.41
477.713	966.34
478.084	963.63
478.455	1006.12
478.827	996.85
479.198	1005.21
479.569	993.24
479.94	1012.67
480.311	1066.46
480.682	1065.33
481.053	1077.98
481.424	1086.12
481.795	1131.54
482.166	1082.05
482.537	1097.64
482.908	1104.65
483.279	1132.44
483.65	1163.18
484.021	1178.54
484.391	1161.59
484.762	1202.04
485.133	1209.05
485.503	1199.33
485.874	1206.56
486.244	1228.48
486.615	1251.99
486.985	1271.42
487.356	1272.1
487.726	1279.1
488.097	1291.53
488.467	1323.85
488.837	1330.63
489.207	1358.65
489.578	1345.09
489.948	1374.47
490.318	1408.59
490.688	1388.03
491.058	1418.76
491.428	1421.93
491.798	1445.65
492.168	1454.92
492.538	1441.81
492.908	1451.08
493.278	1474.81
493.648	1507.8
494.017	1490.85
494.387	1488.59
494.757	1545.31
495.126	1552.54
495.496	1572.43
495.866	1561.36
496.235	1573.79
496.605	1544.41
496.974	1575.82
497.344	1590.51
497.713	1605.2
498.082	1598.87
498.452	1632.09
498.821	1660.79
499.19	1630.51
499.559	1646.55
499.928	1660.56
500.298	1680.22
500.667	1699.21
501.036	1702.37
501.405	1748.92
501.774	1723.61
502.143	1694.24
502.512	1728.36
502.88	1759.32
503.249	1752.76
503.618	1736.95
503.987	1784.85
504.356	1793.22
504.724	1810.84
505.093	1835.25
505.462	1818.53
505.83	1857.17
506.199	1823.95
506.567	1813.55
506.936	1831.18
507.304	1875.02
507.672	1911.18
508.041	1861.69
508.409	1911.63
508.777	1914.57
509.145	1901.91
509.514	1924.29
509.882	1936.04
510.25	1971.74
510.618	1965.64
510.986	2005.19
511.354	1999.09
511.722	2005.19
512.09	2007.22
512.458	2015.36
512.826	2072.3
513.193	2038.41
513.561	2068.01
513.929	2087.67
514.297	2072.53
514.664	2109.14
515.032	2103.49
515.4	2136.71
515.767	2125.86
516.135	2171.74
516.502	2162.47
516.869	2148.69
517.237	2178.29
517.604	2176.48
517.972	2222.81
518.339	2213.77
518.706	2224.16
519.073	2227.1
519.44	2265.75
519.808	2233.66
520.175	2276.14
520.542	2312.07
520.909	2330.83
521.276	2317.5
521.643	2334.44
522.009	2325.63
522.376	2329.92
522.743	2393.88
523.11	2396.59
523.477	2410.15
523.843	2417.83
524.21	2475.68
524.577	2453.99
524.943	2459.64
525.31	2489.47
525.676	2505.06
526.043	2544.38
526.409	2561.33
526.776	2537.38
527.142	2577.6
527.508	2560.65
527.874	2566.98
528.241	2614.21
528.607	2647.66
528.973	2664.61
529.339	2653.08
529.705	2667.54
530.071	2688.79
530.437	2681.1
530.803	2711.84
531.169	2706.64
531.535	2728.11
531.901	2717.03
532.267	2732.85
532.632	2795.22
532.998	2770.14
533.364	2780.53
533.73	2750.48
534.095	2809.91
534.461	2825.96
534.826	2856.01
535.192	2828.89
535.557	2851.04
535.923	2840.65
536.288	2886.97
536.653	2840.19
537.019	2850.36
537.384	2900.53
537.749	2872.51
538.114	2914.32
538.479	2910.93
538.845	2942.56
539.21	2948.67
539.575	2947.54
539.94	2966.29
540.305	2962.9
540.67	2989.79
541.034	2998.38
541.399	2990.25
541.764	2973.75
542.129	3004.03
542.494	2995.67
542.858	3021.43
543.223	3010.81
543.587	3038.61
543.952	3050.58
544.316	3078.38
544.681	3043.8
545.045	3084.71
545.41	3105.27
545.774	3110.47
546.138	3120.41
546.503	3119.73
546.867	3093.97
547.231	3121.54
547.595	3142.78
547.959	3140.75
548.324	3140.3
548.688	3196.79
549.052	3199.73
549.416	3202.22
549.779	3212.16
550.143	3196.34
550.507	3250.35
550.871	3251.93
551.235	3231.82
551.599	3270.69
551.962	3273.63
552.326	3262.33
552.689	3317.02
553.053	3307.53
553.417	3249.67
553.78	3376.22
554.143	3310.01
554.507	3324.93
554.87	3318.37
555.234	3361.31
555.597	3377.35
555.96	3397.47
556.323	3419.61
556.686	3392.5
557.05	3416
557.413	3445.15
557.776	3455.54
558.139	3445.83
558.502	3466.17
558.865	3477.69
559.228	3527.18
559.59	3533.28
559.953	3516.56
560.316	3558.82
560.679	3553.4
561.041	3545.03
561.404	3568.08
561.767	3590.23
562.129	3604.92
562.492	3626.61
562.854	3606.5
563.217	3716.55
563.579	3645.82
563.941	3678.82
564.304	3726.72
564.666	3761.75
565.028	3716.33
565.39	3748.19
565.753	3745.93
566.115	3732.6
566.477	3785.25
566.839	3814.86
567.201	3829.32
567.563	3825.03
567.925	3843.78
568.287	3838.36
568.648	3862.99
569.01	3879.94
569.372	3919.49
569.734	3880.62
570.095	3901.41
570.457	3904.12
570.819	3930.11
571.18	3891.69
571.542	3973.72
571.903	3965.81
572.265	4027.06
572.626	3981.41
572.987	3968.07
573.349	4003.1
573.71	4092.36
574.071	4062.08
574.432	4031.35
574.794	4026.6
575.155	4089.65
575.516	4030.44
575.877	4025.02
576.238	4098.24
576.599	4114.51
576.96	4119.48
577.32	4078.13
577.681	4082.87
578.042	4131.46
578.403	4102.76
578.763	4150.89
579.124	4104.34
579.485	4126.71
579.845	4152.02
580.206	4160.38
580.566	4162.87
580.927	4122.65
581.287	4180.5
581.648	4141.4
582.008	4193.6
582.368	4168.52
582.728	4213.72
583.089	4210.33
583.449	4174.62
583.809	4163.55
584.169	4177.33
584.529	4173.72
584.889	4209.88
585.249	4168.52
585.609	4158.8
585.969	4173.94
586.329	4159.48
586.688	4201.06
587.048	4204.9
587.408	4175.07
587.768	4155.87
588.127	4138.46
588.487	4177.33
588.846	4208.97
589.206	4165.36
589.565	4168.52
589.925	4194.96
590.284	4172.59
590.643	4175.53
591.003	4157.45
591.362	4234.51
591.721	4186.37
592.08	4178.24
592.44	4193.15
592.799	4201.06
593.158	4146.37
593.517	4193.15
593.876	4150.89
594.235	4195.86
594.593	4172.59
594.952	4176.2
595.311	4173.04
595.67	4171.01
596.029	4211.68
596.387	4195.86
596.746	4239.48
597.104	4177.11
597.463	4180.72
597.822	4221.63
598.18	4197.67
598.538	4196.99
598.897	4223.89
599.255	4204
599.613	4243.77
599.972	4197.67
600.33	4211.01
600.688	4182.98
601.046	4213.26
601.404	4244.22
601.762	4196.32
602.12	4211.01
602.478	4219.59
602.836	4178.69
603.194	4227.73
603.552	4189.76
603.91	4207.84
604.268	4191.12
604.625	4205.58
604.983	4226.82
605.341	4220.95
605.698	4215.07
606.056	4271.12
606.413	4226.6
606.771	4235.19
607.128	4230.21
607.485	4218.24
607.843	4220.27
608.2	4231.8
608.557	4237.22
608.914	4214.62
609.272	4226.82
609.629	4249.87
609.986	4245.58
610.343	4276.09
610.7	4242.42
611.057	4247.84
611.414	4222.53
611.771	4258.46
612.127	4232.02
612.484	4234.28
612.841	4250.55
613.198	4235.19
613.554	4251.91
613.911	4219.82
614.267	4234.51
614.624	4213.72
614.98	4237.22
615.337	4341.17
615.693	4288.97
616.05	4309.08
616.406	4305.24
616.762	4235.41
617.118	4243.32
617.475	4287.61
617.831	4242.19
618.187	4292.13
618.543	4308.63
618.899	4270.89
619.255	4292.36
619.611	4284.68
619.967	4294.84
620.323	4305.69
620.678	4316.31
621.034	4286.26
621.39	4276.77
621.746	4293.94
622.101	4296.88
622.457	4259.82
622.812	4225.92
623.168	4267.73
623.523	4264.34
623.879	4251
624.234	4239.93
624.589	4250.78
624.945	4228.63
625.3	4223.89
625.655	4238.35
626.01	4255.98
626.365	4272.47
626.72	4246.26
627.075	4268.4
627.43	4275.41
627.785	4227.5
628.14	4209.65
628.495	4154.74
628.85	4240.16
629.205	4226.15
629.559	4215.52
629.914	4208.75
630.269	4212.81
630.623	4161.74
630.978	4164.9
631.332	4221.63
631.687	4183.44
632.041	4135.07
632.396	4215.75
632.75	4130.56
633.104	4170.33
633.459	4113.38
633.813	4143.66
634.167	4107.5
634.521	4154.51
634.875	4114.28
635.229	4116.09
635.583	4096.66
635.937	4082.87
636.291	4084.68
636.645	4087.39
636.999	4063.66
637.352	4110.22
637.706	4073.61
638.06	4031.12
638.413	4036.77
638.767	4051.24
639.121	4027.96
639.474	4066.6
639.828	4009.2
640.181	4029.99
640.534	4036.32
640.888	4025.02
641.241	4026.15
641.594	3940.05
641.947	3968.53
642.301	3982.54
642.654	3992.93
643.007	3945.48
643.36	3962.65
643.713	3937.11
644.066	3961.07
644.419	3913.61
644.771	3909.54
645.124	3878.81
645.477	3868.42
645.83	3824.8
646.182	3809.21
646.535	3808.76
646.888	3858.25
647.24	3801.75
647.593	3848.3
647.945	3848.53
648.298	3781.86
648.65	3820.73
649.002	3741.41
649.355	3759.72
649.707	3730.79
650.059	3726.05
650.411	3766.5
650.763	3807.63
651.115	3842.43
651.467	3844.46
651.819	3838.59
652.171	3815.99
652.523	3813.5
652.875	3802.65
653.227	3825.25
653.578	3811.92
653.93	3808.98
654.282	3788.19
654.633	3785.93
654.985	3787.51
655.337	3780.28
655.688	3773.5
656.039	3808.08
656.391	3713.17
656.742	3740.28
657.094	3745.71
657.445	3718.14
657.796	3734.86
658.147	3752.49
658.498	3761.98
658.849	3694.41
659.2	3759.49
659.551	3744.12
659.902	3740.96
660.253	3725.14
660.604	3734.63
660.955	3708.87
661.306	3697.12
661.656	3700.96
662.007	3682.43
662.358	3679.49
662.708	3691.7
663.059	3699.83
663.409	3619.83
663.76	3713.39
664.11	3647.86
664.461	3681.3
664.811	3691.92
665.161	3672.04
665.511	3633.62
665.862	3683.79
666.212	3716.33
666.562	3667.29
666.912	3676.33
667.262	3669.1
667.612	3649.44
667.962	3631.36
668.312	3643.56
668.662	3657.12
669.011	3634.07
669.361	3619.83
669.711	3641.08
670.06	3624.58
670.41	3599.5
670.76	3610.79
671.109	3648.99
671.459	3568.08
671.808	3582.55
672.157	3609.21
672.507	3602.21
672.856	3583.68
673.205	3545.26
673.554	3599.27
673.904	3609.21
674.253	3621.19
674.602	3596.33
674.951	3540.74
675.3	3481.08
675.649	3575.99
675.998	3574.64
676.346	3566.73
676.695	3570.34
677.044	3571.02
677.393	3547.97
677.741	3546.39
678.09	3530.57
678.438	3560.4
678.787	3558.59
679.135	3538.03
679.484	3491.48
679.832	3527.41
680.181	3485.15
680.529	3487.41
680.877	3481.98
681.225	3463.91
681.573	3491.02
681.922	3470.01
682.27	3394.76
682.618	3452.15
682.966	3479.5
683.314	3463.23
683.661	3446.51
684.009	3442.21
684.357	3433.62
684.705	3415.32
685.053	3441.31
685.4	3424.81
685.748	3391.59
686.095	3396.56
686.443	3385.49
686.79	3370.8
687.138	3411.93
687.485	3366.96
687.832	3389.56
688.18	3346.17
688.527	3354.98
688.874	3297.36
689.221	3337.13
689.568	3334.64
689.915	3273.85
690.262	3325.83
690.609	3264.82
690.956	3279.5
691.303	3298.03
691.65	3263.69
691.997	3253.74
692.344	3284.7
692.69	3279.28
693.037	3285.83
693.383	3255.1
693.73	3277.02
694.077	3218.71
694.423	3261.2
694.769	3212.39
695.116	3187.08
695.462	3184.14
695.808	3193.18
696.155	3138.94
696.501	3183.01
696.847	3183.46
697.193	3139.62
697.539	3121.54
697.885	3097.14
698.231	3081.09
698.577	3102.79
698.923	3126.29
699.269	3116.34
699.614	3125.61
699.96	3092.84
700.306	3045.84
700.651	3087.19
700.997	3043.58
701.342	3066.85
701.688	3065.72
702.033	3018.27
702.379	3045.16
702.724	3033.41
703.069	3022.34
703.415	2984.82
703.76	2979.85
704.105	2987.99
704.45	3034.99
704.795	2960.87
705.14	2967.87
705.485	2944.82
705.83	2953.64
706.175	2969
706.52	2918.84
706.865	2964.71
707.209	2953.64
707.554	2899.18
707.899	2915.45
708.243	2902.79
708.588	2909.57
708.932	2865.96
709.277	2897.59
709.621	2874.32
709.966	2855.33
710.31	2895.33
710.654	2855.33
710.998	2851.94
711.342	2843.36
711.687	2845.39
712.031	2841.32
712.375	2819.63
712.719	2851.04
713.063	2834.32
713.407	2831.38
713.75	2822.57
714.094	2816.24
714.438	2797.71
714.782	2788.44
715.125	2747.99
715.469	2785.73
715.812	2808.1
716.156	2789.8
716.499	2766.07
716.843	2748.9
717.186	2725.17
717.53	2726.75
717.873	2712.97
718.216	2751.83
718.559	2753.42
718.902	2708.45
719.246	2719.74
719.589	2717.71
719.932	2711.38
720.275	2723.59
720.617	2722.23
720.96	2699.41
721.303	2708.45
721.646	2716.58
721.989	2676.58
722.331	2664.38
722.674	2660.99
723.016	2691.95
723.359	2701.44
723.701	2652.63
724.044	2666.64
724.386	2628.45
724.729	2627.54
725.071	2672.29
725.413	2603.82
725.755	2639.3
726.097	2638.84
726.439	2609.01
726.782	2591.39
727.124	2622.57
727.465	2603.36
727.807	2635
728.149	2642.91
728.491	2593.87
728.833	2617.37
729.175	2604.72
729.516	2576.7
729.858	2575.79
730.199	2570.14
730.541	2557.49
730.882	2580.54
731.224	2564.95
731.565	2543.93
731.906	2583.03
732.248	2546.42
732.589	2536.02
732.93	2553.2
733.271	2545.74
733.612	2524.04
733.953	2550.94
734.294	2495.12
734.635	2513.65
734.976	2537.38
735.317	2508
735.658	2525.4
735.999	2517.72
736.339	2521.33
736.68	2525.17
737.021	2512.29
737.361	2504.16
737.702	2511.61
738.042	2469.13
738.383	2520.2
738.723	2471.39
739.063	2469.36
739.404	2467.77
739.744	2435.01
740.084	2469.13
740.424	2477.49
740.764	2437.04
741.104	2483.59
741.444	2446.76
741.784	2510.48
742.124	2479.75
742.464	2451.73
742.804	2463.71
743.143	2448.57
743.483	2453.31
743.823	2426.65
744.162	2433.42
744.502	2426.42
744.841	2419.19
745.181	2454.44
745.52	2409.92
745.86	2424.39
746.199	2379.87
746.538	2411.73
746.877	2443.14
747.216	2429.36
747.556	2372.86
747.895	2407.66
748.234	2411.73
748.573	2406.08
748.911	2389.81
749.25	2345.74
749.589	2320.89
749.928	2357.72
750.267	2370.15
750.605	2355.91
750.944	2355.23
751.283	2384.84
751.621	2348.91
751.96	2343.48
752.298	2348.91
752.636	2307.78
752.975	2300.55
753.313	2305.97
753.651	2326.53
753.989	2337.38
754.327	2325.86
754.666	2306.87
755.004	2314.78
755.342	2325.4
755.679	2292.64
756.017	2283.82
756.355	2282.92
756.693	2284.05
757.031	2291.96
757.368	2237.95
757.706	2215.35
758.044	2262.58
758.381	2236.37
758.719	2262.13
759.056	2230.04
759.394	2235.69
759.731	2224.16
760.068	2205.86
760.405	2214.9
760.743	2223.49
761.08	2227.78
761.417	2215.58
761.754	2206.31
762.091	2190.72
762.428	2198.63
762.765	2166.99
763.102	2169.48
763.438	2167.67
763.775	2173.77
764.112	2181.45
764.449	2156.6
764.785	2168.57
765.122	2159.76
765.458	2128.57
765.795	2104.39
766.131	2122.47
766.467	2108.69
766.804	2129.25
767.14	2085.64
767.476	2113.43
767.812	2091.06
768.148	2093.55
768.485	2096.26
768.821	2063.72
769.157	2078.86
769.492	2054.9
769.828	2065.07
770.164	2041.34
770.5	2041.34
770.836	2017.62
771.171	2045.86
771.507	2050.16
