Data from foam_black_FLMS001491_00081.txt Node
Date: Wed Feb 08 10:44:50 GMT 2017
User: dcchb
Spectrometer: FLMS00149
Trigger mode: 0
Integration Time (sec): 2.000000E-2
Scans to average: 10
Electric dark correction enabled: true
Nonlinearity correction enabled: false
Boxcar width: 0
XAxis mode: Wavelengths
Number of Pixels in Spectrum: 2048
>>>>>Begin Spectral Data<<<<<
341.393	-13.04
341.776	-13.04
342.16	-13.04
342.543	-48.74
342.927	-66.37
343.31	-73.83
343.693	-85.8
344.077	-55.3
344.46	-47.84
344.843	-51.23
345.226	-22.53
345.61	-32.24
345.993	-34.28
346.376	10.01
346.759	22.22
347.142	13.4
347.525	55.44
347.908	43.69
348.291	74.19
348.674	89.11
349.057	94.98
349.44	119.39
349.823	154.42
350.206	191.93
350.588	210.91
350.971	208.88
351.354	225.83
351.737	211.59
352.119	251.36
352.502	253.85
352.884	264.7
353.267	262.44
353.65	306.28
354.032	280.06
354.414	297.69
354.797	323.68
355.179	326.16
355.562	323.9
355.944	322.55
356.326	312.15
356.709	350.12
357.091	334.3
357.473	340.17
357.855	316.45
358.238	338.82
358.62	343.34
359.002	340.63
359.384	330.68
359.766	347.18
360.148	332.49
360.53	332.72
360.912	326.84
361.294	339.72
361.676	323.45
362.057	330.91
362.439	330.01
362.821	324.13
363.203	365.03
363.584	316.9
363.966	322.32
364.348	313.06
364.729	327.75
365.111	329.1
365.493	333.17
365.874	305.6
366.256	317.58
366.637	330.46
367.019	314.19
367.4	325.26
367.781	302.44
368.163	309.44
368.544	330.91
368.925	321.64
369.306	338.14
369.688	311.93
370.069	312.15
370.45	326.39
370.831	308.99
371.212	310.34
371.593	305.37
371.974	294.3
372.355	310.57
372.736	317.8
373.117	302.44
373.498	327.29
373.879	337.91
374.26	322.77
374.641	314.86
375.021	311.02
375.402	340.4
375.783	323.68
376.163	348.54
376.544	358.71
376.925	323.45
377.305	337.46
377.686	332.94
378.066	347.63
378.447	361.19
378.827	320.51
379.208	340.63
379.588	317.8
379.968	345.6
380.349	362.32
380.729	337.91
381.109	328.88
381.489	373.85
381.87	337.24
382.25	367.29
382.63	354.41
383.01	343.79
383.39	353.73
383.77	372.94
384.15	366.84
384.53	333.62
384.91	373.62
385.29	383.56
385.67	366.39
386.049	383.79
386.429	386.28
386.809	407.52
387.189	389.44
387.568	372.72
387.948	362.09
388.328	379.04
388.707	396.44
389.087	387.18
389.466	396.44
389.846	403.9
390.225	409.78
390.605	396.9
390.984	387.41
391.363	382.21
391.743	411.36
392.122	393.28
392.501	406.39
392.881	423.79
393.26	433.73
393.639	436.67
394.018	434.18
394.397	425.6
394.776	437.57
395.155	442.54
395.534	435.99
395.913	420.4
396.292	444.58
396.671	438.03
397.05	435.99
397.429	438.25
397.808	431.92
398.186	433.73
398.565	423.56
398.944	433.05
399.323	459.95
399.701	443.45
400.08	440.29
400.458	438.03
400.837	450
401.215	474.41
401.594	456.78
401.972	476.44
402.351	453.39
402.729	483.67
403.107	467.4
403.486	478.48
403.864	466.95
404.242	476.89
404.62	484.35
404.999	498.81
405.377	522.32
405.755	485.93
406.133	515.99
406.511	488.65
406.889	515.09
407.267	500.62
407.645	510.34
408.023	517.57
408.401	503.56
408.779	539.94
409.156	530.9
409.534	545.82
409.912	525.48
410.29	562.99
410.667	563.45
411.045	552.6
411.422	554.18
411.8	553.05
412.178	566.84
412.555	573.16
412.933	587.17
413.31	603.67
413.687	581.07
414.065	598.25
414.442	583.11
414.819	609.09
415.197	612.71
415.574	626.95
415.951	601.18
416.328	615.87
416.705	618.59
417.082	630.79
417.46	624.46
417.837	624.01
418.214	630.56
418.591	645.48
418.967	630.11
419.344	649.09
419.721	659.71
420.098	659.04
420.475	653.39
420.852	684.8
421.228	684.57
421.605	677.34
421.982	681.41
422.358	685.48
422.735	681.86
423.111	703.78
423.488	689.32
423.864	711.46
424.241	692.26
424.617	707.4
424.994	707.62
425.37	732.03
425.746	721.41
426.123	716.89
426.499	738.36
426.875	752.37
427.251	763.21
427.627	775.19
428.003	764.12
428.379	763.44
428.756	777.68
429.132	803.44
429.507	793.5
429.883	780.62
430.259	795.3
430.635	814.96
431.011	804.12
431.387	803.89
431.763	841.86
432.138	848.64
432.514	843.66
432.89	869.2
433.265	877.11
433.641	868.3
434.016	894.06
434.392	895.64
434.767	942.42
435.143	946.71
435.518	935.41
435.894	941.74
436.269	937.9
436.644	981.51
437.02	973.38
437.395	952.36
437.77	991.91
438.145	983.32
438.52	985.81
438.895	1000.95
439.271	1020.61
439.646	1041.4
440.021	1038.46
440.395	1032.13
440.77	1033.72
441.145	1023.09
441.52	1048.18
441.895	1059.25
442.27	1060.38
442.645	1073.04
443.019	1070.32
443.394	1069.2
443.769	1082.08
444.143	1088.63
444.518	1099.02
444.892	1112.81
445.267	1100.15
445.641	1115.97
446.016	1111
446.39	1119.59
446.764	1162.53
447.139	1089.76
447.513	1122.98
447.887	1152.58
448.262	1151.23
448.636	1140.15
449.01	1176.54
449.384	1195.97
449.758	1195.29
450.132	1197.1
450.506	1237.33
450.88	1198.23
451.254	1208.4
451.628	1234.61
452.002	1236.2
452.376	1257.66
452.75	1298.57
453.123	1273.71
453.497	1278
453.871	1271.22
454.244	1303.09
454.618	1319.36
454.992	1336.53
455.365	1314.84
455.739	1361.16
456.112	1398.45
456.486	1388.06
456.859	1408.85
457.232	1418.79
457.606	1432.8
457.979	1446.36
458.352	1446.13
458.725	1487.72
459.099	1468.28
459.472	1533.59
459.845	1557.54
460.218	1541.72
460.591	1554.38
460.964	1530.2
461.337	1571.55
461.71	1611.78
462.083	1618.33
462.456	1622.63
462.829	1663.53
463.201	1659.01
463.574	1664.66
463.947	1683.42
464.32	1718.44
464.692	1730.19
465.065	1720.48
465.438	1776.75
465.81	1779.01
466.183	1810.19
466.555	1852.45
466.928	1828.95
467.3	1860.59
467.672	1879.57
468.045	1918.89
468.417	1929.29
468.789	1947.14
469.161	1953.24
469.534	1969.74
469.906	2037.53
470.278	2042.95
470.65	2063.75
471.022	2096.06
471.394	2099
471.766	2169.05
472.138	2130.64
472.51	2204.53
472.882	2244.98
473.253	2221.93
473.625	2274.36
473.997	2313.68
474.369	2317.52
474.74	2372.21
475.112	2411.98
475.484	2423.28
475.855	2450.18
476.227	2459.21
476.598	2525.65
476.97	2588.25
477.341	2607.46
477.713	2618.98
478.084	2691.98
478.455	2712.99
478.827	2775.14
479.198	2822.82
479.569	2791.41
479.94	2910.73
480.311	2896.04
480.682	2981.01
481.053	3003.38
481.424	3088.8
481.795	3127.45
482.166	3128.12
482.537	3189.37
482.908	3240.44
483.279	3239.53
483.65	3311.17
484.021	3397.27
484.391	3418.06
484.762	3438.85
485.133	3494.89
485.503	3491.5
485.874	3631.84
486.244	3582.12
486.615	3659.41
486.985	3684.72
487.356	3759.29
487.726	3775.56
488.097	3870.7
488.467	3893.3
488.837	3947.31
489.207	3979.18
489.578	4019.17
489.948	4042.9
490.318	4098.95
490.688	4083.81
491.058	4218.72
491.428	4251.94
491.798	4219.85
492.168	4358.83
492.538	4356.11
492.908	4429.11
493.278	4466.39
493.648	4475.66
494.017	4540.06
494.387	4558.14
494.757	4574.64
495.126	4622.77
495.496	4652.6
495.866	4732.6
496.235	4742.77
496.605	4784.35
496.974	4828.87
497.344	4837.01
497.713	4903.67
498.082	4905.93
498.452	4938.25
498.821	4968.53
499.19	4992.93
499.559	5031.12
499.928	5127.17
500.298	5125.36
500.667	5113.38
501.036	5122.65
501.405	5200.39
501.774	5228.18
502.143	5263.44
502.512	5260.05
502.88	5334.17
503.249	5302.98
503.618	5346.37
503.987	5428.4
504.356	5404
504.724	5511.11
505.093	5525.35
505.462	5548.63
505.83	5546.14
506.199	5606.02
506.567	5639.7
506.936	5684.21
507.304	5731.22
507.672	5729.86
508.041	5754.95
508.409	5796.98
508.777	5836.75
509.145	5935.28
509.514	5895.06
509.882	5987.71
510.25	5929.18
510.618	5995.85
510.986	6062.51
511.354	6100.48
511.722	6115.62
512.09	6222.51
512.458	6184.09
512.826	6274.48
513.193	6270.87
513.561	6331.66
513.929	6303.41
514.297	6424.99
514.664	6493.69
515.032	6561.93
515.4	6500.24
515.767	6577.75
516.135	6604.87
516.502	6575.49
516.869	6694.36
517.237	6775.94
517.604	6709.5
517.972	6842.83
518.339	6829.5
518.706	6884.86
519.073	6931.64
519.44	7027.23
519.808	7090.96
520.175	7097.74
520.542	7165.08
520.909	7276.94
521.276	7238.75
521.643	7314.45
522.009	7324.17
522.376	7390.16
522.743	7418.41
523.11	7604.39
523.477	7631.73
523.843	7574.56
524.21	7757.61
524.577	7801.22
524.943	7815.01
525.31	7880.32
525.676	7930.48
526.043	7943.14
526.409	8041.67
526.776	8134.09
527.142	8117.6
527.508	8235.56
527.874	8253.86
528.241	8342.68
528.607	8365.95
528.973	8476.01
529.339	8451.83
529.705	8552.84
530.071	8563.69
530.437	8639.39
530.803	8705.83
531.169	8763.68
531.535	8738.6
531.901	8732.27
532.267	8812.95
532.632	8852.72
532.998	8994.64
533.364	8998.48
533.73	8984.69
534.095	9066.72
534.461	9146.5
534.826	9139.49
535.192	9227.85
535.557	9256.32
535.923	9281.63
536.288	9326.83
536.653	9331.12
537.019	9350.11
537.384	9452.25
537.749	9493.83
538.114	9458.8
538.479	9516.66
538.845	9568.86
539.21	9575.19
539.575	9667.39
539.94	9626.71
540.305	9720.49
540.67	9750.1
541.034	9814.73
541.399	9853.6
541.764	9843.88
542.129	9890.21
542.494	9974.72
542.858	9943.99
543.223	10017.66
543.587	10067.6
543.952	10014.5
544.316	10048.62
544.681	10029.41
545.045	10086.36
545.41	10243.19
545.774	10212.23
546.138	10279.35
546.503	10218.33
546.867	10348.73
547.231	10449.29
547.595	10420.36
547.959	10455.84
548.324	10481.83
548.688	10538.55
549.052	10576.52
549.416	10564.99
549.779	10673.91
550.143	10583.3
550.507	10662.39
550.871	10656.29
551.235	10745.55
551.599	10903.96
551.962	10881.14
552.326	10970.86
552.689	10933.79
553.053	10924.98
553.417	11048.59
553.78	11174.69
554.143	11117.52
554.507	11186.67
554.87	11208.82
555.234	11394.12
555.597	11366.1
555.96	11413.56
556.323	11478.64
556.686	11529.03
557.05	11611.52
557.413	11533.78
557.776	11706.66
558.139	11810.38
558.502	11792.08
558.865	11842.92
559.228	11887.22
559.59	12013.54
559.953	12060.09
560.316	12231.84
560.679	12159.3
561.041	12279.07
561.404	12340.99
561.767	12380.76
562.129	12368.56
562.492	12573.07
562.854	12487.2
563.217	12610.36
563.579	12647.87
563.941	12834.99
564.304	12820.07
564.666	12854.65
565.028	12918.15
565.39	12951.14
565.753	13027.52
566.115	13075.88
566.477	13173.74
566.839	13238.82
567.201	13268.87
567.563	13356.56
567.925	13452.15
568.287	13454.41
568.648	13453.05
569.01	13592.71
569.372	13627.96
569.734	13659.82
570.095	13779.6
570.457	13789.31
570.819	13919.93
571.18	13782.76
571.542	13874.28
571.903	13987.27
572.265	14037.67
572.626	14114.73
572.987	14117.21
573.349	14139.81
573.71	14218.68
574.071	14276.31
574.432	14229.08
574.794	14443.31
575.155	14399.24
575.516	14418
575.877	14472.91
576.238	14554.04
576.599	14542.74
576.96	14608.95
577.32	14569.63
577.681	14635.84
578.042	14635.39
578.403	14708.38
578.763	14728.04
579.124	14734.6
579.485	14813.24
579.845	14793.35
580.206	14857.08
580.566	14840.36
580.927	14779.57
581.287	14910.86
581.648	14939.34
582.008	15014.37
582.368	14902.96
582.728	14939.34
583.089	14997.19
583.449	15003.52
583.809	14929.62
584.169	15029.05
584.529	14952.9
584.889	15002.16
585.249	14985.21
585.609	14904.09
585.969	15152.44
586.329	15079.45
586.688	15099.33
587.048	15144.31
587.408	15051.43
587.768	15105.44
588.127	15138.66
588.487	15140.01
588.846	15263.62
589.206	15140.46
589.565	15115.15
589.925	15149.73
590.284	15096.85
590.643	15249.84
591.003	15194.25
591.362	15218.88
591.721	15135.27
592.08	15192.67
592.44	15318.54
592.799	15320.57
593.158	15182.95
593.517	15241.25
593.876	15321.48
594.235	15298.43
594.593	15264.3
594.952	15354.7
595.311	15172.1
595.67	15241.03
596.029	15317.86
596.387	15287.35
596.746	15400.34
597.104	15267.47
597.463	15313.57
597.822	15398.99
598.18	15408.25
598.538	15276.96
598.897	15513.11
599.255	15441.02
599.613	15567.34
599.972	15490.96
600.33	15560.57
600.688	15515.14
601.046	15532.54
601.404	15659.32
601.762	15545.42
602.12	15664.52
602.478	15633.56
602.836	15658.19
603.194	15532.09
603.552	15551.07
603.91	15553.79
604.268	15567.57
604.625	15576.84
604.983	15718.3
605.341	15602.82
605.698	15673.33
606.056	15777.06
606.413	15683.73
606.771	15725.08
607.128	15800.11
607.485	15619.32
607.843	15770.05
608.2	15868.81
608.557	15790.62
608.914	15822.48
609.272	15962.81
609.629	15988.8
609.986	15986.54
610.343	15908.8
610.7	15963.72
611.057	16027.22
611.414	15994
611.771	16008.24
612.127	16050.5
612.484	16086.88
612.841	16129.82
613.198	16037.62
613.554	16064.51
613.911	16106.77
614.267	16097.73
614.624	16096.6
614.98	16167.78
615.337	16193.32
615.693	16143.6
616.05	16178.18
616.406	16321.45
616.762	16212.07
617.118	16097.27
617.475	16191.06
617.831	16237.84
618.187	16336.59
618.543	16249.81
618.899	16328.68
619.255	16328.45
619.611	16304.05
619.967	16318.51
620.323	16353.76
620.678	16297.95
621.034	16304.05
621.39	16337.95
621.746	16263.15
622.101	16419.07
622.457	16262.24
622.812	16386.98
623.168	16373.65
623.523	16321.9
623.879	16362.13
624.234	16276.03
624.589	16429.7
624.945	16418.17
625.3	16444.61
625.655	16355.35
626.01	16364.16
626.365	16509.92
626.72	16454.78
627.075	16419.07
627.43	16317.83
627.785	16325.74
628.14	16408.23
628.495	16404.39
628.85	16407.32
629.205	16298.85
629.559	16418.17
629.914	16294.56
630.269	16322.58
630.623	16296.14
630.978	16287.78
631.332	16339.08
631.687	16313.77
632.041	16278.06
632.396	16389.47
632.75	16251.39
633.104	16308.34
633.459	16217.27
633.813	16198.29
634.167	16192.41
634.521	16189.02
634.875	16249.81
635.229	16138.86
635.583	16171.17
635.937	16115.35
636.291	16078.52
636.645	16088.01
636.999	15992.87
637.352	16028.35
637.706	15994.45
638.06	15994
638.413	15970.27
638.767	15929.6
639.121	15965.53
639.474	15895.7
639.828	15893.21
640.181	15932.08
640.534	15986.99
640.888	15835.59
641.241	15776.38
641.594	15876.04
641.947	15870.16
642.301	15848.02
642.654	15848.69
643.007	15710.17
643.36	15814.12
643.713	15657.29
644.066	15809.6
644.419	15723.5
644.771	15532.32
645.124	15361.47
645.477	15244.42
645.83	15321.48
646.182	15205.32
646.535	15178.2
646.888	15204.19
647.24	15126
647.593	15280.35
647.945	15139.56
648.298	15170.75
648.65	15133.01
649.002	15040.35
649.355	15137.53
649.707	15017.75
650.059	15088.26
650.411	15151.99
650.763	15163.06
651.115	15368.71
651.467	15251.87
651.819	15287.35
652.171	15324.19
652.523	15175.04
652.875	15198.99
653.227	15185.21
653.578	15264.08
653.93	15172.33
654.282	15180.46
654.633	15147.92
654.985	15180.91
655.337	15118.77
655.688	15222.27
656.039	15177.52
656.391	15018.43
656.742	15099.56
657.094	15093.69
657.445	15134.14
657.796	15055.49
658.147	15107.92
658.498	15033.12
658.849	15107.7
659.2	15127.36
659.551	15034.7
659.902	15037.64
660.253	15090.3
660.604	15097.75
660.955	14941.82
661.306	14956.97
661.656	14998.55
662.007	15006.46
662.358	14959.68
662.708	14925.78
663.059	15008.26
663.409	14841.04
663.76	15000.58
664.11	14947.02
664.461	14988.83
664.811	14906.57
665.161	15026.12
665.511	14943.18
665.862	14917.42
666.212	14961.71
666.562	14980.24
666.912	14976.4
667.262	14848.27
667.612	14910.86
667.962	14955.61
668.312	14870.87
668.662	14975.95
669.011	14900.02
669.361	14813.47
669.711	14887.36
670.06	14887.36
670.41	14866.12
670.76	14825.9
671.109	14804.88
671.459	14817.08
671.808	14766.46
672.157	14871.54
672.507	14662.74
672.856	14774.37
673.205	14813.24
673.554	14852.56
673.904	14794.48
674.253	14821.38
674.602	14809.85
674.951	14583.19
675.3	14520.59
675.649	14743.19
675.998	14716.07
676.346	14676.29
676.695	14659.12
677.044	14631.1
677.393	14646.01
677.741	14674.94
678.09	14505.68
678.438	14613.92
678.787	14642.17
679.135	14636.3
679.484	14497.54
679.832	14568.05
680.181	14400.37
680.529	14573.92
680.877	14462.52
681.225	14476.53
681.573	14546.81
681.922	14428.17
682.27	14328.06
682.618	14227.27
682.966	14255.74
683.314	14352.01
683.661	14293.03
684.009	14205.57
684.357	14133.94
684.705	14250.09
685.053	14252.35
685.4	14177.32
685.748	14070.89
686.095	14065.24
686.443	14076.31
686.79	14067.95
687.138	14077.21
687.485	13972.13
687.832	13943.21
688.18	14032.7
688.527	13867.5
688.874	13911.34
689.221	13773.27
689.568	13811.68
689.915	13681.29
690.262	13780.05
690.609	13735.98
690.956	13709.99
691.303	13609.43
691.65	13582.54
691.997	13561.07
692.344	13483.11
692.69	13488.3
693.037	13406.27
693.383	13360.85
693.73	13440.17
694.077	13319.72
694.423	13336.44
694.769	13285.37
695.116	13216.67
695.462	13180.29
695.808	13110.91
696.155	13190.01
696.501	13055.77
696.847	13058.71
697.193	12880.86
697.539	12947.53
697.885	12928.54
698.231	12884.48
698.577	12893.97
698.923	12870.92
699.269	12809
699.614	12734.43
699.96	12757.48
700.306	12697.82
700.651	12638.61
700.997	12502.57
701.342	12506.63
701.688	12612.39
702.033	12389.35
702.379	12526.97
702.724	12479.74
703.069	12456.92
703.415	12335.57
703.76	12292.63
704.105	12399.52
704.45	12232.29
704.795	12227.09
705.14	12169.92
705.485	12198.62
705.83	12165.63
706.175	12122.46
706.52	12086.76
706.865	12003.37
707.209	12029.13
707.554	12012.41
707.899	11981.68
708.243	11865.97
708.588	11888.12
708.932	11826.2
709.277	11738.52
709.621	11727.9
709.966	11713.21
710.31	11720.21
710.654	11588.69
710.998	11645.19
711.342	11588.47
711.687	11616.49
712.031	11520.45
712.375	11460.11
712.719	11504.85
713.063	11403.84
713.407	11443.84
713.75	11442.93
714.094	11437.28
714.438	11409.49
714.782	11369.04
715.125	11314.8
715.469	11351.64
715.812	11297.85
716.156	11194.8
716.499	11245.88
716.843	11186.22
717.186	11138.99
717.53	11216.5
717.873	11195.48
718.216	11079.55
718.559	11077.07
718.902	11000.23
719.246	11055.83
719.589	11029.84
719.932	10859.45
720.275	10956.62
720.617	10910.07
720.96	10916.85
721.303	10978.76
721.646	10935.38
721.989	10838.66
722.331	10854.7
722.674	10830.52
723.016	10774.48
723.359	10831.2
723.701	10809.5
724.044	10780.8
724.386	10713.01
724.729	10785.1
725.071	10703.07
725.413	10748.04
725.755	10655.84
726.097	10614.71
726.439	10578.78
726.782	10619.23
727.124	10647.25
727.465	10557.31
727.807	10579.45
728.149	10545.33
728.491	10493.81
728.833	10462.62
729.175	10439.57
729.516	10430.53
729.858	10405.45
730.199	10472.56
730.541	10413.81
730.882	10420.14
731.224	10438.89
731.565	10347.82
731.906	10308.27
732.248	10336.52
732.589	10250.65
732.93	10204.32
733.271	10274.6
733.612	10236.86
733.953	10260.37
734.294	10289.52
734.635	10189.18
734.976	10247.71
735.317	10154.83
735.658	10178.56
735.999	10205.68
736.339	10087.71
736.68	10173.81
737.021	10024.21
737.361	10055.63
737.702	10135.85
738.042	9968.62
738.383	10037.09
738.723	10080.48
739.063	10017.89
739.404	9988.73
739.744	9973.37
740.084	9906.25
740.424	9949.19
740.764	9888.17
741.104	9909.64
741.444	9829.42
741.784	9929.3
742.124	9886.14
742.464	9866.48
742.804	9819.93
743.143	9867.16
743.483	9839.36
743.823	9796.2
744.162	9772.24
744.502	9728.4
744.841	9708.29
745.181	9756.2
745.52	9724.11
745.86	9692.02
746.199	9670.1
746.538	9641.4
746.877	9679.36
747.216	9653.6
747.556	9558.69
747.895	9614.51
748.234	9612.7
748.573	9533.61
748.911	9552.36
749.25	9503.1
749.589	9562.31
749.928	9555.98
750.267	9514.85
750.605	9434.85
750.944	9431.24
751.283	9380.84
751.621	9391.91
751.96	9296.78
752.298	9400.28
752.636	9318.92
752.975	9310.33
753.313	9303.33
753.651	9297.68
753.989	9291.13
754.327	9282.09
754.666	9183.78
755.004	9181.3
755.342	9206.38
755.679	9247.96
756.017	9207.74
756.355	9127.29
756.693	9082.54
757.031	9135.88
757.368	9014.07
757.706	9061.53
758.044	8963.45
758.381	9024.47
758.719	9002.55
