Data from foam1_polythene_foam_FLMS001491_00001.txt Node
Date: Wed Feb 08 10:54:17 GMT 2017
User: dcchb
Spectrometer: FLMS00149
Trigger mode: 0
Integration Time (sec): 2.000000E-2
Scans to average: 10
Electric dark correction enabled: true
Nonlinearity correction enabled: false
Boxcar width: 0
XAxis mode: Wavelengths
Number of Pixels in Spectrum: 2048
>>>>>Begin Spectral Data<<<<<
341.393	-18.19
341.776	-18.19
342.16	-18.19
342.543	-76.27
342.927	-63.39
343.31	-53.44
343.693	-66.55
344.077	-60.9
344.46	-79.66
344.843	-45.54
345.226	-30.85
345.61	-23.84
345.993	-14.12
346.376	-11.19
346.759	22.26
347.142	29.04
347.525	34.69
347.908	37.4
348.291	60.9
348.674	80.79
349.057	121.01
349.44	118.53
349.823	149.26
350.206	162.82
350.588	190.16
350.971	182.71
351.354	196.27
351.737	222.48
352.119	253.21
352.502	254.12
352.884	257.06
353.267	250.5
353.65	264.96
354.032	280.33
354.414	282.14
354.797	296.15
355.179	332.53
355.562	304.29
355.944	298.41
356.326	330.5
356.709	300.67
357.091	339.77
357.473	328.01
357.855	302.03
358.238	314.23
358.62	331.86
359.002	315.13
359.384	337.51
359.766	318.07
360.148	320.56
360.53	283.27
360.912	329.37
361.294	310.16
361.676	322.59
362.057	305.87
362.439	306.55
362.821	325.3
363.203	308.58
363.584	292.99
363.966	312.65
364.348	301.8
364.729	306.55
365.111	306.32
365.493	294.34
365.874	303.83
366.256	292.31
366.637	297.96
367.019	286.21
367.4	300.44
367.781	292.99
368.163	285.76
368.544	281.01
368.925	289.14
369.306	285.98
369.688	292.31
370.069	269.71
370.45	309.48
370.831	291.86
371.212	290.5
371.593	277.39
371.974	295.92
372.355	300.44
372.736	298.64
373.117	297.28
373.498	312.65
373.879	270.39
374.26	289.6
374.641	292.31
375.021	285.53
375.402	288.69
375.783	276.94
376.163	298.64
376.544	299.99
376.925	294.12
377.305	294.34
377.686	302.48
378.066	281.91
378.447	296.83
378.827	314
379.208	319.88
379.588	304.06
379.968	302.7
380.349	299.99
380.729	311.74
381.109	298.18
381.489	330.73
381.87	328.47
382.25	307.9
382.63	324.85
383.01	334.79
383.39	309.71
383.77	332.53
384.15	316.71
384.53	319.88
384.91	330.27
385.29	311.74
385.67	301.12
386.049	328.69
386.429	320.33
386.809	323.72
387.189	334.12
387.568	330.27
387.948	307.22
388.328	307.68
388.707	304.51
389.087	320.78
389.466	331.63
389.846	323.04
390.225	318.97
390.605	313.33
390.984	354.23
391.363	342.02
391.743	342.48
392.122	337.05
392.501	335.7
392.881	350.39
393.26	352.87
393.639	348.35
394.018	350.84
394.397	347.67
394.776	338.41
395.155	358.3
395.534	341.57
395.913	330.73
396.292	344.96
396.671	337.73
397.05	360.56
397.429	347.9
397.808	332.99
398.186	363.27
398.565	332.99
398.944	369.82
399.323	369.14
399.701	351.97
400.08	360.33
400.458	359.2
400.837	337.05
401.215	351.74
401.594	355.13
401.972	368.69
402.351	349.71
402.729	381.57
403.107	349.71
403.486	382.02
403.864	364.4
404.242	364.62
404.62	386.09
404.999	369.82
405.377	380.44
405.755	376.6
406.133	390.61
406.511	381.35
406.889	400.33
407.267	373.89
407.645	390.39
408.023	402.59
408.401	380.89
408.779	375.47
409.156	409.82
409.534	405.3
409.912	406.2
410.29	409.82
410.667	403.72
411.045	407.33
411.422	435.58
411.8	408.69
412.178	394
412.555	403.94
412.933	405.75
413.31	422.47
413.687	397.16
414.065	395.36
414.442	424.73
414.819	419.76
415.197	435.81
415.574	420.21
415.951	441.01
416.328	440.1
416.705	446.65
417.082	446.43
417.46	441.46
417.837	436.49
418.214	412.08
418.591	431.51
418.967	460.67
419.344	432.19
419.721	448.69
420.098	428.35
420.475	443.04
420.852	452.3
421.228	443.04
421.605	451.85
421.982	459.54
422.358	454.11
422.735	447.78
423.111	459.08
423.488	484.17
423.864	480.33
424.241	466.77
424.617	483.26
424.994	450.72
425.37	471.74
425.746	499.31
426.123	472.87
426.499	509.7
426.875	500.21
427.251	499.08
427.627	518.07
428.003	514.68
428.379	512.19
428.756	491.17
429.132	515.58
429.507	523.49
429.883	512.19
430.259	538.18
430.635	568.69
431.011	540.89
431.387	551.28
431.763	553.77
432.138	549.03
432.514	538.63
432.89	564.84
433.265	557.39
433.641	559.42
434.016	565.52
434.392	566.2
434.767	586.09
435.143	581.57
435.518	579.31
435.894	575.47
436.269	561.23
436.644	617.27
437.02	598.06
437.395	614.56
437.77	605.07
438.145	609.81
438.52	630.83
438.895	659.76
439.271	636.48
439.646	645.75
440.021	657.04
440.395	650.72
440.77	666.54
441.145	634.22
441.52	675.35
441.895	678.74
442.27	700.66
442.645	661.79
443.019	664.28
443.394	687.1
443.769	716.7
444.143	675.35
444.518	683.26
444.892	723.94
445.267	722.13
445.641	685.07
446.016	710.83
446.39	713.99
446.764	721.68
447.139	726.65
447.513	732.07
447.887	775.01
448.262	749.25
448.636	748.57
449.01	761.9
449.384	752.18
449.758	770.71
450.132	782.69
450.506	789.92
450.88	780.43
451.254	793.99
451.628	808.45
452.002	799.19
452.376	819.53
452.75	805.97
453.123	818.4
453.497	806.87
453.871	831.5
454.244	871.73
454.618	827.89
454.992	837.83
455.365	832.86
455.739	818.85
456.112	881.67
456.486	886.19
456.859	878.28
457.232	871.73
457.606	884.61
457.979	879.41
458.352	895.23
458.725	909.02
459.099	865.63
459.472	910.15
459.845	904.27
460.218	912.63
460.591	911.28
460.964	945.17
461.337	906.76
461.71	947.21
462.083	945.17
462.456	952.63
462.829	946.98
463.201	952.18
463.574	945.4
463.947	949.01
464.32	994.21
464.692	985.17
465.065	974.1
465.438	976.13
465.81	994.89
466.183	1008.45
466.555	1034.89
466.928	1014.1
467.3	1017.94
467.672	1059.29
468.045	1036.47
468.417	1054.32
468.789	1032.4
469.161	1055.45
469.534	1093.19
469.906	1106.07
470.278	1080.54
470.65	1098.84
471.022	1106.07
471.394	1151.27
471.766	1127.54
472.138	1160.76
472.51	1189.91
472.882	1175
473.253	1200.08
473.625	1225.17
473.997	1210.48
474.369	1231.49
474.74	1237.82
475.112	1256.58
475.484	1253.64
475.855	1294.77
476.227	1297.25
476.598	1298.16
476.97	1330.7
477.341	1324.6
477.713	1328.67
478.084	1333.64
478.455	1407.08
478.827	1404.82
479.198	1439.85
479.569	1444.14
479.94	1453.63
480.311	1467.42
480.682	1497.93
481.053	1529.79
481.424	1546.06
481.795	1535.21
482.166	1558.94
482.537	1581.09
482.908	1608.88
483.279	1621.99
483.65	1671.71
484.021	1680.29
484.391	1681.65
484.762	1706.73
485.133	1726.62
485.503	1741.99
485.874	1741.54
486.244	1757.81
486.615	1799.39
486.985	1833.74
487.356	1857.01
487.726	1878.26
488.097	1914.41
488.467	1889.55
488.837	1951.47
489.207	1940.85
489.578	1994.41
489.948	1994.64
490.318	1996.9
490.688	2032.6
491.058	2092.04
491.428	2088.65
491.798	2106.27
492.168	2137.68
492.538	2148.98
492.908	2168.19
493.278	2181.75
493.648	2184.91
494.017	2200.96
494.387	2231.24
494.757	2249.32
495.126	2274.18
495.496	2287.96
495.866	2282.54
496.235	2307.4
496.605	2314.85
496.974	2362.31
497.344	2391.91
497.713	2373.61
498.082	2446.6
498.452	2429.65
498.821	2431.24
499.19	2439.82
499.559	2505.58
499.928	2461.74
500.298	2492.48
500.667	2551.91
501.036	2519.59
501.405	2605.69
501.774	2556.43
502.143	2556.88
502.512	2584.45
502.88	2632.36
503.249	2633.04
503.618	2660.38
503.987	2647.73
504.356	2719.59
504.724	2674.84
505.093	2721.85
505.462	2725.69
505.83	2750.55
506.199	2776.09
506.567	2816.76
506.936	2770.21
507.304	2810.21
507.672	2876.2
508.041	2891.79
508.409	2904.9
508.777	2897.66
509.145	2932.69
509.514	2931.11
509.882	2947.61
510.25	2967.27
510.618	3018.11
510.986	2976.98
511.354	3038.68
511.722	3082.29
512.09	3061.95
512.458	3078.45
512.826	3109.86
513.193	3107.15
513.561	3088.85
513.929	3127.26
514.297	3200.71
514.664	3200.48
515.032	3244.77
515.4	3278.67
515.767	3254.72
516.135	3315.51
516.502	3301.72
516.869	3350.53
517.237	3330.65
517.604	3331.32
517.972	3402.96
518.339	3400.7
518.706	3415.16
519.073	3443.86
519.44	3520.7
519.808	3506.24
520.175	3503.52
520.542	3589.4
520.909	3540.58
521.276	3561.83
521.643	3616.97
522.009	3620.81
522.376	3659
522.743	3727.25
523.11	3743.07
523.477	3757.3
523.843	3779.22
524.21	3807.92
524.577	3804.08
524.943	3843.4
525.31	3915.94
525.676	3909.61
526.043	3936.05
526.409	3954.13
526.776	4011.76
527.142	4012.66
527.508	4011.31
527.874	4067.8
528.241	4072.1
528.607	4053.11
528.973	4080.68
529.339	4117.29
529.705	4187.8
530.071	4212.88
530.437	4214.92
530.803	4236.16
531.169	4302.37
531.535	4271.19
531.901	4267.35
532.267	4303.73
532.632	4295.59
532.998	4380.79
533.364	4398.87
533.73	4392.31
534.095	4481.13
534.461	4472.31
534.826	4515.47
535.192	4484.51
535.557	4486.77
535.923	4487.45
536.288	4555.02
536.653	4574
537.019	4544.17
537.384	4580.11
537.749	4639.31
538.114	4618.3
538.479	4587.34
538.845	4662.82
539.21	4674.11
539.575	4690.61
539.94	4736.03
540.305	4744.62
540.67	4802.92
541.034	4775.35
541.399	4811.29
541.764	4802.47
542.129	4841.79
542.494	4871.85
542.858	4845.18
543.223	4904.39
543.587	4906.88
543.952	4907.33
544.316	4920.89
544.681	4905.52
545.045	4925.63
545.41	4977.16
545.774	4972.19
546.138	4981.9
546.503	4992.3
546.867	5033.88
547.231	5068.45
547.595	5077.95
547.959	5065.52
548.324	5074.56
548.688	5126.31
549.052	5145.97
549.416	5112.29
549.779	5169.92
550.143	5169.92
550.507	5245.85
550.871	5229.35
551.235	5198.17
551.599	5287.21
551.962	5260.09
552.326	5286.75
552.689	5354.32
553.053	5313.87
553.417	5326.98
553.78	5395.23
554.143	5438.61
554.507	5483.36
554.87	5454.43
555.234	5482.45
555.597	5503.25
555.96	5487.65
556.323	5503.25
556.686	5567.65
557.05	5540.08
557.413	5552.96
557.776	5609.46
558.139	5668.89
558.502	5673.64
558.865	5699.85
559.228	5757.7
559.59	5745.95
559.953	5727.19
560.316	5785.5
560.679	5827.76
561.041	5830.24
561.404	5857.36
561.767	5891.03
562.129	5893.52
562.492	5959.96
562.854	5930.13
563.217	5982.55
563.579	6030.01
563.941	6036.11
564.304	6058.48
564.666	6121.08
565.028	6125.83
565.39	6157.47
565.753	6163.11
566.115	6153.4
566.477	6192.72
566.839	6256.9
567.201	6252.15
567.563	6359.04
567.925	6328.99
568.287	6375.54
568.648	6338.25
569.01	6356.33
569.372	6388.87
569.734	6422.32
570.095	6430.45
570.457	6495.99
570.819	6476.78
571.18	6538.02
571.542	6481.52
571.903	6572.14
572.265	6573.27
572.626	6559.94
572.987	6600.17
573.349	6595.87
573.71	6643.78
574.071	6645.14
574.432	6693.5
574.794	6779.14
575.155	6759.26
575.516	6721.07
575.877	6791.35
576.238	6746.38
576.599	6737.34
576.96	6799.03
577.32	6817.56
577.681	6757.68
578.042	6878.8
578.403	6864.79
578.763	6832.93
579.124	6879.71
579.485	6868.41
579.845	6925.35
580.206	6896.88
580.566	6907.95
580.927	6900.5
581.287	6947.95
581.648	6944.11
582.008	6921.96
582.368	6918.58
582.728	6945.92
583.089	6956.31
583.449	6890.55
583.809	6931.23
584.169	6977.1
584.529	6993.6
584.889	7003.54
585.249	6982.08
585.609	6933.04
585.969	6977.1
586.329	7013.26
586.688	6995.64
587.048	6986.82
587.408	6968.74
587.768	6987.95
588.127	6963.32
588.487	6951.79
588.846	7028.85
589.206	6979.59
589.565	6987.27
589.925	7039.48
590.284	6967.39
590.643	7008.52
591.003	7023.43
591.362	7035.63
591.721	7084.22
592.08	7012.13
592.44	7032.47
592.799	6999.03
593.158	7001.74
593.517	7002.19
593.876	6977.1
594.235	6978.23
594.593	6952.25
594.952	7010.55
595.311	7044
595.67	7023.43
596.029	7083.54
596.387	7086.48
596.746	7037.67
597.104	7089.42
597.463	7035.41
597.822	7062.53
598.18	7010.32
598.538	7052.81
598.897	7054.39
599.255	7042.87
599.613	7076.09
599.972	7046.03
600.33	7090.77
600.688	7066.14
601.046	7146.37
601.404	7145.01
601.762	7106.82
602.12	7169.87
602.478	7070.21
602.836	7111.56
603.194	7061.62
603.552	7062.53
603.91	7019.14
604.268	7096.65
604.625	7086.03
604.983	7116.99
605.341	7080.38
605.698	7129.19
606.056	7148.63
606.413	7132.13
606.771	7125.58
607.128	7154.95
607.485	7171
607.843	7166.48
608.2	7163.99
608.557	7209.19
608.914	7193.82
609.272	7180.72
609.629	7220.49
609.986	7221.39
610.343	7199.47
610.7	7264.55
611.057	7223.88
611.414	7192.47
611.771	7239.7
612.127	7306.14
612.484	7260.26
612.841	7294.84
613.198	7254.39
613.554	7261.39
613.911	7299.13
614.267	7286.25
614.624	7263.88
614.98	7248.96
615.337	7347.49
615.693	7330.54
616.05	7318.11
616.406	7361.73
616.762	7304.78
617.118	7291.45
617.475	7320.37
617.831	7290.54
618.187	7342.74
618.543	7323.76
618.899	7361.28
619.255	7321.05
619.611	7306.81
619.967	7355.63
620.323	7359.69
620.678	7368.73
621.034	7352.69
621.39	7258.68
621.746	7303.42
622.101	7384.78
622.457	7353.59
622.812	7358.34
623.168	7350.88
623.523	7396.98
623.879	7407.15
624.234	7298.45
624.589	7324.89
624.945	7309.98
625.3	7416.87
625.655	7368.05
626.01	7306.59
626.365	7348.17
626.72	7326.02
627.075	7356.08
627.43	7298.9
627.785	7328.28
628.14	7304.33
628.495	7379.58
628.85	7333.71
629.205	7254.61
629.559	7341.84
629.914	7284.22
630.269	7332.58
630.623	7311.56
630.978	7269.3
631.332	7268.85
631.687	7262.97
632.041	7169.42
632.396	7274.5
632.75	7194.27
633.104	7199.25
633.459	7241.05
633.813	7267.27
634.167	7229.98
634.521	7281.5
634.875	7222.97
635.229	7198.34
635.583	7216.87
635.937	7174.61
636.291	7122.19
636.645	7156.31
636.999	7138.23
637.352	7154.73
637.706	7071.57
638.06	7123.54
638.413	7103.43
638.767	7076.31
639.121	7051.9
639.474	7105.46
639.828	7049.19
640.181	7034.5
640.534	7043.32
640.888	7027.05
641.241	7003.54
641.594	7029.98
641.947	7032.02
642.301	7022.3
642.654	7019.82
643.007	6912.25
643.36	6906.82
643.713	6899.59
644.066	6950.44
644.419	6884.68
644.771	6859.14
645.124	6830.44
645.477	6785.92
645.83	6754.74
646.182	6702.76
646.535	6768.3
646.888	6706.83
647.24	6662.08
647.593	6764.91
647.945	6724.91
648.298	6717.68
648.65	6693.04
649.002	6637.68
649.355	6621.41
649.707	6596.32
650.059	6629.09
650.411	6731.24
650.763	6750.44
651.115	6830.22
651.467	6851.68
651.819	6770.1
652.171	6773.04
652.523	6707.28
652.875	6735.76
653.227	6727.62
653.578	6756.32
653.93	6739.37
654.282	6689.88
654.633	6684.91
654.985	6613.95
655.337	6600.17
655.688	6636.1
656.039	6690.78
656.391	6571.01
656.742	6622.54
657.094	6613.05
657.445	6693.04
657.796	6694.4
658.147	6682.2
658.498	6641.97
658.849	6573.27
659.2	6630.45
659.551	6654.85
659.902	6655.76
660.253	6632.71
660.604	6618.92
660.955	6620.5
661.306	6576.21
661.656	6564.69
662.007	6540.51
662.358	6542.54
662.708	6541.41
663.059	6483.11
663.409	6516.78
663.76	6555.65
664.11	6517.46
664.461	6579.6
664.811	6519.49
665.161	6562.43
665.511	6489.21
665.862	6483.33
666.212	6561.97
666.562	6532.6
666.912	6499.38
667.262	6563.56
667.612	6521.98
667.962	6509.55
668.312	6494.41
668.662	6560.17
669.011	6472.94
669.361	6470.23
669.711	6482.88
670.06	6449.21
670.41	6418.48
670.76	6496.89
671.109	6505.93
671.459	6498.02
671.808	6442.2
672.157	6489.21
672.507	6447.18
672.856	6436.1
673.205	6417.8
673.554	6392.49
673.904	6448.98
674.253	6463.9
674.602	6413.05
674.951	6301.42
675.3	6281.98
675.649	6377.35
675.998	6380.28
676.346	6335.77
676.695	6359.95
677.044	6277.91
677.393	6410.57
677.741	6357.91
678.09	6328.53
678.438	6374.86
678.787	6388.19
679.135	6366.27
679.484	6335.99
679.832	6372.15
680.181	6333.96
680.529	6372.83
680.877	6293.96
681.225	6269.55
681.573	6268.87
681.922	6262.32
682.27	6260.29
682.618	6198.37
682.966	6252.6
683.314	6209.89
683.661	6152.27
684.009	6150.23
684.357	6125.6
684.705	6132.83
685.053	6195.66
685.4	6191.59
685.748	6166.05
686.095	6132.16
686.443	6106.85
686.79	6148.2
687.138	6122.21
687.485	6127.41
687.832	6098.48
688.18	6083.57
688.527	6043.12
688.874	6042.44
689.221	5959.5
689.568	6016.45
689.915	5991.37
690.262	5954.08
690.609	5950.69
690.956	5973.74
691.303	5989.33
691.65	5927.19
691.997	5945.27
692.344	5967.19
692.69	5925.38
693.037	5935.1
693.383	5892.39
693.73	5904.14
694.077	5913.63
694.423	5843.12
694.769	5798.6
695.116	5806.97
695.462	5716.8
695.808	5695.78
696.155	5736.91
696.501	5681.55
696.847	5653.75
697.193	5645.39
697.539	5657.59
697.885	5673.86
698.231	5684.48
698.577	5587.08
698.923	5648.55
699.269	5620.98
699.614	5615.56
699.96	5639.96
700.306	5601.1
700.651	5586.41
700.997	5606.75
701.342	5530.14
701.688	5516.8
702.033	5537.82
702.379	5465.73
702.724	5446.98
703.069	5429.12
703.415	5361.33
703.76	5405.85
704.105	5392.29
704.45	5393.64
704.795	5343.7
705.14	5361.55
705.485	5394.77
705.83	5376.69
706.175	5392.74
706.52	5332.18
706.865	5343.25
707.209	5394.1
707.554	5347.09
707.899	5376.02
708.243	5294.89
708.588	5271.84
708.932	5208.34
709.277	5251.27
709.621	5186.87
709.966	5219.86
710.31	5194.1
710.654	5129.92
710.998	5150.94
711.342	5155.91
711.687	5166.53
712.031	5178.28
712.375	5120.88
712.719	5151.39
713.063	5188.23
713.407	5149.13
713.75	5133.76
714.094	5138.06
714.438	5150.49
714.782	5068.68
715.125	5058.29
715.469	5046.76
715.812	4994.33
716.156	5023.26
716.499	5038.4
716.843	4993.43
717.186	4927.22
717.53	5002.02
717.873	4963.15
718.216	4943.49
718.559	4926.09
718.902	4896.26
719.246	4928.12
719.589	4945.07
719.932	4959.53
720.275	4960.89
720.617	4964.73
720.96	5011.96
721.303	4926.31
721.646	4938.97
721.989	4905.07
722.331	4939.87
722.674	4843.38
723.016	4848.35
723.359	4861.45
723.701	4839.76
724.044	4785.07
724.386	4751.4
724.729	4765.19
725.071	4743.04
725.413	4785.3
725.755	4778.52
726.097	4763.6
726.439	4756.82
726.782	4755.47
727.124	4835.47
727.465	4763.6
727.807	4789.14
728.149	4713.21
728.491	4778.97
728.833	4761.57
729.175	4765.86
729.516	4781
729.858	4724.73
730.199	4741.23
730.541	4690.61
730.882	4636.38
731.224	4671.4
731.565	4605.42
731.906	4602.03
732.248	4614.45
732.589	4614.45
732.93	4598.64
733.271	4627.79
733.612	4619.65
733.953	4628.92
734.294	4562.03
734.635	4609.94
734.976	4609.48
735.317	4625.08
735.658	4654
735.999	4628.47
736.339	4619.43
736.68	4621.91
737.021	4589.82
737.361	4568.13
737.702	4602.03
738.042	4532.2
738.383	4505.31
738.723	4532.42
739.063	4484.06
739.404	4494.68
739.744	4463.95
740.084	4447.23
740.424	4498.53
740.764	4460.56
741.104	4469.6
741.444	4446.32
741.784	4433.89
742.124	4499.43
742.464	4429.6
742.804	4447.91
743.143	4471.86
743.483	4484.29
743.823	4526.1
744.162	4416.95
744.502	4493.1
744.841	4468.24
745.181	4423.73
745.52	4408.13
745.86	4380.79
746.199	4339.66
746.538	4335.82
746.877	4338.53
747.216	4338.98
747.556	4318.64
747.895	4375.14
748.234	4282.49
748.573	4299.66
748.911	4283.84
749.25	4275.03
749.589	4275.03
749.928	4313.9
750.267	4292.2
750.605	4317.97
750.944	4271.87
751.283	4333.78
751.621	4306.44
751.96	4280.68
752.298	4284.52
752.636	4276.38
752.975	4273.67
753.313	4207.01
753.651	4251.07
753.989	4207.69
754.327	4171.3
754.666	4150.96
755.004	4168.82
755.342	4138.08
755.679	4125.88
756.017	4120.46
756.355	4106.45
756.693	4112.1
757.031	4059.67
757.368	4102.15
757.706	4103.73
758.044	4072.1
758.381	4116.84
758.719	4123.62
759.056	4129.27
759.394	4109.38
759.731	4086.11
760.068	4065.99
760.405	4068.71
760.743	4107.12
761.08	4040.01
761.417	4005.66
761.754	4036.39
762.091	4004.98
762.428	3973.12
762.765	3954.81
763.102	3929.95
763.438	3880.91
763.775	3865.1
764.112	3911.42
764.449	3916.85
764.785	3878.43
765.122	3899.67
765.458	3882.04
765.795	3852.22
766.131	3856.96
766.467	3840.46
766.804	3832.78
767.14	3870.97
767.476	3853.35
767.812	3796.4
768.148	3820.58
768.485	3807.47
768.821	3818.77
769.157	3796.17
769.492	3733.35
769.828	3772.44
770.164	3743.29
770.5	3700.58
770.836	3719.56
771.171	3669.62
