Data from foam1_polythene_foam_FLMS001491_00054.txt Node
Date: Wed Feb 08 10:55:03 GMT 2017
User: dcchb
Spectrometer: FLMS00149
Trigger mode: 0
Integration Time (sec): 2.000000E-2
Scans to average: 10
Electric dark correction enabled: true
Nonlinearity correction enabled: false
Boxcar width: 0
XAxis mode: Wavelengths
Number of Pixels in Spectrum: 2048
>>>>>Begin Spectral Data<<<<<
341.393	7.91
341.776	7.91
342.16	7.91
342.543	-61.69
342.927	-54.46
343.31	-54.91
343.693	-52.43
344.077	-56.95
344.46	-57.17
344.843	-75.03
345.226	-44.52
345.61	-23.95
345.993	-21.47
346.376	-15.82
346.759	13.56
347.142	7.46
347.525	60.11
347.908	60.11
348.291	67.34
348.674	92.88
349.057	100.79
349.44	127
349.823	163.84
350.206	158.87
350.588	188.24
350.971	211.75
351.354	226.21
351.737	204.29
352.119	239.54
352.502	250.84
352.884	259.2
353.267	269.15
353.65	278.86
354.032	263.04
354.414	300.11
354.797	306.88
355.179	308.01
355.562	316.6
355.944	317.96
356.326	310.73
356.709	333.55
357.091	316.83
357.473	331.97
357.855	331.06
358.238	343.27
358.62	344.4
359.002	325.87
359.384	340.1
359.766	329.26
360.148	349.82
360.53	334.91
360.912	322.7
361.294	323.61
361.676	328.58
362.057	306.66
362.439	327.22
362.821	308.24
363.203	310.73
363.584	291.52
363.966	300.56
364.348	298.75
364.729	303.95
365.111	305.08
365.493	332.19
365.874	279.54
366.256	308.24
366.637	320.44
367.019	308.69
367.4	303.72
367.781	308.92
368.163	311.86
368.544	310.73
368.925	299.65
369.306	307.34
369.688	309.37
370.069	301.24
370.45	309.14
370.831	305.75
371.212	301.69
371.593	293.55
371.974	305.3
372.355	312.53
372.736	324.06
373.117	283.38
373.498	308.92
373.879	317.51
374.26	313.44
374.641	298.07
375.021	317.05
375.402	312.31
375.783	307.56
376.163	302.82
376.544	327
376.925	316.83
377.305	313.21
377.686	329.26
378.066	326.09
378.447	316.38
378.827	335.13
379.208	326.55
379.588	328.35
379.968	317.28
380.349	308.92
380.729	324.29
381.109	337.17
381.489	322.7
381.87	324.74
382.25	319.99
382.63	325.87
383.01	340.56
383.39	341.01
383.77	332.65
384.15	351.86
384.53	367.45
384.91	330.84
385.29	364.28
385.67	349.14
386.049	345.08
386.429	327.67
386.809	323.83
387.189	370.39
387.568	353.66
387.948	341.23
388.328	352.08
388.707	355.92
389.087	354.11
389.466	346.43
389.846	367.45
390.225	352.31
390.605	378.07
390.984	386.66
391.363	365.87
391.743	371.06
392.122	368.58
392.501	386.66
392.881	375.58
393.26	372.65
393.639	375.13
394.018	380.55
394.397	369.71
394.776	351.86
395.155	378.97
395.534	382.59
395.913	386.88
396.292	385.53
396.671	371.06
397.05	382.59
397.429	381.46
397.808	389.59
398.186	393.21
398.565	392.53
398.944	372.19
399.323	411.74
399.701	405.19
400.08	408.58
400.458	392.08
400.837	398.86
401.215	415.13
401.594	401.12
401.972	399.99
402.351	428.69
402.729	429.37
403.107	424.85
403.486	418.52
403.864	417.16
404.242	434.79
404.62	439.76
404.999	418.97
405.377	418.07
405.755	434.56
406.133	423.72
406.511	417.62
406.889	443.83
407.267	426.66
407.645	436.82
408.023	446.77
408.401	436.15
408.779	464.17
409.156	447.67
409.534	461
409.912	455.81
410.29	470.95
410.667	472.98
411.045	472.3
411.422	459.87
411.8	479.99
412.178	488.35
412.555	487.44
412.933	486.99
413.31	505.98
413.687	482.47
414.065	489.93
414.442	513.88
414.819	508.69
415.197	515.24
415.574	545.52
415.951	513.43
416.328	507.56
416.705	519.99
417.082	510.27
417.46	519.99
417.837	527.67
418.214	542.81
418.591	537.84
418.967	540.55
419.344	554.11
419.721	546.88
420.098	555.01
420.475	562.7
420.852	559.31
421.228	552.75
421.605	563.38
421.982	567.44
422.358	582.58
422.735	585.75
423.111	593.2
423.488	577.84
423.864	591.4
424.241	578.06
424.617	609.02
424.994	592.53
425.37	587.78
425.746	594.79
426.123	604.96
426.499	629.81
426.875	613.77
427.251	620.55
427.627	644.73
428.003	652.86
428.379	662.36
428.756	655.12
429.132	648.57
429.507	638.85
429.883	663.03
430.259	698.51
430.635	655.58
431.011	669.36
431.387	698.51
431.763	692.86
432.138	677.95
432.514	700.55
432.89	707.1
433.265	716.82
433.641	738.96
434.016	719.98
434.392	746.65
434.767	759.98
435.143	752.3
435.518	765.18
435.894	755.46
436.269	771.05
436.644	791.84
437.02	805.63
437.395	785.97
437.77	794.78
438.145	821.67
438.52	828.45
438.895	829.58
439.271	827.32
439.646	829.58
440.021	866.87
440.395	861.22
440.77	871.84
441.145	859.64
441.52	855.8
441.895	876.14
442.27	882.24
442.645	891.95
443.019	880.43
443.394	922.91
443.769	914.1
444.143	910.03
444.518	916.59
444.892	934.44
445.267	939.41
445.641	964.72
446.016	970.82
446.39	965.85
446.764	973.76
447.139	976.92
447.513	976.25
447.887	977.15
448.262	1021.44
448.636	999.07
449.01	1020.54
449.384	1009.92
449.758	1057.37
450.132	1039.07
450.506	1051.95
450.88	1061.44
451.254	1078.39
451.628	1061.89
452.002	1043.81
452.376	1082.91
452.75	1100.76
453.123	1090.82
453.497	1113.42
453.871	1129.46
454.244	1148.9
454.618	1133.98
454.992	1156.35
455.365	1164.26
455.739	1190.25
456.112	1204.49
456.486	1211.27
456.859	1193.64
457.232	1267.09
457.606	1239.29
457.979	1214.66
458.352	1258.95
458.725	1248.1
459.099	1250.36
459.472	1276.12
459.845	1277.48
460.218	1304.6
460.591	1299.63
460.964	1306.86
461.337	1346.63
461.71	1338.72
462.083	1365.39
462.456	1340.98
462.829	1377.59
463.201	1396.12
463.574	1392.28
463.947	1411.04
464.32	1419.62
464.692	1415.33
465.065	1452.62
465.438	1465.72
465.81	1480.87
466.183	1484.25
466.555	1514.76
466.928	1500.07
467.3	1526.51
467.672	1541.88
468.045	1577.59
468.417	1578.04
468.789	1601.99
469.161	1618.26
469.534	1673.85
469.906	1670.01
470.278	1672.27
470.65	1709.33
471.022	1742.55
471.394	1710.01
471.766	1760.41
472.138	1771.48
472.51	1800.86
472.882	1817.13
473.253	1860.52
473.625	1885.83
473.997	1883.11
474.369	1919.72
474.74	1942.1
475.112	1969.67
475.484	1964.24
475.855	2033.17
476.227	2046.05
476.598	2054.41
476.97	2096.44
477.341	2119.49
477.713	2158.36
478.084	2165.82
478.455	2251.24
478.827	2259.83
479.198	2306.38
479.569	2314.06
479.94	2369.43
480.311	2396.55
480.682	2430.44
481.053	2456.88
481.424	2525.81
481.795	2522.19
482.166	2547.5
482.537	2601.29
482.908	2596.54
483.279	2659.37
483.65	2715.86
484.021	2752.92
484.391	2791.57
484.762	2789.08
485.133	2799.25
485.503	2860.04
485.874	2930.77
486.244	2979.81
486.615	3025.01
486.985	3027.27
487.356	3100.26
487.726	3123.31
488.097	3174.61
488.467	3197.66
488.837	3254.6
489.207	3288.05
489.578	3347.93
489.948	3359.23
490.318	3372.57
490.688	3408.5
491.058	3510.87
491.428	3529.4
491.798	3569.62
492.168	3632.22
492.538	3646.01
492.908	3704.99
493.278	3724.65
493.648	3749.05
494.017	3783.4
494.387	3853.91
494.757	3874.47
495.126	3922.16
495.496	3911.76
495.866	3958.31
496.235	3966.22
496.605	4012.1
496.974	4053.23
497.344	4068.82
497.713	4083.96
498.082	4181.13
498.452	4181.36
498.821	4216.16
499.19	4239.44
499.559	4236.5
499.928	4277.85
500.298	4303.62
500.667	4359.89
501.036	4391.75
501.405	4389.94
501.774	4404.18
502.143	4509.26
502.512	4522.59
502.88	4544.51
503.249	4570.05
503.618	4580.9
503.987	4605.98
504.356	4654.34
504.724	4692.08
505.093	4702.93
505.462	4715.13
505.83	4804.17
506.199	4797.39
506.567	4889.59
506.936	4871.28
507.304	4899.08
507.672	4946.08
508.041	4976.59
508.409	5016.59
508.777	5072.18
509.145	5074.44
509.514	5090.71
509.882	5139.53
510.25	5163.48
510.618	5246.42
510.986	5273.99
511.354	5302.01
511.722	5325.28
512.09	5348.79
512.458	5400.99
512.826	5422
513.193	5430.37
513.561	5457.03
513.929	5550.81
514.297	5570.25
514.664	5580.64
515.032	5629.68
515.4	5702.22
515.767	5766.85
516.135	5793.52
516.502	5774.54
516.869	5869
517.237	5912.61
517.604	5916
517.972	5957.13
518.339	5953.06
518.706	6010.69
519.073	6026.51
519.44	6103.34
519.808	6172.49
520.175	6123.23
520.542	6223.79
520.909	6275.77
521.276	6312.15
521.643	6398.25
522.009	6436.21
522.376	6478.47
522.743	6514.63
523.11	6556.66
523.477	6567.74
523.843	6658.13
524.21	6797.56
524.577	6849.76
524.943	6839.37
525.31	6934.96
525.676	6942.87
526.043	6958.24
526.409	7008.63
526.776	7019.93
527.142	7083.66
527.508	7141.06
527.874	7229.87
528.241	7289.07
528.607	7263.09
528.973	7361.61
529.339	7373.59
529.705	7392.12
530.071	7459.46
530.437	7548.5
530.803	7583.08
531.169	7671.21
531.535	7643.64
531.901	7679.8
532.267	7729.29
532.632	7754.15
532.998	7848.16
533.364	7867.59
533.73	7805.22
534.095	7997.76
534.461	7995.95
534.826	7983.52
535.192	8012.9
535.557	8103.52
535.923	8051.31
536.288	8174.25
536.653	8170.41
537.019	8131.31
537.384	8235.94
537.749	8260.57
538.114	8290.86
538.479	8299.67
538.845	8358.65
539.21	8362.27
539.575	8407.46
539.94	8435.26
540.305	8478.87
540.67	8482.04
541.034	8514.13
541.399	8602.94
541.764	8630.51
542.129	8588.93
542.494	8709.15
542.858	8652.88
543.223	8721.13
543.587	8763.39
543.952	8642.26
544.316	8751.18
544.681	8788.24
545.045	8845.19
545.41	8872.08
545.774	8902.82
546.138	8910.73
546.503	8986.2
546.867	8994.79
547.231	9027.33
547.595	9067.33
547.959	9121.57
548.324	9038.63
548.688	9104.17
549.052	9155.92
549.416	9211.96
549.779	9284.73
550.143	9268.46
550.507	9276.37
550.871	9388.68
551.235	9347.55
551.599	9446.31
551.962	9461.9
552.326	9470.94
552.689	9499.64
553.053	9477.04
553.417	9525.63
553.78	9692.85
554.143	9695.79
554.507	9715.45
554.87	9696.02
555.234	9826.41
555.597	9774.21
555.96	9777.82
556.323	9866.63
556.686	9823.47
557.05	9970.13
557.413	9992.05
557.776	9985.73
558.139	10095.78
558.502	10037.25
558.865	10084.93
559.228	10230.01
559.59	10220.07
559.953	10237.7
560.316	10349.33
560.679	10311.37
561.041	10397.47
561.404	10486.28
561.767	10551.59
562.129	10553.17
562.492	10628.65
562.854	10605.14
563.217	10688.31
563.579	10729.89
563.941	10690.57
564.304	10788.19
564.666	10832.03
565.028	10860.28
565.39	10962.88
565.753	11006.94
566.115	11135.75
566.477	11183.66
566.839	11201.51
567.201	11190.89
567.563	11201.51
567.925	11306.14
568.287	11278.57
568.648	11273.6
569.01	11427.95
569.372	11458.91
569.734	11422.07
570.095	11486.25
570.457	11600.37
570.819	11576.19
571.18	11562.41
571.542	11718.34
571.903	11789.75
572.265	11754.95
572.626	11774.38
572.987	11738
573.349	11842.4
573.71	11863.42
574.071	11914.71
574.432	11881.72
574.794	11994.71
575.155	11982.28
575.516	12013.7
575.877	12118.55
576.238	12054.6
576.599	12110.87
576.96	12162.39
577.32	12149.06
577.681	12248.72
578.042	12207.81
578.403	12259.79
578.763	12175.27
579.124	12276.74
579.485	12332.11
579.845	12293.01
580.206	12337.98
580.566	12337.98
580.927	12387.02
581.287	12422.72
581.648	12417.98
582.008	12418.43
582.368	12389.05
582.728	12413.68
583.089	12440.35
583.449	12337.53
583.809	12486.68
584.169	12419.33
584.529	12386.34
584.889	12543.62
585.249	12476.73
585.609	12451.42
585.969	12571.42
586.329	12530.97
586.688	12534.36
587.048	12561.48
587.408	12530.07
587.768	12455.27
588.127	12533.46
588.487	12444.64
588.846	12524.64
589.206	12428.15
589.565	12415.72
589.925	12520.35
590.284	12494.13
590.643	12564.64
591.003	12643.74
591.362	12517.86
591.721	12562.83
592.08	12524.87
592.44	12524.19
592.799	12581.59
593.158	12599.22
593.517	12597.41
593.876	12545.66
594.235	12564.42
594.593	12518.54
594.952	12558.09
595.311	12552.66
595.67	12582.49
596.029	12794.92
596.387	12728.93
596.746	12708.82
597.104	12702.72
597.463	12631.31
597.822	12702.04
598.18	12583.85
598.538	12619.78
598.897	12722.6
599.255	12586.34
599.613	12728.48
599.972	12586.11
600.33	12695.49
600.688	12744.98
601.046	12872.88
601.404	12825.2
601.762	12834.01
602.12	12828.82
602.478	12821.36
602.836	12845.76
603.194	12813.45
603.552	12843.5
603.91	12751.53
604.268	12775.48
604.625	12767.57
604.983	12798.99
605.341	12759.66
605.698	12972.99
606.056	12944.52
606.413	12842.6
606.771	12965.53
607.128	12984.52
607.485	12997.62
607.843	12889.38
608.2	13045.53
608.557	13041.47
608.914	12973.67
609.272	13001.47
609.629	13009.6
609.986	13113.78
610.343	12995.82
610.7	13125.3
611.057	13154.68
611.414	13067.9
611.771	13141.35
612.127	13163.27
612.484	13154.68
612.841	13174.12
613.198	13119.88
613.554	13097.96
613.911	13205.75
614.267	13274.23
614.624	13184.74
614.98	13194.23
615.337	13142.03
615.693	13284.62
616.05	13242.36
616.406	13327.33
616.762	13325.75
617.118	13210.95
617.475	13187.9
617.831	13341.34
618.187	13321.23
618.543	13391.06
618.899	13492.07
619.255	13396.71
619.611	13353.32
619.967	13424.05
620.323	13424.96
620.678	13371.85
621.034	13359.42
621.39	13386.31
621.746	13292.08
622.101	13601.9
622.457	13434
622.812	13446.88
623.168	13492.53
623.523	13462.92
623.879	13398.07
624.234	13368.91
624.589	13430.38
624.945	13397.16
625.3	13396.26
625.655	13370.5
626.01	13404.17
626.365	13389.48
626.72	13356.94
627.075	13398.74
627.43	13392.19
627.785	13366.43
628.14	13423.83
628.495	13349.93
628.85	13377.95
629.205	13349.71
629.559	13461.79
629.914	13294.57
630.269	13286.88
630.623	13282.81
630.978	13302.93
631.332	13299.76
631.687	13345.41
632.041	13187
632.396	13301.12
632.75	13192.65
633.104	13178.86
633.459	13184.74
633.813	13248.92
634.167	13207.11
634.521	13233.78
634.875	13232.42
635.229	13186.32
635.583	13075.59
635.937	13118.75
636.291	13082.59
636.645	13073.55
636.999	13056.15
637.352	13061.8
637.706	12956.5
638.06	13076.49
638.413	13004.63
638.767	13048.7
639.121	12973.67
639.474	12938.87
639.828	12940.22
640.181	12991.97
640.534	12935.93
640.888	12926.44
641.241	12902.26
641.594	12868.81
641.947	12881.47
642.301	12898.19
642.654	12852.54
643.007	12877.18
643.36	12819.78
643.713	12818.19
644.066	12801.92
644.419	12714.24
644.771	12715.6
645.124	12668.37
645.477	12604.19
645.83	12551.76
646.182	12396.96
646.535	12432.44
646.888	12394.25
647.24	12268.15
647.593	12352.9
647.945	12295.72
648.298	12281.26
648.65	12281.26
649.002	12221.15
649.355	12247.36
649.707	12232.45
650.059	12283.74
650.411	12455.04
650.763	12431.31
651.115	12514.93
651.467	12411.65
651.819	12623.85
652.171	12467.47
652.523	12408.49
652.875	12413.23
653.227	12364.42
653.578	12477.41
653.93	12424.53
654.282	12397.64
654.633	12401.48
654.985	12312.67
655.337	12372.78
655.688	12311.31
656.039	12362.39
656.391	12241.03
656.742	12243.97
657.094	12335.72
657.445	12356.06
657.796	12289.39
658.147	12287.13
658.498	12288.72
658.849	12316.96
659.2	12295.04
659.551	12256.63
659.902	12277.87
660.253	12274.71
660.604	12298.21
660.955	12252.56
661.306	12304.76
661.656	12243.07
662.007	12224.76
662.358	12286.46
662.708	12237.87
663.059	12213.24
663.409	12099.57
663.76	12223.63
664.11	12131.66
664.461	12113.35
664.811	12201.49
665.161	12117.65
665.511	12109.51
665.862	12164.65
666.212	12196.06
666.562	12164.88
666.912	12139.79
667.262	12132.79
667.612	12158.32
667.962	12173.01
668.312	12173.47
668.662	12125.56
669.011	12112.68
669.361	12043.75
669.711	12120.36
670.06	12012.34
670.41	11999.23
670.76	12022.73
671.109	12058.44
671.459	12027.25
671.808	11989.74
672.157	12007.37
672.507	11965.56
672.856	11994.49
673.205	12067.93
673.554	12066.58
673.904	12059.8
674.253	12059.34
674.602	11994.94
674.951	11842.17
675.3	11799.46
675.649	11987.03
675.998	11905.45
676.346	11877.65
676.695	12021.83
677.044	11857.99
677.393	11864.09
677.741	11994.49
678.09	11853.7
678.438	11740.48
678.787	11920.36
679.135	11790.65
679.484	11797.43
679.832	11821.38
680.181	11749.75
680.529	11840.59
680.877	11773.48
681.225	11794.94
681.573	11897.99
681.922	11805.57
682.27	11806.7
682.618	11721.73
682.966	11696.19
683.314	11680.6
683.661	11619.36
684.009	11596.31
684.357	11527.15
684.705	11561.5
685.053	11554.27
685.4	11488.06
685.748	11446.48
686.095	11471.79
686.443	11417.33
686.79	11394.95
687.138	11424.56
687.485	11426.37
687.832	11337.56
688.18	11433.82
688.527	11355.41
688.874	11352.7
689.221	11307.95
689.568	11306.6
689.915	11220.27
690.262	11300.27
690.609	11180.05
690.956	11139.82
691.303	11160.84
691.65	11043.55
691.997	11069.99
692.344	11006.94
692.69	10919.71
693.037	11029.31
693.383	10915.87
693.73	10903.22
694.077	10891.01
694.423	10987.06
694.769	10883.33
695.116	10851.92
695.462	10835.65
695.808	10793.84
696.155	10836.1
696.501	10737.8
696.847	10757.23
697.193	10688.31
697.539	10639.49
697.885	10601.98
698.231	10579.83
698.577	10527.41
698.923	10525.37
699.269	10488.09
699.614	10392.95
699.96	10397.47
700.306	10445.15
700.651	10470.01
700.997	10355.43
701.342	10384.81
701.688	10321.76
702.033	10398.82
702.379	10294.64
702.724	10328.32
703.069	10314.08
703.415	10180.3
703.76	10117.47
704.105	10136.23
704.45	10156.34
704.795	10082.22
705.14	10044.03
705.485	10034.09
705.83	10004.48
706.175	9899.17
706.52	9954.54
706.865	9949.79
707.209	9936.46
707.554	9894.66
707.899	9898.72
708.243	9891.27
708.588	9879.74
708.932	9773.75
709.277	9852.62
709.621	9849.46
709.966	9766.52
710.31	9789.12
710.654	9688.33
710.998	9643.36
711.342	9645.4
711.687	9653.08
712.031	9572.4
712.375	9573.76
712.719	9537.15
713.063	9548.68
713.407	9533.53
713.75	9481.78
714.094	9496.02
714.438	9461.22
714.782	9476.81
715.125	9480.88
715.469	9504.16
715.812	9453.99
716.156	9366.76
716.499	9392.75
716.843	9413.54
717.186	9345.07
717.53	9377.61
717.873	9384.16
718.216	9363.82
718.559	9294.22
718.902	9246.99
719.246	9256.03
719.589	9152.08
719.932	9199.76
720.275	9164.05
720.617	9169.48
720.96	9113.66
721.303	9064.62
721.646	9103.04
721.989	9030.5
722.331	9109.14
722.674	9087.67
723.016	9077.5
723.359	9044.28
723.701	9109.36
724.044	9028.92
724.386	9015.81
724.729	9002.93
725.071	9007.22
725.413	9008.8
725.755	8958.41
726.097	8957.05
726.439	8858.98
726.782	8874.34
727.124	8901.01
727.465	8880.22
727.807	8859.88
728.149	8788.02
728.491	8821.46
728.833	8808.13
729.175	8794.57
729.516	8799.09
729.858	8785.31
730.199	8819.43
730.541	8704.63
730.882	8693.56
731.224	8753.89
731.565	8706.21
731.906	8744.4
732.248	8749.15
732.589	8697.85
732.93	8678.64
733.271	8658.76
733.612	8688.81
733.953	8696.72
734.294	8728.58
734.635	8616.95
734.976	8661.69
735.317	8525.65
735.658	8514.8
735.999	8535.59
736.339	8488.82
736.68	8530.85
737.021	8515.03
737.361	8450.85
737.702	8442.04
738.042	8490.85
738.383	8449.27
738.723	8533.33
739.063	8440.91
739.404	8500.57
739.744	8454.47
740.084	8473.9
740.424	8459.44
740.764	8449.27
741.104	8374.24
741.444	8314.58
741.784	8359.1
742.124	8439.33
742.464	8331.98
742.804	8326.33
743.143	8342.61
743.483	8260.8
743.823	8207.24
744.162	8241.14
744.502	8198.2
744.841	8159.11
745.181	8207.24
745.52	8181.48
745.86	8167.92
746.199	8207.47
746.538	8162.5
746.877	8222.16
747.216	8245.21
747.556	8200.69
747.895	8184.42
748.234	8106
748.573	8145.32
748.911	8162.95
749.25	8120.01
749.589	8046.57
749.928	8074.82
750.267	8058.55
750.605	8092.22
750.944	8066.68
751.283	7914.37
751.621	7964.08
751.96	7907.59
752.298	7915.27
752.636	7960.24
752.975	7879.34
753.313	7809.06
753.651	7847.03
753.989	7837.76
754.327	7855.84
754.666	7787.82
755.004	7810.87
755.342	7834.37
755.679	7786.69
756.017	7778.33
756.355	7757.99
756.693	7787.59
757.031	7767.48
757.368	7718.44
757.706	7679.57
758.044	7682.74
758.381	7699.46
758.719	7687.26
759.056	7654.49
759.394	7584.21
759.731	7520.03
760.068	7509.86
760.405	7511.21
760.743	7459.46
761.08	7431.67
761.417	7387.15
