Data from foam2_polystyrene_foam_FLMS001491_00099.txt Node
Date: Wed Feb 08 10:58:48 GMT 2017
User: dcchb
Spectrometer: FLMS00149
Trigger mode: 0
Integration Time (sec): 2.000000E-2
Scans to average: 10
Electric dark correction enabled: true
Nonlinearity correction enabled: false
Boxcar width: 0
XAxis mode: Wavelengths
Number of Pixels in Spectrum: 2048
>>>>>Begin Spectral Data<<<<<
341.393	-5.2
341.776	-5.2
342.16	-5.2
342.543	-48.59
342.927	-52.2
343.31	-71.18
343.693	-55.59
344.077	-72.54
344.46	-48.81
344.843	-47.46
345.226	-45.87
345.61	-55.82
345.993	-36.61
346.376	-14.46
346.759	3.16
347.142	23.95
347.525	46.1
347.908	63.05
348.291	79.32
348.674	116.61
349.057	116.16
349.44	138.53
349.823	122.26
350.206	153.44
350.588	191.86
350.971	196.61
351.354	221.46
351.737	218.3
352.119	253.33
352.502	258.98
352.884	278.18
353.267	282.48
353.65	293.33
354.032	289.03
354.414	334.91
354.797	297.17
355.179	323.38
355.562	338.97
355.944	316.83
356.326	334.23
356.709	328.35
357.091	321.35
357.473	349.6
357.855	355.7
358.238	350.5
358.62	346.43
359.002	346.21
359.384	349.6
359.766	347.79
360.148	350.95
360.53	374
360.912	345.75
361.294	323.38
361.676	347.79
362.057	343.04
362.439	330.39
362.821	331.74
363.203	350.5
363.584	340.33
363.966	333.1
364.348	319.31
364.729	297.85
365.111	331.06
365.493	329.93
365.874	330.84
366.256	320.22
366.637	322.03
367.019	338.07
367.4	332.65
367.781	312.76
368.163	346.21
368.544	316.6
368.925	325.42
369.306	335.58
369.688	325.87
370.069	338.52
370.45	334.45
370.831	342.82
371.212	331.06
371.593	321.57
371.974	353.89
372.355	329.48
372.736	335.81
373.117	341.23
373.498	340.1
373.879	337.39
374.26	338.97
374.641	352.53
375.021	308.92
375.402	346.21
375.783	352.76
376.163	371.29
376.544	357.96
376.925	366.77
377.305	348.47
377.686	350.95
378.066	349.6
378.447	359.76
378.827	365.41
379.208	353.21
379.588	372.19
379.968	363.61
380.349	377.62
380.729	380.33
381.109	389.82
381.489	396.83
381.87	371.29
382.25	388.46
382.63	381.91
383.01	383.04
383.39	389.14
383.77	381.46
384.15	385.75
384.53	387.33
384.91	407.22
385.29	404.96
385.67	416.03
386.049	425.98
386.429	417.62
386.809	423.94
387.189	415.36
387.568	421.68
387.948	420.55
388.328	422.59
388.707	427.56
389.087	442.02
389.466	401.35
389.846	439.54
390.225	449.71
390.605	456.03
390.984	455.13
391.363	444.28
391.743	456.71
392.122	476.82
392.501	453.32
392.881	453.32
393.26	454.23
393.639	478.86
394.018	466.2
394.397	457.16
394.776	475.02
395.155	485.18
395.534	503.26
395.913	486.31
396.292	483.83
396.671	497.16
397.05	511.62
397.429	514.56
397.808	475.02
398.186	494.68
398.565	499.87
398.944	498.97
399.323	534
399.701	519.31
400.08	529.48
400.458	526.09
400.837	535.13
401.215	551.17
401.594	554.56
401.972	533.55
402.351	545.75
402.729	571.06
403.107	562.92
403.486	568.57
403.864	555.01
404.242	555.01
404.62	558.18
404.999	581.91
405.377	589.36
405.755	592.07
406.133	594.79
406.511	600.44
406.889	622.13
407.267	618.74
407.645	626.42
408.023	670.72
408.401	626.2
408.779	639.31
409.156	656.25
409.534	629.14
409.912	656.71
410.29	674.11
410.667	672.98
411.045	681.34
411.422	666.2
411.8	661.45
412.178	697.16
412.555	710.72
412.933	703.26
413.31	721.56
413.687	724.5
414.065	726.31
414.442	722.92
414.819	734.67
415.197	748.68
415.574	750.71
415.951	775.35
416.328	780.32
416.705	771.73
417.082	782.13
417.46	785.97
417.837	794.33
418.214	786.65
418.591	839.98
418.967	813.09
419.344	808.79
419.721	851.73
420.098	822.35
420.475	849.24
420.852	848.57
421.228	864.38
421.605	856.02
421.982	842.24
422.358	876.81
422.735	887.66
423.111	895.57
423.488	909.58
423.864	908.68
424.241	929.24
424.617	927.89
424.994	952.52
425.37	960.88
425.746	954.33
426.123	950.48
426.499	980.77
426.875	968.79
427.251	979.64
427.627	1018.28
428.003	1002.91
428.379	1021.67
428.756	1049.24
429.132	1048.11
429.507	1061.67
429.883	1080.65
430.259	1096.02
430.635	1075.9
431.011	1097.82
431.387	1124.04
431.763	1158.16
432.138	1169.01
432.514	1178.95
432.89	1172.17
433.265	1192.74
433.641	1244.26
434.016	1220.98
434.392	1248.1
434.767	1259.63
435.143	1268.22
435.518	1298.27
435.894	1278.16
436.269	1292.85
436.644	1304.37
437.02	1321.32
437.395	1352.73
437.77	1355.22
438.145	1364.26
438.52	1399.74
438.895	1403.58
439.271	1419.17
439.646	1442.67
440.021	1448.1
440.395	1449.68
440.77	1426.18
441.145	1480.19
441.52	1501.66
441.895	1497.14
442.27	1504.14
442.645	1498.04
443.019	1564.25
443.394	1571.26
443.769	1541.2
444.143	1552.95
444.518	1597.92
444.892	1590.69
445.267	1599.28
445.641	1605.16
446.016	1611.94
446.39	1655.55
446.764	1644.7
447.139	1652.84
447.513	1637.7
447.887	1671.82
448.262	1719.05
448.636	1711.82
449.01	1741.65
449.384	1751.37
449.758	1749.11
450.132	1789.33
450.506	1773.06
450.88	1775.77
451.254	1784.13
451.628	1838.37
452.002	1840.18
452.376	1839.05
452.75	1861.65
453.123	1889.44
453.497	1904.36
453.871	1918.14
454.244	1955.65
454.618	1971.7
454.992	1974.86
455.365	1991.59
455.739	2041.75
456.112	2087.63
456.486	2084.69
456.859	2098.02
457.232	2124.92
457.606	2128.53
457.979	2145.71
458.352	2190.9
458.725	2198.36
459.099	2243.1
459.472	2246.49
459.845	2275.87
460.218	2292.6
460.591	2299.37
460.964	2274.97
461.337	2378.24
461.71	2367.62
462.083	2444.23
462.456	2457.11
462.829	2460.95
463.201	2480.16
463.574	2490.56
463.947	2520.16
464.32	2580.95
464.692	2593.38
465.065	2582.76
465.438	2654.17
465.81	2687.39
466.183	2725.13
466.555	2724.9
466.928	2802.41
467.3	2790.21
467.672	2817.55
468.045	2874.73
468.417	2862.98
468.789	2897.55
469.161	2933.71
469.534	2973.71
469.906	3040.37
470.278	3061.39
470.65	3112.01
471.022	3189.75
471.394	3206.47
471.766	3224.77
472.138	3279.46
472.51	3309.74
472.882	3366.01
473.253	3382.28
473.625	3486.91
473.997	3541.15
474.369	3572.34
474.74	3548.61
475.112	3638.1
475.484	3720.58
475.855	3740.92
476.227	3795.15
476.598	3884.64
476.97	3911.76
477.341	4020.91
477.713	4060.46
478.084	4097.07
478.455	4192.21
478.827	4232.66
479.198	4328.25
479.569	4403.5
479.94	4450.73
480.311	4473.33
480.682	4598.98
481.053	4678.52
481.424	4813.66
481.795	4831.06
482.166	4860.66
482.537	4949.25
482.908	5044.16
483.279	5062.69
483.65	5147.89
484.021	5330.71
484.391	5313.08
484.762	5384.72
485.133	5420.87
485.503	5498.39
485.874	5629.23
486.244	5739.51
486.615	5815.89
486.985	5853.41
487.356	5895.66
487.726	6011.37
488.097	6112.61
488.467	6153.06
488.837	6307.4
489.207	6397.57
489.578	6453.16
489.948	6513.05
490.318	6513.28
490.688	6539.49
491.058	6743.55
491.428	6821.52
491.798	6876.43
492.168	6976.54
492.538	7007.73
492.908	7105.8
493.278	7218.57
493.648	7217.44
494.017	7316.42
494.387	7381.95
494.757	7445
495.126	7526.13
495.496	7572.46
495.866	7590.53
496.235	7723.41
496.605	7798.89
496.974	7855.16
497.344	7924.09
497.713	7947.81
498.082	8014.25
498.452	8140.8
498.821	8080.24
499.19	8205.43
499.559	8224.87
499.928	8297.86
500.298	8401.81
500.667	8497.4
501.036	8519.32
501.405	8492.66
501.774	8594.12
502.143	8652.43
502.512	8673.9
502.88	8755.25
503.249	8839.99
503.618	8869.6
503.987	8909.6
504.356	8992.08
504.724	9010.38
505.093	9148.46
505.462	9148.23
505.83	9201.79
506.199	9314.56
506.567	9384.84
506.936	9406.31
507.304	9545.51
507.672	9551.84
508.041	9633.87
508.409	9741.89
508.777	9815.34
509.145	9850.14
509.514	9937.82
509.882	9964.03
510.25	10009.91
510.618	10087.87
510.986	10140.52
511.354	10233.4
511.722	10235.66
512.09	10391.82
512.458	10436.56
512.826	10489.44
513.193	10530.12
513.561	10646.27
513.929	10695.54
514.297	10836.55
514.664	10869.09
515.032	10879.04
515.4	11010.78
515.767	11017.34
516.135	11159.71
516.502	11095.98
516.869	11286.93
517.237	11310.66
517.604	11355.41
517.972	11483.09
518.339	11501.39
518.706	11661.61
519.073	11735.06
519.44	11738.67
519.808	11922.4
520.175	11861.83
520.542	12079.91
520.909	12130.53
521.276	12178.21
521.643	12255.95
522.009	12374.82
522.376	12515.83
522.743	12593.57
523.11	12682.15
523.477	12751.08
523.843	12857.97
524.21	12961.92
524.577	13091.86
524.943	13109.03
525.31	13229.03
525.676	13365.98
526.043	13430.61
526.409	13530.04
526.776	13689.81
527.142	13668.57
527.508	13726.64
527.874	13924.15
528.241	13989.91
528.607	13998.28
528.973	14138.16
529.339	14236.46
529.705	14249.79
530.071	14424.71
530.437	14395.55
530.803	14578.6
531.169	14694.75
531.535	14595.1
531.901	14662.21
532.267	14739.05
532.632	14879.16
532.998	14975.2
533.364	14997.57
533.73	15101.75
534.095	15193.95
534.461	15235.31
534.826	15324.12
535.192	15391.46
535.557	15474.4
535.923	15535.64
536.288	15564.79
536.653	15638.91
537.019	15631.45
537.384	15725.46
537.749	15793.26
538.114	15811.11
538.479	15789.42
538.845	15913.48
539.21	15997.09
539.575	16048.62
539.94	16115.28
540.305	16240.93
540.67	16232.12
541.034	16296.75
541.399	16315.05
541.764	16382.17
542.129	16438.44
542.494	16539.68
542.858	16598.43
543.223	16597.98
543.587	16694.7
543.952	16698.77
544.316	16836.85
544.681	16742.61
545.045	16842.49
545.41	16903.28
545.774	17064.18
546.138	17093.11
546.503	17060.57
546.867	17067.12
547.231	17259.89
547.595	17281.13
547.959	17325.42
548.324	17358.87
548.688	17454
549.052	17531.52
549.416	17638.41
549.779	17549.82
550.143	17677.95
550.507	17827.33
550.871	17826.2
551.235	17790.27
551.599	18015.35
551.962	17995.01
552.326	18026.42
552.689	18222.35
553.053	18202.01
553.417	18217.83
553.78	18515.9
554.143	18394.77
554.507	18582.56
554.87	18622.11
555.234	18828.43
555.597	18659.85
555.96	18851.26
556.323	18897.58
556.686	18797.47
557.05	19104.13
557.413	19192.94
557.776	19165.6
558.139	19270
558.502	19328.31
558.865	19503.89
559.228	19674.74
559.59	19691.23
559.953	19636.32
560.316	19971.23
560.679	19860.72
561.041	19959.7
561.404	20182.29
561.767	20222.07
562.129	20215.74
562.492	20415.28
562.854	20414.83
563.217	20426.81
563.579	20514.71
563.941	20747.48
564.304	20846.46
564.666	20973.23
565.028	21173.91
565.39	21119.67
565.753	21197.41
566.115	21281.7
566.477	21365.09
566.839	21561.24
567.201	21650.28
567.563	21605.76
567.925	21766.66
568.287	21722.82
568.648	21882.81
569.01	21973.43
569.372	22093.43
569.734	22048.01
570.095	22307.89
570.457	22320.09
570.819	22363.93
571.18	22418.85
571.542	22546.75
571.903	22582.46
572.265	22672.62
572.626	22789.23
572.987	22770.7
573.349	22857.48
573.71	22929.57
574.071	22997.14
574.432	23083.23
574.794	23230.58
575.155	23161.65
575.516	23264.25
575.877	23233.51
576.238	23403
576.599	23423.11
576.96	23379.5
577.32	23525.71
577.681	23591.92
578.042	23646.38
578.403	23579.72
578.763	23635.99
579.124	23685.48
579.485	23826.49
579.845	23843.67
580.206	23845.93
580.566	24036.2
580.927	23952.14
581.287	23977.67
581.648	23765.48
582.008	24110.55
582.368	23901.97
582.728	24042.31
583.089	23968.18
583.449	23980.16
583.809	24058.35
584.169	24215.86
584.529	24141.51
584.889	24254.28
585.249	24054.73
585.609	24107.16
585.969	24157.33
586.329	24154.62
586.688	24231.45
587.048	24236.88
587.408	24173.83
587.768	24302.86
588.127	24202.3
588.487	24136.77
588.846	24368.17
589.206	24204.79
589.565	24301.73
589.925	24438.45
590.284	24258.57
590.643	24241.4
591.003	24346.93
591.362	24378.57
591.721	24430.77
592.08	24197.33
592.44	24397.1
592.799	24382.86
593.158	24415.4
593.517	24407.95
593.876	24396.42
594.235	24495.18
594.593	24468.96
594.952	24482.07
595.311	24334.05
595.67	24392.13
596.029	24593.03
596.387	24578.79
596.746	24532.91
597.104	24507.6
597.463	24535.85
597.822	24525.68
598.18	24551.22
598.538	24618.79
598.897	24741.72
599.255	24456.08
599.613	24879.8
599.972	24696.3
600.33	24730.2
600.688	24625.34
601.046	24772.91
601.404	24762.29
601.762	24747.82
602.12	24976.74
602.478	24851.32
602.836	24829.4
603.194	24802.29
603.552	24833.25
603.91	24762.51
604.268	24938.78
604.625	24883.64
604.983	24953.47
605.341	24867.59
605.698	25031.66
606.056	24958.67
606.413	24988.95
606.771	24993.69
607.128	25148.49
607.485	25019.23
607.843	24906.69
608.2	25016.97
608.557	25161.37
608.914	25107.36
609.272	25284.31
609.629	25293.8
609.986	25277.98
610.343	25196.17
610.7	25364.08
611.057	25282.95
611.414	25320.01
611.771	25278.88
612.127	25423.06
612.484	25407.02
612.841	25540.8
613.198	25451.76
613.554	25371.76
613.911	25493.79
614.267	25460.8
614.624	25482.72
614.98	25624.19
615.337	25641.81
615.693	25630.29
616.05	25615.15
616.406	25739.21
616.762	25674.35
617.118	25576.95
617.475	25644.52
617.831	25675.03
618.187	25710.06
618.543	25782.6
618.899	25851.52
619.255	25827.12
619.611	25721.13
619.967	25877.29
620.323	25881.13
620.678	25843.16
621.034	25679.1
621.39	25599.33
621.746	25658.99
622.101	26004.29
622.457	25926.32
622.812	25906.44
623.168	25795.71
623.523	25853.11
623.879	25900.34
624.234	25745.54
624.589	25881.58
624.945	25791.64
625.3	25771.75
625.655	25784.41
626.01	25783.5
626.365	25882.48
626.72	25761.81
627.075	25737.63
627.43	25771.98
627.785	25592.1
628.14	25729.72
628.495	25589.84
628.85	25631.64
629.205	25567.92
629.559	25725.65
629.914	25568.37
630.269	25619.44
630.623	25436.85
630.978	25471.19
631.332	25448.37
631.687	25565.2
632.041	25444.3
632.396	25510.74
632.75	25311.2
633.104	25418.99
633.459	25244.08
633.813	25220.13
634.167	25241.82
634.521	25205.66
634.875	25262.39
635.229	25134.03
635.583	25086.57
635.937	25155.72
636.291	25144.65
636.645	25045.44
636.999	24952.11
637.352	25128.15
637.706	24776.3
638.06	24983.75
638.413	24856.75
638.767	24872.11
639.121	24860.14
639.474	24677.32
639.828	24814.94
640.181	24791.66
640.534	24730.2
640.888	24714.38
641.241	24567.49
641.594	24523.42
641.947	24553.48
642.301	24514.61
642.654	24559.13
643.007	24537.89
643.36	24466.93
643.713	24365.01
644.066	24384.67
644.419	24276.42
644.771	24071.46
645.124	23869.88
645.477	23901.07
645.83	23694.29
646.182	23553.96
646.535	23498.14
646.888	23588.31
647.24	23350.8
647.593	23601.87
647.945	23492.49
648.298	23339.5
648.65	23384.47
649.002	23229.67
649.355	23316.22
649.707	23264.92
650.059	23311.48
650.411	23617.91
650.763	23746.04
651.115	23987.84
651.467	23896.09
651.819	23844.34
652.171	23798.47
652.523	23750.56
652.875	23677.12
653.227	23587.85
653.578	23737.91
653.93	23609.77
654.282	23516.44
654.633	23472.6
654.985	23491.13
655.337	23562.54
655.688	23494.52
656.039	23571.36
656.391	23340.86
656.742	23486.16
657.094	23377.69
657.445	23537.69
657.796	23365.26
658.147	23335.66
658.498	23337.47
658.849	23388.54
659.2	23380.4
659.551	23150.35
659.902	23292.04
660.253	23283.91
660.604	23265.83
660.955	23215.66
661.306	23330.46
661.656	23264.47
662.007	23292.95
662.358	23297.92
662.708	23271.03
663.059	23255.43
663.409	22991.71
663.76	23217.69
664.11	23138.6
664.461	23321.65
664.811	23158.49
665.161	23152.16
665.511	23045.95
665.862	23185.38
666.212	23165.94
666.562	23032.39
666.912	23062.9
667.262	23033.52
667.612	23097.02
667.962	23078.04
668.312	23055.89
668.662	23126.62
669.011	23133.85
669.361	23017.25
669.711	22914.2
670.06	22915.56
670.41	22840.76
670.76	22862.68
671.109	23027.42
671.459	22982.9
671.808	22937.02
672.157	22945.84
672.507	22866.29
672.856	22754.2
673.205	22805.28
673.554	22879.17
673.904	22834.43
674.253	22948.1
674.602	22760.98
674.951	22527.32
675.3	22426.08
675.649	22798.72
675.998	22694.77
676.346	22727.31
676.695	22841.21
677.044	22596.69
677.393	22719.85
677.741	22713.98
678.09	22699.29
678.438	22462.69
678.787	22598.05
679.135	22705.62
679.484	22477.38
679.832	22613.42
680.181	22384.95
680.529	22493.19
680.877	22407.09
681.225	22411.84
681.573	22575
681.922	22341.11
682.27	22204.39
682.618	22338.62
682.966	22235.8
683.314	22342.24
683.661	22203.03
684.009	22043.04
684.357	22078.06
684.705	21999.42
685.053	22057.5
685.4	21936.82
685.748	21895.47
686.095	21870.16
686.443	21742.93
686.79	21721.01
687.138	21890.27
687.485	21772.08
687.832	21755.13
688.18	21657.28
688.527	21542.71
688.874	21647.11
689.221	21509.49
689.568	21579.55
689.915	21404.18
690.262	21511.75
690.609	21379.78
690.956	21327.8
691.303	21183.17
691.65	21205.09
691.997	21142.27
692.344	20968.26
692.69	21007.81
693.037	20976.85
693.383	20915.61
693.73	21041.03
694.077	20797.65
694.423	20808.04
694.769	20795.16
695.116	20783.86
695.462	20636.97
695.808	20565.56
696.155	20608.05
696.501	20481.72
696.847	20576.63
697.193	20425
697.539	20479.69
697.885	20296.87
698.231	20247.15
698.577	20191.11
698.923	20190.2
699.269	20123.99
699.614	20074.73
699.96	20026.37
700.306	19931.45
700.651	19810.55
700.997	19775.07
701.342	19863.21
701.688	19776.88
702.033	19775.3
702.379	19721.97
702.724	19713.15
703.069	19604.68
703.415	19503.22
703.76	19430.45
704.105	19503.89
704.45	19390.9
704.795	19277.69
705.14	19282.43
705.485	19164.24
705.83	19140.51
706.175	19159.5
706.52	19019.16
706.865	18959.28
707.209	18896.9
707.554	18829.56
707.899	18998.82
708.243	18822.78
708.588	18794.53
708.932	18703.24
709.277	18686.74
709.621	18716.57
709.966	18546.63
710.31	18596.57
710.654	18407.43
710.998	18443.81
711.342	18471.6
711.687	18434.77
712.031	18293.53
712.375	18205.62
712.719	18291.04
713.063	18230.71
713.407	18205.4
713.75	18218.73
714.094	18142.35
714.438	18170.37
714.782	18236.36
715.125	18102.35
715.469	18104.61
715.812	17907.33
716.156	17818.97
716.499	17896.03
716.843	17973.76
717.186	17797.27
717.53	17798.63
717.873	17709.59
718.216	17682.25
718.559	17583.49
718.902	17541.46
719.246	17514.34
719.589	17479.09
719.932	17414.46
720.275	17563.38
720.617	17429.6
720.96	17374.68
721.303	17518.18
721.646	17389.6
721.989	17411.75
722.331	17455.81
722.674	17402.25
723.016	17321.8
723.359	17296.27
723.701	17304.4
724.044	17188.47
724.386	17102.83
724.729	17188.7
725.071	17045.65
725.413	16981.93
725.755	16981.02
726.097	16966.33
726.439	16860.57
726.782	17011.3
727.124	16933.34
727.465	16944.19
727.807	16827.35
728.149	16813.8
728.491	16795.94
728.833	16796.39
729.175	16890.63
729.516	16622.39
729.858	16655.38
730.199	16677.53
730.541	16558.66
730.882	16598.89
731.224	16615.38
731.565	16548.27
731.906	16447.48
732.248	16501.71
732.589	16407.25
732.93	16388.95
733.271	16280.02
733.612	16345.56
733.953	16431.88
734.294	16268.95
734.635	16291.1
734.976	16258.1
735.317	16145.56
735.658	16203.64
735.999	16187.15
736.339	16095.17
736.68	16175.85
737.021	16040.71
737.361	16065.11
737.702	16133.14
738.042	16015.85
738.383	16025.34
738.723	15941.5
739.063	15900.15
739.404	15929.52
739.744	15897.21
740.084	15871.22
740.424	15837.1
740.764	15775.18
741.104	15903.54
741.444	15667.38
741.784	15691.56
742.124	15696.54
742.464	15624.67
742.804	15627.61
743.143	15603.43
743.483	15616.31
743.823	15485.47
744.162	15428.07
744.502	15581.51
744.841	15447.96
745.181	15556.43
745.52	15457.67
745.86	15382.19
746.199	15338.35
746.538	15327.96
746.877	15399.82
747.216	15367.28
747.556	15210.45
747.895	15352.14
748.234	15230.33
748.573	15122.54
748.911	15087.29
749.25	15010.68
749.589	15009.77
749.928	14988.76
750.267	15000.51
750.605	15061.3
750.944	14898.82
751.283	14956.22
751.621	14905.82
751.96	14901.3
752.298	14866.05
752.636	14814.07
752.975	14772.94
753.313	14715.77
753.651	14751.48
753.989	14632.84
754.327	14619.28
754.666	14593.51
755.004	14576.34
755.342	14579.73
