Data from foam2_polystyrene_foam_FLMS001491_00071.txt Node
Date: Wed Feb 08 10:58:28 GMT 2017
User: dcchb
Spectrometer: FLMS00149
Trigger mode: 0
Integration Time (sec): 2.000000E-2
Scans to average: 10
Electric dark correction enabled: true
Nonlinearity correction enabled: false
Boxcar width: 0
XAxis mode: Wavelengths
Number of Pixels in Spectrum: 2048
>>>>>Begin Spectral Data<<<<<
341.393	-12.97
341.776	-12.97
342.16	-12.97
342.543	-62.68
342.927	-52.51
343.31	-73.08
343.693	-49.8
344.077	-64.04
344.46	-67.2
344.843	-52.74
345.226	-34.21
345.61	-28.11
345.993	-13.87
346.376	-9.12
346.759	14.38
347.142	11.89
347.525	51.89
347.908	54.38
348.291	63.19
348.674	86.01
349.057	110.42
349.44	104.55
349.823	158.1
350.206	175.5
350.588	194.94
350.971	211.21
351.354	252.11
351.737	256.18
352.119	279.23
352.502	262.06
352.884	296.18
353.267	294.14
353.65	295.73
354.032	327.14
354.414	329.17
354.797	340.7
355.179	332.34
355.562	337.76
355.944	345.89
356.326	356.06
356.709	355.16
357.091	345.67
357.473	365.33
357.855	366.01
358.238	375.95
358.62	380.24
359.002	376.18
359.384	369.17
359.766	364.65
360.148	360.58
360.53	362.39
360.912	378.89
361.294	372.33
361.676	376.18
362.057	376.85
362.439	366.91
362.821	359.68
363.203	360.13
363.584	349.28
363.966	370.3
364.348	382.28
364.729	375.5
365.111	354.26
365.493	352
365.874	351.09
366.256	376.18
366.637	365.33
367.019	360.36
367.4	370.53
367.781	345.89
368.163	373.24
368.544	343.86
368.925	345.89
369.306	365.1
369.688	376.63
370.069	365.1
370.45	352.9
370.831	357.19
371.212	356.06
371.593	383.86
371.974	381.6
372.355	370.53
372.736	380.7
373.117	377.08
373.498	401.71
373.879	366.69
374.26	381.6
374.641	392.22
375.021	376.85
375.402	399.45
375.783	407.59
376.163	383.41
376.544	408.04
376.925	406.01
377.305	396.06
377.686	401.49
378.066	388.61
378.447	420.24
378.827	432.22
379.208	405.55
379.588	425.44
379.968	421.15
380.349	421.37
380.729	452.11
381.109	437.19
381.489	439.9
381.87	441.26
382.25	459.79
382.63	433.12
383.01	463.41
383.39	426.12
383.77	441.94
384.15	453.01
384.53	460.92
384.91	461.6
385.29	464.08
385.67	476.06
386.049	473.58
386.429	486.23
386.809	493.01
387.189	461.6
387.568	511.54
387.948	504.76
388.328	504.31
388.707	504.53
389.087	511.31
389.466	501.6
389.846	510.86
390.225	505.89
390.605	496.4
390.984	520.81
391.363	542.05
391.743	522.39
392.122	549.96
392.501	563.29
392.881	551.54
393.26	557.64
393.639	579.79
394.018	578.43
394.397	567.13
394.776	559.67
395.155	585.21
395.534	561.26
395.913	580.92
396.292	607.58
396.671	591.09
397.05	634.47
397.429	611.88
397.808	604.42
398.186	608.03
398.565	621.59
398.944	629.96
399.323	629.28
399.701	626.57
400.08	657.98
400.458	648.49
400.837	656.4
401.215	645.77
401.594	661.82
401.972	681.03
402.351	670.63
402.729	690.29
403.107	695.49
403.486	692.55
403.864	714.25
404.242	707.92
404.62	731.2
404.999	735.94
405.377	735.26
405.755	729.39
406.133	750.18
406.511	747.01
406.889	772.78
407.267	757.86
407.645	791.08
408.023	782.49
408.401	823.17
408.779	823.4
409.156	833.57
409.534	815.04
409.912	821.14
410.29	871.3
410.667	877.86
411.045	872.89
411.422	904.98
411.8	911.08
412.178	904.07
412.555	907.01
412.933	924.64
413.31	928.93
413.687	951.3
414.065	976.39
414.442	952.21
414.819	973.67
415.197	966.44
415.574	1003.96
415.951	996.5
416.328	980.68
416.705	1013.67
417.082	1033.56
417.46	1047.8
417.837	1041.92
418.214	1056.38
418.591	1061.58
418.967	1056.84
419.344	1098.19
419.721	1110.39
420.098	1095.03
420.475	1134.12
420.852	1096.38
421.228	1156.72
421.605	1157.17
421.982	1188.36
422.358	1162.82
422.735	1191.3
423.111	1186.32
423.488	1186.55
423.864	1233.78
424.241	1237.85
424.617	1228.81
424.994	1250.5
425.37	1272.88
425.746	1284.4
426.123	1298.86
426.499	1305.19
426.875	1336.38
427.251	1349.71
427.627	1378.86
428.003	1362.37
428.379	1378.86
428.756	1434.45
429.132	1455.47
429.507	1440.78
429.883	1464.96
430.259	1484.17
430.635	1478.75
431.011	1512.19
431.387	1531.17
431.763	1553.77
432.138	1571.17
432.514	1616.37
432.89	1605.3
433.265	1646.2
433.641	1655.92
434.016	1663.83
434.392	1685.52
434.767	1731.4
435.143	1761.45
435.518	1777.5
435.894	1780.89
436.269	1810.49
436.644	1818.17
437.02	1835.12
437.395	1872.63
437.77	1899.75
438.145	1939.75
438.52	1943.37
438.895	1953.54
439.271	1932.07
439.646	1985.17
440.021	1990.15
440.395	2004.38
440.77	2016.13
441.145	2033.53
441.52	2086.87
441.895	2059.97
442.27	2112.4
442.645	2090.03
443.019	2146.07
443.394	2135.23
443.769	2158.05
444.143	2174.77
444.518	2182.46
444.892	2196.69
445.267	2222.91
445.641	2275.56
446.016	2245.28
446.39	2307.2
446.764	2262.45
447.139	2293.87
447.513	2334.54
447.887	2372.28
448.262	2358.95
448.636	2352.17
449.01	2394.88
449.384	2461.55
449.758	2467.2
450.132	2483.69
450.506	2454.99
450.88	2521.66
451.254	2536.35
451.628	2583.8
452.002	2591.94
452.376	2627.19
452.75	2633.52
453.123	2690.92
453.497	2690.47
453.871	2685.72
454.244	2736.57
454.618	2783.12
454.992	2798.71
455.365	2771.82
455.739	2926.84
456.112	2958.26
456.486	2965.94
456.859	2983.57
457.232	3020.63
457.606	3024.24
457.979	3068.31
458.352	3121.64
458.725	3157.8
459.099	3194.41
459.472	3230.11
459.845	3306.72
460.218	3320.51
460.591	3320.28
460.964	3339.71
461.337	3455.42
461.71	3495.64
462.083	3514.85
462.456	3514.63
462.829	3519.14
463.201	3550.78
463.574	3630.78
463.947	3641.18
464.32	3765.47
464.692	3778.8
465.065	3822.64
465.438	3858.12
465.81	3882.53
466.183	3914.84
466.555	4087.94
466.928	4041.39
467.3	4042.52
467.672	4124.33
468.045	4246.13
468.417	4226.92
468.789	4264.66
469.161	4325.45
469.534	4419.69
469.906	4513.92
470.278	4533.58
470.65	4597.53
471.022	4657.19
471.394	4813.35
471.766	4750.75
472.138	4846.57
472.51	4969.05
472.882	5011.31
473.253	5058.77
473.625	5115.94
473.997	5255.37
474.369	5294.92
474.74	5311.41
475.112	5459.21
475.484	5509.37
475.855	5583.05
476.227	5701.23
476.598	5849.03
476.97	5857.39
477.341	5967.67
477.713	6092.86
478.084	6136.25
478.455	6277.26
478.827	6374.44
479.198	6542.79
479.569	6546.86
479.94	6690.59
480.311	6817.14
480.682	6958.38
481.053	7107.07
481.424	7150.46
481.795	7251.02
482.166	7419.16
482.537	7439.72
482.908	7565.82
483.279	7736.43
483.65	7850.56
484.021	8032.02
484.391	8065.69
484.762	8155.63
485.133	8208.74
485.503	8367.15
485.874	8530.76
486.244	8572.12
486.615	8792.68
486.985	8862.28
487.356	9026.12
487.726	9112.44
488.097	9307.24
488.467	9292.1
488.837	9570.29
489.207	9657.51
489.578	9755.59
489.948	9855.93
490.318	10012.76
490.688	10001.69
491.058	10223.83
491.428	10313.54
491.798	10438.28
492.168	10611.61
492.538	10723.25
492.908	10791.72
493.278	11002.79
493.648	10960.31
494.017	11170.92
494.387	11270.35
494.757	11351.48
495.126	11542.21
495.496	11519.16
495.866	11647.52
496.235	11834.63
496.605	11895.2
496.974	11957.79
497.344	12126.38
497.713	12173.61
498.082	12199.14
498.452	12383.54
498.821	12434.84
499.19	12548.51
499.559	12651.79
499.928	12776.75
500.298	12807.49
500.667	12931.55
501.036	12933.59
501.405	13102.4
501.774	13135.84
502.143	13183.52
502.512	13319.11
502.88	13435.49
503.249	13486.57
503.618	13601.37
503.987	13658.54
504.356	13749.84
504.724	13926.55
505.093	13961.58
505.462	13995.93
505.83	14151.18
506.199	14261.91
506.567	14453.09
506.936	14463.04
507.304	14658.29
507.672	14793.2
508.041	14843.37
508.409	14949.8
508.777	15045.62
509.145	15228.22
509.514	15173.75
509.882	15366.52
510.25	15350.25
510.618	15496.46
510.986	15604.25
511.354	15716.11
511.722	15807.86
512.09	16118.36
512.458	16043.34
512.826	16256.66
513.193	16261.63
513.561	16365.13
513.929	16524.9
514.297	16625.92
514.664	16770.55
515.032	16884.22
515.4	17042.4
515.767	17054.83
516.135	17222.51
516.502	17251.67
516.869	17450.76
517.237	17480.59
517.604	17619.79
517.972	17870.41
518.339	17939.1
518.706	18020.91
519.073	18109.5
519.44	18202.37
519.808	18458.86
520.175	18417.51
520.542	18782.02
520.909	18768.01
521.276	18926.2
521.643	19073.54
522.009	19299.75
522.376	19351.95
522.743	19529.57
523.11	19717.59
523.477	19862.44
523.843	19910.58
524.21	20232.15
524.577	20392.83
524.943	20444.35
525.31	20649.09
525.676	20783.1
526.043	20976.54
526.409	21076.42
526.776	21301.05
527.142	21355.51
527.508	21487.26
527.874	21661.49
528.241	21795.5
528.607	21874.14
528.973	22140.58
529.339	22112.78
529.705	22298.31
530.071	22581.92
530.437	22687.91
530.803	22847.45
531.169	22964.74
531.535	22896.94
531.901	23082.47
532.267	23117.95
532.632	23436.14
532.998	23399.3
533.364	23550.93
533.73	23653.98
534.095	23796.35
534.461	24013.3
534.826	23984.6
535.192	24240.63
535.557	24414.87
535.923	24346.85
536.288	24580.51
536.653	24682.88
537.019	24619.61
537.384	24676.1
537.749	24979.6
538.114	24967.85
538.479	24972.82
538.845	25146.6
539.21	25245.58
539.575	25296.43
539.94	25476.53
540.305	25580.03
540.67	25533.48
541.034	25774.38
541.399	25846.24
541.764	25937.99
542.129	25928.27
542.494	25994.94
542.858	26103.18
543.223	26255.72
543.587	26284.87
543.952	26434.93
544.316	26483.96
544.681	26464.53
545.045	26718.76
545.41	26781.58
545.774	26986.32
546.138	26876.04
546.503	27045.98
546.867	26986.32
547.231	27197.39
547.595	27265.41
547.959	27452.53
548.324	27430.38
548.688	27564.39
549.052	27603.48
549.416	27778.85
549.779	27862.01
550.143	27892.52
550.507	28060.87
550.871	28190.81
551.235	28134.77
551.599	28449.34
551.962	28412.05
552.326	28573.4
552.689	28585.38
553.053	28591.93
553.417	28654.53
553.78	29080.28
554.143	29000.51
554.507	29100.84
554.87	29247.28
555.234	29469.65
555.597	29434.17
555.96	29535.86
556.323	29689.08
556.686	29750.55
557.05	30059.01
557.413	30066.7
557.776	30298.78
558.139	30437.53
558.502	30339.23
558.865	30525.67
559.228	30882.04
559.59	31073
559.953	31011.98
560.316	31380.79
560.679	31372.88
561.041	31472.76
561.404	31744.17
561.767	31879.98
562.129	31704.17
562.492	32092.63
562.854	32149.58
563.217	32135.79
563.579	32359.29
563.941	32629.57
564.304	32842.44
564.666	32977.81
565.028	32966.28
565.39	33153.85
565.753	33263.45
566.115	33376.21
566.477	33550.9
566.839	33641.74
567.201	34036.99
567.563	33984.11
567.925	34112.24
568.287	34221.39
568.648	34325.34
569.01	34575.73
569.372	34775.72
569.734	34763.97
570.095	34750.41
570.457	35097.98
570.819	35140.23
571.18	35148.14
571.542	35379.1
571.903	35266.56
572.265	35466.1
572.626	35612.09
572.987	35552.65
573.349	35756.49
573.71	35889.82
574.071	35978.86
574.432	36055.01
574.794	36410.03
575.155	36195.35
575.516	36257.04
575.877	36400.09
576.238	36440.31
576.599	36568.22
576.96	36665.62
577.32	36606.41
577.681	36750.14
578.042	36852.28
578.403	36847.53
578.763	36838.27
579.124	36999.39
579.485	37075.32
579.845	37132.05
580.206	37152.38
580.566	37170.01
580.927	37147.64
581.287	37400.97
581.648	37195.77
582.008	37347.86
582.368	37281.65
582.728	37511.47
583.089	37341.53
583.449	37433.73
583.809	37355.54
584.169	37499.27
584.529	37536.1
584.889	37658.13
585.249	37559.61
585.609	37527.97
585.969	37499.27
586.329	37557.8
586.688	37624.46
587.048	37588.53
587.408	37550.79
587.768	37352.83
588.127	37385.6
588.487	37518.48
588.846	37617.91
589.206	37274.64
589.565	37451.36
589.925	37635.76
590.284	37609.55
590.643	37611.13
591.003	37564.8
591.362	37800.5
591.721	37650.22
592.08	37670.11
592.44	37833.95
592.799	37741.3
593.158	37596.21
593.517	37725.7
593.876	37823.1
594.235	37718.02
594.593	37783.78
594.952	37879.15
595.311	37516.67
595.67	37732.03
596.029	37909.65
596.387	37902.2
596.746	38075.75
597.104	37819.03
597.463	37897.68
597.822	38007.05
598.18	37895.19
598.538	37759.37
598.897	38067.84
599.255	37760.28
599.613	38266.93
599.972	37930.44
600.33	38028.97
600.688	38089.31
601.046	38174.28
601.404	38326.14
601.762	38241.4
602.12	38328.4
602.478	38252.47
602.836	38476.42
603.194	38291.79
603.552	38405.23
603.91	38294.95
604.268	38412.24
604.625	38432.8
604.983	38461.73
605.341	38406.36
605.698	38543.31
606.056	38656.98
606.413	38502.18
606.771	38675.06
607.128	38696.75
607.485	38626.47
607.843	38618.33
608.2	38807.93
608.557	38894.94
608.914	38756.41
609.272	39032.56
609.629	39068.72
609.986	39146.23
610.343	38975.84
610.7	39217.19
611.057	39145.33
611.414	39081.6
611.771	39199.34
612.127	39264.87
612.484	39277.3
612.841	39352.33
613.198	39198.21
613.554	39307.81
613.911	39379.9
614.267	39435.94
614.624	39438.43
614.98	39530.85
615.337	39620.34
615.693	39469.61
616.05	39442.72
616.406	39685.88
616.762	39545.54
617.118	39625.31
617.475	39653.11
617.831	39830.28
618.187	39879.09
618.543	39915.25
618.899	40065.98
619.255	39908.7
619.611	40096.94
619.967	40208.12
620.323	40083.61
620.678	40109.14
621.034	39943.27
621.39	40025.08
621.746	40076.83
622.101	40504.84
622.457	40130.16
622.812	40181.23
623.168	40258.52
623.523	40198.86
623.879	40266.2
624.234	40030.73
624.589	40178.52
624.945	40114.79
625.3	40273.21
625.655	40279.31
626.01	40212.19
626.365	40276.14
626.72	40219.87
627.075	40095.13
627.43	40024.85
627.785	39983.95
628.14	40229.59
628.495	40121.57
628.85	40113.44
629.205	40051.74
629.559	40326.09
629.914	40000.22
630.269	40012.87
630.623	39974.68
630.978	39933.1
631.332	39938.07
631.687	40082.25
632.041	39725.2
632.396	39953.89
632.75	39882.03
633.104	39960.9
633.459	39584.64
633.813	39647.23
634.167	39619.66
634.521	39636.39
634.875	39606.33
635.229	39368.6
635.583	39283.18
635.937	39339.9
636.291	39276.85
636.645	39221.48
636.999	39131.09
637.352	39209.28
637.706	38998.66
638.06	39028.72
638.413	38984.65
638.767	38908.27
639.121	38951.66
639.474	38680.71
639.828	38764.32
640.181	38708.28
640.534	38878.67
640.888	38590.54
641.241	38493.14
641.594	38469.86
641.947	38574.49
642.301	38427.83
642.654	38453.14
643.007	38407.49
643.36	38360.49
643.713	38332.47
644.066	38372.01
644.419	38092.02
644.771	37960.73
645.124	37552.83
645.477	37567.06
645.83	37178.15
646.182	37049.56
646.535	36995.33
646.888	37065.61
647.24	36885.27
647.593	37067.42
647.945	37038.94
648.298	36787.87
648.65	36729.8
649.002	36629.23
649.355	36799.4
649.707	36676.92
650.059	36732.06
650.411	37226.28
650.763	37353.51
651.115	37668.3
651.467	37459.95
651.819	37522.09
652.171	37319.39
652.523	37363
652.875	37289.78
653.227	37043.01
653.578	37344.02
653.93	37214.76
654.282	37124.59
654.633	37045.04
654.985	37148.32
655.337	37106.28
655.688	37096.57
656.039	37285.71
656.391	36980.86
656.742	36921.88
657.094	37051.6
657.445	37084.82
657.796	36992.39
658.147	36895.22
658.498	36811.83
658.849	36849.57
659.2	36816.8
659.551	36646.86
659.902	36888.21
660.253	36820.19
660.604	36851.6
660.955	36678.72
661.306	36733.19
661.656	36776.12
662.007	36727.99
662.358	36670.14
662.708	36794.65
663.059	36628.1
663.409	36561.44
663.76	36789.68
664.11	36749.23
664.461	36727.54
664.811	36766.18
665.161	36625.62
665.511	36578.61
665.862	36680.31
666.212	36680.31
666.562	36597.6
666.912	36634.88
667.262	36544.72
667.612	36491.16
667.962	36397.15
668.312	36393.31
668.662	36758.27
669.011	36557.15
669.361	36627.43
669.711	36412.74
670.06	36404.83
670.41	36363.48
670.76	36396.92
671.109	36517.83
671.459	36283.48
671.808	36231.05
672.157	36246.65
672.507	36025.41
672.856	36024.28
673.205	36186.99
673.554	36235.12
673.904	36113.54
674.253	36231.96
674.602	36103.82
674.951	35689.6
675.3	35466.55
675.649	36024.5
675.998	35895.24
676.346	35931.4
676.695	35976.14
677.044	35803.95
677.393	35838.07
677.741	36010.49
678.09	35895.69
678.438	35799.43
678.787	35938.18
679.135	35882.59
679.484	35581.58
679.832	35748.35
680.181	35394.92
680.529	35656.83
680.877	35477.63
681.225	35438.31
681.573	35572.31
681.922	35290.74
682.27	35270.85
682.618	35328.03
682.966	35073.8
683.314	35281.7
683.661	35051.42
684.009	34903.86
684.357	34880.13
684.705	34840.81
685.053	34752.45
685.4	34606.69
685.748	34582.73
686.095	34535.96
686.443	34348.62
686.79	34347.71
687.138	34425
687.485	34341.39
687.832	34392.01
688.18	34305.91
688.527	34093.71
688.874	34090.54
689.221	33984.78
689.568	33843.09
689.915	33789.31
690.262	33801.51
690.609	33680.61
690.956	33559.03
691.303	33525.59
691.65	33487.62
691.997	33486.49
692.344	33180.74
692.69	33297.34
693.037	33104.81
693.383	32969.67
693.73	33239.95
694.077	32900.52
694.423	32933.96
694.769	32749.79
695.116	32673.18
695.462	32521.77
695.808	32409.46
696.155	32580.53
696.501	32228.45
696.847	32313.64
697.193	32155.45
697.539	32134.66
697.885	32013.54
698.231	31906.87
698.577	31910.49
698.923	31917.27
699.269	31678.86
699.614	31593.21
699.96	31525.64
700.306	31470.95
700.651	31342.82
700.997	31350.28
701.342	31215.14
701.688	31190.73
702.033	31020.79
702.379	31025.09
702.724	30934.92
703.069	30901.02
703.415	30628.94
703.76	30606.79
704.105	30446.8
704.45	30463.97
704.795	30333.58
705.14	30308.72
705.485	30257.42
705.83	30149.86
706.175	30214.49
706.52	30163.87
706.865	29958
707.209	29940.6
707.554	29880.26
707.899	29891.78
708.243	29721.85
708.588	29695.63
708.932	29577.22
709.277	29500.16
709.621	29457.9
709.966	29146.27
710.31	29325.02
710.654	28957.57
710.998	29061.3
711.342	29128.41
711.687	29086.38
712.031	29035.31
712.375	28846.16
712.719	28885.03
713.063	28767.29
713.407	28896.33
713.75	28638.71
714.094	28553.97
714.438	28459.73
714.782	28479.39
715.125	28380.64
715.469	28250.47
715.812	28175.22
716.156	28007.31
716.499	28111.04
716.843	28156.92
717.186	28014.32
717.53	28026.3
717.873	28024.94
718.216	27926.19
718.559	27750.37
718.902	27581.79
719.246	27683.48
719.589	27450.49
719.932	27483.49
720.275	27478.51
720.617	27455.69
720.96	27354
721.303	27306.09
721.646	27471.06
721.989	27106.32
722.331	27234
722.674	27128.69
723.016	27216.6
723.359	27005.08
723.701	27169.6
724.044	26957.85
724.386	26879.21
724.729	26916.27
725.071	26839.89
725.413	26923.73
725.755	26789.95
726.097	26770.28
726.439	26634.7
726.782	26531.42
727.124	26674.02
727.465	26474.25
727.807	26528.03
728.149	26579.1
728.491	26389.28
728.833	26514.02
729.175	26337.08
729.516	26262.05
729.858	26270.86
730.199	26163.3
730.541	26103.41
730.882	26107.25
731.224	26156.06
731.565	25926.47
731.906	26007.82
732.248	25908.84
732.589	25806.02
732.93	25685.57
733.271	25747.03
733.612	25781.61
733.953	25764.66
734.294	25683.53
734.635	25607.15
734.976	25606.25
735.317	25489.41
735.658	25555.18
735.999	25481.96
736.339	25380.26
736.68	25438.79
737.021	25388.17
737.361	25184.11
737.702	25378.23
738.042	25240.16
738.383	25131.23
738.723	25138.92
739.063	25201.06
739.404	25089.2
739.744	25001.97
740.084	24870.22
740.424	24983.44
740.764	24834.74
741.104	25011.91
741.444	24929.66
741.784	24760.39
742.124	24813.05
742.464	24848.53
742.804	24749.1
743.143	24684.69
743.483	24609.21
743.823	24457.58
744.162	24558.82
744.502	24461.64
744.841	24414.87
745.181	24480.85
745.52	24389.33
745.86	24404.02
746.199	24343.68
746.538	24295.32
746.877	24362.44
747.216	24281.08
747.556	24281.99
747.895	24256.23
748.234	24153.63
748.573	24063.01
748.911	24123.35
749.25	24050.81
749.589	23910.02
749.928	23933.3
750.267	23870.7
750.605	23814.66
750.944	23626.86
751.283	23632.51
751.621	23742.12
751.96	23572.63
752.298	23531.95
752.636	23489.02
752.975	23400.66
753.313	23406.53
753.651	23433.88
