Data from foam2_polystyrene_foam_FLMS001491_00001.txt Node
Date: Wed Feb 08 10:57:25 GMT 2017
User: dcchb
Spectrometer: FLMS00149
Trigger mode: 0
Integration Time (sec): 2.000000E-2
Scans to average: 10
Electric dark correction enabled: true
Nonlinearity correction enabled: false
Boxcar width: 0
XAxis mode: Wavelengths
Number of Pixels in Spectrum: 2048
>>>>>Begin Spectral Data<<<<<
341.393	-20.42
341.776	-20.42
342.16	-20.42
342.543	-85.51
342.927	-69.24
343.31	-72.63
343.693	-59.74
344.077	-52.74
344.46	-55.9
344.843	-61.78
345.226	-35.56
345.61	-24.26
345.993	-24.94
346.376	-15.45
346.759	-4.38
347.142	13.25
347.525	51.44
347.908	89.4
348.291	73.81
348.674	80.82
349.057	98.67
349.44	115.84
349.823	148.84
350.206	147.93
350.588	198.78
350.971	231.77
351.354	255.73
351.737	250.98
352.119	263.86
352.502	266.35
352.884	281.04
353.267	283.07
353.65	314.03
354.032	315.84
354.414	316.07
354.797	308.38
355.179	317.2
355.562	331.43
355.944	352.45
356.326	330.08
356.709	356.06
357.091	342.51
357.473	363.97
357.855	359.23
358.238	336.86
358.62	339.34
359.002	366.23
359.384	340.47
359.766	364.88
360.148	376.18
360.53	348.83
360.912	356.29
361.294	362.62
361.676	353.13
362.057	326.46
362.439	356.06
362.821	360.13
363.203	370.3
363.584	346.12
363.966	328.95
364.348	349.06
364.729	321.94
365.111	335.05
365.493	345.22
365.874	353.35
366.256	345.22
366.637	348.15
367.019	339.12
367.4	345.89
367.781	343.41
368.163	331.43
368.544	335.73
368.925	331.43
369.306	356.97
369.688	336.63
370.069	351.77
370.45	342.05
370.831	349.96
371.212	363.97
371.593	343.86
371.974	352.9
372.355	362.84
372.736	381.37
373.117	341.38
373.498	337.76
373.879	354.03
374.26	345.89
374.641	351.77
375.021	334.6
375.402	382.5
375.783	349.96
376.163	382.5
376.544	362.84
376.925	391.09
377.305	375.72
377.686	371.2
378.066	368.72
378.447	380.92
378.827	372.79
379.208	380.24
379.588	399.9
379.968	370.98
380.349	374.82
380.729	383.41
381.109	364.2
381.489	398.77
381.87	392.9
382.25	413.24
382.63	403.52
383.01	407.14
383.39	401.71
383.77	418.89
384.15	418.89
384.53	431.09
384.91	408.72
385.29	432.9
385.67	439.23
386.049	450.75
386.429	435.84
386.809	441.26
387.189	441.26
387.568	446.68
387.948	423.86
388.328	455.95
388.707	445.1
389.087	452.11
389.466	454.59
389.846	473.58
390.225	474.93
390.605	483.29
390.984	472.9
391.363	457.53
391.743	498.21
392.122	466.34
392.501	498.43
392.881	525.1
393.26	510.86
393.639	518.77
394.018	521.03
394.397	511.99
394.776	528.04
395.155	531.65
395.534	506.12
395.913	530.52
396.292	517.19
396.671	543.86
397.05	552.9
397.429	562.84
397.808	540.47
398.186	568.94
398.565	542.5
398.944	535.72
399.323	584.98
399.701	559.22
400.08	561.71
400.458	577.3
400.837	582.27
401.215	580.92
401.594	597.19
401.972	610.97
402.351	611.42
402.729	581.82
403.107	604.42
403.486	637.41
403.864	629.5
404.242	640.58
404.62	636.73
404.999	635.15
405.377	632.44
405.755	638.54
406.133	669.95
406.511	673.57
406.889	680.58
407.267	672.67
407.645	679.45
408.023	670.63
408.401	709.73
408.779	718.09
409.156	700.91
409.534	711.08
409.912	719.9
410.29	740.01
410.667	741.82
411.045	768.26
411.422	770.29
411.8	735.04
412.178	777.52
412.555	784.53
412.933	787.47
413.31	810.97
413.687	801.7
414.065	808.03
414.442	814.36
414.819	825.2
415.197	831.08
415.574	878.54
415.951	860.01
416.328	869.95
416.705	885.32
417.082	867.46
417.46	860.01
417.837	888.93
418.214	918.76
418.591	914.02
418.967	918.31
419.344	915.6
419.721	934.58
420.098	939.55
420.475	942.49
420.852	952.43
421.228	967.57
421.605	978.42
421.982	996.95
422.358	1010.28
422.735	1002.15
423.111	1021.36
423.488	1021.81
423.864	1039.89
424.241	1073.33
424.617	1062.94
424.994	1072.88
425.37	1088.47
425.746	1109.04
426.123	1110.85
426.499	1092.09
426.875	1144.07
427.251	1152.43
427.627	1145.2
428.003	1185.19
428.379	1194.01
428.756	1180.68
429.132	1200.56
429.507	1253.22
429.883	1250.28
430.259	1251.18
430.635	1247.11
431.011	1243.95
431.387	1326.43
431.763	1325.3
432.138	1338.86
432.514	1328.24
432.89	1349.94
433.265	1392.42
433.641	1416.6
434.016	1389.71
434.392	1409.14
434.767	1469.26
435.143	1457.28
435.518	1459.31
435.894	1478.07
436.269	1508.12
436.644	1542.02
437.02	1551.29
437.395	1571.85
437.77	1552.42
438.145	1583.15
438.52	1605.75
438.895	1640.32
439.271	1650.49
439.646	1650.27
440.021	1688.91
440.395	1679.87
440.77	1659.98
441.145	1665.18
441.52	1728.91
441.895	1713.99
442.27	1775.24
442.645	1731.4
443.019	1770.49
443.394	1779.98
443.769	1804.16
444.143	1821.11
444.518	1829.25
444.892	1810.94
445.267	1839.41
445.641	1850.26
446.016	1900.88
446.39	1932.29
446.764	1924.38
447.139	1920.99
447.513	1938.85
447.887	1965.29
448.262	1965.74
448.636	1950.6
449.01	2008.22
449.384	2043.03
449.758	2030.82
450.132	2052.06
450.506	2107.2
450.88	2083.25
451.254	2082.12
451.628	2106.3
452.002	2185.62
452.376	2174.77
452.75	2195.11
453.123	2217.71
453.497	2297.93
453.871	2264.49
454.244	2304.49
454.618	2301.1
454.992	2339.29
455.365	2355.79
455.739	2405.95
456.112	2433.07
456.486	2417.48
456.859	2462.68
457.232	2507.87
457.606	2513.3
457.979	2513.97
458.352	2586.97
458.725	2610.47
459.099	2605.95
459.472	2713.29
459.845	2725.72
460.218	2744.02
460.591	2751.03
460.964	2747.19
461.337	2827.41
461.71	2848.43
462.083	2912.61
462.456	2923.23
462.829	2920.52
463.201	2938.82
463.574	2987.18
463.947	3080.06
464.32	3085.71
464.692	3087.97
465.065	3123.22
465.438	3171.13
465.81	3237.34
466.183	3235.31
466.555	3344.91
466.928	3333.16
467.3	3349.66
467.672	3417.9
468.045	3507.17
468.417	3461.29
468.789	3505.13
469.161	3562.53
469.534	3614.06
469.906	3715.75
470.278	3700.16
470.65	3753.94
471.022	3824.22
471.394	3922.98
471.766	3942.18
472.138	3954.16
472.51	4079.36
472.882	4146.7
473.253	4125.68
473.625	4131.33
473.997	4257.66
474.369	4343.3
474.74	4377.88
475.112	4442.28
475.484	4594.14
475.855	4620.58
476.227	4639.34
476.598	4767.25
476.97	4764.54
477.341	4878.66
477.713	4987.35
478.084	5002.72
478.455	5163.4
478.827	5196.39
479.198	5357.97
479.569	5297.4
479.94	5457.17
480.311	5509.15
480.682	5703.27
481.053	5759.09
481.424	5841.8
481.795	5921.12
482.166	6008.12
482.537	6103.48
482.908	6242.69
483.279	6290.6
483.65	6413.31
484.021	6526.3
484.391	6523.59
484.762	6584.15
485.133	6734.43
485.503	6805.84
485.874	6946.63
486.244	6996.79
486.615	7125.6
486.985	7218.48
487.356	7421.64
487.726	7468.87
488.097	7628.64
488.467	7639.71
488.837	7760.62
489.207	7840.16
489.578	7954.51
489.948	8103.66
490.318	8215.74
490.688	8175.97
491.058	8333.93
491.428	8484.21
491.798	8515.62
492.168	8653.92
492.538	8718.56
492.908	8814.15
493.278	8880.36
493.648	8966.69
494.017	9055.04
494.387	9185.89
494.757	9262.27
495.126	9395.15
495.496	9415.26
495.866	9405.09
496.235	9564.64
496.605	9661.81
496.974	9703.39
497.344	9742.03
497.713	9852.09
498.082	9930.95
498.452	10090.5
498.821	10049.37
499.19	10173.43
499.559	10276.71
499.928	10326.2
500.298	10366.65
500.667	10535.01
501.036	10470.37
501.405	10682.12
501.774	10595.79
502.143	10739.97
502.512	10791.04
502.88	10939.74
503.249	10924.6
503.618	10997.37
503.987	11022
504.356	11132.73
504.724	11205.27
505.093	11282.33
505.462	11319.62
505.83	11341.54
506.199	11546.5
506.567	11727.97
506.936	11630.12
507.304	11734.97
507.672	11904.69
508.041	11934.29
508.409	11992.14
508.777	12197.79
509.145	12240.5
509.514	12278.46
509.882	12397.56
510.25	12408.4
510.618	12480.04
510.986	12593.93
511.354	12722.07
511.722	12812.91
512.09	12904.43
512.458	12954.38
512.826	13021.49
513.193	13165.22
513.561	13189.85
513.929	13327.7
514.297	13444.31
514.664	13505.32
515.032	13634.58
515.4	13672.78
515.767	13731.53
516.135	13865.77
516.502	13855.37
516.869	14068.92
517.237	14210.84
517.604	14199.09
517.972	14348.92
518.339	14374.45
518.706	14475.92
519.073	14481.57
519.44	14635.46
519.808	14821.45
520.175	14823.03
520.542	15061.67
520.909	15143.25
521.276	15133.53
521.643	15308.89
522.009	15561.31
522.376	15563.57
522.743	15662.33
523.11	15864.36
523.477	15972.15
523.843	16093.73
524.21	16225.7
524.577	16310.9
524.943	16443.1
525.31	16554.73
525.676	16717.44
526.043	16867.49
526.409	16965.34
526.776	17201.04
527.142	17183.87
527.508	17355.62
527.874	17417.54
528.241	17503.41
528.607	17598.55
528.973	17788.37
529.339	17866.56
529.705	17943.4
530.071	18146.33
530.437	18219.32
530.803	18398.98
531.169	18424.52
531.535	18387.68
531.901	18436.72
532.267	18537.96
532.632	18758.97
532.998	18936.37
533.364	18871.28
533.73	19070.83
534.095	19198.05
534.461	19126.42
534.826	19313.31
535.192	19357.15
535.557	19623.58
535.923	19512.17
536.288	19605.28
536.653	19823.35
537.019	19701.32
537.384	19808.89
537.749	19964.14
538.114	20064.47
538.479	20123.45
538.845	20110.12
539.21	20156.9
539.575	20287.52
539.94	20323.67
540.305	20528.19
540.67	20527.06
541.034	20679.37
541.399	20654.51
541.764	20787.62
542.129	20893.38
542.494	20930.66
542.858	20997.56
543.223	21046.14
543.587	21141.96
543.952	21183.99
544.316	21126.14
544.681	21172.24
545.045	21330.2
545.41	21480.71
545.774	21509.63
546.138	21526.35
546.503	21666.69
546.867	21649.06
547.231	21849.96
547.595	21863.3
547.959	22038.43
548.324	21938.55
548.688	22165.21
549.052	22120.01
549.416	22283.85
549.779	22404.98
550.143	22336.28
550.507	22548.93
550.871	22613.33
551.235	22685.87
551.599	22852.42
551.962	22972.19
552.326	23011.29
552.689	23128.8
553.053	23137.61
553.417	23178.74
553.78	23373.09
554.143	23358.4
554.507	23505.96
554.87	23562.91
555.234	23818.05
555.597	23698.73
555.96	23740.99
556.323	23877.25
556.686	24007.87
557.05	24032.05
557.413	24228.88
557.776	24229.11
558.139	24450.12
558.502	24556.78
558.865	24632.94
559.228	24770.11
559.59	25023.66
559.953	25008.07
560.316	25145.02
560.679	25126.26
561.041	25292.36
561.404	25434.05
561.767	25636.53
562.129	25676.75
562.492	25827.03
562.854	25864.55
563.217	25916.52
563.579	26069.51
563.941	26231.99
564.304	26272.67
564.666	26640.57
565.028	26596.28
565.39	26733.22
565.753	26808.48
566.115	26830.85
566.477	27100.9
566.839	27131.18
567.201	27345.18
567.563	27285.07
567.925	27551.73
568.287	27583.14
568.648	27731.16
569.01	27838.73
569.372	27885.96
569.734	27904.72
570.095	28125.96
570.457	28212.73
570.819	28337.93
571.18	28266.52
571.542	28388.55
571.903	28474.19
572.265	28542.89
572.626	28676.9
572.987	28750.8
573.349	28828.08
573.71	28883.45
574.071	29084.35
574.432	29100.84
574.794	29294.96
575.155	29311.23
575.516	29225.14
575.877	29332.25
576.238	29353.95
576.599	29536.31
576.96	29619.48
577.32	29648.85
577.681	29746.93
578.042	29787.83
578.403	29849.53
578.763	29882.29
579.124	29879.81
579.485	30159.12
579.845	30135.85
580.206	30078.45
580.566	30021.27
580.927	30063.31
581.287	30157.77
581.648	30076.41
582.008	30367.03
582.368	30137.2
582.728	30173.81
583.089	30088.16
583.449	30145.56
583.809	30186.47
584.169	30303.98
584.529	30251.1
584.889	30539
585.249	30431.88
585.609	30347.59
585.969	30477.98
586.329	30473.24
586.688	30558.43
587.048	30484.76
587.408	30317.31
587.768	30388.27
588.127	30307.14
588.487	30273.47
588.846	30541.26
589.206	30228.05
589.565	30342.62
589.925	30439.34
590.284	30456.29
590.643	30507.36
591.003	30445.22
591.362	30506.01
591.721	30553.24
592.08	30562.95
592.44	30575.61
592.799	30710.07
593.158	30516.18
593.517	30609.05
593.876	30752.1
594.235	30676.85
594.593	30728.37
594.952	30757.98
595.311	30777.41
595.67	30780.8
596.029	30817.18
596.387	30776.96
596.746	30865.32
597.104	30675.72
597.463	30738.99
597.822	30901.48
598.18	30669.39
598.538	30863.06
598.897	30917.97
599.255	30729.5
599.613	31103.05
599.972	30930.85
600.33	30984.86
600.688	30803.63
601.046	31124.29
601.404	31127.23
601.762	31035.48
602.12	31164.07
602.478	31323.84
602.836	31232.99
603.194	31095.37
603.552	31146.21
603.91	31168.36
604.268	31204.97
604.625	31206.78
604.983	31319.77
605.341	31167.46
605.698	31259.21
606.056	31345.08
606.413	31282.48
606.771	31255.36
607.128	31455.36
607.485	31175.59
607.843	31272.99
608.2	31387.11
608.557	31523.38
608.914	31455.36
609.272	31716.14
609.629	31795.24
609.986	31905.52
610.343	31702.58
610.7	31867.1
611.057	31858.96
611.414	31847.21
611.771	31936.25
612.127	32011.05
612.484	32074.55
612.841	31994.1
613.198	31989.13
613.554	31860.77
613.911	32046.08
614.267	32064.83
614.624	32019.19
614.98	32151.39
615.337	32208.56
615.693	32238.16
616.05	32211.95
616.406	32303.92
616.762	32323.81
617.118	32263.02
617.475	32285.85
617.831	32353.87
618.187	32392.74
618.543	32470.47
618.899	32506.18
619.255	32578.95
619.611	32473.19
619.967	32519.96
620.323	32744.37
620.678	32528.78
621.034	32346.41
621.39	32427.54
621.746	32405.39
622.101	32851.71
622.457	32532.62
622.812	32671.15
623.168	32753.86
623.523	32618.04
623.879	32856.45
624.234	32551.38
624.589	32817.81
624.945	32813.06
625.3	32841.99
625.655	32721.54
626.01	32831.59
626.365	32714.31
626.72	32691.94
627.075	32601.09
627.43	32597.02
627.785	32516.8
628.14	32781.88
628.495	32669.34
628.85	32594.31
629.205	32449.68
629.559	32586.63
629.914	32446.52
630.269	32491.04
630.623	32460.98
630.978	32363.58
631.332	32404.94
631.687	32416.24
632.041	32299.63
632.396	32352.51
632.75	32265.73
633.104	32269.35
633.459	32025.74
633.813	32060.54
634.167	32016.02
634.521	32067.09
634.875	31989.58
635.229	32033.65
635.583	31964.05
635.937	31985.51
636.291	31958.85
636.645	31889.47
636.999	31758.63
637.352	31850.38
637.706	31795.69
638.06	31711.4
638.413	31718.4
638.767	31743.94
639.121	31719.53
639.474	31477.96
639.828	31570.84
640.181	31489.26
640.534	31397.06
640.888	31507.34
641.241	31326.1
641.594	31275.03
641.947	31464.62
642.301	31358.86
642.654	31329.26
643.007	31357.73
643.36	31199.09
643.713	31227.57
644.066	31275.7
644.419	31162.03
644.771	30916.16
645.124	30598.88
645.477	30541.71
645.83	30396.18
646.182	30287.48
646.535	30166.13
646.888	30231.44
647.24	30015.85
647.593	30239.57
647.945	30172
648.298	29961.16
648.65	29962.74
649.002	29863.99
649.355	30040.26
649.707	29875.51
650.059	30103.3
650.411	30456.06
650.763	30381.72
651.115	30663.29
651.467	30683.4
651.819	30516.85
652.171	30520.24
652.523	30494.03
652.875	30514.14
653.227	30364.09
653.578	30532.67
653.93	30230.98
654.282	30334.94
654.633	30147.15
654.985	30162.74
655.337	30276.86
655.688	30261.04
656.039	30250.42
656.391	30082.51
656.742	30167.03
657.094	30148.73
657.445	30230.53
657.796	30146.24
658.147	30077.32
658.498	30051.55
658.849	30122.06
659.2	30118.9
659.551	29939.47
659.902	30188.73
660.253	30056.07
660.604	30096.75
660.955	29922.52
661.306	30035.96
661.656	29983.53
662.007	29885.46
662.358	29875.29
662.708	29967.49
663.059	29810.88
663.409	29669.64
663.76	30007.26
664.11	29827.83
664.461	29826.93
664.811	29899.24
665.161	29923.42
665.511	29809.3
665.862	29768.62
666.212	29801.17
666.562	29788.74
666.912	29689.98
667.262	29655.63
667.612	29605.69
667.962	29746.93
668.312	29711.22
668.662	29975.62
669.011	29715.07
669.361	29683.88
669.711	29703.54
670.06	29682.07
670.41	29647.27
670.76	29535.86
671.109	29758.68
671.459	29580.15
671.808	29417.67
672.157	29497.44
672.507	29318.47
672.856	29334.96
673.205	29338.8
673.554	29483.89
673.904	29286.6
674.253	29582.19
674.602	29425.13
674.951	28924.35
675.3	28901.3
675.649	29252.48
675.998	29246.15
676.346	29237.79
676.695	29319.6
677.044	29005.03
677.393	29153.5
677.741	29235.3
678.09	29030.11
678.438	28918.48
678.787	29122.99
679.135	29000.96
679.484	28889.33
679.832	29134.06
680.181	28907.63
680.529	28894.97
680.877	28769.78
681.225	28809.1
681.573	28876.9
681.922	28693.17
682.27	28537.02
682.618	28753.28
682.966	28553.51
683.314	28458.38
683.661	28508.54
684.009	28358.72
684.357	28266.52
684.705	28246.18
685.053	28237.59
685.4	28137.25
685.748	27937.03
686.095	27995.56
686.443	27846.19
686.79	27724.61
687.138	27801.44
687.485	27874.66
687.832	27795.12
688.18	27716.93
688.527	27439.65
688.874	27515.58
689.221	27539.98
689.568	27399.65
689.915	27291.85
690.262	27291.63
690.609	27221.35
690.956	27227.67
691.303	27106.32
691.65	27004.85
691.997	27039.88
692.344	26986.1
692.69	26885.99
693.037	26909.94
693.383	26609.39
693.73	26734.81
694.077	26627.01
694.423	26579.1
694.769	26417.07
695.116	26439.9
695.462	26390.63
695.808	26254.14
696.155	26399.9
696.501	26062.73
696.847	26139.11
697.193	25883.75
697.539	25980.25
697.885	25718.79
698.231	25718.34
698.577	25687.83
698.923	25673.82
699.269	25563.54
699.614	25430.43
699.96	25402.64
700.306	25430.21
700.651	25119.93
700.997	25126.71
701.342	25127.62
701.688	24985.02
702.033	24892.37
702.379	24908.19
702.724	24798.36
703.069	24941.18
703.415	24489.89
703.76	24654.41
704.105	24601.53
704.45	24551.36
704.795	24336.9
705.14	24366.96
705.485	24307.07
705.83	24124.03
706.175	24206.74
706.52	24123.35
706.865	24068.21
707.209	24014.88
707.554	23914.77
707.899	23970.36
708.243	23763.81
708.588	23772.62
708.932	23788.89
709.277	23672.29
709.621	23749.12
709.966	23544.38
710.31	23569.47
710.654	23479.98
710.998	23373.99
711.342	23396.14
711.687	23338.28
712.031	23268.46
712.375	23119.99
712.719	23115.24
713.063	23093.32
713.407	23100.32
713.75	23027.33
714.094	22945.98
714.438	22904.85
714.782	22871.4
715.125	22877.73
715.469	22794.12
715.812	22679.77
716.156	22564.97
716.499	22675.25
716.843	22532.88
717.186	22511.41
717.53	22594.12
717.873	22663.05
718.216	22533.33
718.559	22422.83
718.902	22228.26
719.246	22337.18
719.589	22183.06
719.932	22073.46
720.275	22126.11
720.617	22022.16
720.96	22029.84
721.303	21985.55
721.646	21914.37
721.989	21867.59
722.331	21836.63
722.674	21734.49
723.016	21773.35
723.359	21819.91
723.701	21820.81
724.044	21562.29
724.386	21548.28
724.729	21578.78
725.071	21486.58
725.413	21654.04
725.755	21545.34
726.097	21346.7
726.439	21301.95
726.782	21304.67
727.124	21421.05
727.465	21188.74
727.807	21099.02
728.149	21172.24
728.491	21099.25
728.833	21066.48
729.175	21045.92
729.516	21115.29
729.858	20936.99
730.199	21006.82
730.541	20894.06
730.882	20890.67
731.224	20926.82
731.565	20768.63
731.906	20726.15
732.248	20803.21
732.589	20640.05
732.93	20589.66
733.271	20591.01
733.612	20636.89
733.953	20492.94
734.294	20582.2
734.635	20510.34
734.976	20488.19
735.317	20411.13
735.658	20379.72
735.999	20450
736.339	20352.37
736.68	20400.96
737.021	20331.36
737.361	20222.89
737.702	20359.38
738.042	20228.76
738.383	20317.8
738.723	20266.5
739.063	20102.66
739.404	20134.08
739.744	20113.96
740.084	20067.41
740.424	20027.86
740.764	19912.39
741.104	19959.62
741.444	19927.07
741.784	19775.44
742.124	19880.52
742.464	19779.96
742.804	19652.51
743.143	19633.3
743.483	19610.02
743.823	19571.83
744.162	19580.87
744.502	19612.28
744.841	19460.87
745.181	19561.43
745.52	19387.43
745.86	19506.3
746.199	19431.95
746.538	19411.83
746.877	19468.56
747.216	19324.38
747.556	19266.3
747.895	19401.44
748.234	19258.62
748.573	19150.37
748.911	19229.24
749.25	19106.31
749.589	19015.46
749.928	19131.84
750.267	19084.16
750.605	19006.42
750.944	18924.16
751.283	18890.94
751.621	18918.29
751.96	18891.17
752.298	18847.56
752.636	18837.39
752.975	18715.13
753.313	18639.2
753.651	18760.78
753.989	18572.99
