Data from foam2_polystyrene_foam_FLMS001491_00057.txt Node
Date: Wed Feb 08 10:58:10 GMT 2017
User: dcchb
Spectrometer: FLMS00149
Trigger mode: 0
Integration Time (sec): 2.000000E-2
Scans to average: 10
Electric dark correction enabled: true
Nonlinearity correction enabled: false
Boxcar width: 0
XAxis mode: Wavelengths
Number of Pixels in Spectrum: 2048
>>>>>Begin Spectral Data<<<<<
341.393	-13.52
341.776	-13.52
342.16	-13.52
342.543	-62.55
342.927	-66.62
343.31	-59.84
343.693	-76.79
344.077	-41.54
344.46	-63.46
344.843	-49.22
345.226	-48.32
345.61	-33.63
345.993	-1.31
346.376	-11.03
346.759	11.57
347.142	26.48
347.525	44.11
347.908	24
348.291	66.26
348.674	82.3
349.057	130.43
349.44	130.21
349.823	139.25
350.206	166.14
350.588	187.61
350.971	211.56
351.354	240.04
351.737	237.55
352.119	247.27
352.502	272.13
352.884	242.52
353.267	284.55
353.65	305.8
354.032	314.84
354.414	308.51
354.797	320.03
355.179	314.84
355.562	357.1
355.944	330.2
356.326	347.6
356.709	336.98
357.091	328.17
357.473	333.59
357.855	345.8
358.238	355.51
358.62	347.38
359.002	366.81
359.384	344.67
359.766	342.63
360.148	358
360.53	370.88
360.912	352.8
361.294	360.03
361.676	362.07
362.057	335.4
362.439	347.38
362.821	340.6
363.203	341.73
363.584	348.73
363.966	330.88
364.348	345.34
364.729	340.82
365.111	329.53
365.493	342.18
365.874	329.3
366.256	334.5
366.637	353.93
367.019	348.51
367.4	321.39
367.781	343.31
368.163	324.1
368.544	343.99
368.925	343.76
369.306	365.68
369.688	348.51
370.069	329.53
370.45	341.28
370.831	322.97
371.212	330.43
371.593	343.76
371.974	364.1
372.355	345.34
372.736	358.68
373.117	360.71
373.498	358.68
373.879	345.12
374.26	352.12
374.641	339.24
375.021	341.5
375.402	362.52
375.783	371.78
376.163	386.02
376.544	400.26
376.925	376.76
377.305	346.47
377.686	371.78
378.066	374.04
378.447	362.97
378.827	383.08
379.208	364.33
379.588	389.41
379.968	395.06
380.349	411.11
380.729	382.18
381.109	380.37
381.489	386.02
381.87	410.88
382.25	388.05
382.63	381.73
383.01	407.04
383.39	398.45
383.77	402.52
384.15	399.81
384.53	413.59
384.91	416.3
385.29	435.51
385.67	426.7
386.049	424.21
386.429	441.84
386.809	423.53
387.189	412.91
387.568	428.51
387.948	426.25
388.328	444.78
388.707	460.14
389.087	465.34
389.466	447.94
389.846	432.12
390.225	458.79
390.605	454.49
390.984	449.3
391.363	439.35
391.743	460.82
392.122	478.9
392.501	477.09
392.881	473.7
393.26	494.04
393.639	488.39
394.018	482.97
394.397	497.2
394.776	491.1
395.155	487.04
395.534	511.44
395.913	517.99
396.292	509.63
396.671	524.77
397.05	523.19
397.429	527.94
397.808	528.62
398.186	509.63
398.565	521.61
398.944	534.27
399.323	550.31
399.701	534.49
400.08	534.94
400.458	556.86
400.837	566.81
401.215	562.74
401.594	553.25
401.972	565.68
402.351	570.87
402.729	576.07
403.107	596.41
403.486	605.45
403.864	603.42
404.242	612
404.62	592.34
404.999	601.61
405.377	622.85
405.755	600.25
406.133	601.16
406.511	626.69
406.889	643.87
407.267	644.55
407.645	684.09
408.023	645.9
408.401	691.1
408.779	678.44
409.156	680.7
409.534	673.02
409.912	682.74
410.29	702.85
410.667	714.37
411.045	722.28
411.422	721.15
411.8	716.86
412.178	727.25
412.555	746.24
412.933	750.08
413.31	769.97
413.687	786.69
414.065	780.59
414.442	780.36
414.819	800.47
415.197	807.25
415.574	830.53
415.951	812
416.328	823.07
416.705	825.11
417.082	831.21
417.46	857.19
417.837	846.8
418.214	855.16
418.591	863.97
418.967	841.6
419.344	849.29
419.721	896.29
420.098	860.13
420.475	877.08
420.852	897.65
421.228	908.04
421.605	900.36
421.982	909.85
422.358	948.72
422.735	943.07
423.111	954.14
423.488	954.37
423.864	970.64
424.241	1000.24
424.617	1000.47
424.994	1009.06
425.37	1025.1
425.746	1029.62
426.123	1002.73
426.499	1031.65
426.875	1053.8
427.251	1049.05
427.627	1092.22
428.003	1071.2
428.379	1108.49
428.756	1107.36
429.132	1134.7
429.507	1128.83
429.883	1173.34
430.259	1180.8
430.635	1169.05
431.011	1183.29
431.387	1179.9
431.763	1224.42
432.138	1241.37
432.514	1276.62
432.89	1267.13
433.265	1257.64
433.641	1268.48
434.016	1315.26
434.392	1328.14
434.767	1346
435.143	1360.01
435.518	1371.31
435.894	1375.6
436.269	1400.23
436.644	1403.85
437.02	1394.36
437.395	1425.09
437.77	1426.67
438.145	1454.24
438.52	1480.46
438.895	1518.42
439.271	1483.17
439.646	1526.1
440.021	1563.84
440.395	1555.26
440.77	1546.89
441.145	1576.95
441.52	1577.18
441.895	1606.1
442.27	1643.84
442.645	1630.51
443.019	1649.26
443.394	1627.8
443.769	1684.07
444.143	1658.76
444.518	1713.22
444.892	1694.69
445.267	1673.22
445.641	1764.29
446.016	1727.45
446.39	1750.05
446.764	1766.78
447.139	1755.25
447.513	1780.11
447.887	1801.35
448.262	1807
448.636	1809.26
449.01	1854.23
449.384	1861.01
449.758	1848.13
450.132	1910.27
450.506	1904.4
450.88	1923.83
451.254	1942.14
451.628	1969.71
452.002	1976.04
452.376	2004.74
452.75	2007
453.123	2042.47
453.497	2028.69
453.871	2062.59
454.244	2089.93
454.618	2128.12
454.992	2137.84
455.365	2148.69
455.739	2185.3
456.112	2219.65
456.486	2270.27
456.859	2240.89
457.232	2293.09
457.606	2278.85
457.979	2309.81
458.352	2383.93
458.725	2394.78
459.099	2392.3
459.472	2408.11
459.845	2466.42
460.218	2490.37
460.591	2503.03
460.964	2526.53
461.337	2561.1
461.71	2588.67
462.083	2642.01
462.456	2624.38
462.829	2660.54
463.201	2695.11
463.574	2708.45
463.947	2715.9
464.32	2776.24
464.692	2805.62
465.065	2840.42
465.438	2825.73
465.81	2926.75
466.183	2936.91
466.555	2980.98
466.928	3012.39
467.3	3008.32
467.672	3073.86
468.045	3135.33
468.417	3130.58
468.789	3166.74
469.161	3235.44
469.534	3234.76
469.906	3320.18
470.278	3303.46
470.65	3389.11
471.022	3451.48
471.394	3443.12
471.766	3494.41
472.138	3557.46
472.51	3591.81
472.882	3699.61
473.253	3699.83
473.625	3713.84
473.997	3862.77
474.369	3849.88
474.74	3911.35
475.112	3986.83
475.484	4043.1
475.855	4069.99
476.227	4081.97
476.598	4233.6
476.97	4212.81
477.341	4375.07
477.713	4380.04
478.084	4423.43
478.455	4534.16
478.827	4600.6
479.198	4734.38
479.569	4741.84
479.94	4857.09
480.311	4885.79
480.682	5029.29
481.053	5084.88
481.424	5215.5
481.795	5214.14
482.166	5308.6
482.537	5379.11
482.908	5484.87
483.279	5551.53
483.65	5643.74
484.021	5752.43
484.391	5823.62
484.762	5899.1
485.133	5933.22
485.503	5993.11
485.874	6145.19
486.244	6153.33
486.615	6297.96
486.985	6388.35
487.356	6476.03
487.726	6574.78
488.097	6676.93
488.467	6641
488.837	6814.1
489.207	6871.5
489.578	7013.19
489.948	7044.6
490.318	7149.46
490.688	7223.58
491.058	7285.95
491.428	7372.5
491.798	7462.9
492.168	7618.6
492.538	7633.51
492.908	7754.19
493.278	7817.01
493.648	7838.71
494.017	8024.69
494.387	8033.5
494.757	8116.44
495.126	8228.75
495.496	8261.29
495.866	8272.37
496.235	8416.54
496.605	8500.84
496.974	8525.02
497.344	8637.56
497.713	8655.63
498.082	8711.9
498.452	8804.1
498.821	8858.11
499.19	8912.12
499.559	8990.09
499.928	9065.57
500.298	9169.74
500.667	9203.87
501.036	9211.1
501.405	9317.09
501.774	9410.64
502.143	9460.13
502.512	9513.24
502.88	9573.12
503.249	9571.32
503.618	9680.92
503.987	9772.21
504.356	9780.58
504.724	9854.92
505.093	9938.09
505.462	10011.3
505.83	10050.4
506.199	10173.79
506.567	10256.04
506.936	10250.85
507.304	10334.91
507.672	10428.69
508.041	10461.91
508.409	10526.09
508.777	10587.11
509.145	10710.5
509.514	10686.09
509.882	10790.72
510.25	10895.35
510.618	10950.49
510.986	10994.56
511.354	11056.7
511.722	11265.51
512.09	11291.5
512.458	11222.12
512.826	11436.35
513.193	11507.31
513.561	11566.29
513.929	11646.29
514.297	11724.93
514.664	11887.19
515.032	11860.97
515.4	12051.25
515.767	12047.41
516.135	12157.69
516.502	12130.57
516.869	12317.91
517.237	12430.22
517.604	12400.85
517.972	12566.04
518.339	12546.83
518.706	12727.62
519.073	12750.67
519.44	12854.62
519.808	12975.75
520.175	13003.77
520.542	13206.7
520.909	13282.18
521.276	13325.34
521.643	13456.41
522.009	13604.2
522.376	13672
522.743	13709.29
523.11	13862.95
523.477	14028.83
523.843	14048.94
524.21	14284.86
524.577	14358.08
524.943	14471.07
525.31	14485.76
525.676	14657.06
526.043	14746.55
526.409	14757.39
526.776	14994.22
527.142	15072.64
527.508	15180.43
527.874	15250.49
528.241	15393.31
528.607	15364.38
528.973	15542.91
529.339	15425.17
529.705	15746.07
530.071	15807.08
530.437	15906.74
530.803	15983.8
531.169	16050.69
531.535	16109
531.901	16199.39
532.267	16249.56
532.632	16323.23
532.998	16412.94
533.364	16563.22
533.73	16634.63
534.095	16699.72
534.461	16728.42
534.826	16928.64
535.192	16967.28
535.557	17005.47
535.923	17050.22
536.288	17149.42
536.653	17211.12
537.019	17226.03
537.384	17417.89
537.749	17394.84
538.114	17497.89
538.479	17526.81
538.845	17601.61
539.21	17709.63
539.575	17769.52
539.94	17788.73
540.305	17935.16
540.67	17953.24
541.034	18007.25
541.399	18050.87
541.764	18077.08
542.129	18188.49
542.494	18215.61
542.858	18382.38
543.223	18338.77
543.587	18472.1
543.952	18491.53
544.316	18515.94
544.681	18603.17
545.045	18706.67
545.41	18854.91
545.774	18778.76
546.138	18849.26
546.503	18875.7
546.867	19007.9
547.231	19175.58
547.595	19206.54
547.959	19210.16
548.324	19263.49
548.688	19322.47
549.052	19301.68
549.416	19372.41
549.779	19518.4
550.143	19566.76
550.507	19616.25
550.871	19712.97
551.235	19715.68
551.599	19902.34
551.962	19939.41
552.326	20014.66
552.689	20213.07
553.053	20171.49
553.417	20103.69
553.78	20486.74
554.143	20293.75
554.507	20473.4
554.87	20532.61
555.234	20750.01
555.597	20771.25
555.96	20620.07
556.323	20827.97
556.686	20913.39
557.05	21078.81
557.413	20946.16
557.776	21174.17
558.139	21317.45
558.502	21362.64
558.865	21332.36
559.228	21626.14
559.59	21633.15
559.953	21706.82
560.316	21905.46
560.679	21966.02
561.041	22009.86
561.404	22198.1
561.767	22274.26
562.129	22275.16
562.492	22466.57
562.854	22431.09
563.217	22526.46
563.579	22600.8
563.941	22703.17
564.304	22877.18
564.666	23038.98
565.028	23079.44
565.39	23158.76
565.753	23225.42
566.115	23301.35
566.477	23439.43
566.839	23576.6
567.201	23684.62
567.563	23735.01
567.925	23902.24
568.287	23810.72
568.648	23942.92
569.01	24180.2
569.372	24271.95
569.734	24176.81
570.095	24433.98
570.457	24552.84
570.819	24536.12
571.18	24528.44
571.542	24648.66
571.903	24761.2
572.265	24760.3
572.626	24887.98
572.987	24918.26
573.349	24920.74
573.71	24937.69
574.071	25077.58
574.432	25186.95
574.794	25224.92
575.155	25181.53
575.516	25245.25
575.877	25414.97
576.238	25501.97
576.599	25600.5
576.96	25586.04
577.32	25588.52
577.681	25689.31
578.042	25761.17
578.403	25790.55
578.763	25788.97
579.124	25960.26
579.485	25913.71
579.845	25869.87
580.206	25891.56
580.566	25973.14
580.927	26039.13
581.287	26222.4
581.648	26061.96
582.008	26070.77
582.368	26146.02
582.728	26214.49
583.089	26013.14
583.449	26188.05
583.809	26158.9
584.169	26215.17
584.529	26071
584.889	26407.94
585.249	26117.77
585.609	26011.11
585.969	26243.42
586.329	26121.16
586.688	26257.43
587.048	26280.93
587.408	26167.04
587.768	26191.22
588.127	26070.09
588.487	26063.09
588.846	26301.27
589.206	26078.68
589.565	26087.94
589.925	26179.02
590.284	26207.94
590.643	26217.21
591.003	26303.98
591.362	26429.86
591.721	26273.48
592.08	26261.27
592.44	26435.73
592.799	26270.31
593.158	26463.98
593.517	26414.72
593.876	26405.9
594.235	26303.98
594.593	26383.76
594.952	26397.31
595.311	26292.23
595.67	26416.97
596.029	26443.19
596.387	26491.78
596.746	26552.56
597.104	26434.83
597.463	26419.01
597.822	26460.82
598.18	26390.08
598.538	26447.48
598.897	26639.34
599.255	26325
599.613	26717.53
599.972	26730.64
600.33	26739.45
600.688	26677.98
601.046	26705.78
601.404	26802.05
601.762	26744.42
602.12	26983.06
602.478	26900.13
602.836	26880.01
603.194	26800.92
603.552	27000.01
603.91	26783.97
604.268	26951.65
604.625	26936.06
604.983	27163.62
605.341	26942.84
605.698	27077.07
606.056	27124.98
606.413	27102.83
606.771	27123.62
607.128	27134.92
607.485	27035.26
607.843	27035.49
608.2	27191.42
608.557	27305.09
608.914	27109.16
609.272	27278.87
609.629	27373.56
609.986	27442.03
610.343	27212.21
610.7	27581.01
611.057	27408.81
611.414	27369.94
611.771	27403.62
612.127	27602.93
612.484	27590.28
612.841	27612.2
613.198	27573.1
613.554	27554.35
613.911	27602.93
614.267	27636.15
614.624	27635.25
614.98	27642.48
615.337	27844.73
615.693	27706.66
616.05	27741.91
616.406	27971.96
616.762	27914.56
617.118	27767
617.475	27892.64
617.831	28029.59
618.187	27829.82
618.543	28058.74
618.899	28174.67
619.255	28082.24
619.611	28003.83
619.967	28109.13
620.323	28166.08
620.678	28141.68
621.034	28026.2
621.39	27956.82
621.746	27991.62
622.101	28306.19
622.457	28056.93
622.812	28175.57
623.168	28166.99
623.523	28261.67
623.879	28115.69
624.234	27844.73
624.589	28124.73
624.945	28033.2
625.3	28045.86
625.655	28063.03
626.01	28161.34
626.365	28035.01
626.72	28062.81
627.075	28148
627.43	28150.71
627.785	28012.64
628.14	28044.5
628.495	28024.39
628.85	27978.52
629.205	28043.37
629.559	28103.03
629.914	27955.47
630.269	28008.8
630.623	27868.01
630.978	27795.7
631.332	27917.73
631.687	28008.8
632.041	27780.78
632.396	27812.87
632.75	27754.79
633.104	27794.34
633.459	27670.73
633.813	27697.85
634.167	27481.13
634.521	27567.23
634.875	27667.56
635.229	27525.42
635.583	27419.21
635.937	27520.45
636.291	27447.91
636.645	27339.89
636.999	27421.69
637.352	27481.13
637.706	27271.87
638.06	27342.15
638.413	27224.86
638.767	27225.99
639.121	27160.91
639.474	27045.66
639.828	27111.87
640.181	27099.67
640.534	27018.32
640.888	26966.34
641.241	26790.3
641.594	26889.5
641.947	26967.69
642.301	26856.96
642.654	26875.95
643.007	26809.51
643.36	26714.37
643.713	26667.36
644.066	26703.97
644.419	26574.26
644.771	26444.54
645.124	26154.83
645.477	26014.27
645.83	25946.7
646.182	25727.95
646.535	25759.82
646.888	25768.18
647.24	25623.78
647.593	25812.25
647.945	25707.84
648.298	25636.88
648.65	25597.79
649.002	25308.3
649.355	25515.08
649.707	25454.97
650.059	25661.74
650.411	25879.36
650.763	25986.93
651.115	26201.84
651.467	26089.75
651.819	26085.68
652.171	26059.7
652.523	25933.15
652.875	25945.35
653.227	25868.51
653.578	26074.84
653.93	25919.81
654.282	25808.86
654.633	25815.63
654.985	25871
655.337	25873.49
655.688	25828.06
656.039	25951.22
656.391	25729.54
656.742	25683.66
657.094	25720.5
657.445	25799.82
657.796	25731.12
658.147	25640.27
658.498	25577.9
658.849	25739.25
659.2	25733.15
659.551	25485.02
659.902	25617.45
660.253	25712.81
660.604	25636.43
660.955	25450.45
661.306	25645.47
661.656	25506.26
662.007	25474.85
662.358	25481.86
662.708	25524.12
663.059	25418.81
663.409	25268.98
663.76	25508.98
664.11	25372.48
664.461	25411.35
664.811	25435.76
665.161	25520.28
665.511	25387.17
665.862	25419.04
666.212	25456.77
666.562	25456.77
666.912	25317.79
667.262	25262.2
667.612	25410.45
667.962	25362.31
668.312	25336.1
668.662	25511.24
669.011	25297.23
669.361	25298.13
669.711	25247.06
670.06	25219.94
670.41	25179.95
670.76	25124.58
671.109	25248.87
671.459	25192.15
671.808	25155.09
672.157	25186.5
672.507	25011.14
672.856	25056.33
673.205	24956.67
673.554	25129.55
673.904	24919.61
674.253	25152.6
674.602	24952.38
674.951	24686.85
675.3	24488.89
675.649	25010.46
675.998	24886.17
676.346	24936.11
676.695	24967.3
677.044	24866.06
677.393	24916.9
677.741	24848.88
678.09	24929.1
678.438	24843
678.787	24951.93
679.135	24799.62
679.484	24690.47
679.832	24835.32
680.181	24728.43
680.529	24777.7
680.877	24609.11
681.225	24574.54
681.573	24612.73
681.922	24451.38
682.27	24406.41
682.618	24456.57
682.966	24412.06
683.314	24469.46
683.661	24400.53
684.009	24196.47
684.357	24260.65
684.705	24128.67
685.053	24238.05
685.4	24055.68
685.748	24025.63
686.095	23992.63
686.443	23905.63
686.79	23861.11
687.138	23876.48
687.485	23973.42
687.832	23743.6
688.18	23779.98
688.527	23538.41
688.874	23747.67
689.221	23586.09
689.568	23535.92
689.915	23406.66
690.262	23487.33
690.609	23410.73
690.956	23354
691.303	23315.81
691.65	23289.6
691.997	23201.01
692.344	23166.89
692.69	23096.16
693.037	23129.38
693.383	22840.8
693.73	22978.2
694.077	22891.42
694.423	22913.56
694.769	22789.73
695.116	22720.57
695.462	22590.86
695.808	22630.86
696.155	22585.21
696.501	22370.3
696.847	22395.16
697.193	22327.59
697.539	22262.96
697.885	22205.11
698.231	22062.06
698.577	22068.16
698.923	22131.44
699.269	21992.01
699.614	21811.9
699.96	21830.43
700.306	21734.84
700.651	21618.91
700.997	21651
701.342	21531
701.688	21566.93
702.033	21418.01
702.379	21456.88
702.724	21466.82
703.069	21477.22
703.415	21241.52
703.76	21203.55
704.105	21230.44
704.45	21140.28
704.795	21033.39
705.14	21006.04
705.485	21070.22
705.83	20924.69
706.175	20943.9
706.52	20914.52
706.865	20787.52
707.209	20744.13
707.554	20659.61
707.899	20622.1
708.243	20504.59
708.588	20575.55
708.932	20407.42
709.277	20388.88
709.621	20448.32
709.966	20139.4
710.31	20306.85
710.654	20118.61
710.998	20150.47
711.342	20126.52
711.687	20000.65
712.031	19979.4
712.375	19845.85
712.719	19853.53
713.063	19836.58
713.407	19834.1
713.75	19670.49
714.094	19804.72
714.438	19712.97
714.782	19766.98
715.125	19670.26
715.469	19672.07
715.812	19513.88
716.156	19343.04
716.499	19489.47
716.843	19438.85
717.186	19399.76
717.53	19404.96
717.873	19442.24
718.216	19354.11
718.559	19246.09
718.902	19126.09
719.246	19068.69
719.589	19068.92
719.932	18999.09
720.275	19040.45
720.617	19095.81
720.96	19039.77
721.303	18953.89
721.646	18978.98
721.989	18786.22
722.331	18862.82
722.674	18669.83
723.016	18848.36
723.359	18849.49
723.701	18701.7
724.044	18631.19
724.386	18569.27
724.729	18714.13
725.071	18540.35
725.413	18554.58
725.755	18509.16
726.097	18411.76
726.439	18350.75
726.782	18405.89
727.124	18447.24
727.465	18355.04
727.807	18303.29
728.149	18246.34
728.491	18194.59
728.833	18242.73
729.175	18129.28
729.516	18010.64
729.858	18089.06
730.199	18000.25
730.541	17969.74
730.882	17874.37
731.224	17982.85
731.565	17906.46
731.906	17880.48
732.248	17858.56
732.589	17784.66
732.93	17719.35
733.271	17725.68
733.612	17714.83
733.953	17790.08
734.294	17691.33
734.635	17611.33
734.976	17667.83
735.317	17626.47
735.658	17637.09
735.999	17520.71
736.339	17583.08
736.68	17551.9
737.021	17423.54
737.361	17454.27
737.702	17581.5
738.042	17518.68
738.383	17402.75
738.723	17459.92
739.063	17257.67
739.404	17467.15
739.744	17375.63
740.084	17341.06
740.424	17278.68
740.764	17212.47
741.104	17197.78
741.444	17205.01
741.784	17103.55
742.124	17141.96
742.464	17181.51
742.804	17041.85
743.143	16986.94
743.483	16955.53
743.823	16899.26
744.162	16866.04
744.502	16929.54
744.841	16828.75
745.181	16839.83
745.52	16862.88
745.86	16847.73
746.199	16737
746.538	16775.19
746.877	16679.38
747.216	16762.09
747.556	16643.67
747.895	16657.46
748.234	16585.14
748.573	16600.96
748.911	16480.74
749.25	16600.96
749.589	16335.43
749.928	16481.19
750.267	16385.6
750.605	16408.88
750.944	16338.82
751.283	16202.55
751.621	16307.41
751.96	16187.19
752.298	16151.26
752.636	16196.45
752.975	16089.11
753.313	16074.42
753.651	16097.7
753.989	15902.68
754.327	16011.82
754.666	15848.21
755.004	15843.92
755.342	15918.72
755.679	15842.79
