Data from foam2_polystyrene_foam_FLMS001491_00070.txt Node
Date: Wed Feb 08 10:58:21 GMT 2017
User: dcchb
Spectrometer: FLMS00149
Trigger mode: 0
Integration Time (sec): 2.000000E-2
Scans to average: 10
Electric dark correction enabled: true
Nonlinearity correction enabled: false
Boxcar width: 0
XAxis mode: Wavelengths
Number of Pixels in Spectrum: 2048
>>>>>Begin Spectral Data<<<<<
341.393	-24.31
341.776	-24.31
342.16	-24.31
342.543	-57.53
342.927	-48.94
343.31	-67.92
343.693	-75.61
344.077	-65.66
344.46	-53.46
344.843	-59.33
345.226	-33.12
345.61	-18.43
345.993	-20.01
346.376	-31.76
346.759	7.78
347.142	38.52
347.525	42.81
347.908	64.05
348.291	68.8
348.674	103.6
349.057	99.76
349.44	152.19
349.823	137.04
350.206	163.94
350.588	208
350.971	235.35
351.354	245.74
351.737	249.81
352.119	234.67
352.502	270.83
352.884	277.61
353.267	298.4
353.65	309.24
354.032	304.05
354.414	306.53
354.797	316.02
355.179	316.93
355.562	342.01
355.944	327.32
356.326	338.4
356.709	340.43
357.091	328.9
357.473	344.04
357.855	347.43
358.238	344.5
358.62	322.35
359.002	330.71
359.384	348.34
359.766	364.38
360.148	360.99
360.53	337.49
360.912	342.91
361.294	368.22
361.676	352.63
362.057	340.88
362.439	330.71
362.821	342.69
363.203	339.07
363.584	337.94
363.966	333.88
364.348	349.02
364.729	337.04
365.111	344.27
365.493	334.78
365.874	335.23
366.256	340.65
366.637	332.97
367.019	328.23
367.4	347.21
367.781	344.72
368.163	348.56
368.544	320.99
368.925	326.42
369.306	345.63
369.688	344.04
370.069	342.01
370.45	327.55
370.831	333.2
371.212	333.2
371.593	337.27
371.974	356.7
372.355	337.49
372.736	333.65
373.117	359.86
373.498	334.55
373.879	330.71
374.26	354.44
374.641	328.68
375.021	344.5
375.402	356.02
375.783	360.99
376.163	356.7
376.544	356.7
376.925	357.6
377.305	369.13
377.686	348.79
378.066	375.68
378.447	351.05
378.827	368.9
379.208	352.18
379.588	368.22
379.968	394.44
380.349	373.87
380.729	403.93
381.109	369.35
381.489	400.54
381.87	387.21
382.25	371.39
382.63	410.48
383.01	379.75
383.39	391.28
383.77	405.29
384.15	399.86
384.53	413.65
384.91	428.79
385.29	412.07
385.67	411.16
386.049	400.31
386.429	413.2
386.809	402.35
387.189	416.59
387.568	431.73
387.948	412.74
388.328	429.24
388.707	455.23
389.087	448
389.466	423.82
389.846	441.22
390.225	452.06
390.605	451.84
390.984	444.83
391.363	465.85
391.743	465.62
392.122	450.48
392.501	439.64
392.881	460.88
393.26	466.98
393.639	476.92
394.018	472.18
394.397	474.66
394.776	469.92
395.155	470.82
395.534	479.18
395.913	482.8
396.292	485.96
396.671	489.58
397.05	501.33
397.429	508.11
397.808	510.37
398.186	485.96
398.565	495.45
398.944	511.27
399.323	499.07
399.701	507.43
400.08	498.84
400.458	515.57
400.837	524.83
401.215	549.01
401.594	523.7
401.972	527.32
402.351	551.95
402.729	520.76
403.107	542.23
403.486	558.73
403.864	551.5
404.242	538.62
404.62	564.83
404.999	575.45
405.377	578.16
405.755	577.26
406.133	583.59
406.511	581.33
406.889	575.45
407.267	610.25
407.645	591.72
408.023	605.51
408.401	629.01
408.779	624.04
409.156	629.01
409.534	633.3
409.912	610.7
410.29	628.56
410.667	657.03
411.045	672.4
411.422	648.67
411.8	637.37
412.178	675.34
412.555	661.32
412.933	667.88
413.31	670.82
413.687	684.15
414.065	707.2
414.442	711.94
414.819	724.6
415.197	720.08
415.574	712.4
415.951	726.41
416.328	740.19
416.705	721.21
417.082	739.74
417.46	744.94
417.837	732.51
418.214	765.5
418.591	778.84
418.967	756.92
419.344	782.68
419.721	789
420.098	783.58
420.475	803.92
420.852	804.15
421.228	807.08
421.605	830.36
421.982	805.73
422.358	821.77
422.735	838.04
423.111	831.94
423.488	865.84
423.864	836.24
424.241	857.48
424.617	870.36
424.994	863.13
425.37	905.61
425.746	898.83
426.123	891.83
426.499	899.96
426.875	915.33
427.251	938.83
427.627	936.57
428.003	950.81
428.379	966.4
428.756	978.6
429.132	983.8
429.507	980.41
429.883	1028.55
430.259	996
430.635	1019.06
431.011	1026.96
431.387	1026.51
431.763	1061.99
432.138	1087.53
432.514	1094.53
432.89	1110.58
433.265	1103.57
433.641	1127.07
434.016	1131.37
434.392	1141.09
434.767	1174.08
435.143	1139.73
435.518	1166.17
435.894	1192.84
436.269	1195.77
436.644	1189.67
437.02	1231.25
437.395	1210.91
437.77	1250.24
438.145	1259.95
438.52	1275.09
438.895	1297.92
439.271	1282.55
439.646	1311.48
440.021	1343.79
440.395	1341.53
440.77	1333.17
441.145	1345.83
441.52	1371.59
441.895	1353.28
442.27	1378.14
442.645	1397.12
443.019	1386.28
443.394	1423.56
443.769	1426.73
444.143	1377.92
444.518	1422.43
444.892	1468.99
445.267	1461.76
445.641	1474.64
446.016	1454.98
446.39	1497.23
446.764	1477.57
447.139	1508.53
447.513	1530
447.887	1529.78
448.262	1550.11
448.636	1560.06
449.01	1515.09
449.384	1566.84
449.758	1561.41
450.132	1618.81
450.506	1603.45
450.88	1636.89
451.254	1627.63
451.628	1649.1
452.002	1659.94
452.376	1659.49
452.75	1690.22
453.123	1688.87
453.497	1725.48
453.871	1725.93
454.244	1762.31
454.618	1779.26
454.992	1786.49
455.365	1778.36
455.739	1830.79
456.112	1893.61
456.486	1846.83
456.859	1861.97
457.232	1913.95
457.606	1906.49
457.979	1921.4
458.352	1956.43
458.725	1931.8
459.099	1937.68
459.472	2002.08
459.845	2034.85
460.218	2038.01
460.591	2080.72
460.964	2057.9
461.337	2104
461.71	2148.74
462.083	2161.85
462.456	2177.44
462.829	2131.57
463.201	2184.9
463.574	2204.56
463.947	2260.38
464.32	2238.23
464.692	2271.45
465.065	2296.08
465.438	2333.14
465.81	2391
466.183	2373.6
466.555	2449.3
466.928	2437.1
467.3	2435.29
467.672	2475.06
468.045	2557.77
468.417	2522.52
468.789	2548.73
469.161	2618.34
469.534	2605.23
469.906	2660.59
470.278	2666.24
470.65	2719.35
471.022	2772
471.394	2837.54
471.766	2802.74
472.138	2889.97
472.51	2917.08
472.882	2904.88
473.253	2960.92
473.625	3036.86
473.997	3062.84
474.369	3107.14
474.74	3152.56
475.112	3145.78
475.484	3187.59
475.855	3265.55
476.227	3302.16
476.598	3374.47
476.97	3406.11
477.341	3502.38
477.713	3526.33
478.084	3555.94
478.455	3615.37
478.827	3679.32
479.198	3770.17
479.569	3778.08
479.94	3831.18
480.311	3901.47
480.682	3976.49
481.053	4051.97
481.424	4140.1
481.795	4161.8
482.166	4219.87
482.537	4280.44
482.908	4341.68
483.279	4404.28
483.65	4462.35
484.021	4522.47
484.391	4596.59
484.762	4660.99
485.133	4668.9
485.503	4737.6
485.874	4833.87
486.244	4908.67
486.615	4968.56
486.985	5062.34
487.356	5138.49
487.726	5144.82
488.097	5237.48
488.467	5278.83
488.837	5346.4
489.207	5430.24
489.578	5467.98
489.948	5527.19
490.318	5624.58
490.688	5622.32
491.058	5754.52
491.428	5804.69
491.798	5885.82
492.168	5976.44
492.538	5996.55
492.908	6041.75
493.278	6197.9
493.648	6185.7
494.017	6209.88
494.387	6304.79
494.757	6369.2
495.126	6416.88
495.496	6436.31
495.866	6508.4
496.235	6581.85
496.605	6560.15
496.974	6639.02
497.344	6716.53
497.713	6782.97
498.082	6817.55
498.452	6881.73
498.821	6899.13
499.19	6868.62
499.559	6998.56
499.928	6995.17
500.298	7098.22
500.667	7156.75
501.036	7131.21
501.405	7234.26
501.774	7204.2
502.143	7309.29
502.512	7370.98
502.88	7366.23
503.249	7456.63
503.618	7486
503.987	7524.42
504.356	7641.03
504.724	7690.29
505.093	7729.61
505.462	7692.1
505.83	7807.35
506.199	7900
506.567	7938.2
506.936	7986.78
507.304	8030.17
507.672	8033.56
508.041	8147.91
508.409	8168.47
508.777	8262.93
509.145	8293.67
509.514	8332.08
509.882	8371.4
510.25	8464.96
510.618	8559.2
510.986	8599.42
511.354	8639.87
511.722	8632.41
512.09	8787.21
512.458	8742.47
512.826	8858.17
513.193	8919.19
513.561	8834.67
513.929	9023.59
514.297	9066.98
514.664	9130.03
515.032	9241.89
515.4	9193.08
515.767	9297.93
516.135	9379.51
516.502	9367.99
516.869	9500.64
517.237	9488.44
517.604	9530.7
517.972	9651.82
518.339	9786.96
518.706	9785.38
519.073	9887.07
519.44	9951.02
519.808	10066.27
520.175	9977.01
520.542	10162.54
520.909	10232.37
521.276	10225.82
521.643	10372.26
522.009	10448.19
522.376	10493.38
522.743	10577.67
523.11	10688.18
523.477	10785.35
523.843	10814.5
524.21	10931.56
524.577	11034.39
524.943	11060.82
525.31	11239.13
525.676	11269.86
526.043	11302.63
526.409	11369.07
526.776	11490.64
527.142	11472.11
527.508	11572.68
527.874	11682.73
528.241	11814.03
528.607	11797.3
528.973	11972.89
529.339	11946.23
529.705	12098.31
530.071	12124.75
530.437	12226.22
530.803	12262.15
531.169	12336.05
531.535	12312.09
531.901	12435.48
532.267	12487.23
532.632	12572.42
532.998	12560.22
533.364	12688.35
533.73	12683.61
534.095	12791.63
534.461	12881.79
534.826	12864.62
535.192	12965.18
535.557	13110.49
535.923	13061.9
536.288	13188.68
536.653	13258.06
537.019	13190.26
537.384	13222.58
537.749	13274.78
538.114	13341.67
538.479	13416.02
538.845	13468.9
539.21	13442.23
539.575	13512.96
539.94	13657.82
540.305	13763.13
540.67	13663.47
541.034	13812.17
541.399	13762.45
541.764	13876.34
542.129	13933.29
542.494	14017.81
542.858	14006.74
543.223	13991.14
543.587	14131.7
543.952	14142.33
544.316	14250.8
544.681	14244.47
545.045	14249.22
545.41	14295.32
545.774	14336.9
546.138	14448.53
546.503	14374.86
546.867	14509.77
547.231	14607.4
547.595	14589.32
547.959	14704.35
548.324	14724.68
548.688	14808.75
549.052	14816.21
549.416	14799.03
549.779	14839.48
550.143	14881.52
550.507	15018.01
550.871	15124.45
551.235	15105.24
551.599	15241.73
551.962	15327.15
552.326	15256.42
552.689	15389.3
553.053	15386.59
553.417	15453.03
553.78	15588.62
554.143	15539.13
554.507	15638.56
554.87	15717.88
555.234	15957.87
555.597	15768.05
555.96	15840.36
556.323	15885.56
556.686	15988.15
557.05	16139.11
557.413	16161.71
557.776	16162.39
558.139	16305.43
558.502	16319.44
558.865	16389.05
559.228	16586.78
559.59	16653.67
559.953	16619.55
560.316	16885.76
560.679	16703.61
561.041	16859.09
561.404	16988.58
561.767	17117.39
562.129	17145.18
562.492	17154.22
562.854	17256.59
563.217	17260.44
563.579	17354.9
563.941	17494.33
564.304	17528.23
564.666	17650.26
565.028	17653.42
565.39	17732.06
565.753	17923.92
566.115	17858.16
566.477	18029
566.839	17987.2
567.201	18214.99
567.563	18213.18
567.925	18403.68
568.287	18304.48
568.648	18434.19
569.01	18544.7
569.372	18586.95
569.734	18610.91
570.095	18668.99
570.457	18802.09
570.819	18810
571.18	18876.89
571.542	18989.88
571.903	18953.72
572.265	19079.15
572.626	19110.78
572.987	19163.44
573.349	19221.74
573.71	19376.09
574.071	19404.79
574.432	19459.93
574.794	19588.28
575.155	19509.42
575.516	19527.04
575.877	19588.06
576.238	19621.28
576.599	19734.27
576.96	19717.55
577.32	19808.84
577.681	19844.55
578.042	19881.61
578.403	19868.05
578.763	19969.52
579.124	19971.1
579.485	20026.92
579.845	20064.2
580.206	20045.9
580.566	20023.3
580.927	20036.18
581.287	20176.52
581.648	20117.99
582.008	20289.28
582.368	20096.75
582.728	20154.37
583.089	20219.91
583.449	20129.06
583.809	20213.13
584.169	20243.86
584.529	20225.33
584.889	20301.26
585.249	20246.35
585.609	20207.03
585.969	20366.57
586.329	20189.85
586.688	20264.2
587.048	20248.15
587.408	20302.62
587.768	20194.6
588.127	20227.14
588.487	20262.16
588.846	20423.52
589.206	20265.33
589.565	20269.62
589.925	20325.44
590.284	20327.47
590.643	20272.33
591.003	20369.96
591.362	20486.11
591.721	20362.95
592.08	20396.4
592.44	20422.61
592.799	20387.81
593.158	20333.35
593.517	20407.02
593.876	20454.48
594.235	20356.63
594.593	20390.3
594.952	20556.39
595.311	20394.36
595.67	20367.47
596.029	20592.78
596.387	20508.71
596.746	20496.06
597.104	20590.97
597.463	20387.59
597.822	20568.6
598.18	20491.09
598.538	20508.94
598.897	20645.21
599.255	20438.88
599.613	20729.27
599.972	20744.64
600.33	20698.09
600.688	20611.08
601.046	20756.39
601.404	20845.88
601.762	20698.99
602.12	20743.28
602.478	20720.91
602.836	20773.11
603.194	20672.32
603.552	20764.07
603.91	20592.33
604.268	20798.2
604.625	20767.24
604.983	20743.51
605.341	20720.91
605.698	20772.21
606.056	20794.58
606.413	20814.69
606.771	20938.53
607.128	20895.14
607.485	20812.88
607.843	20803.62
608.2	20943.05
608.557	21075.93
608.914	21028.25
609.272	21054.91
609.629	21150.5
609.986	21124.97
610.343	21091.3
610.7	21266.43
611.057	21186.43
611.414	21130.62
611.771	21185.98
612.127	21308.69
612.484	21227.56
612.841	21421.68
613.198	21214
613.554	21230.73
613.911	21394.34
614.267	21302.36
614.624	21382.14
614.98	21314.11
615.337	21501
615.693	21470.04
616.05	21382.59
616.406	21524.5
616.762	21478.86
617.118	21448.35
617.475	21473.88
617.831	21617.16
618.187	21481.34
618.543	21521.57
618.899	21676.82
619.255	21611.28
619.611	21570.15
619.967	21737.15
620.323	21683.82
620.678	21625.07
621.034	21522.47
621.39	21466.2
621.746	21526.99
622.101	21803.14
622.457	21548.01
622.812	21583.03
623.168	21614.22
623.523	21675.69
623.879	21804.95
624.234	21544.39
624.589	21764.72
624.945	21598.85
625.3	21615.35
625.655	21663.26
626.01	21644.28
626.365	21627.78
626.72	21613.99
627.075	21678.4
627.43	21638.63
627.785	21515.69
628.14	21558.18
628.495	21604.73
628.85	21666.87
629.205	21425.3
629.559	21504.62
629.914	21445.86
630.269	21576.03
630.623	21399.76
630.978	21413.77
631.332	21448.8
631.687	21509.14
632.041	21490.83
632.396	21388.46
632.75	21242.93
633.104	21411.51
633.459	21221.46
633.813	21315.02
634.167	21245.42
634.521	21191.41
634.875	21228.24
635.229	21199.09
635.583	21101.24
635.937	21150.73
636.291	21066.21
636.645	20990.06
636.999	20894.92
637.352	21032.09
637.706	20813.11
638.06	20964.29
638.413	20959.55
638.767	20875.03
639.121	20857.18
639.474	20702.38
639.828	20787.12
640.181	20826.9
640.534	20780.57
640.888	20608.6
641.241	20568.37
641.594	20566.56
641.947	20586
642.301	20644.3
642.654	20623.29
643.007	20698.99
643.36	20666
643.713	20584.64
644.066	20644.08
644.419	20438.88
644.771	20343.07
645.124	20006.58
645.477	19910.31
645.83	19814.04
646.182	19721.39
646.535	19735.63
646.888	19838.67
647.24	19713.93
647.593	19968.61
647.945	19824.66
648.298	19739.69
648.65	19730.65
649.002	19548.51
649.355	19548.74
649.707	19539.47
650.059	19670.99
650.411	19878.67
650.763	19891.1
651.115	20028.5
651.467	19961.38
651.819	20012.91
652.171	19943.3
652.523	19889.07
652.875	19880.48
653.227	19846.58
653.578	19872.34
653.93	19887.49
654.282	19815.4
654.633	19679.81
654.985	19758.45
655.337	19742.18
655.688	19747.38
656.039	19759.58
656.391	19676.19
656.742	19605.91
657.094	19621.96
657.445	19689.98
657.796	19605.01
658.147	19581.96
658.498	19590.09
658.849	19566.59
659.2	19561.62
659.551	19509.42
659.902	19557.78
660.253	19528.62
660.604	19611.33
660.955	19448.18
661.306	19465.35
661.656	19473.71
662.007	19486.14
662.358	19443.2
662.708	19439.36
663.059	19381.74
663.409	19248.63
663.76	19482.75
664.11	19461.73
664.461	19391.68
664.811	19400.49
665.161	19455.63
665.511	19346.48
665.862	19246.37
666.212	19377.67
666.562	19242.08
666.912	19416.09
667.262	19271.23
667.612	19272.59
667.962	19265.58
668.312	19249.54
668.662	19315.52
669.011	19272.81
669.361	19201.63
669.711	19172.02
670.06	19106.94
670.41	19185.13
670.76	19074.4
671.109	19214.28
671.459	19138.58
671.808	19108.3
672.157	19069.2
672.507	18994.85
672.856	19024.46
673.205	19074.4
673.554	19045.47
673.904	19066.49
674.253	19078.02
674.602	18993.72
674.951	18682.77
675.3	18594.19
675.649	19036.43
675.998	18897.68
676.346	18918.02
676.695	19041.41
677.044	18814.07
677.393	18888.42
677.741	18887.29
678.09	18858.13
678.438	18755.76
678.787	18793.05
679.135	18767.97
679.484	18718.25
679.832	18716.44
680.181	18499.95
680.529	18644.81
680.877	18709.89
681.225	18609.33
681.573	18723.22
681.922	18552.38
682.27	18501.08
682.618	18576.79
682.966	18478.94
683.314	18503.79
683.661	18431.93
684.009	18379.05
684.357	18262.22
684.705	18211.15
685.053	18266.96
685.4	18287.08
685.748	18162.11
686.095	18202.78
686.443	18196.46
686.79	18079.4
687.138	18104.03
687.485	18071.71
687.832	17997.82
688.18	17993.98
688.527	17930.7
688.874	17883.47
689.221	17849.8
689.568	17853.41
689.915	17772.06
690.262	17812.06
690.609	17680.76
690.956	17602.35
691.303	17604.83
691.65	17555.8
691.997	17507.21
692.344	17464.72
692.69	17530.03
693.037	17409.81
693.383	17196.71
693.73	17223.15
694.077	17228.35
694.423	17191.51
694.769	17100.44
695.116	17140.44
695.462	17088.24
695.808	16911.52
696.155	17003.95
696.501	16866.1
696.847	16859.32
697.193	16825.87
697.539	16739.77
697.885	16677.4
698.231	16646.89
698.577	16628.59
698.923	16570.28
699.269	16548.59
699.614	16435.6
699.96	16434.47
700.306	16430.85
700.651	16374.58
700.997	16293.91
701.342	16363.96
701.688	16244.87
702.033	16148.15
702.379	16228.15
702.724	16180.24
703.069	16114.25
703.415	15939.57
703.76	16010.98
704.105	16035.61
704.45	15926.69
704.795	15817.54
705.14	15804.2
705.485	15792.9
705.83	15737.99
706.175	15737.99
706.52	15734.83
706.865	15667.71
707.209	15636.75
707.554	15564.21
707.899	15585.45
708.243	15488.96
708.588	15523.76
708.932	15374.16
709.277	15314.05
709.621	15393.82
709.966	15327.38
710.31	15288.74
710.654	15196.54
710.998	15240.15
711.342	15170.1
711.687	15067.27
712.031	15130.32
712.375	15023.88
712.719	15110.21
713.063	14945.69
713.407	15074.05
713.75	15004.68
714.094	14991.57
714.438	14910.22
714.782	14877
715.125	14791.8
715.469	14727.4
715.812	14718.81
716.156	14622.31
716.499	14673.39
716.843	14689.88
717.186	14596.55
717.53	14640.84
717.873	14696.66
718.216	14544.12
718.559	14560.62
718.902	14446.95
719.246	14419.15
719.589	14378.48
719.932	14401.3
720.275	14371.7
720.617	14376.9
720.96	14239.72
721.303	14338.93
721.646	14350.23
721.989	14234.53
722.331	14256.67
722.674	14151.59
723.016	14188.88
723.359	14124.47
723.701	14185.04
724.044	14061.88
724.386	13971.26
724.729	14049.9
725.071	14076.11
725.413	14017.36
725.755	14007.41
726.097	13980.07
726.439	13860.3
726.782	13918.15
727.124	13953.18
727.465	13799.06
727.807	13869.56
728.149	13884.25
728.491	13841.77
728.833	13823.24
729.175	13702.79
729.516	13703.02
729.858	13725.39
730.199	13720.19
730.541	13690.59
730.882	13645.16
731.224	13679.74
731.565	13569.01
731.906	13620.08
732.248	13590.7
732.589	13445.4
732.93	13541.89
733.271	13477.71
733.612	13458.95
733.953	13525.39
734.294	13457.15
734.635	13348.22
734.976	13419.18
735.317	13331.95
735.658	13315.68
735.999	13327.88
736.339	13344.15
736.68	13276.81
737.021	13298.28
737.361	13199.53
737.702	13253.31
738.042	13177.38
738.383	13213.54
738.723	13233.88
739.063	13116.59
739.404	13204.5
739.744	13084.95
740.084	12991.17
740.424	13103.94
740.764	12980.55
741.104	13006.76
741.444	12918.4
741.784	12939.65
742.124	12903.26
742.464	12972.41
742.804	12938.97
743.143	12891.51
743.483	12898.29
743.823	12796.6
744.162	12721.12
744.502	12799.99
744.841	12733.32
745.181	12811.51
745.52	12682.48
745.86	12698.07
746.199	12706.21
746.538	12629.6
746.877	12766.32
747.216	12609.71
747.556	12611.97
747.895	12683.83
748.234	12510.5
748.573	12607.9
748.911	12579.88
749.25	12514.35
749.589	12483.39
749.928	12452.43
750.267	12523.39
750.605	12472.09
750.944	12459.43
751.283	12394.8
751.621	12464.4
751.96	12320.45
752.298	12280.91
752.636	12265.54
752.975	12279.55
753.313	12166.56
753.651	12303.05
753.989	12205.88
754.327	12190.06
754.666	12083.17
755.004	12145.77
755.342	12092.21
755.679	12083.17
756.017	12016.96
756.355	12030.97
