Data from foam1_polythene_foam_FLMS001491_00049.txt Node
Date: Wed Feb 08 10:54:54 GMT 2017
User: dcchb
Spectrometer: FLMS00149
Trigger mode: 0
Integration Time (sec): 2.000000E-2
Scans to average: 10
Electric dark correction enabled: true
Nonlinearity correction enabled: false
Boxcar width: 0
XAxis mode: Wavelengths
Number of Pixels in Spectrum: 2048
>>>>>Begin Spectral Data<<<<<
341.393	-29.22
341.776	-29.22
342.16	-29.22
342.543	-51.59
342.927	-59.96
343.31	-62.22
343.693	-82.1
344.077	-53.18
344.46	-51.82
344.843	-45.95
345.226	-39.84
345.61	-24.48
345.993	-21.09
346.376	-17.25
346.759	-4.82
347.142	35.86
347.525	32.92
347.908	59.36
348.291	78.12
348.674	96.88
349.057	99.59
349.44	113.82
349.823	153.6
350.206	150.43
350.588	175.07
350.971	197.66
351.354	225.91
351.737	227.27
352.119	238.34
352.502	241.28
352.884	255.74
353.267	254.84
353.65	266.82
354.032	303.42
354.414	292.8
354.797	271.11
355.179	290.77
355.562	309.07
355.944	306.36
356.326	309.98
356.709	317.44
357.091	328.28
357.473	328.51
357.855	337.55
358.238	324.67
358.62	339.13
359.002	319.24
359.384	322.41
359.766	321.28
360.148	335.51
360.53	321.73
360.912	325.34
361.294	309.53
361.676	315.63
362.057	288.06
362.439	304.33
362.821	329.86
363.203	317.44
363.584	302.29
363.966	323.54
364.348	327.6
364.729	310.2
365.111	298
365.493	303.42
365.874	299.13
366.256	289.41
366.637	309.53
367.019	302.52
367.4	298.45
367.781	310.88
368.163	297.55
368.544	306.36
368.925	304.78
369.306	297.77
369.688	314.72
370.069	325.57
370.45	299.81
370.831	319.69
371.212	310.2
371.593	297.32
371.974	297.55
372.355	312.69
372.736	298.45
373.117	293.93
373.498	308.4
373.879	298.9
374.26	297.1
374.641	291.45
375.021	310.66
375.402	313.37
375.783	314.5
376.163	324.89
376.544	304.55
376.925	347.26
377.305	328.73
377.686	329.19
378.066	327.83
378.447	328.51
378.827	327.83
379.208	318.11
379.588	322.18
379.968	311.11
380.349	315.85
380.729	323.31
381.109	319.24
381.489	324.44
381.87	335.97
382.25	322.63
382.63	322.63
383.01	333.71
383.39	344.33
383.77	316.31
384.15	341.16
384.53	315.18
384.91	337.77
385.29	326.47
385.67	349.98
386.049	357.21
386.429	348.85
386.809	322.41
387.189	322.63
387.568	348.62
387.948	366.47
388.328	360.15
388.707	357.43
389.087	328.28
389.466	361.95
389.846	348.39
390.225	375.51
390.605	325.57
390.984	348.85
391.363	353.37
391.743	350.2
392.122	352.46
392.501	361.73
392.881	373.03
393.26	370.32
393.639	373.48
394.018	373.7
394.397	375.96
394.776	384.78
395.155	375.06
395.534	368.51
395.913	369.86
396.292	409.18
396.671	383.2
397.05	382.97
397.429	402.4
397.808	396.3
398.186	381.84
398.565	385.23
398.944	377.09
399.323	412.12
399.701	396.3
400.08	393.37
400.458	402.63
400.837	401.05
401.215	408.73
401.594	408.28
401.972	418
402.351	420.03
402.729	428.62
403.107	416.19
403.486	417.55
403.864	432.23
404.242	410.77
404.62	441.73
404.999	429.97
405.377	422.52
405.755	440.6
406.133	441.5
406.511	434.49
406.889	427.94
407.267	451.67
407.645	431.56
408.023	448.96
408.401	453.7
408.779	434.72
409.156	474.27
409.534	454.61
409.912	481.05
410.29	465.23
410.667	478.56
411.045	483.53
411.422	510.2
411.8	489.63
412.178	499.35
412.555	494.83
412.933	501.84
413.31	498
413.687	488.96
414.065	525.79
414.442	497.77
414.819	525.79
415.197	498.9
415.574	525.79
415.951	509.07
416.328	522.63
416.705	552.91
417.082	535.06
417.46	544.1
417.837	555.85
418.214	553.81
418.591	561.72
418.967	568.05
419.344	557.88
419.721	549.75
420.098	554.72
420.475	557.65
420.852	577.09
421.228	566.24
421.605	596.52
421.982	595.62
422.358	586.58
422.735	585
423.111	600.37
423.488	585.45
423.864	594.72
424.241	626.81
424.617	608.05
424.994	632.23
425.37	594.04
425.746	618.9
426.123	625.68
426.499	628.84
426.875	649.4
427.251	643.08
427.627	672
428.003	679.01
428.379	683.53
428.756	701.15
429.132	681.72
429.507	692.11
429.883	701.83
430.259	699.12
430.635	714.49
431.011	726.01
431.387	733.7
431.763	733.7
432.138	747.25
432.514	738.67
432.89	754.26
433.265	773.24
433.641	772.56
434.016	780.47
434.392	777.54
434.767	781.38
435.143	810.98
435.518	829.96
435.894	816.86
436.269	833.58
436.644	857.08
437.02	839.91
437.395	856.86
437.77	869.51
438.145	874.71
438.52	895.5
438.895	877.42
439.271	897.31
439.646	923.52
440.021	923.07
440.395	907.48
440.77	927.36
441.145	937.53
441.52	947.48
441.895	952.22
442.27	952.22
442.645	981.37
443.019	938.44
443.394	993.58
443.769	970.75
444.143	983.63
444.518	1018.66
444.892	1016.4
445.267	1004.65
445.641	1018.43
446.016	1030.64
446.39	1043.07
446.764	1049.17
447.139	1060.47
447.513	1054.36
447.887	1061.6
448.262	1088.71
448.636	1072.22
449.01	1107.92
449.384	1127.13
449.758	1121.93
450.132	1166.9
450.506	1134.59
450.88	1143.85
451.254	1117.41
451.628	1150.41
452.002	1158.99
452.376	1168.71
452.75	1201.93
453.123	1211.65
453.497	1197.41
453.871	1204.64
454.244	1247.13
454.618	1222.5
454.992	1261.82
455.365	1275.83
455.739	1288.48
456.112	1285.55
456.486	1295.49
456.859	1304.98
457.232	1352.44
457.606	1336.84
457.979	1339.1
458.352	1356.05
458.725	1366
459.099	1392.21
459.472	1399.89
459.845	1403.73
460.218	1409.38
460.591	1417.97
460.964	1433.11
461.337	1445.99
461.71	1476.73
462.083	1500.91
462.456	1490.29
462.829	1497.97
463.201	1532.77
463.574	1527.8
463.947	1557.4
464.32	1587.46
464.692	1586.55
465.065	1616.84
465.438	1619.77
465.81	1648.47
466.183	1679.21
466.555	1688.47
466.928	1705.87
467.3	1718.53
467.672	1709.71
468.045	1740.22
468.417	1770.73
468.789	1786.55
469.161	1791.97
469.534	1823.16
469.906	1830.84
470.278	1890.5
470.65	1905.42
471.022	1967.34
471.394	1932.31
471.766	1931.18
472.138	2012.31
472.51	2017.05
472.882	2016.15
473.253	2071.51
473.625	2074.68
473.997	2161.68
474.369	2152.64
474.74	2183.37
475.112	2192.87
475.484	2219.98
475.855	2295.46
476.227	2268.8
476.598	2302.92
476.97	2372.75
477.341	2398.74
477.713	2423.82
478.084	2453.2
478.455	2510.6
478.827	2545.4
479.198	2605.06
479.569	2582.69
479.94	2619.97
480.311	2723.7
480.682	2737.26
481.053	2789.46
481.424	2845.5
481.795	2840.76
482.166	2909.23
482.537	2943.81
482.908	2998.95
483.279	3042.56
483.65	3080.98
484.021	3132.95
484.391	3150.13
484.762	3221.77
485.133	3237.81
485.503	3299.96
485.874	3371.82
486.244	3367.98
486.615	3420.18
486.985	3507.63
487.356	3528.88
487.726	3599.61
488.097	3617.91
488.467	3649.78
488.837	3749.89
489.207	3792.37
489.578	3784.01
489.948	3853.39
490.318	3885.02
490.688	3917.79
491.058	3987.62
491.428	4043.21
491.798	4110.78
492.168	4155.98
492.538	4171.57
492.908	4230.1
493.278	4240.72
493.648	4249.99
494.017	4348.74
494.387	4404.79
494.757	4468.51
495.126	4525.69
495.496	4496.08
495.866	4524.56
496.235	4581.96
496.605	4626.47
496.974	4626.47
497.344	4727.94
497.713	4739.69
498.082	4759.58
498.452	4844.55
498.821	4851.33
499.19	4838.67
499.559	4933.13
499.928	4906.92
500.298	4965.45
500.667	5063.75
501.036	5024.43
501.405	5141.26
501.774	5117.76
502.143	5141.72
502.512	5225.1
502.88	5286.8
503.249	5273.69
503.618	5316.4
503.987	5344.42
504.356	5401.6
504.724	5389.39
505.093	5421.03
505.462	5473.23
505.83	5491.54
506.199	5571.53
506.567	5624.19
506.936	5614.25
507.304	5711.42
507.672	5722.26
508.041	5730.4
508.409	5801.58
508.777	5907.57
509.145	5908.47
509.514	5915.71
509.882	6028.92
510.25	5992.31
510.618	6002.26
510.986	6074.35
511.354	6147.56
511.722	6211.74
512.09	6236.38
512.458	6255.13
512.826	6345.75
513.193	6336.26
513.561	6337.16
513.929	6468.01
514.297	6483.37
514.664	6493.32
515.032	6579.42
515.4	6578.51
515.767	6663.26
516.135	6629.36
516.502	6679.3
516.869	6777.15
517.237	6841.33
517.604	6856.47
517.972	6891.73
518.339	6995.23
518.706	6975.34
519.073	7082.46
519.44	7122.68
519.808	7204.94
520.175	7204.03
520.542	7349.79
520.909	7350.47
521.276	7347.98
521.643	7478.83
522.009	7454.42
522.376	7638.37
522.743	7558.83
523.11	7674.53
523.477	7725.15
523.843	7845.15
524.21	7992.26
524.577	7929.66
524.943	8051.24
525.31	8073.84
525.676	8152.03
526.043	8147.74
526.409	8227.74
526.776	8332.82
527.142	8324.23
527.508	8397.9
527.874	8469.76
528.241	8473.38
528.607	8521.51
528.973	8594.96
529.339	8691.45
529.705	8773.26
530.071	8851.22
530.437	8872.24
530.803	8856.65
531.169	8973.25
531.535	8899.13
531.901	8940.49
532.267	9070.43
532.632	9055.74
532.998	9140.03
533.364	9207.14
533.73	9223.64
534.095	9363.07
534.461	9392
534.826	9408.04
535.192	9443.52
535.557	9496.85
535.923	9465.44
536.288	9577.53
536.653	9624.76
537.019	9630.41
537.384	9688.04
537.749	9757.86
538.114	9720.35
538.479	9792.21
538.845	9858.88
539.21	9799.45
539.575	9859.78
539.94	9861.59
540.305	9965.77
540.67	9933.91
541.034	10005.77
541.399	10059.55
541.764	10049.16
542.129	10105.2
542.494	10106.78
542.858	10175.03
543.223	10242.82
543.587	10266.33
543.952	10273.56
544.316	10304.52
544.681	10310.17
545.045	10455.25
545.41	10489.82
545.774	10518.75
546.138	10538.41
546.503	10503.38
546.867	10563.04
547.231	10658.18
547.595	10703.6
547.959	10735.01
548.324	10654.56
548.688	10712.42
549.052	10783.83
549.416	10858.17
549.779	10818.63
550.143	10913.99
550.507	10936.82
550.871	11036.7
551.235	10989.7
551.599	11078.96
551.962	11076.25
552.326	11144.27
552.689	11204.15
553.053	11131.39
553.417	11216.36
553.78	11377.03
554.143	11309.91
554.507	11391.27
554.87	11410.7
555.234	11540.42
555.597	11406.18
555.96	11505.39
556.323	11649.34
556.686	11598.95
557.05	11637.14
557.413	11678.04
557.776	11769.11
558.139	11842.78
558.502	11970.24
558.865	11878.71
559.228	11982.21
559.59	12053.62
559.953	12045.49
560.316	12220.63
560.679	12218.37
561.041	12339.94
561.404	12334.29
561.767	12380.39
562.129	12424.46
562.492	12513.05
562.854	12468.98
563.217	12539.71
563.579	12556.44
563.941	12683.66
564.304	12675.3
564.666	12806.15
565.028	12831.91
565.39	12871.68
565.753	12878.46
566.115	13008.4
566.477	13098.12
566.839	13095.4
567.201	13156.87
567.563	13113.03
567.925	13305.34
568.287	13307.38
568.648	13307.83
569.01	13363.87
569.372	13508.95
569.734	13439.35
570.095	13554.38
570.457	13543.75
570.819	13591.89
571.18	13682.73
571.542	13713.02
571.903	13721.15
572.265	13750.98
572.626	13703.75
572.987	13898.77
573.349	13860.58
573.71	13949.85
574.071	13979.9
574.432	14011.31
574.794	13995.04
575.155	14066.23
575.516	14075.49
575.877	14161.14
576.238	14191.65
576.599	14285.66
576.96	14203.17
577.32	14241.36
577.681	14307.8
578.042	14345.99
578.403	14320
578.763	14304.41
579.124	14362.49
579.485	14446.33
579.845	14438.42
580.206	14482.26
580.566	14481.13
580.927	14440.68
581.287	14462.6
581.648	14501.92
582.008	14528.13
582.368	14576.5
582.728	14662.59
583.089	14613.78
583.449	14580.34
583.809	14579.66
584.169	14592.31
584.529	14586.66
584.889	14709.6
585.249	14693.78
585.609	14701.46
585.969	14770.16
586.329	14698.75
586.688	14697.62
587.048	14687.68
587.408	14666.44
587.768	14635.25
588.127	14607.45
588.487	14592.09
588.846	14696.94
589.206	14614.46
589.565	14651.3
589.925	14773.1
590.284	14648.58
590.643	14560.22
591.003	14704.4
591.362	14729.71
591.721	14740.11
592.08	14677.28
592.44	14787.79
592.799	14767.68
593.158	14789.37
593.517	14778.75
593.876	14785.98
594.235	14786.89
594.593	14710.73
594.952	14848.58
595.311	14688.58
595.67	14857.84
596.029	14863.49
596.387	14844.51
596.746	14891.52
597.104	14880.22
597.463	14768.35
597.822	14849.03
598.18	14875.7
598.538	14807.9
598.897	14904.85
599.255	14774.46
599.613	15092.87
599.972	14936.03
600.33	14993.21
600.688	14861.91
601.046	14946.88
601.404	14983.04
601.762	14930.84
602.12	14983.26
602.478	15084.05
602.836	15069.59
603.194	14966.09
603.552	15079.98
603.91	14985.3
604.268	14971.74
604.625	15015.81
604.983	15009.7
605.341	15018.52
605.698	15070.72
606.056	15167.89
606.413	15192.52
606.771	15230.49
607.128	15251.05
607.485	15167.67
607.843	15210.38
608.2	15193.2
608.557	15179.19
608.914	15128.12
609.272	15306.42
609.629	15371.05
609.986	15386.87
610.343	15358.4
610.7	15354.55
611.057	15370.37
611.414	15416.02
611.771	15328.57
612.127	15478.17
612.484	15410.6
612.841	15549.35
613.198	15402.24
613.554	15457.38
613.911	15477.49
614.267	15475.68
614.624	15555.45
614.98	15638.84
615.337	15649.24
615.693	15526.98
616.05	15467.55
616.406	15648.11
616.762	15552.97
617.118	15680.65
617.475	15589.8
617.831	15639.52
618.187	15656.92
618.543	15663.02
618.899	15685.62
619.255	15607.43
619.611	15636.35
619.967	15635
620.323	15860.3
620.678	15646.3
621.034	15759.52
621.39	15687.88
621.746	15679.97
622.101	15865.95
622.457	15697.6
622.812	15699.86
623.168	15769.91
623.523	15818.72
623.879	15741.44
624.234	15575.34
624.589	15816.24
624.945	15813.52
625.3	15806.07
625.655	15886.29
626.01	15719.06
626.365	15807.42
626.72	15698.05
627.075	15748.44
627.43	15691.27
627.785	15679.52
628.14	15731.27
628.495	15744.6
628.85	15746.63
629.205	15695.11
629.559	15732.17
629.914	15620.08
630.269	15704.15
630.623	15596.36
630.978	15625.96
631.332	15618.5
631.687	15654.66
632.041	15644.04
632.396	15705.96
632.75	15656.24
633.104	15573.53
633.459	15573.31
633.813	15508.22
634.167	15461.22
634.521	15470.03
634.875	15517.71
635.229	15544.83
635.583	15361.33
635.937	15411.5
636.291	15349.13
636.645	15361.11
636.999	15381.22
637.352	15397.26
637.706	15333.31
638.06	15347.77
638.413	15293.76
638.767	15291.28
639.121	15264.39
639.474	15191.85
639.828	15231.17
640.181	15206.54
640.534	15207.89
640.888	15178.74
641.241	15020.33
641.594	15115.24
641.947	15093.54
642.301	15200.21
642.654	15171.96
643.007	15120.44
643.36	15137.38
643.713	15004.28
644.066	15108.68
644.419	15010.38
644.771	15081.11
645.124	14900.55
645.477	14871.63
645.83	14771.52
646.182	14567.23
646.535	14508.02
646.888	14508.25
647.24	14401.13
647.593	14478.19
647.945	14405.88
648.298	14325.2
648.65	14282.04
649.002	14283.85
649.355	14409.04
649.707	14367.69
650.059	14412.66
650.411	14637.51
650.763	14541.24
651.115	14718.19
651.467	14667.11
651.819	14697.85
652.171	14701.92
652.523	14671.18
652.875	14680
653.227	14605.2
653.578	14656.27
653.93	14610.39
654.282	14526.78
654.633	14429.61
654.985	14512.32
655.337	14485.88
655.688	14508.25
656.039	14549.6
656.391	14545.99
656.742	14490.4
657.094	14468.48
657.445	14509.15
657.796	14469.61
658.147	14460.34
658.498	14480.9
658.849	14495.82
659.2	14457.63
659.551	14337.41
659.902	14409.49
660.253	14356.16
660.604	14370.4
660.955	14324.98
661.306	14384.64
661.656	14388.25
662.007	14345.09
662.358	14276.84
662.708	14270.29
663.059	14323.39
663.409	14182.61
663.76	14317.52
664.11	14333.56
664.461	14295.37
664.811	14298.54
665.161	14255.15
665.511	14238.65
665.862	14283.4
666.212	14290.85
666.562	14295.15
666.912	14242.27
667.262	14152.1
667.612	14240.46
667.962	14243.4
668.312	14160.91
668.662	14272.55
669.011	14230.52
669.361	14166.11
669.711	14195.94
670.06	14279.55
670.41	14176.73
670.76	14038.88
671.109	14220.35
671.459	14160.24
671.808	14120.46
672.157	14190.97
672.507	14037.53
672.856	14146.22
673.205	14099.22
673.554	14085.66
673.904	14043.4
674.253	14108.48
674.602	14135.6
674.951	13893.8
675.3	13802.96
675.649	14028.26
675.998	14015.61
676.346	14004.53
676.695	13964.53
677.044	13967.25
677.393	14042.27
677.741	13996.62
678.09	14004.76
678.438	13856.51
678.787	14006.79
679.135	13921.6
679.484	13878.21
679.832	13825.55
680.181	13756.63
680.529	13892.45
680.877	13787.14
681.225	13818.55
681.573	13881.37
681.922	13786.01
682.27	13743.07
682.618	13790.3
682.966	13656.97
683.314	13692
683.661	13585.79
684.009	13678.21
684.357	13640.7
684.705	13586.01
685.053	13542.85
685.4	13562.51
685.748	13382.18
686.095	13476.19
686.443	13461.04
686.79	13419.24
687.138	13421.5
687.485	13439.12
687.832	13386.7
688.18	13345.34
688.527	13261.95
688.874	13309.86
689.221	13302.4
689.568	13272.57
689.915	13194.61
690.262	13182.63
690.609	13203.88
690.956	13073.48
691.303	13057.89
691.65	12972.7
691.997	13025.8
692.344	12925.92
692.69	12883.43
693.037	12942.41
693.383	12795.53
693.73	12906.93
694.077	12719.82
694.423	12737.67
694.769	12753.94
695.116	12746.94
695.462	12664.46
695.808	12663.33
696.155	12647.73
696.501	12537.45
696.847	12619.26
697.193	12476.66
697.539	12513.05
697.885	12457
698.231	12422.2
698.577	12380.62
698.923	12358.93
699.269	12335.65
699.614	12253.84
699.96	12200.74
700.306	12200.51
700.651	12173.39
700.997	12199.61
701.342	12139.27
701.688	12119.16
702.033	12182.66
702.379	12083
702.724	12053.85
703.069	12092.27
703.415	11909.45
703.76	11928.43
704.105	11928.66
704.45	11877.36
704.795	11878.71
705.14	11791.26
705.485	11688.66
705.83	11734.08
706.175	11793.97
706.52	11696.8
706.865	11647.31
707.209	11691.6
707.554	11635.33
707.899	11689.57
708.243	11492.51
708.588	11535.22
708.932	11405.05
709.277	11469.91
709.621	11429.91
709.966	11375.68
710.31	11485.05
710.654	11287.77
710.998	11348.78
711.342	11351.27
711.687	11334.77
712.031	11255.68
712.375	11194.66
712.719	11230.82
713.063	11166.87
713.407	11237.6
713.75	11186.08
714.094	11197.83
714.438	11172.52
714.782	11080.99
715.125	11100.65
715.469	11168.22
715.812	11048
716.156	11029.92
716.499	10989.24
716.843	11027.44
717.186	10916.7
717.53	10944.73
717.873	10960.77
718.216	10878.51
718.559	10825.63
718.902	10855.24
719.246	10847.55
719.589	10759.87
719.932	10765.07
720.275	10726.43
720.617	10706.31
720.96	10766.2
721.303	10716.03
721.646	10701.34
721.989	10655.02
722.331	10593.78
722.674	10649.14
723.016	10573.44
723.359	10562.82
723.701	10602.81
724.044	10560.56
724.386	10446.43
724.729	10484.4
725.071	10531.4
725.413	10472.2
725.755	10510.16
726.097	10430.62
726.439	10417.06
726.782	10378.19
727.124	10401.24
727.465	10408.47
727.807	10361.24
728.149	10277.4
728.491	10302.71
728.833	10365.31
729.175	10272.2
729.516	10315.14
729.858	10291.41
730.199	10256.16
730.541	10241.69
730.882	10205.54
731.224	10261.58
731.565	10182.03
731.906	10193.79
732.248	10239.66
732.589	10126.44
732.93	10053.45
733.271	10109.49
733.612	10083.28
733.953	10129.38
734.294	10054.81
734.635	10043.51
734.976	10107.23
735.317	10000.8
735.658	9963.06
735.999	10004.64
736.339	9911.99
736.68	10022.94
737.021	9961.02
737.361	9882.83
737.702	9957.41
738.042	9895.04
738.383	9896.17
738.723	9857.3
739.063	9877.18
739.404	9880.8
739.744	9833.57
740.084	9849.61
740.424	9800.12
740.764	9740.69
741.104	9815.49
741.444	9759.22
741.784	9744.76
742.124	9816.62
742.464	9717.64
742.804	9714.7
743.143	9686.91
743.483	9653.91
743.823	9617.98
744.162	9607.13
744.502	9643.29
744.841	9527.59
745.181	9583.86
745.52	9681.03
745.86	9608.04
746.199	9577.76
746.538	9495.5
746.877	9512.9
747.216	9620.24
747.556	9474.93
747.895	9484.2
748.234	9459.79
748.573	9491.43
748.911	9482.84
749.25	9417.08
749.589	9410.08
749.928	9390.87
750.267	9446.23
750.605	9399.91
750.944	9378.67
751.283	9323.98
751.621	9382.96
751.96	9325.11
752.298	9326.24
752.636	9302.51
752.975	9229.74
753.313	9249.86
753.651	9285.33
753.989	9225.22
754.327	9179.12
754.666	9142.29
755.004	9203.53
755.342	9155.17
755.679	9149.52
756.017	9068.84
756.355	9071.33
756.693	9058
757.031	8995.85
757.368	8980.26
757.706	8940.49
758.044	8908.85
758.381	8928.51
758.719	8964.89
759.056	8901.16
759.394	8812.13
