Data from foam2_polystyrene_foam_FLMS001491_00063.txt Node
Date: Wed Feb 08 10:58:19 GMT 2017
User: dcchb
Spectrometer: FLMS00149
Trigger mode: 0
Integration Time (sec): 2.000000E-2
Scans to average: 10
Electric dark correction enabled: true
Nonlinearity correction enabled: false
Boxcar width: 0
XAxis mode: Wavelengths
Number of Pixels in Spectrum: 2048
>>>>>Begin Spectral Data<<<<<
341.393	-19.39
341.776	-19.39
342.16	-19.39
342.543	-58.26
342.927	-58.26
343.31	-71.59
343.693	-80.18
344.077	-40.86
344.46	-62.78
344.843	-65.04
345.226	-33.63
345.61	-24.36
345.993	-40.18
346.376	0.27
346.759	11.12
347.142	17.44
347.525	63.32
347.908	53.83
348.291	77.78
348.674	96.31
349.057	98.57
349.44	124.11
349.823	150.55
350.206	151.45
350.588	183.99
350.971	200.72
351.354	246.36
351.737	241.62
352.119	256.08
352.502	257.89
352.884	267.83
353.267	289.53
353.65	296.98
354.032	290.2
354.414	288.4
354.797	304.67
355.179	312.12
355.562	319.36
355.944	313.48
356.326	342.86
356.709	341.5
357.091	334.5
357.473	334.5
357.855	332.46
358.238	345.8
358.62	359.81
359.002	353.71
359.384	344.89
359.766	354.84
360.148	335.63
360.53	344.67
360.912	353.25
361.294	338.56
361.676	325.46
362.057	341.05
362.439	339.24
362.821	339.24
363.203	343.54
363.584	352.8
363.966	336.53
364.348	327.49
364.729	348.51
365.111	336.76
365.493	359.58
365.874	320.26
366.256	347.15
366.637	329.07
367.019	320.49
367.4	323.65
367.781	338.11
368.163	339.02
368.544	320.03
368.925	320.26
369.306	346.93
369.688	332.01
370.069	327.04
370.45	334.5
370.831	306.25
371.212	346.02
371.593	341.05
371.974	332.24
372.355	327.27
372.736	352.8
373.117	325.23
373.498	332.91
373.879	308.28
374.26	336.98
374.641	338.56
375.021	341.5
375.402	361.84
375.783	349.41
376.163	355.29
376.544	360.26
376.925	366.59
377.305	357.32
377.686	383.08
378.066	360.48
378.447	355.29
378.827	359.58
379.208	371.56
379.588	356.19
379.968	374.04
380.349	363.65
380.729	404.33
381.109	392.8
381.489	391.67
381.87	376.76
382.25	387.15
382.63	405
383.01	395.29
383.39	379.47
383.77	386.47
384.15	398.68
384.53	402.52
384.91	387.15
385.29	400.94
385.67	418.34
386.049	406.13
386.429	402.52
386.809	415.17
387.189	397.32
387.568	417.43
387.948	422.18
388.328	410.88
388.707	452.23
389.087	421.5
389.466	424.66
389.846	430.77
390.225	423.99
390.605	447.71
390.984	445
391.363	470.54
391.743	442.06
392.122	449.3
392.501	463.53
392.881	441.16
393.26	464.89
393.639	456.08
394.018	471.89
394.397	472.35
394.776	468.05
395.155	460.6
395.534	468.05
395.913	461.95
396.292	487.49
396.671	479.13
397.05	482.74
397.429	515.06
397.808	489.75
398.186	492.46
398.565	510.54
398.944	499.01
399.323	513.7
399.701	520.71
400.08	509.18
400.458	511.44
400.837	520.48
401.215	522.97
401.594	544.43
401.972	539.01
402.351	530.65
402.729	532.68
403.107	539.01
403.486	537.88
403.864	568.84
404.242	553.93
404.62	582.85
404.999	572.91
405.377	555.96
405.755	581.72
406.133	578.78
406.511	584.66
406.889	604.77
407.267	587.82
407.645	603.87
408.023	595.96
408.401	609.07
408.779	622.85
409.156	610.87
409.534	605.9
409.912	621.95
410.29	609.29
410.667	642.74
411.045	639.57
411.422	667.14
411.8	662.17
412.178	649.06
412.555	667.14
412.933	676.86
413.31	693.36
413.687	699.01
414.065	727.93
414.442	697.43
414.819	707.14
415.197	707.82
415.574	731.77
415.951	715.28
416.328	741.04
416.705	737.65
417.082	745.79
417.46	751.66
417.837	760.25
418.214	769.74
418.591	764.99
418.967	768.61
419.344	763.86
419.721	778.33
420.098	780.59
420.475	806.35
420.852	791.89
421.228	824.65
421.605	800.02
421.982	847.7
422.358	825.33
422.735	858.78
423.111	823.98
423.488	854.94
423.864	861.49
424.241	881.83
424.617	868.04
424.994	886.8
425.37	906.91
425.746	884.76
426.123	904.88
426.499	902.62
426.875	913.24
427.251	913.69
427.627	936.06
428.003	976.51
428.379	940.81
428.756	968.6
429.132	966.8
429.507	983.29
429.883	1014.7
430.259	1018.09
430.635	1033.91
431.011	1030.98
431.387	1042.95
431.763	1066.91
432.138	1077.08
432.514	1063.52
432.89	1099.22
433.265	1117.75
433.641	1106.23
434.016	1103.74
434.392	1136.74
434.767	1173.57
435.143	1169.28
435.518	1178.09
435.894	1199.56
436.269	1180.58
436.644	1214.93
437.02	1218.09
437.395	1217.41
437.77	1234.81
438.145	1243.85
438.52	1249.5
438.895	1295.38
439.271	1288.14
439.646	1291.76
440.021	1326.56
440.395	1343.74
440.77	1311.42
441.145	1342.15
441.52	1352.32
441.895	1351.65
442.27	1370.4
442.645	1378.09
443.019	1369.95
443.394	1395.26
443.769	1405.43
444.143	1412.66
444.518	1460.79
444.892	1429.84
445.267	1439.1
445.641	1451.53
446.016	1471.19
446.39	1486.1
446.764	1491.98
447.139	1487.01
447.513	1514.58
447.887	1502.15
448.262	1529.95
448.636	1558.42
449.01	1574.01
449.384	1563.62
449.758	1603.16
450.132	1616.27
450.506	1607.46
450.88	1618.98
451.254	1612.43
451.628	1662.82
452.002	1658.98
452.376	1666.67
452.75	1699.43
453.123	1697.62
453.497	1742.6
453.871	1733.56
454.244	1791.86
454.618	1763.61
454.992	1781.92
455.365	1802.03
455.739	1834.12
456.112	1834.34
456.486	1851.29
456.859	1874.34
457.232	1910.95
457.606	1915.7
457.979	1925.87
458.352	1941.91
458.725	1966.09
459.099	1943.49
459.472	2016.03
459.845	2016.03
460.218	2018.75
460.591	2048.8
460.964	2056.49
461.337	2096.94
461.71	2133.77
462.083	2190.49
462.456	2163.38
462.829	2174.67
463.201	2184.84
463.574	2226.65
463.947	2224.62
464.32	2253.99
464.692	2283.82
465.065	2306.42
465.438	2345.52
465.81	2391.17
466.183	2386.87
466.555	2442.24
466.928	2448.57
467.3	2446.53
467.672	2485.4
468.045	2537.15
468.417	2550.71
468.789	2532.63
469.161	2579.64
469.534	2620.99
469.906	2671.61
470.278	2654.66
470.65	2708.67
471.022	2760.42
471.394	2773.98
471.766	2835.67
472.138	2828.22
472.51	2914.77
472.882	2953.86
473.253	3003.81
473.625	2991.83
473.997	3066.4
474.369	3101.43
474.74	3135.33
475.112	3192.73
475.484	3238.83
475.855	3332.16
476.227	3283.57
476.598	3402.66
476.97	3379.61
477.341	3477.01
477.713	3520.63
478.084	3573.96
478.455	3630.23
478.827	3688.53
479.198	3737.57
479.569	3769.43
479.94	3919.94
480.311	3893.27
480.682	3988.86
481.053	4024.12
481.424	4135.3
481.795	4156.09
482.166	4216.88
482.537	4253.94
482.908	4317.44
483.279	4366.71
483.65	4480.38
484.021	4529.41
484.391	4592.46
484.762	4621.16
485.133	4675.63
485.503	4741.61
485.874	4809.41
486.244	4825.68
486.615	4964.43
486.985	5010.31
487.356	5057.54
487.726	5152.9
488.097	5225.22
488.467	5254.82
488.837	5383.18
489.207	5397.64
489.578	5515.6
489.948	5502.72
490.318	5601.93
490.688	5663.4
491.058	5710.63
491.428	5813.9
491.798	5872.88
492.168	5958.3
492.538	6008.7
492.908	6051.18
493.278	6132.54
493.648	6148.13
494.017	6203.5
494.387	6309.93
494.757	6332.98
495.126	6351.29
495.496	6378.63
495.866	6452.3
496.235	6516.71
496.605	6628.79
496.974	6627.89
497.344	6709.24
497.713	6721.22
498.082	6789.24
498.452	6907.88
498.821	6839.64
499.19	6887.54
499.559	6975.68
499.928	7008.9
500.298	7102.68
500.667	7104.94
501.036	7144.49
501.405	7185.62
501.774	7230.81
502.143	7264.48
502.512	7326.18
502.88	7437.59
503.249	7495.89
503.618	7481.43
503.987	7579.05
504.356	7597.13
504.724	7647.98
505.093	7629.9
505.462	7729.56
505.83	7810.23
506.199	7852.04
506.567	7948.08
506.936	7942.43
507.304	8015.88
507.672	8075.31
508.041	8150.56
508.409	8211.35
508.777	8257.45
509.145	8280.05
509.514	8321.41
509.882	8391.46
510.25	8391.01
510.618	8507.84
510.986	8543.32
511.354	8583.32
511.722	8711.9
512.09	8754.61
512.458	8807.04
512.826	8836.19
513.193	8918.45
513.561	8943.08
513.929	8994.16
514.297	9105.11
514.664	9138.56
515.032	9200.48
515.4	9223.98
515.767	9315.28
516.135	9372.68
516.502	9313.92
516.869	9484.99
517.237	9596.85
517.604	9548.04
517.972	9688.15
518.339	9727.92
518.706	9831.87
519.073	9863.74
519.44	9896.96
519.808	9998.2
520.175	10072.77
520.542	10105.09
520.909	10268.25
521.276	10206.1
521.643	10275.03
522.009	10409.94
522.376	10507.79
522.743	10556.37
523.11	10660.33
523.477	10728.8
523.843	10845.86
524.21	10849.02
524.577	10994.56
524.943	11020.09
525.31	11119.3
525.676	11206.08
526.043	11275.45
526.409	11364.26
526.776	11425.28
527.142	11542.56
527.508	11563.58
527.874	11688.32
528.241	11749.11
528.607	11737.81
528.973	11913.63
529.339	11877.24
529.705	12033.17
530.071	12098.03
530.437	12227.74
530.803	12317.23
531.169	12344.12
531.535	12356.33
531.901	12373.28
532.267	12434.74
532.632	12594.51
532.998	12644.46
533.364	12694.85
533.73	12745.92
534.095	12823.21
534.461	12831.34
534.826	12933.94
535.192	12930.78
535.557	13052.81
535.923	13027.5
536.288	13195.63
536.653	13209.41
537.019	13127.61
537.384	13219.81
537.749	13277.21
538.114	13323.08
538.479	13368.96
538.845	13499.57
539.21	13446.69
539.575	13447.6
539.94	13595.62
540.305	13702.05
540.67	13696.86
541.034	13764.2
541.399	13835.38
541.764	13854.14
542.129	13913.57
542.494	13954.48
542.858	14066.57
543.223	14078.32
543.587	14154.7
543.952	14070.63
544.316	14218.43
544.681	14226.33
545.045	14257.97
545.41	14307.24
545.774	14352.66
546.138	14397.18
546.503	14405.99
546.867	14534.35
547.231	14649.83
547.595	14567.34
547.959	14727.56
548.324	14639.66
548.688	14707.23
549.052	14773.44
549.416	14767.56
549.779	14926.66
550.143	14902.93
550.507	15107.67
550.871	15100.21
551.235	15111.28
551.599	15284.61
551.962	15167.1
552.326	15246.65
552.689	15408.22
553.053	15279.41
553.417	15363.03
553.78	15572.29
554.143	15550.37
554.507	15640.54
554.87	15682.79
555.234	15755.56
555.597	15785.39
555.96	15881.43
556.323	16025.16
556.686	16058.15
557.05	16144.02
557.413	16083.24
557.776	16204.59
558.139	16307.18
558.502	16333.4
558.865	16439.84
559.228	16541.98
559.59	16544.47
559.953	16543.79
560.316	16713.95
560.679	16748.75
561.041	16908.75
561.404	16909.65
561.767	17056.32
562.129	17048.86
562.492	17294.05
562.854	17301.96
563.217	17191.45
563.579	17291.57
563.941	17440.26
564.304	17548.28
564.666	17683.87
565.028	17717.54
565.39	17691.55
565.753	17787.15
566.115	17944.43
566.477	17932.9
566.839	18057.19
567.201	18158.43
567.563	18220.13
567.925	18247.25
568.287	18332.44
568.648	18350.29
569.01	18478.43
569.372	18551.87
569.734	18462.61
570.095	18663.05
570.457	18778.98
570.819	18814.24
571.18	18905.53
571.542	18858.08
571.903	18992.99
572.265	19015.81
572.626	19035.02
572.987	19190.27
573.349	19286.77
573.71	19306.43
574.071	19350.49
574.432	19595.46
574.794	19500.32
575.155	19500.32
575.516	19416.71
575.877	19587.55
576.238	19634.33
576.599	19750.48
576.96	19779.18
577.32	19761.56
577.681	19860.54
578.042	19854.66
578.403	19868.67
578.763	19939.41
579.124	19981.66
579.485	20029.35
579.845	20063.92
580.206	19968.33
580.566	19961.78
580.927	20076.58
581.287	20162.9
581.648	20025.5
582.008	20185.95
582.368	20023.02
582.728	20213.3
583.089	20129.91
583.449	20121.77
583.809	20140.98
584.169	20180.08
584.529	20220.3
584.889	20408.09
585.249	20287.64
585.609	20122.23
585.969	20300.53
586.329	20227.76
586.688	20332.84
587.048	20281.54
587.408	20241.09
587.768	20285.38
588.127	20295.78
588.487	20203.13
588.846	20420.3
589.206	20220.3
589.565	20210.58
589.925	20324.48
590.284	20380.75
590.643	20341.88
591.003	20348.89
591.362	20403.8
591.721	20384.59
592.08	20331.26
592.44	20407.64
592.799	20420.75
593.158	20387.3
593.517	20361.99
593.876	20524.7
594.235	20443.57
594.593	20451.93
594.952	20413.52
595.311	20385.72
595.67	20398.15
596.029	20541.2
596.387	20586.62
596.746	20611.25
597.104	20508.88
597.463	20580.97
597.822	20559.95
598.18	20480.86
598.538	20440.41
598.897	20763.34
599.255	20476.79
599.613	20729.67
599.972	20583.46
600.33	20682.21
600.688	20637.69
601.046	20662.55
601.404	20746.62
601.762	20751.59
602.12	20745.03
602.478	20688.31
602.836	20710.46
603.194	20638.14
603.552	20761.53
603.91	20616.22
604.268	20748.65
604.625	20631.14
604.983	20876.56
605.341	20702.55
605.698	20850.34
606.056	20934.18
606.413	20857.8
606.771	20979.38
607.128	20823.45
607.485	20950.9
607.843	20977.12
608.2	20966.04
608.557	21092.6
608.914	20964.01
609.272	21118.36
609.629	21148.41
609.986	21185.7
610.343	21036.33
610.7	21230.67
611.057	21119.71
611.414	21162.88
611.771	21137.79
612.127	21251.24
612.484	21227.73
612.841	21218.92
613.198	21305.24
613.554	21306.15
613.911	21367.84
614.267	21389.08
614.624	21275.19
614.98	21358.58
615.337	21376.2
615.693	21454.39
616.05	21403.1
616.406	21513.38
616.762	21434.96
617.118	21435.86
617.475	21435.18
617.831	21510.21
618.187	21577.55
618.543	21557.44
618.899	21686.25
619.255	21547.95
619.611	21577.55
619.967	21714.73
620.323	21677.44
620.678	21668.4
621.034	21581.17
621.39	21573.94
621.746	21553.6
622.101	21710.43
622.457	21606.03
622.812	21620.49
623.168	21576.2
623.523	21650.77
623.879	21741.17
624.234	21527.39
624.589	21652.81
624.945	21617.78
625.3	21663.2
625.655	21603.32
626.01	21608.29
626.365	21684.22
626.72	21517.89
627.075	21625.46
627.43	21501.17
627.785	21516.76
628.14	21687.38
628.495	21538.46
628.85	21538.69
629.205	21464.34
629.559	21651.9
629.914	21519.48
630.269	21426.82
630.623	21449.87
630.978	21370.33
631.332	21381.18
631.687	21553.83
632.041	21434.96
632.396	21481.29
632.75	21353.61
633.104	21363.77
633.459	21278.35
633.813	21154.29
634.167	21246.26
634.521	21227.51
634.875	21257.34
635.229	21241.97
635.583	21046.04
635.937	21082.43
636.291	20997.68
636.645	21028.42
636.999	20957.91
637.352	20951.36
637.706	20786.16
638.06	20978.02
638.413	20879.04
638.767	20775.09
639.121	20908.42
639.474	20780.51
639.828	20757.91
640.181	20699.84
640.534	20746.62
640.888	20621.2
641.241	20625.49
641.594	20480.41
641.947	20663.91
642.301	20590.01
642.654	20564.93
643.007	20581.42
643.36	20521.76
643.713	20494.87
644.066	20660.06
644.419	20391.37
644.771	20152.96
645.124	20077.03
645.477	20013.53
645.83	19801.33
646.182	19825.96
646.535	19751.61
646.888	19815.57
647.24	19776.25
647.593	20006.75
647.945	19809.01
648.298	19765.4
648.65	19642.24
649.002	19609.24
649.355	19638.4
649.707	19680.65
650.059	19636.36
650.411	19856.7
650.763	19856.47
651.115	20064.6
651.467	19979.63
651.819	20073.64
652.171	19909.8
652.523	19853.76
652.875	19815.11
653.227	19904.6
653.578	19964.72
653.93	19776.02
654.282	19803.59
654.633	19753.87
654.985	19827.32
655.337	19693.31
655.688	19769.24
656.039	19756.81
656.391	19612.41
656.742	19605.85
657.094	19690.82
657.445	19608.11
657.796	19647.89
658.147	19591.84
658.498	19494.67
658.849	19628.68
659.2	19545.29
659.551	19501.22
659.902	19525.18
660.253	19474.56
660.604	19519.98
660.955	19417.16
661.306	19397.72
661.656	19353.43
662.007	19483.15
662.358	19530.6
662.708	19471.85
663.059	19433.66
663.409	19287.22
663.76	19409.25
664.11	19387.56
664.461	19516.14
664.811	19416.03
665.161	19264.85
665.511	19290.38
665.862	19147.56
666.212	19395.24
666.562	19357.95
666.912	19208.58
667.262	19170.84
667.612	19277.28
667.962	19312.75
668.312	19292.87
668.662	19252.87
669.011	19180.1
669.361	19131.97
669.711	19214
670.06	19100.56
670.41	19174.68
670.76	19137.39
671.109	19160.44
671.459	19108.92
671.808	19121.35
672.157	19142.36
672.507	19071.63
672.856	18934.46
673.205	19032.54
673.554	19080.67
673.904	18951.18
674.253	19103.95
674.602	19030.05
674.951	18808.36
675.3	18694.47
675.649	18957.51
675.998	18957.28
676.346	18995.7
676.695	19015.81
677.044	18869.15
677.393	18941.47
677.741	18940.56
678.09	18856.27
678.438	18904.18
678.787	18807.46
679.135	18869.38
679.484	18594.13
679.832	18777.4
680.181	18584.19
680.529	18646.56
680.877	18714.13
681.225	18537.41
681.573	18623.73
681.922	18526.11
682.27	18478.2
682.618	18492.21
682.966	18508.03
683.314	18585.09
683.661	18421.93
684.009	18305.32
684.357	18299.22
684.705	18247.25
685.053	18233.24
685.4	18317.98
685.748	18202.28
686.095	18060.81
686.443	18187.81
686.79	18100.81
687.138	18030.3
687.485	18093.8
687.832	18030.75
688.18	18000.47
688.527	17906.46
688.874	17908.95
689.221	17889.97
689.568	17735.17
689.915	17683.19
690.262	17679.13
690.609	17614.95
690.956	17708.73
691.303	17578.56
691.65	17546.47
691.997	17536.53
692.344	17473.71
692.69	17333.6
693.037	17450.21
693.383	17266.26
693.73	17324.11
694.077	17195.52
694.423	17224.67
694.769	17117.56
695.116	16973.16
695.462	17061.74
695.808	16995.3
696.155	17012.25
696.501	16929.54
696.847	16894.29
697.193	16833.5
697.539	16798.92
697.885	16696.78
698.231	16618.81
698.577	16668.3
698.923	16587.85
699.269	16502.89
699.614	16496.78
699.96	16513.96
700.306	16410.91
700.651	16327.75
700.997	16337.69
701.342	16268.99
701.688	16347.86
702.033	16186.28
702.379	16195.77
702.724	16131.14
703.069	16106.06
703.415	16013.41
703.76	16030.13
704.105	15983.58
704.45	15973.18
704.795	15771.15
705.14	15781.77
705.485	15819.29
705.83	15677.82
706.175	15744.26
706.52	15655.22
706.865	15654.55
707.209	15600.76
707.554	15546.98
707.899	15529.8
708.243	15425.17
708.588	15549.92
708.932	15375.46
709.277	15412.74
709.621	15372.75
709.966	15261.56
710.31	15266.76
710.654	15080.55
710.998	15240.09
711.342	15217.5
711.687	15148.12
712.031	15053.21
712.375	15013.43
712.719	15085.07
713.063	15043.94
713.407	15021.79
713.75	14990.83
714.094	14949.25
714.438	14858.63
714.782	14831.97
715.125	14798.52
715.469	14849.82
715.812	14759.65
716.156	14659.77
716.499	14747
716.843	14728.47
717.186	14634.23
717.53	14617.51
717.873	14688.02
718.216	14597.85
718.559	14549.94
718.902	14449.83
719.246	14456.39
719.589	14352.89
719.932	14299.55
720.275	14382.26
720.617	14363.28
720.96	14300.01
721.303	14283.73
721.646	14224.98
721.989	14212.55
722.331	14290.97
722.674	14218.2
723.016	14136.39
723.359	14126.22
723.701	14194.47
724.044	14064.08
724.386	14052.1
724.729	14100.69
725.071	14006.68
725.413	14003.06
725.755	14029.73
726.097	13979.11
726.439	13863.63
726.782	13879.45
727.124	13972.1
727.465	13840.81
727.807	13883.07
728.149	13799.45
728.491	13774.14
728.833	13820.24
729.175	13799
729.516	13676.74
729.858	13750.64
730.199	13622.28
730.541	13711.55
730.882	13655.95
731.224	13746.35
731.565	13497.99
731.906	13499.8
732.248	13574.15
732.589	13491.21
732.93	13391.1
733.271	13492.57
733.612	13537.31
733.953	13511.33
734.294	13427.26
734.635	13325.57
734.976	13455.28
735.317	13342.97
735.658	13356.98
735.999	13292.57
736.339	13286.47
736.68	13299.13
737.021	13197.66
737.361	13277.43
737.702	13231.33
738.042	13251.67
738.383	13114.05
738.723	13193.59
739.063	13067.04
739.404	13133.48
739.744	13098
740.084	13015.75
740.424	13078.34
740.764	12955.41
741.104	13063.65
741.444	12929.42
741.784	12939.59
742.124	13012.81
742.464	12957.44
742.804	12936.88
743.143	12796.32
743.483	12826.82
743.823	12838.12
744.162	12769.42
744.502	12853.49
744.841	12725.13
745.181	12800.61
745.52	12728.07
745.86	12713.61
746.199	12760.61
746.538	12734.85
746.877	12684.45
747.216	12690.56
747.556	12592.03
747.895	12594.51
748.234	12564.91
748.573	12503.22
748.911	12573.5
749.25	12582.31
749.589	12470.9
749.928	12492.37
750.267	12402.43
750.605	12432.71
750.944	12406.5
751.283	12352.49
751.621	12349.32
751.96	12331.47
752.298	12256.9
752.636	12325.59
752.975	12267.97
753.313	12219.61
753.651	12217.35
753.989	12145.26
754.327	12164.92
754.666	12013.74
755.004	12085.15
755.342	12034.98
755.679	12046.28
