Data from foam_black_FLMS001491_00016.txt Node
Date: Wed Feb 08 10:43:35 GMT 2017
User: dcchb
Spectrometer: FLMS00149
Trigger mode: 0
Integration Time (sec): 2.000000E-2
Scans to average: 10
Electric dark correction enabled: true
Nonlinearity correction enabled: false
Boxcar width: 0
XAxis mode: Wavelengths
Number of Pixels in Spectrum: 2048
>>>>>Begin Spectral Data<<<<<
341.393	-22.82
341.776	-22.82
342.16	-22.82
342.543	-57.17
342.927	-60.56
343.31	-90.39
343.693	-67.34
344.077	-66.21
344.46	-49.04
344.843	-48.59
345.226	-64.86
345.61	-8.14
345.993	-20.11
346.376	-16.27
346.759	6.33
347.142	31.41
347.525	43.84
347.908	48.59
348.291	72.31
348.674	108.47
349.057	120
349.44	130.84
349.823	137.17
350.206	162.48
350.588	210.39
350.971	213.55
351.354	224.4
351.737	217.4
352.119	231.86
352.502	253.1
352.884	249.94
353.267	272.54
353.65	266.43
354.032	280.22
354.414	275.92
354.797	288.35
355.179	319.31
355.562	299.43
355.944	306.21
356.326	305.08
356.709	327.68
357.091	331.06
357.473	299.43
357.855	338.07
358.238	324.96
358.62	320.67
359.002	336.04
359.384	350.05
359.766	331.97
360.148	343.95
360.53	335.36
360.912	304.17
361.294	338.75
361.676	323.83
362.057	316.83
362.439	322.93
362.821	317.28
363.203	305.98
363.584	316.83
363.966	313.44
364.348	331.74
364.729	293.33
365.111	317.28
365.493	312.53
365.874	300.56
366.256	300.78
366.637	320.44
367.019	319.77
367.4	304.62
367.781	320.9
368.163	316.15
368.544	310.5
368.925	309.6
369.306	310.05
369.688	300.11
370.069	324.96
370.45	318.86
370.831	320.22
371.212	315.02
371.593	316.15
371.974	335.36
372.355	304.62
372.736	308.47
373.117	317.51
373.498	316.83
373.879	310.95
374.26	340.56
374.641	319.99
375.021	323.16
375.402	324.96
375.783	302.82
376.163	340.56
376.544	321.57
376.925	334.68
377.305	331.06
377.686	316.83
378.066	331.06
378.447	331.06
378.827	351.63
379.208	330.39
379.588	341.46
379.968	324.74
380.349	347.56
380.729	355.02
381.109	346.88
381.489	346.66
381.87	345.08
382.25	349.37
382.63	359.54
383.01	356.83
383.39	355.02
383.77	362.48
384.15	348.69
384.53	365.19
384.91	364.74
385.29	350.73
385.67	369.03
386.049	375.13
386.429	383.04
386.809	395.24
387.189	385.3
387.568	365.19
387.948	400.22
388.328	370.61
388.707	390.72
389.087	395.24
389.466	398.41
389.846	394.34
390.225	404.74
390.605	390.5
390.984	397.28
391.363	384.85
391.743	367.9
392.122	390.05
392.501	402.93
392.881	402.25
393.26	414.23
393.639	410.38
394.018	428.92
394.397	422.81
394.776	400.89
395.155	401.12
395.534	421.23
395.913	431.18
396.292	421.01
396.671	417.62
397.05	425.3
397.429	439.99
397.808	439.31
398.186	411.06
398.565	414.68
398.944	437.95
399.323	437.05
399.701	450.84
400.08	447.67
400.458	436.37
400.837	458.52
401.215	433.66
401.594	461
401.972	452.87
402.351	447.67
402.729	455.36
403.107	464.39
403.486	459.65
403.864	466.88
404.242	461.23
404.62	479.31
404.999	468.91
405.377	473.43
405.755	482.02
406.133	505.07
406.511	499.42
406.889	501
407.267	492.87
407.645	516.14
408.023	487.9
408.401	494
408.779	516.6
409.156	515.01
409.534	519.53
409.912	529.7
410.29	531.51
410.667	547.56
411.045	540.1
411.422	536.48
411.8	559.08
412.178	547.78
412.555	562.47
412.933	561.34
413.31	556.82
413.687	569.7
414.065	569.25
414.442	567.89
414.819	584.84
415.197	612.19
415.574	588.23
415.951	582.81
416.328	587.33
416.705	607.44
417.082	620.77
417.46	606.31
417.837	605.63
418.214	608.57
418.591	611.51
418.967	623.49
419.344	605.41
419.721	636.14
420.098	634.56
420.475	642.92
420.852	621.45
421.228	634.33
421.605	639.31
421.982	628.46
422.358	656.71
422.735	668.01
423.111	683.37
423.488	672.75
423.864	688.57
424.241	697.83
424.617	678.17
424.994	693.32
425.37	685.41
425.746	718.4
426.123	732.86
426.499	692.64
426.875	713.65
427.251	726.76
427.627	739.64
428.003	740.32
428.379	742.58
428.756	755.01
429.132	752.97
429.507	792.3
429.883	779.41
430.259	794.1
430.635	778.28
431.011	789.58
431.387	790.94
431.763	828.9
432.138	846.53
432.514	816.02
432.89	829.13
433.265	865.06
433.641	860.99
434.016	846.76
434.392	822.13
434.767	879.3
435.143	838.85
435.518	879.98
435.894	877.49
436.269	907.77
436.644	872.07
437.02	916.36
437.395	937.15
437.77	945.29
438.145	958.39
438.52	964.72
438.895	948
439.271	966.3
439.646	976.92
440.021	992.29
440.395	995.45
440.77	983.48
441.145	982.57
441.52	1001.78
441.895	989.8
442.27	994.55
442.645	998.17
443.019	1019.18
443.394	1024.61
443.769	1019.41
444.143	1018.96
444.518	1031.39
444.892	1010.14
445.267	1052.85
445.641	1052.85
446.016	1069.12
446.39	1048.79
446.764	1070.48
447.139	1088.56
447.513	1073.42
447.887	1072.29
448.262	1095.34
448.636	1071.16
449.01	1085.62
449.384	1094.66
449.758	1123.36
450.132	1115.22
450.506	1132.63
450.88	1131.5
451.254	1109.35
451.628	1181.44
452.002	1182.12
452.376	1148.9
452.75	1182.57
453.123	1197.71
453.497	1236.8
453.871	1177.37
454.244	1231.15
454.618	1230.02
454.992	1269.8
455.365	1272.96
455.739	1279.51
456.112	1282
456.486	1299.17
456.859	1302.79
457.232	1342.34
457.606	1343.69
457.979	1361.32
458.352	1396.57
458.725	1405.84
459.099	1403.58
459.472	1389.12
459.845	1434.76
460.218	1416.23
460.591	1451.26
460.964	1460.75
461.337	1468.89
461.71	1491.94
462.083	1540.75
462.456	1525.61
462.829	1521.54
463.201	1524.93
463.574	1541.65
463.947	1585.04
464.32	1621.43
464.692	1605.61
465.065	1596.34
465.438	1653.74
465.81	1645.15
466.183	1684.93
466.555	1700.07
466.928	1715.66
467.3	1722.44
467.672	1738.71
468.045	1778.71
468.417	1795.43
468.789	1803.34
469.161	1826.39
469.534	1860.29
469.906	1891.25
470.278	1919.72
470.65	1896
471.022	1955.65
471.394	1946.84
471.766	1973.28
472.138	1984.58
472.51	1983.22
472.882	2021.64
473.253	2046.27
473.625	2096.67
473.997	2182.54
474.369	2168.76
474.74	2189.77
475.112	2222.54
475.484	2232.94
475.855	2282.88
476.227	2314.52
476.598	2331.69
476.97	2364.91
477.341	2434.29
477.713	2474.51
478.084	2498.01
478.455	2529.2
478.827	2525.36
479.198	2581.63
479.569	2620.27
479.94	2697.1
480.311	2707.05
480.682	2771
481.053	2796.08
481.424	2878.12
481.795	2910.88
482.166	2939.81
482.537	2973.71
482.908	3001.73
483.279	2994.72
483.65	3088.51
484.021	3167.6
484.391	3153.82
484.762	3175.96
485.133	3201.27
485.503	3268.84
485.874	3353.81
486.244	3363.53
486.615	3418.44
486.985	3464.32
487.356	3519.23
487.726	3524.43
488.097	3607.81
488.467	3581.37
488.837	3686.23
489.207	3673.35
489.578	3756.74
489.948	3821.37
490.318	3784.99
490.688	3846.23
491.058	3942.27
491.428	3917.64
491.798	3969.84
492.168	4050.29
492.538	4060.23
492.908	4162.6
493.278	4166.67
493.648	4238.98
494.017	4276.95
494.387	4308.36
494.757	4319.21
495.126	4329.38
495.496	4403.95
495.866	4445.08
496.235	4464.52
496.605	4492.54
496.974	4507.23
497.344	4565.08
497.713	4587.68
498.082	4613.89
498.452	4667.22
498.821	4651.86
499.19	4680.55
499.559	4737.95
499.928	4765.07
500.298	4772.53
500.667	4823.38
501.036	4881.23
501.405	4902.02
501.774	4864.05
502.143	4914
502.512	4970.72
502.88	4980.66
503.249	5014.78
503.618	5018.17
503.987	5090.49
504.356	5062.69
504.724	5097.95
505.093	5177.26
505.462	5165.51
505.83	5223.37
506.199	5286.87
506.567	5352.85
506.936	5345.17
507.304	5425.85
507.672	5438.5
508.041	5471.04
508.409	5534.77
508.777	5572.51
509.145	5586.97
509.514	5628.78
509.882	5644.37
510.25	5611.6
510.618	5741.54
510.986	5734.31
511.354	5787.64
511.722	5829.23
512.09	5841.43
512.458	5869.45
512.826	5909.45
513.193	5906.51
513.561	5941.99
513.929	5994.42
514.297	6022.89
514.664	6090.24
515.032	6147.18
515.4	6137.69
515.767	6252.49
516.135	6274.19
516.502	6257.24
516.869	6394.41
517.237	6386.72
517.604	6385.59
517.972	6479.15
518.339	6600.96
518.706	6571.13
519.073	6670.33
519.44	6696.32
519.808	6766.6
520.175	6752.14
520.542	6833.94
520.909	6867.16
521.276	6908.07
521.643	6930.89
522.009	6990.78
522.376	7031.68
522.743	7093.82
523.11	7138.12
523.477	7204.1
523.843	7261.05
524.21	7286.36
524.577	7327.72
524.943	7372.69
525.31	7347.83
525.676	7501.05
526.043	7591.21
526.409	7474.38
526.776	7694.26
527.142	7723.41
527.508	7742.4
527.874	7888.15
528.241	7917.76
528.607	7952.33
528.973	7958.21
529.339	8042.5
529.705	8128.15
530.071	8175.6
530.437	8270.97
530.803	8299.89
531.169	8437.52
531.535	8400.23
531.901	8426.22
532.267	8477.29
532.632	8494.24
532.998	8600.23
533.364	8577.63
533.73	8647.91
534.095	8619.89
534.461	8712.31
534.826	8741.01
535.192	8728.36
535.557	8734.91
535.923	8722.71
536.288	8794.12
536.653	8868.92
537.019	8808.58
537.384	8873.21
537.749	8909.82
538.114	8980.78
538.479	9027.11
538.845	9114.56
539.21	9043.38
539.575	9157.05
539.94	9223.71
540.305	9299.87
540.67	9319.3
541.034	9302.13
541.399	9430.94
541.764	9505.51
542.129	9449.7
542.494	9477.04
542.858	9583.7
543.223	9564.72
543.587	9605.4
543.952	9674.32
544.316	9601.1
544.681	9675.68
545.045	9651.95
545.41	9736.02
545.774	9751.61
546.138	9690.37
546.503	9727.2
546.867	9802.91
547.231	9884.94
547.595	9876.35
547.959	9926.07
548.324	9937.82
548.688	9946.63
549.052	10005.61
549.416	10032.5
549.779	10059.62
550.143	10085.16
550.507	10171.26
550.871	10318.15
551.235	10305.72
551.599	10434.3
551.962	10522.21
552.326	10457.58
552.689	10606.27
553.053	10571.02
553.417	10633.39
553.78	10757.46
554.143	10691.02
554.507	10849.43
554.87	10793.84
555.234	10905.93
555.597	10882.65
555.96	10877.91
556.323	10849.21
556.686	10882.88
557.05	11014.63
557.413	11012.14
557.776	11002.42
558.139	11117.22
558.502	11138.92
558.865	11157.9
559.228	11250.55
559.59	11255.07
559.953	11357.44
560.316	11378.91
560.679	11452.35
561.041	11559.24
561.404	11739.58
561.767	11691.9
562.129	11596.08
562.492	11809.63
562.854	11844.66
563.217	11768.73
563.579	11967.59
563.941	12072.22
564.304	12083.3
564.666	12128.95
565.028	12198.55
565.39	12325.55
565.753	12324.65
566.115	12364.19
566.477	12489.16
566.839	12489.84
567.201	12614.13
567.563	12535.94
567.925	12634.24
568.287	12640.35
568.648	12756.27
569.01	12777.52
569.372	12860
569.734	12882.6
570.095	12901.36
570.457	12907.46
570.819	12988.81
571.18	13014.57
571.542	13111.07
571.903	13121.91
572.265	13154.23
572.626	13175.02
572.987	13279.65
573.349	13367.56
573.71	13316.03
574.071	13403.49
574.432	13413.21
574.794	13474.9
575.155	13512.19
575.516	13505.63
575.877	13563.03
576.238	13566.87
576.599	13624.5
576.96	13702.92
577.32	13704.72
577.681	13809.81
578.042	13827.21
578.403	13845.74
578.763	13803.7
579.124	13794.44
579.485	13991.5
579.845	13958.5
580.206	13955.57
580.566	13962.57
580.927	14001.21
581.287	14067.65
581.648	14075.79
582.008	14118.72
582.368	14144.49
582.728	14123.92
583.089	14099.97
583.449	13982.01
583.809	14137.71
584.169	14166.63
584.529	14129.57
584.889	14303.8
585.249	14103.36
585.609	14041.44
585.969	14131.38
586.329	14069.01
586.688	14107.65
587.048	14079.63
587.408	14088.22
587.768	14049.8
588.127	14062.91
588.487	14042.79
588.846	14135.67
589.206	14045.05
589.565	14014.55
589.925	14143.58
590.284	14083.02
590.643	14116.24
591.003	14139.29
591.362	14175.45
591.721	14185.84
592.08	14189.91
592.44	14275.33
592.799	14232.39
593.158	14293.18
593.517	14309
593.876	14312.84
594.235	14344.71
594.593	14438.94
594.952	14409.11
595.311	14399.17
595.67	14471.71
596.029	14489.79
596.387	14550.58
596.746	14564.81
597.104	14536.57
597.463	14460.64
597.822	14608.43
598.18	14551.71
598.538	14607.3
598.897	14552.39
599.255	14432.61
599.613	14679.61
599.972	14579.73
600.33	14617.24
600.688	14534.08
601.046	14546.51
601.404	14652.72
601.762	14454.08
602.12	14546.74
602.478	14542.44
602.836	14527.3
603.194	14382.45
603.552	14451.6
603.91	14430.36
604.268	14496.12
604.625	14440.07
604.983	14485.49
605.341	14435.1
605.698	14556
606.056	14501.31
606.413	14631.48
606.771	14615.89
607.128	14685.26
607.485	14746.5
607.843	14701.53
608.2	14809.1
608.557	14950.79
608.914	14872.38
609.272	14921.64
609.629	15064.69
609.986	15051.81
610.343	15000.96
610.7	15190.79
611.057	15046.84
611.414	15085.03
611.771	15085.25
612.127	15176.55
612.484	15189.21
612.841	15180.84
613.198	15105.82
613.554	15103.78
613.911	15136.55
614.267	15165.25
614.624	15113.73
614.98	15113.5
615.337	15234.4
615.693	15133.16
616.05	15127.96
616.406	15161.41
616.762	15157.79
617.118	15100.39
617.475	15109.89
617.831	15117.57
618.187	15192.37
618.543	15184.01
618.899	15251.8
619.255	15233.27
619.611	15233.05
619.967	15329.54
620.323	15399.37
620.678	15323.44
621.034	15233.95
621.39	15282.54
621.746	15327.73
622.101	15454.51
622.457	15454.28
622.812	15529.76
623.168	15491.8
623.523	15417.67
623.879	15577.67
624.234	15516.88
624.589	15597.33
624.945	15553.72
625.3	15655.86
625.655	15592.13
626.01	15655.18
626.365	15659.02
626.72	15548.29
627.075	15666.93
627.43	15614.5
627.785	15604.34
628.14	15698.57
628.495	15632.81
628.85	15526.82
629.205	15485.69
629.559	15515.52
629.914	15432.59
630.269	15452.48
630.623	15399.14
630.978	15430.1
631.332	15364.34
631.687	15410.89
632.041	15181.52
632.396	15271.01
632.75	15209.77
633.104	15193.27
633.459	15190.56
633.813	15228.53
634.167	15103.56
634.521	15120.28
634.875	15141.97
635.229	15134.52
635.583	15033.5
635.937	15064.69
636.291	15016.55
636.645	15068.53
636.999	14961.64
637.352	15089.77
637.706	14929.78
638.06	15115.99
638.413	14978.14
638.767	14976.33
639.121	14991.92
639.474	14933.17
639.828	15034.41
640.181	14951.02
640.534	15001.41
640.888	14883.45
641.241	14863.56
641.594	14931.58
641.947	15013.84
642.301	14955.54
642.654	14967.74
643.007	14987.18
643.36	14925.94
643.713	14887.52
644.066	14934.07
644.419	14777.92
644.771	14730.23
645.124	14525.49
645.477	14506.51
645.83	14443.46
646.182	14416.57
646.535	14436.46
646.888	14515.32
647.24	14398.27
647.593	14504.48
647.945	14419.51
648.298	14401.66
648.65	14402.56
649.002	14351.26
649.355	14379.73
649.707	14205.28
650.059	14213.41
650.411	14420.64
650.763	14447.76
651.115	14558.71
651.467	14559.17
651.819	14532.95
652.171	14502.67
652.523	14407.08
652.875	14415.67
653.227	14350.81
653.578	14455.21
653.93	14344.26
654.282	14383.12
654.633	14328.44
654.985	14370.7
655.337	14330.92
655.688	14300.41
656.039	14277.14
656.391	14255.44
656.742	14342
657.094	14211.6
657.445	14259.06
657.796	14254.31
658.147	14295.22
658.498	14242.79
658.849	14297.25
659.2	14337.25
659.551	14285.73
659.902	14292.28
660.253	14277.59
660.604	14302
660.955	14240.3
661.306	14415.44
661.656	14384.48
662.007	14349.91
662.358	14360.75
662.708	14326.85
663.059	14336.35
663.409	14259.29
663.76	14378.6
664.11	14345.16
664.461	14372.28
664.811	14340.19
665.161	14305.84
665.511	14283.69
665.862	14236.24
666.212	14429.68
666.562	14259.74
666.912	14323.01
667.262	14288.21
667.612	14337.48
667.962	14241.21
668.312	14196.01
668.662	14262.45
669.011	14201.89
669.361	14088.22
669.711	14193.07
670.06	14095.67
670.41	14049.35
670.76	14039.18
671.109	14096.35
671.459	13991.95
671.808	13990.14
672.157	14029.69
672.507	13927.09
672.856	14077.14
673.205	13871.95
673.554	14002.57
673.904	13936.13
674.253	13988.11
674.602	13899.07
674.951	13733.2
675.3	13581.79
675.649	13810.48
675.998	13880.09
676.346	13885.06
676.695	13898.62
677.044	13747.89
677.393	13838.28
677.741	13912.18
678.09	13910.37
678.438	13861.33
678.787	13824.27
679.135	13876.92
679.484	13877.6
679.832	13895.23
680.181	13897.49
680.529	13945.85
680.877	13778.85
681.225	13748.57
681.573	13923.93
681.922	13832.63
682.27	13791.95
682.618	13718.74
682.966	13711.96
683.314	13801.9
683.661	13714.67
684.009	13641
684.357	13677.61
684.705	13600.09
685.053	13611.39
685.4	13578.63
685.748	13503.83
686.095	13446.65
686.443	13488.46
686.79	13366.2
687.138	13464.73
687.485	13398.29
687.832	13332.53
688.18	13284.85
688.527	13202.82
688.874	13222.7
689.221	13250.27
689.568	13138.41
689.915	13070.16
690.262	13016.38
690.609	12967.57
690.956	13050.28
691.303	12836.05
691.65	12847.35
691.997	12857.74
692.344	12848.02
692.69	12798.31
693.037	12839.21
693.383	12740.68
693.73	12787.46
694.077	12751.3
694.423	12810.51
694.769	12792.21
695.116	12726.9
695.462	12687.58
695.808	12610.52
696.155	12685.77
696.501	12519.22
696.847	12571.42
697.193	12459.79
697.539	12570.52
697.885	12469.73
698.231	12340.69
698.577	12436.51
698.923	12415.72
699.269	12300.02
699.614	12366.91
699.96	12379.79
700.306	12306.57
700.651	12242.16
700.997	12233.8
701.342	12189.74
701.688	12120.81
702.033	12153.8
702.379	12131.21
702.724	12081.26
703.069	12152.22
703.415	11875.17
703.76	11947.48
704.105	11914.26
704.45	11941.38
704.795	11854.38
705.14	11761.95
705.485	11683.08
705.83	11741.16
706.175	11717.66
706.52	11656.19
706.865	11555.18
707.209	11636.98
707.554	11451
707.899	11613.71
708.243	11510.43
708.588	11450.77
708.932	11347.05
709.277	11385.01
709.621	11487.83
709.966	11375.97
710.31	11367.84
710.654	11295.97
710.998	11334.84
711.342	11357.22
711.687	11281.96
712.031	11241.74
712.375	11244.22
712.719	11180.95
713.063	11227.73
713.407	11198.35
713.75	11163.32
714.094	11194.28
714.438	11135.07
714.782	11170.78
715.125	11112.25
715.469	11141.85
715.812	11082.42
716.156	11027.96
716.499	11035.42
716.843	11025.7
717.186	10984.34
717.53	11053.49
717.873	11094.62
718.216	11021.63
718.559	10999.71
718.902	10903.22
719.246	10908.41
719.589	10905.7
719.932	10855.99
720.275	10891.92
720.617	10873.61
720.96	10805.59
721.303	10810.79
721.646	10841.52
721.989	10669.32
722.331	10738.25
722.674	10733.28
723.016	10712.71
723.359	10627.07
723.701	10654.64
724.044	10555.2
724.386	10581.42
724.729	10601.76
725.071	10527.41
725.413	10566.5
725.755	10572.83
726.097	10465.94
726.439	10507.29
726.782	10405.6
727.124	10380.52
727.465	10375.77
727.807	10385.26
728.149	10314.98
728.491	10345.04
728.833	10288.09
729.175	10221.88
729.516	10292.16
729.858	10321.54
730.199	10307.98
730.541	10171.26
730.882	10253.52
731.224	10240.41
731.565	10106.4
731.906	10263.91
732.248	10175.78
732.589	10199.51
732.93	10156.8
733.271	10129.23
733.612	10130.13
733.953	10169.45
734.294	10063.24
734.635	10113.41
734.976	10177.59
735.317	10137.81
735.658	10092.16
735.999	10092.16
736.339	10052.39
736.68	10181.2
737.021	10046.06
737.361	10008.1
737.702	10040.87
738.042	10052.17
738.383	10016.91
738.723	10051.26
739.063	10045.39
739.404	9957.48
739.744	10024.82
740.084	9939.4
740.424	10010.36
740.764	9919.97
741.104	9927.42
741.444	9865.73
741.784	9816.47
742.124	9856.69
742.464	9831.38
742.804	9805.62
743.143	9826.86
743.483	9825.05
743.823	9718.39
744.162	9773.08
744.502	9772.17
744.841	9734.21
745.181	9761.55
745.52	9651.27
745.86	9586.19
746.199	9657.83
746.538	9599.97
746.877	9647.66
747.216	9574.44
747.556	9630.48
747.895	9553.42
748.234	9509.13
748.573	9559.97
748.911	9486.53
749.25	9509.58
749.589	9480.43
749.928	9431.39
750.267	9458.06
750.605	9436.36
750.944	9473.88
751.283	9366.31
751.621	9364.05
751.96	9346.87
752.298	9376.25
752.636	9372.86
752.975	9238.63
753.313	9282.92
753.651	9303.71
753.989	9202.92
754.327	9241.56
754.666	9165.41
755.004	9171.74
755.342	9170.83
755.679	9172.64
756.017	9129.48
756.355	9133.09
756.693	9076.15
757.031	9069.82
757.368	8985.3
757.706	9017.84
758.044	9012.64
758.381	9019.65
758.719	8891.29
759.056	8924.29
759.394	8867.79
