Data from foam2_polystyrene_foam_FLMS001491_00095.txt Node
Date: Wed Feb 08 10:58:47 GMT 2017
User: dcchb
Spectrometer: FLMS00149
Trigger mode: 0
Integration Time (sec): 2.000000E-2
Scans to average: 10
Electric dark correction enabled: true
Nonlinearity correction enabled: false
Boxcar width: 0
XAxis mode: Wavelengths
Number of Pixels in Spectrum: 2048
>>>>>Begin Spectral Data<<<<<
341.393	-15.88
341.776	-15.88
342.16	-15.88
342.543	-75.08
342.927	-71.69
343.31	-62.65
343.693	-73.5
344.077	-67.4
344.46	-47.74
344.843	-57.68
345.226	-54.74
345.61	-19.49
345.993	-8.19
346.376	4.01
346.759	13.5
347.142	21.64
347.525	56.44
347.908	47.85
348.291	54.18
348.674	83.33
349.057	110.45
349.44	114.52
349.823	156.32
350.206	162.65
350.588	188.64
350.971	224.12
351.354	233.16
351.737	222.76
352.119	254.63
352.502	265.02
352.884	280.16
353.267	295.08
353.65	286.04
354.032	306.6
354.414	312.03
354.797	304.57
355.179	319.48
355.562	352.93
355.944	326.71
356.326	327.17
356.709	309.09
357.091	336.88
357.473	352.7
357.855	339.14
358.238	342.31
358.62	357.22
359.002	352.02
359.384	331.69
359.766	328.52
360.148	330.1
360.53	348.63
360.912	345.92
361.294	342.08
361.676	339.6
362.057	349.09
362.439	342.31
362.821	337.34
363.203	334.85
363.584	332.36
363.966	301.63
364.348	349.31
364.729	352.48
365.111	317.68
365.493	331.46
365.874	342.76
366.256	321.97
366.637	323.55
367.019	330.33
367.4	327.84
367.781	319.26
368.163	349.99
368.544	335.08
368.925	330.56
369.306	326.94
369.688	336.43
370.069	334.85
370.45	319.48
370.831	325.58
371.212	362.42
371.593	333.72
371.974	322.65
372.355	324.91
372.736	333.95
373.117	344.57
373.498	331.01
373.879	344.57
374.26	362.19
374.641	350.44
375.021	346.38
375.402	366.71
375.783	347.96
376.163	368.52
376.544	378.46
376.925	366.49
377.305	367.39
377.686	354.28
378.066	382.76
378.447	372.14
378.827	383.89
379.208	357
379.588	369.2
379.968	373.94
380.349	362.65
380.729	389.09
381.109	386.15
381.489	397
381.87	394.74
382.25	379.37
382.63	383.21
383.01	374.62
383.39	399.48
383.77	399.03
384.15	388.86
384.53	391.35
384.91	414.4
385.29	420.27
385.67	400.16
386.049	414.17
386.429	413.94
386.809	408.75
387.189	413.27
387.568	414.85
387.948	429.08
388.328	436.09
388.707	418.24
389.087	402.19
389.466	432.93
389.846	432.47
390.225	444.45
390.605	464.56
390.984	453.04
391.363	461.17
391.743	454.39
392.122	478.12
392.501	453.04
392.881	454.62
393.26	470.44
393.639	465.24
394.018	459.82
394.397	489.2
394.776	483.55
395.155	491.23
395.534	485.81
395.913	490.78
396.292	478.12
396.671	513.6
397.05	487.39
397.429	514.51
397.808	505.24
398.186	495.98
398.565	511.34
398.944	516.54
399.323	553.38
399.701	526.03
400.08	500.95
400.458	540.27
400.837	542.75
401.215	541.62
401.594	545.47
401.972	564.9
402.351	546.6
402.729	562.87
403.107	549.31
403.486	568.29
403.864	566.03
404.242	567.16
404.62	580.27
404.999	595.86
405.377	585.92
405.755	619.36
406.133	590.44
406.511	598.35
406.889	601.96
407.267	628.18
407.645	634.05
408.023	641.96
408.401	639.25
408.779	620.04
409.156	629.08
409.534	627.27
409.912	677.21
410.29	676.08
410.667	670.66
411.045	716.99
411.422	680.38
411.8	702.75
412.178	688.29
412.555	702.07
412.933	710.66
413.31	714.95
413.687	716.53
414.065	741.84
414.442	726.7
414.819	729.19
415.197	756.76
415.574	773.03
415.951	755.63
416.328	771.67
416.705	763.09
417.082	781.84
417.46	801.5
417.837	817.32
418.214	803.76
418.591	827.94
418.967	817.1
419.344	807.61
419.721	847.15
420.098	848.28
420.475	841.73
420.852	856.87
421.228	865.23
421.605	870.88
421.982	888.51
422.358	892.58
422.735	899.81
423.111	899.81
423.488	906.59
423.864	905.91
424.241	931.22
424.617	917.89
424.994	930.09
425.37	957.66
425.746	962.63
426.123	968.51
426.499	992.23
426.875	988.17
427.251	989.07
427.627	1001.27
428.003	992.69
428.379	1017.32
428.756	1019.35
429.132	1040.14
429.507	1059.12
429.883	1065.9
430.259	1126.69
430.635	1114.26
431.011	1099.58
431.387	1163.75
431.763	1137.99
432.138	1165.34
432.514	1189.29
432.89	1193.13
433.265	1212.34
433.641	1218.22
434.016	1223.87
434.392	1260.02
434.767	1231.78
435.143	1278.78
435.518	1281.04
435.894	1274.94
436.269	1315.62
436.644	1299.57
437.02	1349.06
437.395	1342.73
437.77	1375.95
438.145	1363.98
438.52	1431.54
438.895	1434.03
439.271	1406.69
439.646	1457.08
440.021	1434.71
440.395	1445.56
440.77	1446.91
441.145	1473.8
441.52	1511.77
441.895	1497.31
442.27	1551.09
442.645	1510.19
443.019	1554.25
443.394	1535.04
443.769	1554.03
444.143	1548.15
444.518	1590.18
444.892	1592.22
445.267	1606.68
445.641	1623.4
446.016	1593.57
446.39	1636.06
446.764	1673.35
447.139	1673.35
447.513	1681.48
447.887	1692.33
448.262	1701.82
448.636	1684.42
449.01	1731.2
449.384	1754.7
449.758	1781.82
450.132	1767.35
450.506	1764.42
450.88	1804.42
451.254	1854.36
451.628	1850.52
452.002	1847.58
452.376	1850.06
452.75	1894.13
453.123	1900.23
453.497	1955.82
453.871	1903.4
454.244	1973.22
454.618	1974.58
454.992	1994.24
455.365	1996.5
455.739	2056.61
456.112	2034.24
456.486	2078.53
456.859	2093.67
457.232	2128.7
457.606	2147.68
457.979	2164.63
458.352	2191.52
458.725	2166.44
459.099	2201.47
459.472	2244.63
459.845	2259.09
460.218	2287.57
460.591	2330.05
460.964	2295.7
461.337	2373.89
461.71	2423.38
462.083	2419.99
462.456	2414.12
462.829	2471.97
463.201	2501.12
463.574	2510.84
463.947	2518.97
464.32	2560.55
464.692	2574.11
465.065	2609.14
465.438	2650.72
465.81	2672.87
466.183	2695.92
466.555	2786.76
466.928	2764.84
467.3	2758.06
467.672	2819.53
468.045	2860.43
468.417	2892.3
468.789	2897.04
469.161	2941.79
469.534	3001.9
469.906	3057.26
470.278	3080.09
470.65	3093.2
471.022	3176.13
471.394	3192.4
471.766	3244.15
472.138	3289.35
472.51	3333.87
472.882	3386.97
473.253	3447.76
473.625	3439.18
473.997	3537.25
474.369	3540.64
474.74	3578.61
475.112	3636.23
475.484	3703.57
475.855	3748.32
476.227	3809.33
476.598	3882.78
476.97	3922.78
477.341	3960.52
477.713	4064.7
478.084	4104.92
478.455	4176.1
478.827	4233.05
479.198	4318.47
479.569	4361.64
479.94	4475.31
480.311	4501.29
480.682	4586.49
481.053	4673.72
481.424	4771.57
481.795	4795.3
482.166	4845.24
482.537	4952.81
482.908	5092.46
483.279	5103.54
483.65	5172.91
484.021	5291.78
484.391	5328.62
484.762	5403.87
485.133	5425.79
485.503	5520.48
485.874	5657.42
486.244	5710.98
486.615	5767.02
486.985	5860.81
487.356	5954.82
487.726	6009.05
488.097	6193.23
488.467	6141.48
488.837	6328.14
489.207	6356.39
489.578	6498.76
489.948	6440.45
490.318	6615.59
490.688	6607.23
491.058	6778.75
491.428	6765.64
491.798	6909.59
492.168	7046.99
492.538	7044.73
492.908	7141.45
493.278	7150.26
493.648	7226.19
494.017	7325.4
494.387	7366.08
494.757	7425.96
495.126	7564.04
495.496	7531.72
495.866	7620.31
496.235	7712.06
496.605	7817.14
496.974	7876.8
497.344	7912.5
497.713	8004.93
498.082	8067.3
498.452	8146.85
498.821	8133.06
499.19	8168.09
499.559	8298.03
499.928	8331.02
500.298	8359.27
500.667	8506.61
501.036	8450.79
501.405	8629.1
501.774	8658.92
502.143	8680.85
502.512	8719.94
502.88	8796.1
503.249	8883.33
503.618	8979.37
503.987	8942.53
504.356	9055.3
504.724	9105.01
505.093	9088.29
505.462	9197.67
505.83	9257.33
506.199	9363.09
506.567	9470.2
506.936	9462.07
507.304	9592.46
507.672	9565.12
508.041	9637.66
508.409	9748.84
508.777	9811.89
509.145	9901.15
509.514	9951.77
509.882	9985.67
510.25	10108.6
510.618	10118.1
510.986	10116.06
511.354	10263.63
511.722	10377.98
512.09	10468.37
512.458	10424.3
512.826	10549.72
513.193	10568.93
513.561	10602.15
513.929	10694.35
514.297	10847.12
514.664	10891.86
515.032	10879.66
515.4	11051.18
515.767	11115.58
516.135	11199.42
516.502	11125.98
516.869	11406.65
517.237	11367.78
517.604	11439.64
517.972	11543.37
518.339	11622.69
518.706	11644.38
519.073	11655
519.44	11772.74
519.808	11883.92
520.175	11906.75
520.542	12087.54
520.909	12111.72
521.276	12160.75
521.643	12418.37
522.009	12435.32
522.376	12614.53
522.743	12565.49
523.11	12739.95
523.477	12804.35
523.843	12960.96
524.21	13024.01
524.577	13154.63
524.943	13174.29
525.31	13268.52
525.676	13428.74
526.043	13457.44
526.409	13539.93
526.776	13588.29
527.142	13675.97
527.508	13841.39
527.874	13925
528.241	13993.25
528.607	14075.28
528.973	14118.44
529.339	14237.31
529.705	14288.83
530.071	14446.12
530.437	14471.88
530.803	14464.42
531.169	14668.03
531.535	14649.95
531.901	14753.91
532.267	14853.11
532.632	14935.6
532.998	14992.09
533.364	14979.44
533.73	15084.07
534.095	15237.73
534.461	15263.95
534.826	15360.9
535.192	15388.24
535.557	15544.39
535.923	15556.14
536.288	15572.87
536.653	15644.96
537.019	15607.67
537.384	15757.72
537.749	15841.56
538.114	15819.19
538.479	15855.35
538.845	15955.46
539.21	16065.96
539.575	16083.59
539.94	16191.38
540.305	16205.39
540.67	16318.61
541.034	16327.65
541.399	16442.68
541.764	16445.39
542.129	16510.02
542.494	16538.49
542.858	16632.95
543.223	16591.15
543.587	16656.91
543.952	16721.76
544.316	16813.74
544.681	16797.92
545.045	16974.86
545.41	16970.34
545.774	17042.66
546.138	17063.45
546.503	17130.34
546.867	17134.86
547.231	17369.43
547.595	17297.57
547.959	17350.45
548.324	17481.74
548.688	17567.84
549.052	17565.36
549.416	17623.89
549.779	17695.98
550.143	17793.15
550.507	17767.16
550.871	17816.42
551.235	17817.55
551.599	18073.14
551.962	18027.72
552.326	18226.13
552.689	18299.58
553.053	18179.8
553.417	18293.47
553.78	18504.09
554.143	18400.82
554.507	18622.73
554.87	18698.21
555.234	18743.41
555.597	18750.18
555.96	18782.73
556.323	18851.65
556.686	18955.83
557.05	19077.18
557.413	19181.13
557.776	19236.73
558.139	19353.56
558.502	19454.35
558.865	19421.58
559.228	19668.13
559.59	19667.67
559.953	19620.9
560.316	19942.92
560.679	19872.87
561.041	20016.82
561.404	20208.68
561.767	20292.52
562.129	20205.97
562.492	20434.43
562.854	20493.19
563.217	20533.19
563.579	20643.47
563.941	20798.04
564.304	20871.03
564.666	21024.48
565.028	21024.25
565.39	21137.47
565.753	21302.21
566.115	21440.51
566.477	21471.7
566.839	21561.41
567.201	21575.42
567.563	21637.79
567.925	21837.56
568.287	21859.71
568.648	22036.43
569.01	22082.53
569.372	22202.75
569.734	22144.67
570.095	22358.45
570.457	22400.03
570.819	22355.97
571.18	22423.76
571.542	22541.05
571.903	22628.28
572.265	22737.65
572.626	22727.93
572.987	22810.42
573.349	22853.35
573.71	23007.02
574.071	23090.86
574.432	23198.66
574.794	23266
575.155	23219.45
575.516	23225.77
575.877	23300.57
576.238	23427.58
576.599	23456.95
576.96	23549.15
577.32	23542.83
577.681	23694.91
578.042	23763.16
578.403	23686.78
578.763	23652.88
579.124	23694.01
579.485	23872.31
579.845	23997.28
580.206	23862.59
580.566	23914.57
580.927	23870.05
581.287	24056.26
581.648	23977.39
582.008	24054.68
582.368	23921.12
582.728	24083.83
583.089	23973.78
583.449	23982.59
583.809	24092.19
584.169	24185.75
584.529	24206.99
584.889	24214
585.249	24253.77
585.609	24141
585.969	24292.41
586.329	24295.58
586.688	24321.56
587.048	24218.06
587.408	24237.72
587.768	24264.62
588.127	24273.66
588.487	24310.49
588.846	24344.39
589.206	24307.78
589.565	24338.29
589.925	24429.81
590.284	24305.75
590.643	24315.91
591.003	24428.68
591.362	24416.93
591.721	24377.38
592.08	24339.19
592.44	24475.46
592.799	24475.01
593.158	24371.05
593.517	24475.23
593.876	24454.22
594.235	24424.39
594.593	24555.91
594.952	24521.56
595.311	24497.83
595.67	24498.28
596.029	24694.44
596.387	24733.3
596.746	24695.11
597.104	24482.24
597.463	24527.89
597.822	24543.93
598.18	24555
598.538	24595.23
598.897	24733.53
599.255	24656.47
599.613	24804.26
599.972	24686.3
600.33	24814.88
600.688	24785.28
601.046	24747.54
601.404	24902.11
601.762	24779.86
602.12	24943.92
602.478	24918.84
602.836	24947.54
603.194	24814.43
603.552	24961.77
603.91	24823.47
604.268	24879.29
604.625	24853.75
604.983	24983.47
605.341	24934.2
605.698	25079.28
606.056	25111.15
606.413	24982.34
606.771	25006.52
607.128	25079.74
607.485	24959.97
607.843	25030.47
608.2	25122.67
608.557	25152.73
608.914	25156.57
609.272	25244.03
609.629	25290.13
609.986	25380.29
610.343	25352.05
610.7	25507.97
611.057	25354.08
611.414	25361.54
611.771	25392.04
612.127	25482.89
612.484	25486.73
612.841	25584.81
613.198	25416.45
613.554	25424.36
613.911	25638.82
614.267	25642.89
614.624	25502.55
614.98	25660.51
615.337	25754.97
615.693	25639.95
616.05	25590.68
616.406	25810.56
616.762	25714.07
617.118	25726.95
617.475	25707.29
617.831	25773.28
618.187	25722.66
618.543	25771.02
618.899	25879.49
619.255	25916.55
619.611	25755.42
619.967	25843.33
620.323	26044.46
620.678	25855.31
621.034	25883.56
621.39	25777.34
621.746	25718.36
622.101	26107.28
622.457	25846.95
622.812	25934.18
623.168	25945.02
623.523	25952.26
623.879	26059.6
624.234	25735.76
624.589	25870.45
624.945	25856.21
625.3	25885.59
625.655	25902.54
626.01	25842.65
626.365	25904.8
626.72	25766.05
627.075	25774.18
627.43	25798.81
627.785	25692.83
628.14	25748.87
628.495	25786.38
628.85	25868.19
629.205	25619.16
629.559	25752.94
629.914	25533.74
630.269	25567.18
630.623	25488.76
630.978	25488.54
631.332	25681.98
631.687	25639.72
632.041	25531.02
632.396	25460.07
632.75	25413.51
633.104	25438.14
633.459	25284.7
633.813	25330.8
634.167	25256.45
634.521	25280.18
634.875	25323.8
635.229	25236.12
635.583	25112.05
635.937	25149.56
636.291	25052.17
636.645	25227.3
636.999	25184.82
637.352	25121.09
637.706	24932.62
638.06	25097.14
638.413	24928.33
638.767	24877.48
639.121	24919.51
639.474	24636.13
639.828	24804.26
640.181	24793.87
640.534	24851.04
640.888	24713.19
641.241	24669.58
641.594	24522.24
641.947	24760.42
642.301	24532.18
642.654	24429.81
643.007	24730.59
643.36	24413.76
643.713	24426.65
644.066	24582.8
644.419	24368.12
644.771	24124.96
645.124	23886.55
645.477	24006.09
645.83	23681.58
646.182	23617.18
646.535	23595.26
646.888	23582.15
647.24	23483.39
647.593	23555.93
647.945	23627.8
648.298	23435.94
648.65	23350.97
649.002	23226
649.355	23385.32
649.707	23311.65
650.059	23401.36
650.411	23647.91
650.763	23729.94
651.115	23901.69
651.467	23797.28
651.819	23921.12
652.171	23796.83
652.523	23754.57
652.875	23792.54
653.227	23559.55
653.578	23760.22
653.93	23732.65
654.282	23547.8
654.633	23503.51
654.985	23533.34
655.337	23543.28
655.688	23569.49
656.039	23696.5
656.391	23377.18
656.742	23400.46
657.094	23432.1
657.445	23567.69
657.796	23357.07
658.147	23506.67
658.498	23411.98
658.849	23401.36
659.2	23318.88
659.551	23290.63
659.902	23388.26
660.253	23264.19
660.604	23364.07
660.955	23193.91
661.306	23362.72
661.656	23293.57
662.007	23316.84
662.358	23313.68
662.708	23277.98
663.059	23224.64
663.409	23095.38
663.76	23236.39
664.11	23231.2
664.461	23162.72
664.811	23159.11
665.161	23192.33
665.511	23120.24
665.862	23088.15
666.212	23212.67
666.562	23144.65
666.912	23057.19
667.262	23059.45
667.612	23159.11
667.962	23200.69
668.312	23116.4
668.662	23177.64
669.011	23164.53
669.361	22974.25
669.711	22993.69
670.06	23062.16
670.41	22980.36
670.76	22888.38
671.109	23057.42
671.459	22956.63
671.808	22905.33
672.157	22959.34
672.507	22744.66
672.856	22886.57
673.205	22965.67
673.554	22943.97
673.904	22818.78
674.253	23000.47
674.602	22865.56
674.951	22518.67
675.3	22474.83
675.649	22776.97
675.998	22776.75
676.346	22775.39
676.695	22889.74
677.044	22736.75
677.393	22772.68
677.741	22751.66
678.09	22810.42
678.438	22619.91
678.787	22659.46
679.135	22642.29
679.484	22585.34
679.832	22664.21
680.181	22589.63
680.529	22614.26
680.877	22511.44
681.225	22494.27
681.573	22603.64
681.922	22349.64
682.27	22221.51
682.618	22398
682.966	22363.65
683.314	22332.92
683.661	22271.9
684.009	22073.49
684.357	22034.39
684.705	22004.56
685.053	22125.01
685.4	22070.55
685.748	21930.67
686.095	21908.07
686.443	21912.59
686.79	21762.08
687.138	21894.28
687.485	21825.58
687.832	21725.25
688.18	21734.97
688.527	21627.85
688.874	21696.55
689.221	21607.74
689.568	21627.4
689.915	21482.54
690.262	21539.72
690.609	21475.99
690.956	21411.13
691.303	21421.75
691.65	21228.76
691.997	21260.18
692.344	21053.18
692.69	21062.89
693.037	21039.39
693.383	20827.19
693.73	21003.69
694.077	20866.06
694.423	20826.97
694.769	20794.65
695.116	20740.42
695.462	20754.43
695.808	20667.2
696.155	20603.92
696.501	20522.12
696.847	20504.49
697.193	20381.33
697.539	20593.98
697.885	20353.53
698.231	20343.82
698.577	20155.35
698.923	20210.94
699.269	20120.54
699.614	20090.71
699.96	19949.02
700.306	19992.19
700.651	19913.77
700.997	19918.06
701.342	19937.95
701.688	19777.73
702.033	19774.11
702.379	19807.56
702.724	19772.53
703.069	19811.63
703.415	19528.92
703.76	19594
704.105	19430.39
704.45	19439.43
704.795	19230.4
705.14	19347.23
705.485	19229.72
705.83	19145.65
706.175	19161.25
706.52	18994.92
706.865	19093.68
707.209	19081.02
707.554	18860.69
707.899	18985.66
708.243	18818.21
708.588	18959.22
708.932	18735.27
709.277	18734.82
709.621	18762.16
709.966	18644.65
710.31	18692.11
710.654	18596.52
710.998	18495.05
711.342	18507.93
711.687	18476.07
712.031	18350.65
712.375	18294.38
712.719	18319.91
713.063	18307.71
713.407	18363.08
713.75	18241.5
714.094	18257.77
714.438	18172.12
714.782	18154.72
715.125	18078.56
715.469	18083.54
715.812	17998.34
716.156	17987.72
716.499	17949.3
716.843	17947.72
717.186	17829.53
717.53	17869.08
717.873	17857.33
718.216	17832.47
718.559	17670.44
718.902	17611.46
719.246	17593.38
719.589	17522.42
719.932	17535.08
720.275	17557.67
720.617	17498.24
720.96	17481.97
721.303	17517
721.646	17476.32
721.989	17465.47
722.331	17438.58
722.674	17442.87
723.016	17422.76
723.359	17360.84
723.701	17341.86
724.044	17174.63
724.386	17053.51
724.729	17238.81
725.071	17023.45
725.413	17156.1
725.755	17051.47
726.097	16998.59
726.439	16926.96
726.782	16877.24
727.124	16934.87
727.465	16869.56
727.807	16829.78
728.149	16784.36
728.491	16872.49
728.833	16771.03
729.175	16724.7
729.516	16729.67
729.858	16811.48
730.199	16810.35
730.541	16665.49
730.882	16651.26
731.224	16676.79
731.565	16570.36
731.906	16593.41
732.248	16481.32
732.589	16434.09
732.93	16323.13
733.271	16322.45
733.612	16407.2
733.953	16416.69
734.294	16318.84
734.635	16293.3
734.976	16272.51
735.317	16192.51
735.658	16210.59
735.999	16195
736.339	16115.23
736.68	16169.01
737.021	16128.33
737.361	16126.3
737.702	16189.57
738.042	16052.4
738.383	16021.9
738.723	15985.74
739.063	15832.97
739.404	15923.59
739.744	15874.1
740.084	15899.41
740.424	15720.66
740.764	15801.79
741.104	15827.1
741.444	15758.17
741.784	15689.93
742.124	15683.15
742.464	15718.85
742.804	15676.59
743.143	15611.28
743.483	15644.05
743.823	15562.92
744.162	15470.27
744.502	15447.9
744.841	15424.85
745.181	15451.51
745.52	15406.54
745.86	15529.03
746.199	15465.3
746.538	15488.12
746.877	15475.47
747.216	15377.17
747.556	15319.31
747.895	15370.84
748.234	15163.84
748.573	15233.44
748.911	15089.72
749.25	15074.58
749.589	15039.32
749.928	15043.16
750.267	15038.87
750.605	14981.7
750.944	14988.25
751.283	14956.61
751.621	14989.83
751.96	14893.11
752.298	14898.31
752.636	14849.04
752.975	14776.28
753.313	14783.51
753.651	14698.54
753.989	14713.45
754.327	14641.59
754.666	14621.48
755.004	14666.9
