Data from foam2_polystyrene_foam_FLMS001491_00007.txt Node
Date: Wed Feb 08 10:57:26 GMT 2017
User: dcchb
Spectrometer: FLMS00149
Trigger mode: 0
Integration Time (sec): 2.000000E-2
Scans to average: 10
Electric dark correction enabled: true
Nonlinearity correction enabled: false
Boxcar width: 0
XAxis mode: Wavelengths
Number of Pixels in Spectrum: 2048
>>>>>Begin Spectral Data<<<<<
341.393	-11.55
341.776	-11.55
342.16	-11.55
342.543	-52.46
342.927	-60.37
343.31	-59.91
343.693	-74.15
344.077	-67.37
344.46	-72.12
344.843	-39.35
345.226	-30.08
345.61	-34.83
345.993	-5.68
346.376	-6.58
346.759	-5
347.142	36.81
347.525	27.09
347.908	59.86
348.291	67.77
348.674	93.53
349.057	110.03
349.44	121.55
349.823	152.28
350.206	171.94
350.588	187.54
350.971	225.28
351.354	224.82
351.737	228.21
352.119	260.3
352.502	267.31
352.884	268.44
353.267	318.16
353.65	294.43
354.032	302.11
354.414	325.16
354.797	305.5
355.179	328.55
355.562	334.43
355.944	325.61
356.326	333.3
356.709	329.68
357.091	327.65
357.473	364.26
357.855	373.3
358.238	348.89
358.62	331.26
359.002	360.64
359.384	325.61
359.766	342.56
360.148	336.23
360.53	376.23
360.912	357.93
361.294	366.52
361.676	348.44
362.057	345.27
362.439	343.69
362.821	349.12
363.203	364.48
363.584	355.44
363.966	338.27
364.348	338.27
364.729	358.15
365.111	335.56
365.493	359.51
365.874	334.2
366.256	335.1
366.637	333.07
367.019	350.25
367.4	351.6
367.781	355.44
368.163	340.3
368.544	339.4
368.925	338.49
369.306	358.38
369.688	349.34
370.069	338.72
370.45	326.74
370.831	324.71
371.212	348.21
371.593	349.12
371.974	351.15
372.355	352.05
372.736	356.12
373.117	355.67
373.498	350.7
373.879	364.26
374.26	358.83
374.641	352.05
375.021	339.17
375.402	387.98
375.783	378.04
376.163	384.37
376.544	389.57
376.925	371.04
377.305	361.32
377.686	371.04
378.066	366.97
378.447	354.54
378.827	383.24
379.208	376.69
379.588	374.2
379.968	374.43
380.349	401.09
380.729	389.34
381.109	403.35
381.489	402.22
381.87	404.03
382.25	412.62
382.63	409.9
383.01	403.12
383.39	408.32
383.77	430.92
384.15	424.59
384.53	422.11
384.91	420.98
385.29	428.21
385.67	425.27
386.049	426.18
386.429	445.16
386.809	432.05
387.189	451.94
387.568	440.41
387.948	440.86
388.328	469.34
388.707	471.37
389.087	446.29
389.466	481.77
389.846	482.9
390.225	466.63
390.605	459.85
390.984	466.85
391.363	480.41
391.743	484.25
392.122	481.09
392.501	485.61
392.881	494.65
393.26	498.94
393.639	507.53
394.018	498.94
394.397	511.82
394.776	502.33
395.155	524.25
395.534	510.24
395.913	547.53
396.292	520.86
396.671	545.27
397.05	539.39
397.429	535.55
397.808	555.66
398.186	542.56
398.565	559.05
398.944	528.55
399.323	562.89
399.701	567.87
400.08	549.11
400.458	578.26
400.837	594.98
401.215	571.71
401.594	592.27
401.972	565.15
402.351	611.71
402.729	604.02
403.107	615.77
403.486	598.83
403.864	619.39
404.242	614.19
404.62	614.87
404.999	625.27
405.377	629.56
405.755	635.21
406.133	658.49
406.511	642.21
406.889	664.81
407.267	686.06
407.645	673.85
408.023	712.5
408.401	726.05
408.779	681.99
409.156	710.01
409.534	727.64
409.912	728.99
410.29	730.8
410.667	747.3
411.045	749.78
411.422	747.07
411.8	775.77
412.178	756.56
412.555	803.79
412.933	803.34
413.31	812.61
413.687	818.93
414.065	826.16
414.442	823.68
414.819	866.84
415.197	858.48
415.574	857.8
415.951	856.45
416.328	852.6
416.705	859.38
417.082	873.17
417.46	903.68
417.837	902.77
418.214	906.61
418.591	926.5
418.967	906.84
419.344	935.54
419.721	953.17
420.098	939.61
420.475	958.14
420.852	971.92
421.228	964.01
421.605	992.49
421.982	987.29
422.358	1024.35
422.735	1027.52
423.111	995.65
423.488	1021.19
423.864	1031.13
424.241	1044.92
424.617	1062.54
424.994	1039.72
425.37	1063.9
425.746	1085.14
426.123	1087.85
426.499	1104.58
426.875	1145.93
427.251	1123.11
427.627	1181.41
428.003	1184.12
428.379	1205.59
428.756	1208.08
429.132	1211.47
429.507	1229.77
429.883	1240.62
430.259	1240.17
430.635	1262.99
431.011	1263.89
431.387	1291.92
431.763	1317.9
432.138	1340.5
432.514	1361.74
432.89	1361.52
433.265	1386.6
433.641	1398.81
434.016	1411.01
434.392	1424.34
434.767	1449.88
435.143	1458.69
435.518	1462.98
435.894	1449.43
436.269	1516.54
436.644	1521.97
437.02	1545.69
437.395	1539.14
437.77	1558.12
438.145	1606.71
438.52	1617.78
438.895	1620.04
439.271	1627.27
439.646	1667.95
440.021	1684.67
440.395	1667.5
440.77	1681.06
441.145	1712.24
441.52	1699.81
441.895	1725.58
442.27	1740.26
442.645	1772.81
443.019	1802.86
443.394	1818.91
443.769	1811.22
444.143	1806.03
444.518	1829.08
444.892	1813.03
445.267	1868.4
445.641	1873.82
446.016	1843.99
446.39	1903.65
446.764	1917.21
447.139	1928.51
447.513	1932.35
447.887	1937.55
448.262	1979.58
448.636	1989.52
449.01	2022.07
449.384	2035.62
449.758	2047.15
450.132	2075.17
450.506	2105.68
450.88	2067.94
451.254	2101.16
451.628	2109.75
452.002	2130.54
452.376	2191.55
452.75	2206.24
453.123	2237.2
453.497	2244.88
453.871	2247.14
454.244	2314.71
454.618	2320.36
454.992	2381.83
455.365	2339.35
455.739	2405.56
456.112	2432
456.486	2410.76
456.859	2488.72
457.232	2511.54
457.606	2506.57
457.979	2558.32
458.352	2570.07
458.725	2596.97
459.099	2613.69
459.472	2664.99
459.845	2703.63
460.218	2695.72
460.591	2748.83
460.964	2774.81
461.337	2843.29
461.71	2862.27
462.083	2907.69
462.456	2928.48
462.829	2885.77
463.201	2996.05
463.574	2975.94
463.947	3005.77
464.32	3088.7
464.692	3131.64
465.065	3120.34
465.438	3169.61
465.81	3209.38
466.183	3251.41
466.555	3300.45
466.928	3307
467.3	3346.1
467.672	3395.59
468.045	3483.27
468.417	3496.6
468.789	3540.9
469.161	3569.37
469.534	3583.83
469.906	3687.56
470.278	3715.13
470.65	3750.16
471.022	3811.85
471.394	3867.21
471.766	3908.12
472.138	3965.29
472.51	3997.15
472.882	4163.7
473.253	4114.89
473.625	4200.09
473.997	4288.22
474.369	4271.05
474.74	4339.97
475.112	4465.39
475.484	4531.6
475.855	4581.77
476.227	4647.53
476.598	4746.51
476.97	4786.51
477.341	4905.83
477.713	4988.32
478.084	4973.17
478.455	5144.47
478.827	5145.15
479.198	5383.33
479.569	5347.85
479.94	5453.16
480.311	5523.67
480.682	5641.18
481.053	5743.32
481.424	5868.29
481.795	5897.67
482.166	5982.87
482.537	6104.9
482.908	6223.31
483.279	6264.67
483.65	6372.01
484.021	6500.59
484.391	6619.91
484.762	6564.09
485.133	6658.78
485.503	6810.87
485.874	6912.78
486.244	6961.14
486.615	7158.2
486.985	7230.97
487.356	7414.24
487.726	7477.74
488.097	7591.41
488.467	7673.22
488.837	7781.91
489.207	7884.51
489.578	7999.08
489.948	8063.26
490.318	8146.2
490.688	8241.34
491.058	8332.18
491.428	8454.21
491.798	8538.5
492.168	8711.38
492.538	8746.86
492.908	8810.59
493.278	8985.05
493.648	8993.86
494.017	9163.8
494.387	9150.01
494.757	9231.14
495.126	9378.71
495.496	9419.61
495.866	9473.62
496.235	9596.78
496.605	9645.82
496.974	9733.05
497.344	9811.01
497.713	9890.79
498.082	9952.93
498.452	10083.32
498.821	10091.91
499.19	10180.5
499.559	10194.73
499.928	10344.78
500.298	10387.5
500.667	10564.89
501.036	10472.01
501.405	10586.13
501.774	10741.61
502.143	10747.49
502.512	10782.51
502.88	10951.1
503.249	10916.97
503.618	11081.04
503.987	10985.67
504.356	11136.18
504.724	11193.12
505.093	11358.77
505.462	11380.92
505.83	11450.52
506.199	11529.39
506.567	11699.78
506.936	11644.86
507.304	11871.52
507.672	11838.98
508.041	11975.93
508.409	11954.46
508.777	12084.63
509.145	12313.55
509.514	12308.12
509.882	12403.26
510.25	12368.23
510.618	12553.09
510.986	12549.92
511.354	12668.57
511.722	12826.53
512.09	12958.05
512.458	12916.24
512.826	13035.56
513.193	13133.41
513.561	13161.43
513.929	13334.08
514.297	13414.99
514.664	13532.95
515.032	13610.01
515.4	13735.2
515.767	13742.44
516.135	13812.26
516.502	13854.3
516.869	14084.8
517.237	14173.16
517.604	14063.1
517.972	14263.55
518.339	14390.55
518.706	14441.17
519.073	14586.03
519.44	14691.79
519.808	14760.71
520.175	14920.26
520.542	15077.09
520.909	15104.43
521.276	15117.31
521.643	15415.84
522.009	15451.09
522.376	15567.92
522.743	15698.09
523.11	15850.18
523.477	15986.22
523.843	16082.49
524.21	16188.25
524.577	16387.11
524.943	16487.9
525.31	16589.59
525.676	16792.75
526.043	16903.26
526.409	16907.1
526.776	17189.8
527.142	17186.64
527.508	17305.05
527.874	17505.05
528.241	17507.99
528.607	17663.91
528.973	17823.91
529.339	17829.11
529.705	18052.6
530.071	18153.17
530.437	18145.03
530.803	18435.87
531.169	18482.65
531.535	18461.63
531.901	18504.12
532.267	18622.31
532.632	18798.12
532.998	18887.61
533.364	18868.18
533.73	19028.85
534.095	19176.42
534.461	19275.62
534.826	19215.06
535.192	19529.85
535.557	19498.89
535.923	19516.97
536.288	19666.35
536.653	19787.93
537.019	19693.69
537.384	19947.24
537.749	19885.55
538.114	19989.28
538.479	20059.56
538.845	20200.57
539.21	20120.57
539.575	20281.25
539.94	20390.4
540.305	20526.89
540.67	20463.39
541.034	20452.54
541.399	20683.72
541.764	20787
542.129	20810.27
542.494	20870.16
542.858	20954.45
543.223	20986.99
543.587	21159.64
543.952	21059.76
544.316	21250.03
544.681	21211.39
545.045	21328.68
545.41	21461.33
545.774	21494.1
546.138	21543.81
546.503	21627.65
546.867	21692.96
547.231	21824.26
547.595	21898.83
547.959	21968.66
548.324	21981.31
548.688	22032.84
549.052	22174.53
549.416	22130.46
549.779	22294.98
550.143	22456.1
550.507	22594.86
550.871	22610.68
551.235	22680.96
551.599	22880.05
551.962	22841.86
552.326	22953.94
552.689	23148.06
553.053	23013.6
553.417	23195.52
553.78	23445.46
554.143	23381.96
554.507	23485.91
554.87	23529.3
555.234	23863.98
555.597	23673.93
555.96	23760.25
556.323	23789.85
556.686	23945.78
557.05	24123.41
557.413	24213.12
557.776	24383.06
558.139	24428.71
558.502	24491.31
558.865	24615.14
559.228	24750.28
559.59	24863.05
559.953	24949.6
560.316	25284.73
560.679	25241.79
561.041	25362.92
561.404	25382.13
561.767	25630.94
562.129	25565.85
562.492	25820.54
562.854	25832.74
563.217	25965.16
563.579	26049
563.941	26209.9
564.304	26369.9
564.666	26470.91
565.028	26589.78
565.39	26698.7
565.753	26771.02
566.115	26830.68
566.477	27043.55
566.839	27164.68
567.201	27299.37
567.563	27346.82
567.925	27540.49
568.287	27514.5
568.648	27615.52
569.01	27726.47
569.372	28050.08
569.734	27875.85
570.095	28039.91
570.457	28143.41
570.819	28168.5
571.18	28307.7
571.542	28406.68
571.903	28409.39
572.265	28637.64
572.626	28688.26
572.987	28783.62
573.349	28854.58
573.71	28975.93
574.071	28975.48
574.432	29060.45
574.794	29180.22
575.155	29264.74
575.516	29258.86
575.877	29344.96
576.238	29470.38
576.599	29581.79
576.96	29492.76
577.32	29653.43
577.681	29764.61
578.042	29806.87
578.403	29859.3
578.763	29922.57
579.124	29861.11
579.485	30078.05
579.845	30137.94
580.206	30024.49
580.566	30027.2
580.927	29973.87
581.287	30213.87
581.648	30019.3
582.008	30205.96
582.368	30210.02
582.728	30320.98
583.089	30219.74
583.449	30319.63
583.809	30317.59
584.169	30376.12
584.529	30429.23
584.889	30652.73
585.249	30406.86
585.609	30347.87
585.969	30574.54
586.329	30482.11
586.688	30515.1
587.048	30400.53
587.408	30357.14
587.768	30231.72
588.127	30306.29
588.487	30271.04
588.846	30565.04
589.206	30371.15
589.565	30335.22
589.925	30448.21
590.284	30404.37
590.643	30405.73
591.003	30571.15
591.362	30566.63
591.721	30530.47
592.08	30431.71
592.44	30619.51
592.799	30621.77
593.158	30617.92
593.517	30592.61
593.876	30654.98
594.235	30624.93
594.593	30613.86
594.952	30859.73
595.311	30711.71
595.67	30718.71
596.029	30919.61
596.387	30845.04
596.746	30956.67
597.104	30725.72
597.463	30793.29
597.822	30969.33
598.18	30870.8
598.538	30844.36
598.897	30961.42
599.255	30748.54
599.613	31165.25
599.972	30944.92
600.33	30959.61
600.688	30786.05
601.046	30885.04
601.404	31175.42
601.762	31032.6
602.12	31216.55
602.478	31143.11
602.836	31289.54
603.194	30992.15
603.552	31065.37
603.91	31077.35
604.268	31263.78
604.625	31161.86
604.983	31308.53
605.341	31118.02
605.698	31417.45
606.056	31222.65
606.413	31210.9
606.771	31323.67
607.128	31408.64
607.485	31237.12
607.843	31217.46
608.2	31440.95
608.557	31655.18
608.914	31385.59
609.272	31678.91
609.629	31713.26
609.986	31767.5
610.343	31666.26
610.7	31843.88
611.057	31877.33
611.414	31805.69
611.771	31816.31
612.127	32002.75
612.484	32062.63
612.841	32033.71
613.198	31912.13
613.554	31974.95
613.911	32094.04
614.267	32172.01
614.624	31981.28
614.98	32173.36
615.337	32139.24
615.693	32257.65
616.05	32213.14
616.406	32403.64
616.762	32297.43
617.118	32266.92
617.475	32428.72
617.831	32451.1
618.187	32494.03
618.543	32465.11
618.899	32601.15
619.255	32553.01
619.611	32467.37
619.967	32677.3
620.323	32618.1
620.678	32494.94
621.034	32497.87
621.39	32456.07
621.746	32504.65
622.101	32753.46
622.457	32532
622.812	32631.2
623.168	32697.19
623.523	32650.64
623.879	32724.99
624.234	32571.32
624.589	32758.43
624.945	32662.62
625.3	32774.93
625.655	32739.45
626.01	32793.01
626.365	32737.87
626.72	32612.45
627.075	32699.9
627.43	32609.74
627.785	32510.08
628.14	32652.22
628.495	32708.26
628.85	32484.09
629.205	32469.4
629.559	32638.44
629.914	32387.59
630.269	32554.6
630.623	32357.99
630.978	32310.76
631.332	32399.8
631.687	32524.09
632.041	32256.07
632.396	32363.19
632.75	32115.29
633.104	32092.91
633.459	32015.4
633.813	31989.87
634.167	31944.89
634.521	32081.39
634.875	32000.94
635.229	31964.56
635.583	31991.22
635.937	31949.64
636.291	31796.65
636.645	32045.91
636.999	31886.36
637.352	31793.26
637.706	31773.83
638.06	31789.19
638.413	31739.02
638.767	31557.11
639.121	31703.32
639.474	31583.1
639.828	31419.71
640.181	31536.32
640.534	31341.29
640.888	31409.77
641.241	31390.11
641.594	31306.04
641.947	31344.01
642.301	31360.5
642.654	31372.48
643.007	31271.24
643.36	31169.1
643.713	31151.02
644.066	31303.33
644.419	31114.63
644.771	30894.07
645.124	30620.86
645.477	30565.95
645.83	30465.61
646.182	30226.07
646.535	30182.91
646.888	30228.33
647.24	29958.96
647.593	30153.3
647.945	30105.17
648.298	29972.52
648.65	29735.24
649.002	29847.1
649.355	29943.59
649.707	29910.37
650.059	30168.44
650.411	30512.62
650.763	30376.12
651.115	30636.68
651.467	30640.07
651.819	30524.82
652.171	30500.64
652.523	30473.52
652.875	30437.59
653.227	30347.2
653.578	30593.97
653.93	30379.96
654.282	30153.08
654.633	30166.86
654.985	30215.22
655.337	30194.66
655.688	30234.43
656.039	30410.02
656.391	29991.5
656.742	30273.98
657.094	30142.91
657.445	30200.08
657.796	30089.12
658.147	30076.47
658.498	30035.57
658.849	30146.07
659.2	30142
659.551	29871.28
659.902	30132.96
660.253	30152.63
660.604	29986.53
660.955	29958.73
661.306	29938.39
661.656	29843.48
662.007	30008.45
662.358	29920.99
662.708	29970.48
663.059	29927.77
663.409	29639.64
663.76	29959.41
664.11	29810.04
664.461	29918.51
664.811	29876.25
665.161	29783.37
665.511	29844.61
665.862	29817.04
666.212	29909.24
666.562	29726.65
666.912	29722.13
667.262	29628.8
667.612	29694.11
667.962	29761.68
668.312	29687.78
668.662	29912.63
669.011	29685.52
669.361	29708.8
669.711	29691.85
670.06	29649.59
670.41	29595.58
670.76	29618.85
671.109	29716.93
671.459	29446.66
671.808	29367.56
672.157	29521.91
672.507	29394.45
672.856	29439.65
673.205	29401.01
673.554	29502.92
673.904	29293.89
674.253	29544.05
674.602	29364.17
674.951	29011.86
675.3	28835.82
675.649	29270.84
675.998	29184.52
676.346	29307.45
676.695	29358.52
677.044	29134.35
677.393	29121.69
677.741	29202.14
678.09	29189.94
678.438	28998.76
678.787	29126.44
679.135	29128.02
679.484	28788.37
679.832	29038.08
680.181	28923.28
680.529	28912.88
680.877	28824.75
681.225	28779.33
681.573	28983.84
681.922	28776.39
682.27	28660.46
682.618	28583.17
682.966	28527.58
683.314	28546.34
683.661	28371.2
684.009	28252.11
684.357	28149.74
684.705	28227.93
685.053	28260.92
685.4	28137.09
685.748	27977.09
686.095	28025
686.443	27774.38
686.79	27785
687.138	27834.95
687.485	27794.72
687.832	27763.76
688.18	27681.28
688.527	27545.91
688.874	27514.05
689.221	27540.49
689.568	27302.76
689.915	27343.43
690.262	27346.82
690.609	27186.38
690.956	27124
691.303	27122.87
691.65	26993.84
691.997	27001.97
692.344	26781.64
692.69	26832.49
693.037	26839.49
693.383	26560.18
693.73	26703.45
694.077	26636.33
694.423	26536.68
694.769	26560.4
695.116	26352.73
695.462	26385.27
695.808	26188.66
696.155	26291.94
696.501	26084.94
696.847	26150.02
697.193	25923.81
697.539	25941.21
697.885	25816.47
698.231	25680.88
698.577	25692.63
698.923	25639.3
699.269	25550.49
699.614	25364.28
699.96	25323.6
700.306	25343.94
700.651	25189.59
700.997	25022.59
701.342	25119.09
701.688	25026.88
702.033	24973.33
702.379	24895.36
702.724	24779.66
703.069	24808.81
703.415	24562.72
703.76	24503.51
704.105	24656.72
704.45	24591.64
704.795	24317.75
705.14	24319.33
705.485	24172.44
705.83	24048.83
706.175	24154.82
706.52	24021.04
706.865	24019.91
707.209	24161.37
707.554	23942.62
707.899	24063.97
708.243	23913.24
708.588	23757.99
708.932	23645.68
709.277	23686.58
709.621	23635.51
709.966	23575.85
710.31	23592.12
710.654	23415.4
710.998	23423.99
711.342	23382.41
711.687	23327.49
712.031	23246.82
712.375	23091.79
712.719	23201.4
713.063	23078.91
713.407	23186.71
713.75	22980.16
714.094	23037.56
714.438	22976.54
714.782	22895.87
715.125	22861.07
715.469	22795.53
715.812	22646.16
716.156	22621.52
716.499	22626.04
716.843	22570
717.186	22534.52
717.53	22573.16
717.873	22602.32
718.216	22493.84
718.559	22333.85
718.902	22234.42
719.246	22211.59
719.589	22262.44
719.932	21943.35
720.275	22106.06
720.617	22077.81
720.96	22110.58
721.303	21958.49
721.646	22022.67
721.989	21772.51
722.331	21869
722.674	21833.3
723.016	21897.48
723.359	21821.54
723.701	21820.41
724.044	21672.62
724.386	21589.69
724.729	21594.21
725.071	21525.28
725.413	21471.72
725.755	21462.91
726.097	21454.1
726.439	21303.37
726.782	21291.39
727.124	21383.82
727.465	21190.38
727.807	21158.06
728.149	21184.73
728.491	21031.74
728.833	21164.84
729.175	21063.37
729.516	20950.38
729.858	21015.46
730.199	20956.26
730.541	20914.45
730.882	20814.79
731.224	20898.18
731.565	20776.15
731.906	20770.05
732.248	20668.58
732.589	20709.48
732.93	20582.03
733.271	20451.64
733.612	20569.6
733.953	20604.85
734.294	20544.74
734.635	20484.63
734.976	20551.3
735.317	20386.78
735.658	20402.83
735.999	20436.5
736.339	20326.67
736.68	20431.3
737.021	20254.35
737.361	20278.99
737.702	20339.32
738.042	20151.53
738.383	20144.07
738.723	20191.31
739.063	20069.05
739.404	20167.13
739.744	20140.01
740.084	20029.5
740.424	20042.38
740.764	19958.32
741.104	19905.66
741.444	19814.82
741.784	19748.15
742.124	19754.48
742.464	19787.7
742.804	19648.04
743.143	19678.1
743.483	19712.9
743.823	19516.29
744.162	19549.29
744.502	19550.64
744.841	19404.43
745.181	19492.57
745.52	19479.01
745.86	19482.62
746.199	19385.9
746.538	19407.15
746.877	19449.4
747.216	19425.68
747.556	19322.63
747.895	19330.08
748.234	19209.41
748.573	19134.84
748.911	19163.54
749.25	19163.76
749.589	19007.16
749.928	19097.32
750.267	19019.81
750.605	18950.43
750.944	18928.51
751.283	18991.79
751.621	18956.31
751.96	18912.02
752.298	18834.05
752.636	18845.35
752.975	18673.15
753.313	18699.14
753.651	18756.99
753.989	18589.31
754.327	18575.98
