Data from foam_black_FLMS001491_00046.txt Node
Date: Wed Feb 08 10:43:57 GMT 2017
User: dcchb
Spectrometer: FLMS00149
Trigger mode: 0
Integration Time (sec): 2.000000E-2
Scans to average: 10
Electric dark correction enabled: true
Nonlinearity correction enabled: false
Boxcar width: 0
XAxis mode: Wavelengths
Number of Pixels in Spectrum: 2048
>>>>>Begin Spectral Data<<<<<
341.393	-26.61
341.776	-26.61
342.16	-26.61
342.543	-63.67
342.927	-88.75
343.31	-85.14
343.693	-83.56
344.077	-63.67
344.46	-69.55
344.843	-55.99
345.226	-46.04
345.61	-18.25
345.993	-28.19
346.376	7.74
346.759	5.25
347.142	23.33
347.525	60.85
347.908	70.11
348.291	86.83
348.674	94.97
349.057	101.3
349.44	110.11
349.823	132.26
350.206	166.15
350.588	170
350.971	195.08
351.354	201.41
351.737	223.55
352.119	233.95
352.502	263.55
352.884	262.65
353.267	266.94
353.65	272.82
354.032	283.44
354.414	289.77
354.797	289.99
355.179	320.73
355.562	304.91
355.944	291.12
356.326	333.61
356.709	323.21
357.091	335.87
357.473	343.78
357.855	344.45
358.238	325.47
358.62	331.35
359.002	321.4
359.384	335.64
359.766	332.03
360.148	335.41
360.53	350.56
360.912	323.66
361.294	331.35
361.676	325.25
362.057	322.31
362.439	334.28
362.821	325.92
363.203	323.89
363.584	315.08
363.966	317.34
364.348	323.21
364.729	316.88
365.111	300.61
365.493	318.01
365.874	315.08
366.256	323.44
366.637	306.26
367.019	307.85
367.4	304
367.781	286.15
368.163	303.78
368.544	330.22
368.925	318.47
369.306	321.86
369.688	308.52
370.069	305.36
370.45	316.66
370.831	287.96
371.212	322.31
371.593	327.28
371.974	328.18
372.355	318.47
372.736	329.54
373.117	321.63
373.498	318.01
373.879	319.6
374.26	316.66
374.641	329.54
375.021	328.41
375.402	322.08
375.783	334.28
376.163	330.9
376.544	313.04
376.925	334.74
377.305	339.48
377.686	308.07
378.066	329.31
378.447	350.56
378.827	332.7
379.208	341.74
379.588	357.11
379.968	321.86
380.349	341.52
380.729	316.88
381.109	327.51
381.489	351.69
381.87	338.35
382.25	348.3
382.63	341.97
383.01	350.78
383.39	350.33
383.77	368.63
384.15	353.95
384.53	367.5
384.91	355.53
385.29	373.15
385.67	355.53
386.049	368.63
386.429	366.37
386.809	377.45
387.189	366.6
387.568	369.76
387.948	373.83
388.328	374.06
388.707	376.54
389.087	389.88
389.466	391.46
389.846	378.8
390.225	381.97
390.605	384.45
390.984	390.55
391.363	392.81
391.743	393.72
392.122	369.54
392.501	394.4
392.881	412.48
393.26	402.98
393.639	395.98
394.018	406.37
394.397	392.59
394.776	404.34
395.155	416.32
395.534	409.09
395.913	418.58
396.292	411.12
396.671	417.67
397.05	406.15
397.429	433.04
397.808	394.62
398.186	424.68
398.565	418.58
398.944	424.9
399.323	439.59
399.701	424.68
400.08	431.68
400.458	434.85
400.837	441.63
401.215	420.38
401.594	433.27
401.972	427.62
402.351	441.63
402.729	451.34
403.107	455.19
403.486	465.81
403.864	461.51
404.242	444.34
404.62	464.68
404.999	455.86
405.377	482.3
405.755	491.34
406.133	483.43
406.511	482.98
406.889	484.34
407.267	476.65
407.645	494.28
408.023	489.08
408.401	486.15
408.779	494.05
409.156	491.79
409.534	493.38
409.912	508.07
410.29	502.87
410.667	518.69
411.045	532.7
411.422	534.51
411.8	539.7
412.178	558.69
412.555	530.44
412.933	520.27
413.31	535.18
413.687	558.46
414.065	567.5
414.442	549.42
414.819	573.6
415.197	555.97
415.574	564.79
415.951	565.69
416.328	570.89
416.705	571.57
417.082	556.88
417.46	614.05
417.837	584.22
418.214	587.84
418.591	586.26
418.967	606.37
419.344	589.42
419.721	604.56
420.098	595.75
420.475	607.95
420.852	629.42
421.228	627.61
421.605	618.12
421.982	631.68
422.358	618.35
422.735	645.92
423.111	619.7
423.488	637.78
423.864	674.16
424.241	668.51
424.617	674.62
424.994	659.25
425.37	661.28
425.746	665.8
426.123	674.16
426.499	695.63
426.875	676.65
427.251	699.02
427.627	697.44
428.003	724.56
428.379	729.08
428.756	728.4
429.132	755.97
429.507	726.82
429.883	742.64
430.259	766.82
430.635	756.65
431.011	776.53
431.387	757.55
431.763	787.61
432.138	767.95
432.514	783.99
432.89	790.09
433.265	827.38
433.641	816.08
434.016	810.88
434.392	823.31
434.767	826.02
435.143	840.03
435.518	841.39
435.894	828.28
436.269	847.27
436.644	870.54
437.02	879.58
437.395	880.94
437.77	891.11
438.145	868.28
438.52	896.98
438.895	893.37
439.271	919.13
439.646	904.89
440.021	945.12
440.395	925.91
440.77	934.27
441.145	924.78
441.52	948.73
441.895	962.52
442.27	954.38
442.645	969.75
443.019	978.79
443.394	958.22
443.769	978.79
444.143	959.35
444.518	985.57
444.892	987.15
445.267	992.12
445.641	988.96
446.016	1002.06
446.39	1018.56
446.764	1019.69
447.139	1033.48
447.513	1019.24
447.887	994.83
448.262	1025.57
448.636	1029.41
449.01	1052.46
449.384	1069.63
449.758	1033.7
450.132	1086.13
450.506	1087.49
450.88	1070.76
451.254	1099.01
451.628	1098.78
452.002	1105.79
452.376	1122.06
452.75	1140.37
453.123	1119.12
453.497	1131.78
453.871	1127.71
454.244	1176.3
454.618	1187.82
454.992	1187.6
455.365	1202.74
455.739	1202.28
456.112	1210.19
456.486	1256.07
456.859	1249.74
457.232	1284.09
457.606	1262.4
457.979	1260.14
458.352	1300.36
458.725	1301.27
459.099	1334.94
459.472	1336.52
459.845	1338.1
460.218	1366.35
460.591	1361.15
460.964	1397.76
461.337	1413.8
461.71	1440.47
462.083	1459.68
462.456	1454.03
462.829	1440.7
463.201	1435.95
463.574	1453.58
463.947	1499.9
464.32	1498.1
464.692	1530.64
465.065	1548.26
465.438	1531.32
465.81	1532.9
466.183	1571.77
466.555	1637.3
466.928	1622.39
467.3	1612.22
467.672	1616.51
468.045	1667.81
468.417	1687.7
468.789	1680.92
469.161	1724.08
469.534	1759.78
469.906	1774.47
470.278	1819.9
470.65	1796.85
471.022	1836.39
471.394	1840.01
471.766	1899.44
472.138	1888.59
472.51	1916.39
472.882	1929.95
473.253	1973.11
473.625	2010.85
473.997	2017.86
474.369	2022.38
474.74	2070.06
475.112	2123.62
475.484	2115.71
475.855	2141.7
476.227	2155.03
476.598	2189.6
476.97	2244.97
477.341	2272.99
477.713	2305.98
478.084	2312.09
478.455	2374.46
478.827	2388.02
479.198	2480.22
479.569	2454.23
479.94	2510.5
480.311	2554.57
480.682	2575.13
481.053	2605.64
481.424	2681.79
481.795	2684.51
482.166	2709.14
482.537	2794.33
482.908	2825.52
483.279	2861.68
483.65	2926.99
484.021	2921.56
484.391	2981.22
484.762	2985.74
485.133	3002.46
485.503	3039.75
485.874	3142.12
486.244	3185.06
486.615	3207.66
486.985	3252.85
487.356	3298.73
487.726	3328.33
488.097	3377.37
488.467	3373.53
488.837	3472.06
489.207	3478.84
489.578	3513.18
489.948	3529.68
490.318	3620.07
490.688	3606.97
491.058	3656.23
491.428	3704.37
491.798	3756.34
492.168	3799.73
492.538	3831.82
492.908	3866.85
493.278	3892.16
493.648	3901.87
494.017	3964.47
494.387	4039.95
494.757	4044.24
495.126	4091.93
495.496	4114.75
495.866	4109.1
496.235	4172.15
496.605	4173.05
496.974	4241.98
497.344	4239.04
497.713	4287.63
498.082	4315.88
498.452	4394.52
498.821	4349.32
499.19	4438.13
499.559	4404.46
499.928	4517
500.298	4537.34
500.667	4578.69
501.036	4580.73
501.405	4602.87
501.774	4591.8
502.143	4653.27
502.512	4650.1
502.88	4725.58
503.249	4700.27
503.618	4730.78
503.987	4793.15
504.356	4814.39
504.724	4839.03
505.093	4852.13
505.462	4862.08
505.83	4880.38
506.199	4936.88
506.567	5012.58
506.936	4970.32
507.304	5067.04
507.672	5074.05
508.041	5072.24
508.409	5109.53
508.777	5154.72
509.145	5175.74
509.514	5224.1
509.882	5252.12
510.25	5205.34
510.618	5315.62
510.986	5308.62
511.354	5359.24
511.722	5449.4
512.09	5490.08
512.458	5512.68
512.826	5542.06
513.193	5571.44
513.561	5580.02
513.929	5612.56
514.297	5717.87
514.664	5732.56
515.032	5810.75
515.4	5859.11
515.767	5872.22
516.135	5886.91
516.502	5907.92
516.869	5966
517.237	6038.54
517.604	6041.03
517.972	6116.96
518.339	6091.2
518.706	6175.71
519.073	6189.95
519.44	6229.5
519.808	6288.48
520.175	6342.04
520.542	6367.35
520.909	6379.32
521.276	6422.71
521.643	6500
522.009	6567.79
522.376	6585.42
522.743	6629.03
523.11	6684.17
523.477	6739.77
523.843	6810.95
524.21	6883.49
524.577	6908.12
524.943	6950.38
525.31	6980.21
525.676	7063.83
526.043	7100.66
526.409	7179.08
526.776	7182.92
527.142	7239.64
527.508	7281.45
527.874	7357.15
528.241	7368.45
528.607	7443.25
528.973	7493.87
529.339	7485.06
529.705	7600.76
530.071	7662.91
530.437	7694.54
530.803	7716.01
531.169	7823.58
531.535	7741.77
531.901	7759.4
532.267	7823.35
532.632	7899.51
532.998	7909.91
533.364	7981.99
533.73	7976.34
534.095	7986.29
534.461	8084.14
534.826	8097.02
535.192	8123.68
535.557	8177.47
535.923	8174.3
536.288	8239.16
536.653	8356.67
537.019	8327.07
537.384	8355.77
537.749	8431.47
538.114	8445.71
538.479	8497.46
538.845	8498.59
539.21	8508.31
539.575	8651.13
539.94	8588.08
540.305	8688.64
540.67	8657.68
541.034	8656.78
541.399	8811.8
541.764	8816.32
542.129	8887.73
542.494	8871.46
542.858	8923.44
543.223	8949.65
543.587	8988.75
543.952	9004.34
544.316	9025.81
544.681	9013.6
545.045	9129.53
545.41	9125.47
545.774	9188.06
546.138	9229.19
546.503	9262.19
546.867	9301.51
547.231	9336.76
547.595	9325.69
547.959	9339.7
548.324	9431.45
548.688	9400.04
549.052	9472.12
549.416	9423.09
549.779	9464.44
550.143	9581.5
550.507	9599.13
550.871	9617.2
551.235	9685.9
551.599	9709.63
551.962	9773.58
552.326	9754.83
552.689	9855.84
553.053	9849.06
553.417	9841.61
553.78	10025.33
554.143	9967.7
554.507	10021.04
554.87	10086.34
555.234	10144.2
555.597	10135.38
555.96	10234.82
556.323	10228.49
556.686	10288.6
557.05	10307.81
557.413	10426.45
557.776	10447.24
558.139	10451.99
558.502	10518.2
558.865	10513.9
559.228	10622.83
559.59	10674.58
559.953	10701.02
560.316	10770.39
560.679	10838.19
561.041	10769.26
561.404	10908.02
561.767	10987.11
562.129	10976.04
562.492	11021.91
562.854	11058.52
563.217	11141.46
563.579	11143.94
563.941	11300.1
564.304	11283.38
564.666	11454.44
565.028	11396.37
565.39	11485.18
565.753	11529.47
566.115	11576.02
566.477	11646.08
566.839	11686.53
567.201	11871.16
567.563	11814.66
567.925	11907.31
568.287	11952.74
568.648	12009.01
569.01	12188.44
569.372	12236.57
569.734	12138.49
570.095	12321.99
570.457	12237.25
570.819	12355.21
571.18	12313.63
571.542	12441.09
571.903	12504.13
572.265	12503
572.626	12590.23
572.987	12538.26
573.349	12578.71
573.71	12645.37
574.071	12694.41
574.432	12758.82
574.794	12839.94
575.155	12775.54
575.516	12830.23
575.877	12871.13
576.238	12881.98
576.599	12887.18
576.96	12830.23
577.32	12924.24
577.681	12968.76
578.042	13075.87
578.403	13015.31
578.763	13070
579.124	13119.26
579.485	13060.73
579.845	13086.27
580.206	13094.63
580.566	13091.46
580.927	13105.25
581.287	13210.1
581.648	13086.49
582.008	13221.86
582.368	13225.02
582.728	13157.22
583.089	13173.5
583.449	13211.23
583.809	13222.53
584.169	13211.46
584.529	13207.62
584.889	13342.98
585.249	13307.73
585.609	13278.8
585.969	13274.74
586.329	13314.06
586.688	13251.46
587.048	13331.46
587.408	13306.37
587.768	13378.01
588.127	13244.91
588.487	13353.15
588.846	13363.09
589.206	13399.03
589.565	13411.46
589.925	13461.62
590.284	13436.31
590.643	13400.83
591.003	13491.45
591.362	13544.11
591.721	13518.35
592.08	13539.81
592.44	13665.91
592.799	13612.81
593.158	13555.18
593.517	13629.53
593.876	13631.11
594.235	13544.33
594.593	13568.51
594.952	13592.92
595.311	13589.98
595.67	13686.7
596.029	13692.8
596.387	13751.11
596.746	13655.52
597.104	13609.87
597.463	13710.66
597.822	13698.91
598.18	13723.09
598.538	13731.67
598.897	13802.41
599.255	13661.17
599.613	13866.13
599.972	13790.65
600.33	13855.96
600.688	13740.94
601.046	13809.18
601.404	13843.31
601.762	13791.78
602.12	13897.32
602.478	13918.11
602.836	13903.42
603.194	13788.39
603.552	13824.33
603.91	13698.45
604.268	13839.69
604.625	13857.55
604.983	13869.07
605.341	13838.79
605.698	13892.35
606.056	13998.78
606.413	13931.89
606.771	14003.98
607.128	13957.43
607.485	13926.47
607.843	14052.79
608.2	14020.7
608.557	14033.81
608.914	14076.3
609.272	14075.39
609.629	14063.42
609.986	14127.37
610.343	14098.67
610.7	14264.77
611.057	14169.85
611.414	14164.2
611.771	14227.48
612.127	14306.12
612.484	14266.35
612.841	14321.94
613.198	14236.74
613.554	14285.1
613.911	14335.72
614.267	14406.23
614.624	14243.98
614.98	14371.2
615.337	14436.06
615.693	14408.49
616.05	14411.2
616.406	14518.54
616.762	14484.42
617.118	14571.65
617.475	14445.78
617.831	14584.31
618.187	14642.84
618.543	14591.76
618.899	14700.91
619.255	14579.33
619.611	14580.92
619.967	14690.29
620.323	14723.06
620.678	14699.56
621.034	14674.92
621.39	14688.03
621.746	14627.47
622.101	14754.24
622.457	14572.55
622.812	14638.77
623.168	14780.01
623.523	14685.09
623.879	14754.92
624.234	14636.96
624.589	14773.23
624.945	14699.56
625.3	14806.67
625.655	14735.71
626.01	14724.64
626.365	14726.22
626.72	14667.02
627.075	14675.38
627.43	14791.31
627.785	14645.55
628.14	14737.07
628.495	14697.07
628.85	14671.08
629.205	14613.01
629.559	14732.78
629.914	14642.84
630.269	14670.41
630.623	14599.22
630.978	14582.05
631.332	14624.53
631.687	14663.4
632.041	14550.63
632.396	14614.14
632.75	14570.07
633.104	14619.33
633.459	14526
633.813	14439.9
634.167	14500.24
634.521	14435.61
634.875	14494.82
635.229	14536.4
635.583	14298.44
635.937	14413.69
636.291	14434.93
636.645	14462.05
636.999	14390.64
637.352	14390.86
637.706	14276.29
638.06	14257.53
638.413	14330.98
638.767	14278.1
639.121	14274.03
639.474	14190.64
639.828	14136.63
640.181	14288.27
640.534	14279.46
640.888	14090.31
641.241	14203.3
641.594	14221.38
641.947	14306.57
642.301	14207.37
642.654	14158.78
643.007	14197.88
643.36	14238.78
643.713	14132.57
644.066	14111.78
644.419	14108.84
644.771	13970.99
645.124	13766.93
645.477	13768.51
645.83	13683.76
646.182	13637.21
646.535	13744.1
646.888	13824.33
647.24	13702.3
647.593	13830.88
647.945	13786.81
648.298	13705.46
648.65	13582.07
649.002	13629.75
649.355	13674.27
649.707	13525.12
650.059	13688.96
650.411	13774.61
650.763	13771.45
651.115	13939.58
651.467	13870.65
651.819	13912.91
652.171	13833.37
652.523	13827.49
652.875	13764.89
653.227	13798.34
653.578	13848.28
653.93	13791.11
654.282	13759.92
654.633	13719.24
654.985	13782.52
655.337	13663.2
655.688	13636.53
656.039	13722.86
656.391	13691.9
656.742	13714.95
657.094	13755.4
657.445	13699.81
657.796	13631.56
658.147	13639.25
658.498	13676.31
658.849	13653.03
659.2	13637.21
659.551	13609.87
659.902	13657.32
660.253	13630.43
660.604	13664.78
660.955	13598.79
661.306	13656.42
661.656	13577.33
662.007	13608.06
662.358	13571.23
662.708	13560.15
663.059	13557.44
663.409	13525.35
663.76	13632.47
664.11	13641.73
664.461	13660.71
664.811	13636.99
665.161	13568.51
665.511	13512.92
665.862	13584.11
666.212	13666.36
666.562	13613.71
666.912	13571.23
667.262	13613.48
667.612	13599.25
667.962	13619.81
668.312	13539.59
668.662	13594.28
669.011	13619.13
669.361	13498.01
669.711	13566.71
670.06	13490.78
670.41	13491.45
670.76	13519.02
671.109	13596.54
671.459	13514.5
671.808	13470.89
672.157	13533.26
672.507	13438.57
672.856	13427.27
673.205	13442.64
673.554	13492.36
673.904	13398.57
674.253	13500.94
674.602	13403.55
674.951	13199.03
675.3	13157.45
675.649	13352.93
675.998	13381.4
676.346	13269.09
676.695	13366.03
677.044	13279.03
677.393	13230.67
677.741	13315.64
678.09	13293.72
678.438	13257.56
678.787	13247.39
679.135	13277.67
679.484	13121.07
679.832	13221.18
680.181	13139.37
680.529	13215.98
680.877	13146.83
681.225	13150.67
681.573	13257.11
681.922	13077.45
682.27	13111.58
682.618	13123.78
682.966	13128.07
683.314	13129.43
683.661	13058.7
684.009	13020.05
684.357	12935.08
684.705	12965.59
685.053	13059.37
685.4	12917.68
685.748	12918.59
686.095	12873.84
686.443	12799.49
686.79	12825.48
687.138	12853.28
687.485	12825.26
687.832	12779.61
688.18	12775.09
688.527	12724.69
688.874	12728.99
689.221	12711.36
689.568	12714.75
689.915	12590.01
690.262	12609.67
690.609	12491.71
690.956	12563.34
691.303	12514.3
691.65	12391.82
691.997	12423.46
692.344	12393.63
692.69	12343.01
693.037	12295.33
693.383	12211.49
693.73	12229.34
694.077	12174.2
694.423	12202.45
694.769	12120.87
695.116	12098.95
695.462	12093.75
695.808	12028.89
696.155	12023.7
696.501	11980.08
696.847	11912.29
697.193	11810.59
697.539	11898.95
697.885	11873.42
698.231	11812.18
698.577	11788.9
698.923	11805.17
699.269	11704.38
699.614	11656.7
699.96	11675
700.306	11705.29
700.651	11648.11
700.997	11589.58
701.342	11583.03
701.688	11587.77
702.033	11574.22
702.379	11559.75
702.724	11541.45
703.069	11502.13
703.415	11372.41
703.76	11426.65
704.105	11465.97
704.45	11499.64
704.795	11462.35
705.14	11431.62
705.485	11390.27
705.83	11374.67
706.175	11413.54
706.52	11359.98
706.865	11315.01
707.209	11276.6
707.554	11348.68
707.899	11307.56
708.243	11292.64
708.588	11230.72
708.932	11122.48
709.277	11242.25
709.621	11128.13
709.966	11160.89
710.31	11191.17
710.654	11016.72
710.998	11054.68
711.342	11054
711.687	11096.04
712.031	10945.31
712.375	11002.93
712.719	10969.03
713.063	10865.99
713.407	10978.52
713.75	10892.2
714.094	10918.87
714.438	10934.23
714.782	10751.19
715.125	10817.17
715.469	10807
715.812	10798.42
716.156	10621.92
716.499	10691.75
716.843	10698.98
717.186	10582.6
717.53	10638.19
717.873	10612.88
718.216	10575.6
718.559	10521.14
718.902	10426
719.246	10427.8
719.589	10440.69
719.932	10402.72
720.275	10406.79
720.617	10383.96
720.96	10371.54
721.303	10282.05
721.646	10356.62
721.989	10247.7
722.331	10243.63
722.674	10158.66
723.016	10204.53
723.359	10180.58
723.701	10198.88
724.044	10038.44
724.386	10049.74
724.729	10092.22
725.071	10033.24
725.413	10052.67
725.755	10011.09
726.097	9944.88
726.439	9885.9
726.782	9922.73
727.124	10010.87
727.465	9974.03
727.807	9844.77
728.149	9867.82
728.491	9890.19
728.833	9906.46
729.175	9836.63
729.516	9830.08
729.858	9835.96
730.199	9897.88
730.541	9828.05
730.882	9762.51
731.224	9842.28
731.565	9789.63
731.906	9746.69
732.248	9804.77
732.589	9788.27
732.93	9753.47
733.271	9728.16
733.612	9810.87
733.953	9768.16
734.294	9720.03
734.635	9840.93
734.976	9823.3
735.317	9711.44
735.658	9708.73
735.999	9703.76
736.339	9707.82
736.68	9757.77
737.021	9687.71
737.361	9670.08
737.702	9629.18
738.042	9744.89
738.383	9741.27
738.723	9738.78
739.063	9738.33
739.404	9666.02
739.744	9645.23
740.084	9641.61
740.424	9643.42
740.764	9677.99
741.104	9712.12
741.444	9543.31
741.784	9583.76
742.124	9560.48
742.464	9526.36
742.804	9529.52
743.143	9496.76
743.483	9600.71
743.823	9460.37
744.162	9456.08
744.502	9464.67
744.841	9475.06
745.181	9442.97
745.52	9354.39
745.86	9405.91
746.199	9334.5
746.538	9333.14
746.877	9353.48
747.216	9393.93
747.556	9355.97
747.895	9275.07
748.234	9246.37
748.573	9262.41
748.911	9169.53
749.25	9208.4
749.589	9187.61
749.928	9147.39
750.267	9153.04
750.605	9179.25
750.944	9131.57
751.283	9153.94
751.621	9119.14
751.96	9034.17
752.298	9005.47
752.636	9088.86
752.975	8950.56
753.313	9018.35
753.651	9029.65
753.989	8990.33
754.327	8940.61
754.666	8914.17
755.004	8945.36
755.342	8847.28
755.679	8844.12
756.017	8865.13
756.355	8863.1
756.693	8830.78
757.031	8835.98
757.368	8701.07
757.706	8675.08
758.044	8772.26
758.381	8755.76
758.719	8707.85
759.056	8663.56
759.394	8691.35
759.731	8551.24
760.068	8623.33
760.405	8622.88
