Data from foam1_polythene_foam_FLMS001491_00056.txt Node
Date: Wed Feb 08 10:55:03 GMT 2017
User: dcchb
Spectrometer: FLMS00149
Trigger mode: 0
Integration Time (sec): 2.000000E-2
Scans to average: 10
Electric dark correction enabled: true
Nonlinearity correction enabled: false
Boxcar width: 0
XAxis mode: Wavelengths
Number of Pixels in Spectrum: 2048
>>>>>Begin Spectral Data<<<<<
341.393	-2.39
341.776	-2.39
342.16	-2.39
342.543	-50.75
342.927	-55.72
343.31	-56.62
343.693	-88.26
344.077	-64.31
344.46	-55.04
344.843	-66.57
345.226	-24.76
345.61	-46.68
345.993	-12.33
346.376	-17.53
346.759	6.2
347.142	16.6
347.525	60.66
347.908	51.4
348.291	76.03
348.674	100.21
349.057	121
349.44	118.06
349.823	138.85
350.206	176.37
350.588	188.57
350.971	191.28
351.354	215.46
351.737	244.16
352.119	240.09
352.502	256.82
352.884	252.07
353.267	225.18
353.65	273.31
354.032	296.81
354.414	290.71
354.797	307.44
355.179	298.85
355.562	297.94
355.944	298.85
356.326	316.02
356.709	306.76
357.091	312.63
357.473	330.94
357.855	332.29
358.238	317.15
358.62	328
359.002	335.91
359.384	337.27
359.766	310.83
360.148	328.23
360.53	319.19
360.912	318.06
361.294	315.34
361.676	306.08
362.057	323.03
362.439	324.16
362.821	321.45
363.203	323.03
363.584	316.7
363.966	306.53
364.348	333.2
364.729	327.77
365.111	318.51
365.493	309.02
365.874	305.18
366.256	285.97
366.637	261.33
367.019	309.92
367.4	291.16
367.781	296.81
368.163	312.86
368.544	307.44
368.925	326.42
369.306	327.32
369.688	290.03
370.069	302.92
370.45	303.82
370.831	299.98
371.212	282.13
371.593	312.41
371.974	308.11
372.355	290.26
372.736	319.41
373.117	302.69
373.498	305.4
373.879	314.89
374.26	314.21
374.641	306.08
375.021	322.58
375.402	313.99
375.783	299.07
376.163	323.03
376.544	311.73
376.925	292.52
377.305	319.86
377.686	339.52
378.066	317.15
378.447	326.42
378.827	337.27
379.208	318.28
379.588	329.13
379.968	326.42
380.349	330.03
380.729	317.83
381.109	304.5
381.489	337.72
381.87	324.38
382.25	350.37
382.63	322.12
383.01	326.64
383.39	330.03
383.77	326.64
384.15	338.4
384.53	349.92
384.91	340.88
385.29	338.85
385.67	351.73
386.049	344.72
386.429	331.16
386.809	328.9
387.189	346.76
387.568	346.98
387.948	362.12
388.328	352.63
388.707	358.06
389.087	378.39
389.466	335.23
389.846	349.02
390.225	363.25
390.605	356.02
390.984	360.09
391.363	351.73
391.743	359.41
392.122	348.11
392.501	375.68
392.881	371.61
393.26	377.72
393.639	384.72
394.018	375.68
394.397	378.17
394.776	369.35
395.155	375.46
395.534	388.11
395.913	403.25
396.292	360.54
396.671	387.89
397.05	402.57
397.429	387.43
397.808	385.85
398.186	386.53
398.565	384.95
398.944	396.92
399.323	376.36
399.701	388.11
400.08	369.58
400.458	397.6
400.837	401.9
401.215	410.94
401.594	387.21
401.972	410.94
402.351	410.03
402.729	407.77
403.107	424.95
403.486	411.61
403.864	402.35
404.242	414.55
404.62	417.26
404.999	425.17
405.377	397.6
405.755	417.04
406.133	427.43
406.511	412.52
406.889	445.06
407.267	434.21
407.645	466.75
408.023	467.43
408.401	428.79
408.779	435.79
409.156	437.83
409.534	444.61
409.912	444.83
410.29	446.64
410.667	470.59
411.045	465.4
411.422	465.17
411.8	458.17
412.178	490.03
412.555	495.91
412.933	462.23
413.31	484.83
413.687	471.72
414.065	496.13
414.442	497.71
414.819	481.89
415.197	490.48
415.574	514.44
415.951	515.79
416.328	521.89
416.705	532.06
417.082	511.05
417.46	520.54
417.837	536.58
418.214	535.68
418.591	526.86
418.967	537.71
419.344	538.62
419.721	562.8
420.098	549.91
420.475	524.6
420.852	550.14
421.228	567.77
421.605	560.31
421.982	592.4
422.358	560.08
422.735	601.44
423.111	584.72
423.488	583.36
423.864	590.82
424.241	601.66
424.617	598.28
424.994	598.5
425.37	586.07
425.746	625.62
426.123	610.25
426.499	609.12
426.875	618.84
427.251	612.74
427.627	624.49
428.003	622.23
428.379	649.57
428.756	654.54
429.132	646.86
429.507	657.93
429.883	661.32
430.259	656.13
430.635	687.99
431.011	678.95
431.387	677.6
431.763	682.79
432.138	736.58
432.514	709.91
432.89	721.89
433.265	729.12
433.641	725.28
434.016	742.9
434.392	757.14
434.767	746.75
435.143	748.1
435.518	777.25
435.894	769.8
436.269	784.49
436.644	798.5
437.02	781.32
437.395	841.43
437.77	807.99
438.145	848.89
438.52	814.31
438.895	837.36
439.271	846.18
439.646	846.4
440.021	840.53
440.395	858.61
440.77	869.91
441.145	862.68
441.52	883.01
441.895	873.3
442.27	898.38
442.645	868.32
443.019	902.45
443.394	907.87
443.769	934.54
444.143	907.65
444.518	955.33
444.892	961.43
445.267	940.87
445.641	946.97
446.016	975.44
446.39	977.93
446.764	949.23
447.139	1006.17
447.513	980.86
447.887	979.06
448.262	994.42
448.636	1022.22
449.01	1007.08
449.384	1040.07
449.758	1034.2
450.132	1036.23
450.506	1033.29
450.88	1056.57
451.254	1079.17
451.628	1075.78
452.002	1105.38
452.376	1078.26
452.75	1120.97
453.123	1090.92
453.497	1088.66
453.871	1119.84
454.244	1153.97
454.618	1116.91
454.992	1161.65
455.365	1169.33
455.739	1203.01
456.112	1168.88
456.486	1210.01
456.859	1197.58
457.232	1238.03
457.606	1227.64
457.979	1262.21
458.352	1261.76
458.725	1247.52
459.099	1291.59
459.472	1270.12
459.845	1281.42
460.218	1293.62
460.591	1314.87
460.964	1346.96
461.337	1364.13
461.71	1346.5
462.083	1353.96
462.456	1388.76
462.829	1359.39
463.201	1393.28
463.574	1398.03
463.947	1416.33
464.32	1417.91
464.692	1441.87
465.065	1435.54
465.438	1476.67
465.81	1488.87
466.183	1501.53
466.555	1510.34
466.928	1510.57
467.3	1535.43
467.672	1531.58
468.045	1595.54
468.417	1609.32
468.789	1610
469.161	1628.98
469.534	1626.72
469.906	1657
470.278	1680.73
470.65	1704.23
471.022	1699.72
471.394	1742.43
471.766	1742.2
472.138	1751.47
472.51	1802.31
472.882	1838.69
473.253	1786.94
473.625	1867.62
473.997	1891.57
474.369	1908.3
474.74	1913.95
475.112	1945.36
475.484	1972.02
475.855	1993.72
476.227	2001.4
476.598	2090.67
476.97	2073.49
477.341	2109.87
477.713	2184.67
478.084	2179.48
478.455	2230.32
478.827	2219.93
479.198	2263.32
479.569	2294.5
479.94	2383.77
480.311	2403.88
480.682	2413.37
481.053	2498.34
481.424	2482.97
481.795	2533.14
482.166	2557.77
482.537	2631.67
482.908	2672.34
483.279	2665.79
483.65	2723.64
484.021	2753.7
484.391	2777.43
484.762	2824.66
485.133	2893.81
485.503	2870.53
485.874	2936.97
486.244	2954.82
486.615	3026.69
486.985	3057.19
487.356	3088.61
487.726	3108.72
488.097	3213.35
488.467	3213.57
488.837	3235.27
489.207	3281.14
489.578	3326.57
489.948	3349.62
490.318	3418.54
490.688	3428.26
491.058	3530.4
491.428	3534.02
491.798	3594.35
492.168	3622.15
492.538	3628.48
492.908	3683.39
493.278	3717.06
493.648	3740.57
494.017	3787.34
494.387	3812.88
494.757	3837.96
495.126	3831.41
495.496	3892.43
495.866	3971.75
496.235	3997.96
496.605	4003.84
496.974	3990.95
497.344	4044.74
497.713	4158.63
498.082	4142.36
498.452	4185.75
498.821	4200.21
499.19	4202.47
499.559	4281.34
499.928	4247.44
500.298	4309.59
500.667	4352.53
501.036	4379.64
501.405	4462.81
501.774	4437.04
502.143	4501.22
502.512	4501.22
502.88	4496.93
503.249	4547.1
503.618	4575.35
503.987	4596.14
504.356	4680.88
504.724	4650.15
505.093	4718.84
505.462	4725.17
505.83	4754.1
506.199	4766.08
506.567	4886.3
506.936	4850.59
507.304	4966.75
507.672	4914.09
508.041	4988.22
508.409	5022.34
508.777	5059.63
509.145	5103.02
509.514	5093.3
509.882	5172.39
510.25	5169.68
510.618	5190.02
510.986	5281.99
511.354	5315.44
511.722	5360.41
512.09	5401.31
512.458	5388.43
512.826	5428.43
513.193	5446.96
513.561	5505.04
513.929	5541.65
514.297	5594.3
514.664	5578.48
515.032	5678.82
515.4	5696.67
515.767	5740.29
516.135	5782.32
516.502	5766.73
516.869	5850.34
517.237	5888.31
517.604	5844.92
517.972	5982.99
518.339	6001.97
518.706	6016.21
519.073	6092.82
519.44	6129.43
519.808	6145.47
520.175	6165.81
520.542	6248.75
520.909	6288.97
521.276	6303.21
521.643	6338.01
522.009	6409.2
522.376	6383.21
522.743	6532.58
523.11	6549.31
523.477	6602.64
523.843	6684.22
524.21	6743.42
524.577	6835.17
524.943	6848.96
525.31	6853.03
525.676	6919.69
526.043	6947.49
526.409	7044.66
526.776	7052.57
527.142	7123.98
527.508	7160.59
527.874	7229.29
528.241	7257.54
528.607	7260.92
528.973	7406.23
529.339	7369.4
529.705	7413.46
530.071	7455.72
530.437	7524.87
530.803	7592.44
531.169	7605.77
531.535	7636.73
531.901	7681.48
532.267	7649.39
532.632	7782.27
532.998	7802.61
533.364	7855.94
533.73	7895.48
534.095	7979.55
534.461	8037.85
534.826	7991.3
535.192	8068.81
535.557	8115.82
535.923	8021.58
536.288	8121.69
536.653	8210.05
537.019	8218.41
537.384	8259.99
537.749	8316.04
538.114	8321.91
538.479	8323.04
538.845	8353.33
539.21	8355.13
539.575	8359.43
539.94	8368.24
540.305	8424.51
540.67	8507.45
541.034	8546.77
541.399	8546.31
541.764	8591.74
542.129	8590.38
542.494	8622.47
542.858	8624.5
543.223	8697.05
543.587	8743.15
543.952	8694.56
544.316	8680.1
544.681	8762.13
545.045	8806.42
545.41	8884.84
545.774	8863.37
546.138	8953.54
546.503	9029.69
546.867	8957.38
547.231	9006.64
547.595	9070.82
547.959	9080.09
548.324	9073.98
548.688	9163.02
549.052	9179.97
549.416	9190.14
549.779	9222.23
550.143	9175.68
550.507	9314.43
550.871	9425.16
551.235	9342.68
551.599	9425.84
551.962	9415.44
552.326	9474.88
552.689	9514.42
553.053	9423.81
553.417	9517.59
553.78	9720.52
554.143	9664.7
554.507	9716.23
554.87	9705.15
555.234	9765.49
555.597	9797.36
555.96	9833.29
556.323	9842.55
556.686	9913.51
557.05	9928.43
557.413	10015.2
557.776	10053.17
558.139	10081.87
558.502	10167.06
558.865	10158.02
559.228	10219.27
559.59	10263.56
559.953	10218.81
560.316	10375.19
560.679	10327.06
561.041	10395.08
561.404	10489.54
561.767	10524.57
562.129	10515.53
562.492	10659.03
562.854	10614.96
563.217	10666.03
563.579	10760.27
563.941	10741.29
564.304	10814.5
564.666	10872.13
565.028	10907.16
565.39	10872.13
565.753	10988.74
566.115	11029.19
566.477	11106.25
566.839	11152.35
567.201	11182.18
567.563	11217.21
567.925	11282.74
568.287	11342.63
568.648	11315.73
569.01	11374.26
569.372	11456.52
569.734	11433.47
570.095	11507.37
570.457	11549.17
570.819	11598.44
571.18	11678.44
571.542	11719.11
571.903	11675.05
572.265	11677.76
572.626	11780.81
572.987	11708.27
573.349	11804.76
573.71	11817.64
574.071	11882.72
574.432	11921.14
574.794	12028.71
575.155	12028.03
575.516	11962.5
575.877	12051.99
576.238	12099.22
576.599	12140.34
576.96	12146.45
577.32	12110.51
577.681	12205.2
578.042	12164.07
578.403	12206.78
578.763	12184.64
579.124	12239.1
579.485	12323.84
579.845	12291.08
580.206	12305.54
580.566	12307.8
580.927	12407.23
581.287	12451.3
581.648	12359.32
582.008	12453.56
582.368	12423.95
582.728	12510.05
583.089	12380.11
583.449	12371.07
583.809	12508.47
584.169	12477.28
584.529	12373.33
584.889	12454.46
585.249	12473.44
585.609	12493.1
585.969	12495.14
586.329	12498.75
586.688	12545.98
587.048	12534.46
587.408	12521.35
587.768	12465.08
588.127	12422.82
588.487	12397.29
588.846	12535.36
589.206	12330.4
589.565	12515.48
589.925	12475.93
590.284	12481.8
590.643	12546.89
591.003	12587.11
591.362	12624.85
591.721	12554.57
592.08	12637.05
592.44	12650.61
592.799	12590.73
593.158	12541.46
593.517	12549.37
593.876	12514.57
594.235	12509.15
594.593	12607.23
594.952	12614
595.311	12526.78
595.67	12567
596.029	12758.63
596.387	12701.91
596.746	12762.93
597.104	12649.03
597.463	12696.94
597.822	12694.23
598.18	12696.26
598.538	12638.64
598.897	12667.79
599.255	12594.34
599.613	12727
599.972	12665.75
600.33	12771.74
600.688	12677.73
601.046	12824.39
601.404	12788.92
601.762	12848.8
602.12	12859.65
602.478	12805.64
602.836	12870.27
603.194	12735.58
603.552	12833.21
603.91	12758.63
604.268	12795.02
604.625	12711.86
604.983	12825.75
605.341	12769.48
605.698	12897.39
606.056	12948.23
606.413	12995.01
606.771	13034.11
607.128	13004.73
607.485	12960.89
607.843	12950.04
608.2	12978.06
608.557	12983.26
608.914	12995.92
609.272	12970.61
609.629	12992.98
609.986	13067.33
610.343	13021.23
610.7	13146.65
611.057	13034.11
611.414	13062.81
611.771	13122.92
612.127	13089.25
612.484	13144.84
612.841	13270.48
613.198	13223.93
613.554	13216.25
613.911	13229.13
614.267	13169.92
614.624	13160.2
614.98	13176.7
615.337	13275
615.693	13196.59
616.05	13221.45
616.406	13344.15
616.762	13310.71
617.118	13224.84
617.475	13292.63
617.831	13322.69
618.187	13380.99
618.543	13288.34
618.899	13410.14
619.255	13386.41
619.611	13364.04
619.967	13410.37
620.323	13407.88
620.678	13312.97
621.034	13285.63
621.39	13366.53
621.746	13357.71
622.101	13448.56
622.457	13354.78
622.812	13357.04
623.168	13443.14
623.523	13440.88
623.879	13400.88
624.234	13356.13
624.589	13389.8
624.945	13429.58
625.3	13404.49
625.655	13413.76
626.01	13371.72
626.365	13412.85
626.72	13346.41
627.075	13348.9
627.43	13380.31
627.785	13436.36
628.14	13409.69
628.495	13390.93
628.85	13425.73
629.205	13340.54
629.559	13463.25
629.914	13336.47
630.269	13312.74
630.623	13213.99
630.978	13319.52
631.332	13260.99
631.687	13365.62
632.041	13234.78
632.396	13248.11
632.75	13245.63
633.104	13241.78
633.459	13154.56
633.813	13182.13
634.167	13145.74
634.521	13186.64
634.875	13193.2
635.229	13215.57
635.583	13083.6
635.937	13084.73
636.291	13079.3
636.645	13099.19
636.999	13097.16
637.352	13126.99
637.706	13004.28
638.06	13050.83
638.413	12963.6
638.767	13047.21
639.121	13042.69
639.474	12898.06
639.828	12946.43
640.181	12941.45
640.534	12937.84
640.888	12972.64
641.241	12848.57
641.594	12878.63
641.947	12904.39
642.301	12872.08
642.654	12870.04
643.007	12880.89
643.36	12815.13
643.713	12750.05
644.066	12844.73
644.419	12768.35
644.771	12682.48
645.124	12657.17
645.477	12638.41
645.83	12524.74
646.182	12416.27
646.535	12321.13
646.888	12294.46
647.24	12299.89
647.593	12308.02
647.945	12274.13
648.298	12301.24
648.65	12183.28
649.002	12182.6
649.355	12154.36
649.707	12243.39
650.059	12357.74
650.411	12406.55
650.763	12373.56
651.115	12528.13
651.467	12460.56
651.819	12524.06
652.171	12504.4
652.523	12414.01
652.875	12495.59
653.227	12423.05
653.578	12420.11
653.93	12381.24
654.282	12389.83
654.633	12276.61
654.985	12398.19
655.337	12416.95
655.688	12332.88
656.039	12422.37
656.391	12314.8
656.742	12276.61
657.094	12280.91
657.445	12362.26
657.796	12386.89
658.147	12261.47
658.498	12245.2
658.849	12252.88
659.2	12262.15
659.551	12224.86
659.902	12281.58
660.253	12327.46
660.604	12313
660.955	12193.68
661.306	12258.99
661.656	12242.49
662.007	12312.77
662.358	12194.81
662.708	12195.26
663.059	12259.21
663.409	12078.65
663.76	12137.41
664.11	12120.01
664.461	12148.25
664.811	12171.98
665.161	12211.3
665.511	12171.53
665.862	12148.03
666.212	12198.65
666.562	12224.64
666.912	12123.4
667.262	12171.53
667.612	12109.38
667.962	12134.24
668.312	12152.1
668.662	12162.72
669.011	12168.14
669.361	12092.44
669.711	12080.01
670.06	12056.73
670.41	11984.19
670.76	11921.37
671.109	12126.33
671.459	12009.73
671.808	11960.01
672.157	12054.47
672.507	11975.15
672.856	11952.33
673.205	11990.52
673.554	12033.68
673.904	11919.33
674.253	12109.84
674.602	12057.86
674.951	11910.75
675.3	11791.88
675.649	11992.1
675.998	11898.54
676.346	11961.82
676.695	11987.13
677.044	11904.87
677.393	11863.29
677.741	11893.35
678.09	11882.05
678.438	11795.04
678.787	11905.77
679.135	11820.13
679.484	11807.92
679.832	11842.5
680.181	11765.89
680.529	11833.91
680.877	11754.14
681.225	11814.25
681.573	11903.06
681.922	11685.22
682.27	11695.84
682.618	11766.12
682.966	11711.66
683.314	11762.73
683.661	11619.23
684.009	11555.95
684.357	11570.87
684.705	11501.27
685.053	11545.11
685.4	11468.05
685.748	11435.5
686.095	11483.64
686.443	11401.16
686.79	11378.33
687.138	11448.16
687.485	11466.92
687.832	11414.49
688.18	11365.45
688.527	11326.13
688.874	11389.63
689.221	11341.27
689.568	11325.68
689.915	11274.38
690.262	11287.03
690.609	11196.87
690.956	11130.65
691.303	11132.91
691.65	11044.55
691.997	11053.59
692.344	10984.22
692.69	10930.43
693.037	11012.92
693.383	10919.36
693.73	10939.92
694.077	10896.54
694.423	10891.34
694.769	10891.79
695.116	10805.46
695.462	10852.69
695.808	10849.98
696.155	10852.92
696.501	10707.61
696.847	10712.36
697.193	10676.43
697.539	10683.66
697.885	10611.8
698.231	10586.04
698.577	10525.47
698.923	10537.67
699.269	10490.67
699.614	10344.01
699.96	10418.81
700.306	10414.06
700.651	10330.22
700.997	10344.91
701.342	10344.69
701.688	10338.58
702.033	10271.02
702.379	10311.01
702.724	10311.92
703.069	10333.61
703.415	10146.05
703.76	10214.52
704.105	10167.52
704.45	10091.36
704.795	10123.9
705.14	10057.69
705.485	10020.4
705.83	9991.7
706.175	9974.98
706.52	9982.66
706.865	9920.29
707.209	9944.92
707.554	9937.46
707.899	9897.92
708.243	9944.02
708.588	9865.38
708.932	9822.44
709.277	9850.91
709.621	9820.18
709.966	9745.61
710.31	9795.55
710.654	9702.22
710.998	9666.74
711.342	9614.08
711.687	9606.85
712.031	9540.19
712.375	9581.09
712.719	9515.78
713.063	9511.26
713.407	9539.06
713.75	9513.52
714.094	9513.75
714.438	9428.1
714.782	9434.2
715.125	9470.13
715.469	9463.58
715.812	9414.54
716.156	9378.61
716.499	9378.38
716.843	9376.58
717.186	9359.4
717.53	9442.56
717.873	9359.17
718.216	9387.42
718.559	9257.48
718.902	9246.18
719.246	9214.77
719.589	9197.15
719.932	9150.14
720.275	9197.37
720.617	9117.6
720.96	9150.59
721.303	9172.74
721.646	9100.2
721.989	9100.2
722.331	9094.32
722.674	9137.71
723.016	9123.7
723.359	9047.77
723.701	9111.95
724.044	9026.08
724.386	9003.25
724.729	9054.1
725.071	9060.65
725.413	8976.36
725.755	9001.9
726.097	8968.22
726.439	8857.72
726.782	8849.58
727.124	8959.19
727.465	8794.67
727.807	8805.52
728.149	8797.16
728.491	8775.01
728.833	8821.34
729.175	8753.99
729.516	8687.1
729.858	8722.81
730.199	8792.18
730.541	8737.04
730.882	8727.55
731.224	8777.27
731.565	8728.91
731.906	8705.63
732.248	8728
732.589	8736.82
732.93	8694.79
733.271	8669.93
733.612	8749.93
733.953	8697.05
734.294	8590.61
734.635	8603.26
734.976	8660.44
735.317	8611.17
735.658	8570.49
735.999	8607.1
736.339	8494.79
736.68	8481.91
737.021	8498.63
737.361	8444.62
737.702	8458.41
738.042	8462.02
738.383	8510.38
738.723	8427.9
739.063	8465.86
739.404	8525.75
739.744	8457.73
740.084	8451.18
740.424	8472.19
740.764	8391.52
741.104	8457.73
741.444	8365.98
741.784	8327.79
742.124	8314.68
742.464	8350.16
742.804	8278.98
743.143	8315.59
743.483	8286.89
743.823	8207.57
744.162	8261.12
744.502	8249.83
744.841	8151.75
745.181	8202.82
745.52	8198.75
745.86	8207.11
746.199	8175.48
746.538	8202.14
746.877	8191.97
747.216	8137.74
747.556	8161.01
747.895	8094.58
748.234	8120.34
748.573	8109.04
748.911	8071.75
749.25	8108.81
749.589	8044.86
749.928	8092.09
750.267	8087.57
750.605	7978.19
750.944	8033.79
751.283	7988.59
751.621	8001.92
751.96	7914.47
752.298	7847.35
752.636	7922.6
752.975	7888.25
753.313	7812.1
753.651	7828.82
753.989	7816.16
754.327	7845.99
754.666	7782.72
755.004	7803.74
755.342	7810.29
755.679	7863.62
756.017	7771.19
756.355	7823.85
756.693	7738.43
757.031	7779.33
757.368	7758.09
757.706	7648.71
758.044	7686.9
758.381	7716.51
758.719	7633.34
759.056	7678.32
759.394	7681.7
759.731	7531.43
760.068	7547.25
760.405	7469.28
760.743	7450.75
761.08	7505.21
761.417	7485.78
761.754	7402.39
