Data from foam2_polystyrene_foam_FLMS001491_00082.txt Node
Date: Wed Feb 08 10:58:37 GMT 2017
User: dcchb
Spectrometer: FLMS00149
Trigger mode: 0
Integration Time (sec): 2.000000E-2
Scans to average: 10
Electric dark correction enabled: true
Nonlinearity correction enabled: false
Boxcar width: 0
XAxis mode: Wavelengths
Number of Pixels in Spectrum: 2048
>>>>>Begin Spectral Data<<<<<
341.393	-2.27
341.776	-2.27
342.16	-2.27
342.543	-37.98
342.927	-67.13
343.31	-71.65
343.693	-58.54
344.077	-66.23
344.46	-61.03
344.843	-66.45
345.226	-53.12
345.61	-28.71
345.993	-24.65
346.376	4.28
346.759	16.03
347.142	29.82
347.525	34.56
347.908	63.49
348.291	54.67
348.674	103.94
349.057	123.6
349.44	109.81
349.823	141
350.206	163.37
350.588	211.73
350.971	205.63
351.354	216.7
351.737	246.53
352.119	269.13
352.502	275.68
352.884	281.79
353.267	298.06
353.65	296.93
354.032	284.05
354.414	312.52
354.797	327.66
355.179	318.62
355.562	331.05
355.944	344.38
356.326	335.34
356.709	346.64
357.091	324.27
357.473	363.82
357.855	355.68
358.238	348
358.62	385.96
359.002	367.21
359.384	338.06
359.766	349.81
360.148	361.56
360.53	355.91
360.912	356.36
361.294	343.93
361.676	354.78
362.057	347.55
362.439	367.43
362.821	367.89
363.203	338.06
363.584	355.91
363.966	359.75
364.348	358.85
364.729	356.59
365.111	362.69
365.493	351.39
365.874	354.33
366.256	340.32
366.637	355.91
367.019	365.63
367.4	368.56
367.781	354.33
368.163	330.82
368.544	351.84
368.925	343.71
369.306	350.03
369.688	354.78
370.069	354.1
370.45	373.99
370.831	350.71
371.212	357.49
371.593	357.94
371.974	354.1
372.355	354.33
372.736	363.82
373.117	357.26
373.498	387.55
373.879	364.95
374.26	343.93
374.641	366.76
375.021	381.9
375.402	391.39
375.783	373.99
376.163	398.85
376.544	401.78
376.925	380.99
377.305	395.68
377.686	395.68
378.066	399.75
378.447	425.74
378.827	415.34
379.208	386.42
379.588	395.23
379.968	399.75
380.349	423.25
380.729	403.14
381.109	405.4
381.489	407.21
381.87	421.44
382.25	418.28
382.63	459.86
383.01	435.23
383.39	435
383.77	421.22
384.15	445.17
384.53	451.27
384.91	452.86
385.29	455.79
385.67	440.65
386.049	459.86
386.429	458.05
386.809	456.25
387.189	448.11
387.568	472.97
387.948	468
388.328	475.23
388.707	487.88
389.087	478.84
389.466	471.16
389.846	510.48
390.225	508.67
390.605	492.4
390.984	495.11
391.363	510.48
391.743	525.17
392.122	510.48
392.501	531.05
392.881	539.18
393.26	559.52
393.639	558.39
394.018	517.71
394.397	542.57
394.776	561.78
395.155	538.95
395.534	545.96
395.913	543.7
396.292	554.55
396.671	582.12
397.05	595.68
397.429	574.89
397.808	585.28
398.186	605.62
398.565	585.73
398.944	583.47
399.323	606.07
399.701	606.52
400.08	637.94
400.458	635
400.837	651.49
401.215	627.31
401.594	638.84
401.972	648.78
402.351	644.26
402.729	646.97
403.107	681.32
403.486	684.26
403.864	676.8
404.242	685.62
404.62	676.8
404.999	701.44
405.377	677.48
405.755	702.79
406.133	724.49
406.511	714.54
406.889	726.29
407.267	723.13
407.645	726.75
408.023	772.85
408.401	764.49
408.779	776.46
409.156	765.84
409.534	769.91
409.912	781.66
410.29	829.34
410.667	836.8
411.045	822.11
411.422	829.34
411.8	825.5
412.178	875.9
412.555	898.72
412.933	869.34
413.31	881.54
413.687	897.14
414.065	912.28
414.442	909.34
414.819	916.12
415.197	936.46
415.574	938.27
415.951	944.14
416.328	948.66
416.705	948.89
417.082	980.3
417.46	974.2
417.837	1006.97
418.214	1014.42
418.591	1013.52
418.967	1013.74
419.344	1029.79
419.721	1032.28
420.098	1028.66
420.475	1047.64
420.852	1047.42
421.228	1053.07
421.605	1093.52
421.982	1091.71
422.358	1090.13
422.735	1115.66
423.111	1123.12
423.488	1158.15
423.864	1140.29
424.241	1169.22
424.617	1173.74
424.994	1179.39
425.37	1186.4
425.746	1213.74
426.123	1217.35
426.499	1214.19
426.875	1231.14
427.251	1274.53
427.627	1264.13
428.003	1295.55
428.379	1327.41
428.756	1323.57
429.132	1355.2
429.507	1390.68
429.883	1342.55
430.259	1389.33
430.635	1397.01
431.011	1404.69
431.387	1433.85
431.763	1463.68
432.138	1487.18
432.514	1495.09
432.89	1490.79
433.265	1522.88
433.641	1544.8
434.016	1553.62
434.392	1596.33
434.767	1597.91
435.143	1584.8
435.518	1615.54
435.894	1655.76
436.269	1662.09
436.644	1717
437.02	1686.5
437.395	1736.44
437.77	1764.91
438.145	1770.33
438.52	1801.75
438.895	1807.4
439.271	1827.96
439.646	1860.5
440.021	1824.34
440.395	1881.74
440.77	1854.17
441.145	1892.82
441.52	1924
441.895	1928.52
442.27	1981.4
442.645	1959.93
443.019	2002.87
443.394	1987.73
443.769	2016.88
444.143	2018.01
444.518	2090.33
444.892	2045.36
445.267	2042.87
445.641	2110.44
446.016	2096.65
446.39	2093.26
446.764	2136.2
447.139	2134.62
447.513	2156.99
447.887	2197.44
448.262	2197.67
448.636	2191.57
449.01	2233.6
449.384	2257.33
449.758	2252.81
450.132	2295.74
450.506	2303.65
450.88	2335.97
451.254	2355.86
451.628	2394.95
452.002	2379.13
452.376	2428.62
452.75	2461.39
453.123	2451.9
453.497	2520.15
453.871	2541.16
454.244	2562.86
454.618	2583.65
454.992	2610.09
455.365	2606.92
455.739	2692.34
456.112	2747.26
456.486	2711.1
456.859	2764.88
457.232	2793.58
457.606	2790.87
457.979	2807.37
458.352	2867.03
458.725	2898.67
459.099	2907.48
459.472	2987.03
459.845	3011.43
460.218	3051.88
460.591	3020.02
460.964	3071.54
461.337	3161.94
461.71	3172.56
462.083	3210.07
462.456	3221.82
462.829	3261.14
463.201	3281.03
463.574	3315.38
463.947	3364.64
464.32	3396.73
464.692	3460.91
465.065	3470.4
465.438	3566.22
465.81	3610.96
466.183	3622.94
466.555	3679.66
466.928	3757.4
467.3	3688.7
467.672	3796.72
468.045	3855.48
468.417	3842.82
468.789	3929.83
469.161	3972.31
469.534	4043.5
469.906	4142.02
470.278	4123.95
470.65	4187.22
471.022	4261.12
471.394	4328.46
471.766	4408.91
472.138	4403.49
472.51	4510.15
472.882	4611.39
473.253	4610.49
473.625	4668.34
473.997	4790.82
474.369	4799.18
474.74	4888.9
475.112	4968.44
475.484	5077.14
475.855	5132.05
476.227	5165.05
476.598	5260.86
476.97	5334.76
477.341	5525.94
477.713	5575.88
478.084	5564.81
478.455	5761.87
478.827	5771.13
479.198	5967.06
479.569	5923.22
479.94	6178.58
480.311	6213.61
480.682	6332.47
481.053	6459.48
481.424	6565.24
481.795	6647.95
482.166	6694.05
482.537	6811.33
482.908	6943.08
483.279	6970.65
483.65	7164.54
484.021	7269.85
484.391	7374.26
484.762	7414.71
485.133	7562.95
485.503	7586
485.874	7758.88
486.244	7828.03
486.615	8044.52
486.985	8161.58
487.356	8237.06
487.726	8303.04
488.097	8486.32
488.467	8557.73
488.837	8709.14
489.207	8776.03
489.578	8930.82
489.948	9022.12
490.318	9095.34
490.688	9165.17
491.058	9277.48
491.428	9440.19
491.798	9646.51
492.168	9719.05
492.538	9773.29
492.908	9880.18
493.278	9916.79
493.648	9993.17
494.017	10150.45
494.387	10330.34
494.757	10369.2
495.126	10489.65
495.496	10482.87
495.866	10551.12
496.235	10709.08
496.605	10763.32
496.974	10863.66
497.344	10987.27
497.713	10993.37
498.082	11086.02
498.452	11314.26
498.821	11294.83
499.19	11400.82
499.559	11481.72
499.928	11585.67
500.298	11666.57
500.667	11724.88
501.036	11749.28
501.405	11908.6
501.774	11940.69
502.143	12066.11
502.512	12148.37
502.88	12272.21
503.249	12251.19
503.618	12315.37
503.987	12377.74
504.356	12558.98
504.724	12617.28
505.093	12592.42
505.462	12664.29
505.83	12828.58
506.199	12963.71
506.567	13078.74
506.936	13132.3
507.304	13279.41
507.672	13296.13
508.041	13375.23
508.409	13502.46
508.777	13502
509.145	13684.6
509.514	13725.95
509.882	13841.2
510.25	13928.66
510.618	14014.76
510.986	14028.77
511.354	14244.36
511.722	14321.64
512.09	14494.29
512.458	14548.76
512.826	14655.87
513.193	14665.36
513.561	14831.69
513.929	14960.72
514.297	15119.81
514.664	15175.63
515.032	15183.77
515.4	15362.97
515.767	15363.65
516.135	15573.14
516.502	15504.44
516.869	15756.18
517.237	15873.69
517.604	15880.47
517.972	16030.52
518.339	16084.53
518.706	16263.06
519.073	16339.9
519.44	16372.66
519.808	16620.11
520.175	16678.87
520.542	16943.95
520.909	16928.13
521.276	17075.92
521.643	17281.34
522.009	17430.26
522.376	17404.95
522.743	17624.83
523.11	17725.85
523.477	17917.71
523.843	18070.92
524.21	18256.45
524.577	18369.67
524.943	18466.17
525.31	18652.15
525.676	18810.79
526.043	18904.8
526.409	19031.58
526.776	19257.56
527.142	19355.18
527.508	19423.43
527.874	19611.22
528.241	19761.27
528.607	19801.95
528.973	20010.53
529.339	19961.72
529.705	20246.01
530.071	20248.94
530.437	20431.09
530.803	20601.48
531.169	20711.31
531.535	20727.8
531.901	20851.42
532.267	20923.73
532.632	21078.75
532.998	21090.73
533.364	21388.12
533.73	21326.43
534.095	21597.38
534.461	21651.62
534.826	21719.41
535.192	21834.21
535.557	21988.56
535.923	21976.58
536.288	22121.66
536.653	22076.92
537.019	22249.57
537.384	22310.13
537.749	22452.5
538.114	22463.8
538.479	22472.84
538.845	22684.36
539.21	22679.62
539.575	22875.54
539.94	22958.03
540.305	23087.74
540.67	23069.44
541.034	23126.38
541.399	23330.67
541.764	23298.81
542.129	23526.15
542.494	23596.65
542.858	23678.23
543.223	23610.66
543.587	23751.9
543.952	23785.58
544.316	24008.85
544.681	23967.49
545.045	24090.65
545.41	24336.52
545.774	24336.97
546.138	24301.27
546.503	24477.99
546.867	24444.09
547.231	24627.36
547.595	24693.57
547.959	24785.1
548.324	24844.08
548.688	24896.05
549.052	25118.2
549.416	24960.91
549.779	25069.84
550.143	25272.77
550.507	25413.78
550.871	25504.17
551.235	25497.62
551.599	25637.96
551.962	25642.02
552.326	25727.22
552.689	26012.86
553.053	25880.44
553.417	26025.52
553.78	26378.28
554.143	26275.91
554.507	26352.74
554.87	26496.92
555.234	26794.99
555.597	26581.89
555.96	26733.52
556.323	26886.28
556.686	26863.46
557.05	27099.84
557.413	27265.03
557.776	27214.86
558.139	27482.2
558.502	27591.12
558.865	27677.9
559.228	27887.39
559.59	27991.11
559.953	27935.97
560.316	28321.95
560.679	28319.47
561.041	28438.33
561.404	28712
561.767	28699.57
562.129	28647.82
562.492	29034.25
562.854	29061.14
563.217	29079.22
563.579	29125.1
563.941	29427.23
564.304	29692.31
564.666	29681.01
565.028	29757.62
565.39	29940.44
565.753	30100.66
566.115	30118.52
566.477	30380.88
566.839	30273.31
567.201	30579.29
567.563	30558.73
567.925	30847.99
568.287	30798.95
568.648	30978.38
569.01	31078.72
569.372	31249.79
569.734	31102.44
570.095	31416.79
570.457	31510.57
570.819	31643.9
571.18	31581.75
571.542	31705.37
571.903	31781.3
572.265	31934.29
572.626	32041.18
572.987	32002.76
573.349	32339.47
573.71	32323.43
574.071	32401.62
574.432	32476.19
574.794	32655.85
575.155	32629.86
575.516	32590.54
575.877	32769.07
576.238	32878.67
576.599	32919.57
576.96	33034.82
577.32	32951.21
577.681	33094.93
578.042	33287.7
578.403	33274.14
578.763	33204.08
579.124	33303.07
579.485	33463.96
579.845	33480.69
580.206	33395.27
580.566	33438.2
580.927	33485.21
581.287	33632.77
581.648	33630.97
582.008	33724.07
582.368	33519.33
582.728	33689.72
583.089	33596.39
583.449	33621.7
583.809	33656.28
584.169	33737.18
584.529	33628.03
584.889	33953.44
585.249	33640.01
585.609	33511.87
585.969	33785.09
586.329	33730.4
586.688	33776.5
587.048	33668.71
587.408	33694.92
587.768	33782.6
588.127	33733.34
588.487	33625.32
588.846	33867.57
589.206	33583.06
589.565	33653.11
589.925	33792.32
590.284	33760
590.643	33697.18
591.003	33879.1
591.362	33913.44
591.721	33831.86
592.08	33829.38
592.44	33893.33
592.799	34004.74
593.158	33964.29
593.517	33826.44
593.876	33940.56
594.235	33920
594.593	33936.49
594.952	34049.03
595.311	33891.75
595.67	33995.25
596.029	34171.29
596.387	34114.34
596.746	34117.51
597.104	33958.64
597.463	33988.92
597.822	34032.76
598.18	33943.73
598.538	34172.42
598.897	34203.83
599.255	33981.24
599.613	34468.68
599.972	34275.24
600.33	34289.03
600.688	34293.55
601.046	34378.06
601.404	34415.8
601.762	34478.63
602.12	34662.58
602.478	34696.7
602.836	34551.85
603.194	34460.32
603.552	34485.41
603.91	34531.73
604.268	34672.29
604.625	34589.58
604.983	34843.59
605.341	34653.31
605.698	34748.68
606.056	34882.23
606.413	34735.8
606.771	34888.79
607.128	34848.34
607.485	34775.79
607.843	34863.7
608.2	34912.97
608.557	35004.04
608.914	34930.82
609.272	35131.04
609.629	35126.07
609.986	35187.54
610.343	35022.12
610.7	35349.11
611.057	35265.27
611.414	35233.64
611.771	35246.74
612.127	35431.37
612.484	35369.23
612.841	35380.3
613.198	35406.51
613.554	35341.88
613.911	35605.15
614.267	35436.12
614.624	35553.4
614.98	35575.1
615.337	35787.29
615.693	35719.95
616.05	35768.54
616.406	35889.21
616.762	35723.11
617.118	35842.89
617.475	35800.17
617.831	36005.37
618.187	35993.16
618.543	36039.94
618.899	36303.21
619.255	36176.66
619.611	36160.62
619.967	36156.1
620.323	36288.75
620.678	36138.92
621.034	35991.36
621.39	36222.99
621.746	36127.62
622.101	36585.01
622.457	36197
622.812	36336.43
623.168	36412.14
623.523	36219.82
623.879	36486.71
624.234	36254.63
624.589	36381.4
624.945	36438.58
625.3	36437.45
625.655	36264.12
626.01	36409.65
626.365	36423.21
626.72	36182.09
627.075	36262.99
627.43	36319.93
627.785	36186.38
628.14	36281.52
628.495	36352.02
628.85	36364
629.205	36157.91
629.559	36424.34
629.914	36116.78
630.269	36279.94
630.623	36101.18
630.978	35995.2
631.332	36131.69
631.687	36200.84
632.041	36030.45
632.396	36083.33
632.75	35885.82
633.104	36032.26
633.459	35750.68
633.813	35759.95
634.167	35654.87
634.521	35650.35
634.875	35754.3
635.229	35668.88
635.583	35568.99
635.937	35514.98
636.291	35473.86
636.645	35383.46
636.999	35343.01
637.352	35661.87
637.706	35240.19
638.06	35380.3
638.413	35286.74
638.767	35131.27
639.121	35210.36
639.474	35115.67
639.828	35029.57
640.181	35155.22
640.534	35189.57
640.888	35012.4
641.241	34838.39
641.594	34792.97
641.947	34893.08
642.301	34741.67
642.654	34886.07
643.007	34781.9
643.36	34726.3
643.713	34637.49
644.066	34676.36
644.419	34515.91
644.771	34345.98
645.124	34148.69
645.477	33873.9
645.83	33630.97
646.182	33503.74
646.535	33380.35
646.888	33516.84
647.24	33326.34
647.593	33493.34
647.945	33420.12
648.298	33238.66
648.65	33275.04
649.002	33136.74
649.355	33172.22
649.707	33134.03
650.059	33312.56
650.411	33519.1
650.763	33728.36
651.115	33957.51
651.467	33762.26
651.819	33911.64
652.171	33784.18
652.523	33734.24
652.875	33781.92
653.227	33534.7
653.578	33692.66
653.93	33787.57
654.282	33453.12
654.633	33414.93
654.985	33525.21
655.337	33505.09
655.688	33483.4
656.039	33629.38
656.391	33309.39
656.742	33507.35
657.094	33382.61
657.445	33461.25
657.796	33341.93
658.147	33316.85
658.498	33205.44
658.849	33312.1
659.2	33126.8
659.551	33177.19
659.902	33316.4
660.253	33095.61
660.604	33173.35
660.955	32988.05
661.306	33059
661.656	32914.6
662.007	33056.07
662.358	32952.11
662.708	33048.38
663.059	32964.09
663.409	32668.73
663.76	32982.4
664.11	32909.86
664.461	33000.25
664.811	33012
665.161	32984.43
665.511	32692.46
665.862	32759.58
666.212	32949.63
666.562	32852
666.912	32775.4
667.262	32696.3
667.612	32670.09
667.962	32730.42
668.312	32675.06
668.662	32722.97
669.011	32710.99
669.361	32718
669.711	32660.6
670.06	32538.11
670.41	32531.56
670.76	32491.11
671.109	32554.16
671.459	32485.91
671.808	32433.48
672.157	32510.54
672.507	32401.17
672.856	32323.66
673.205	32370.66
673.554	32500.15
673.904	32270.78
674.253	32442.07
674.602	32186.71
674.951	31728.19
675.3	31574.07
675.649	32042.76
675.998	32094.96
676.346	31953.5
676.695	32122.53
677.044	31781.75
677.393	31920.05
677.741	32128.63
678.09	31779.72
678.438	31813.39
678.787	31908.98
679.135	31900.16
679.484	31595.31
679.832	31865.59
680.181	31513.51
680.529	31646.16
680.877	31565.94
681.225	31606.84
681.573	31641.19
681.922	31342.89
682.27	31359.39
682.618	31488.65
682.966	31198.04
683.314	31363.45
683.661	31247.75
684.009	31087.76
684.357	30953.07
684.705	30937.03
685.053	31012.5
685.4	30826.07
685.748	30722.12
686.095	30666.75
686.443	30563.25
686.79	30572.97
687.138	30469.02
687.485	30551.95
687.832	30413.42
688.18	30511.95
688.527	30226.08
688.874	30242.13
689.221	30129.36
689.568	30073.09
689.915	30019.76
690.262	30035.58
690.609	29882.36
690.956	29854.57
691.303	29913.78
691.65	29802.14
691.997	29642.14
692.344	29518.08
692.69	29449.38
693.037	29458.19
693.383	29246.9
693.73	29291.87
694.077	29125.32
694.423	29068.6
694.769	28960.81
695.116	28927.59
695.462	28855.72
695.808	28689.85
696.155	28842.62
696.501	28566.01
696.847	28600.14
697.193	28298.22
697.539	28458.45
697.885	28201.96
698.231	28152.47
698.577	28145.46
698.923	28126.93
699.269	28134.61
699.614	27924.68
699.96	27871.57
700.306	27846.71
700.651	27707.73
700.997	27581.18
701.342	27616.66
701.688	27485.59
702.033	27471.13
702.379	27389.32
702.724	27312.94
703.069	27432.48
703.415	27030.46
703.76	27060.07
704.105	27134.64
704.45	27077.92
704.795	26853.29
705.14	26870.24
705.485	26863.91
705.83	26733.07
706.175	26713.63
706.52	26669.12
706.865	26498.05
707.209	26464.15
707.554	26406.07
707.899	26477.48
708.243	26255.57
708.588	26278.84
708.932	26115.46
709.277	26054.22
709.621	26060.09
709.966	26020.54
710.31	26077.04
710.654	25682.7
710.998	25742.13
711.342	25904.16
711.687	25767.9
712.031	25660.78
712.375	25602.7
712.719	25579.88
713.063	25525.42
713.407	25602.48
713.75	25505.98
714.094	25354.8
714.438	25371.97
714.782	25397.74
715.125	25160
715.469	25309.83
715.812	25128.59
716.156	24915.26
716.499	24876.17
716.843	24933.79
717.186	24840.01
717.53	24853.12
717.873	24940.57
718.216	24828.71
718.559	24593.24
718.902	24515.27
719.246	24593.01
719.589	24524.99
719.932	24402.06
720.275	24422.39
720.617	24333.13
720.96	24308.27
721.303	24254.04
721.646	24291.1
721.989	24112.35
722.331	24206.13
722.674	24167.94
723.016	24251.78
723.359	24141.5
723.701	24207.48
724.044	24028.51
724.386	23866.93
724.729	24047.04
725.071	23890.43
725.413	23957.77
725.755	23861.96
726.097	23654.05
726.439	23680.72
726.782	23661.96
727.124	23722.3
727.465	23620.38
727.807	23604.11
728.149	23475.75
728.491	23525.47
728.833	23507.39
729.175	23439.37
729.516	23367.73
729.858	23412.7
730.199	23300.39
730.541	23363.67
730.882	23280.28
731.224	23413.83
731.565	23125.25
731.906	23240.28
732.248	23085.48
732.589	23134.52
732.93	22970.68
733.271	23008.87
733.612	22969.78
733.953	23094.97
734.294	22969.1
734.635	22847.29
734.976	22925.71
735.317	22782.21
735.658	22767.07
735.999	22743.34
736.339	22756.45
736.68	22731.82
737.021	22663.34
737.361	22560.97
737.702	22677.58
738.042	22613.63
738.383	22623.12
738.723	22564.82
739.063	22473.75
739.404	22437.14
739.744	22357.59
740.084	22240.53
740.424	22342.22
740.764	22267.65
741.104	22262.23
741.444	22145.84
741.784	22123.25
742.124	22123.7
742.464	22068.33
742.804	22011.84
743.143	22013.19
743.483	22003.25
743.823	21949.24
744.162	21959.18
744.502	22007.54
744.841	21892.07
745.181	21892.29
745.52	21772.07
745.86	21728.45
746.199	21712.64
746.538	21665.18
746.877	21804.84
747.216	21589.7
747.556	21675.8
747.895	21638.74
748.234	21525.75
748.573	21485.97
748.911	21385.86
749.25	21516.93
749.589	21362.36
749.928	21413.43
750.267	21370.05
750.605	21381.34
750.944	21280.78
751.283	21251.18
751.621	21262.03
751.96	21115.59
752.298	21172.99
752.636	21124.4
752.975	21046.66
753.313	20891.19
753.651	21032.88
753.989	20934.35
754.327	20879.44
