Data from foam1_polythene_foam_FLMS001491_00045.txt Node
Date: Wed Feb 08 10:54:53 GMT 2017
User: dcchb
Spectrometer: FLMS00149
Trigger mode: 0
Integration Time (sec): 2.000000E-2
Scans to average: 10
Electric dark correction enabled: true
Nonlinearity correction enabled: false
Boxcar width: 0
XAxis mode: Wavelengths
Number of Pixels in Spectrum: 2048
>>>>>Begin Spectral Data<<<<<
341.393	1.24
341.776	1.24
342.16	1.24
342.543	-48.25
342.927	-69.04
343.31	-78.53
343.693	-59.32
344.077	-63.61
344.46	-67
344.843	-46.44
345.226	-22.94
345.61	-48.7
345.993	-14.35
346.376	11.19
346.759	11.86
347.142	30.39
347.525	31.98
347.908	51.86
348.291	71.98
348.674	83.5
349.057	108.13
349.44	126.44
349.823	128.7
350.206	143.61
350.588	181.13
350.971	190.62
351.354	218.64
351.737	212.54
352.119	215.47
352.502	244.17
352.884	246.21
353.267	288.69
353.65	289.37
354.032	262.93
354.414	288.92
354.797	289.14
355.179	281.24
355.562	313.33
355.944	315.58
356.326	296.38
356.709	323.27
357.091	331.4
357.473	340.22
357.855	303.16
358.238	332.31
358.62	326.21
359.002	309.71
359.384	325.53
359.766	321.46
360.148	319.88
360.53	315.13
360.912	311.29
361.294	334.79
361.676	331.4
362.057	324.17
362.439	323.27
362.821	318.97
363.203	302.7
363.584	289.6
363.966	306.55
364.348	324.4
364.729	315.36
365.111	294.34
365.493	326.88
365.874	300.22
366.256	293.21
366.637	312.42
367.019	302.48
367.4	316.71
367.781	286.66
368.163	295.92
368.544	299.09
368.925	290.73
369.306	309.03
369.688	299.31
370.069	306.55
370.45	304.96
370.831	299.09
371.212	299.54
371.593	296.38
371.974	286.43
372.355	291.86
372.736	304.29
373.117	321.46
373.498	310.16
373.879	306.77
374.26	301.35
374.641	271.07
375.021	298.41
375.402	301.12
375.783	308.81
376.163	327.79
376.544	317.62
376.925	321.91
377.305	307
377.686	309.71
378.066	305.42
378.447	294.79
378.827	336.83
379.208	323.49
379.588	343.83
379.968	336.83
380.349	313.33
380.729	322.36
381.109	320.78
381.489	301.8
381.87	311.74
382.25	350.61
382.63	320.33
383.01	324.4
383.39	326.21
383.77	327.56
384.15	335.25
384.53	322.36
384.91	348.35
385.29	314.23
385.67	351.74
386.049	339.31
386.429	344.28
386.809	363.95
387.189	335.92
387.568	348.13
387.948	341.12
388.328	365.3
388.707	366.43
389.087	347
389.466	375.02
389.846	357.39
390.225	343.38
390.605	374.34
390.984	361.69
391.363	378.41
391.743	366.66
392.122	378.86
392.501	368.46
392.881	377.28
393.26	355.81
393.639	394.45
394.018	353.55
394.397	372.08
394.776	353.32
395.155	392.42
395.534	380.89
395.913	377.28
396.292	383.15
396.671	389.71
397.05	396.71
397.429	383.38
397.808	411.63
398.186	410.95
398.565	392.42
398.944	402.14
399.323	375.47
399.701	405.75
400.08	403.72
400.458	403.72
400.837	415.02
401.215	413.89
401.594	409.59
401.972	421.12
402.351	417.5
402.729	417.28
403.107	410.95
403.486	425.86
403.864	428.35
404.242	415.92
404.62	415.24
404.999	426.99
405.377	446.2
405.755	427.45
406.133	450.04
406.511	421.12
406.889	434.9
407.267	420.89
407.645	432.87
408.023	454.11
408.401	457.28
408.779	462.25
409.156	463.15
409.534	470.38
409.912	474.68
410.29	473.55
410.667	477.39
411.045	452.53
411.422	478.07
411.8	470.84
412.178	469.03
412.555	491.85
412.933	481.23
413.31	502.25
413.687	511.29
414.065	498.18
414.442	531.17
414.819	534.11
415.197	542.7
415.574	522.81
415.951	521.68
416.328	556.71
416.705	534.56
417.082	539.31
417.46	563.26
417.837	534.34
418.214	541.79
418.591	538.4
418.967	552.64
419.344	565.52
419.721	552.41
420.098	545.41
420.475	561.68
420.852	581.57
421.228	594.9
421.605	597.84
421.982	582.24
422.358	605.07
422.735	594.9
423.111	591.06
423.488	578.4
423.864	611.85
424.241	619.98
424.617	626.09
424.994	629.25
425.37	631.06
425.746	601.91
426.123	628.57
426.499	627.67
426.875	634.22
427.251	649.81
427.627	663.37
428.003	665.41
428.379	669.47
428.756	684.61
429.132	669.25
429.507	683.71
429.883	707.89
430.259	712.18
430.635	682.35
431.011	715.35
431.387	713.99
431.763	739.98
432.138	756.93
432.514	763.48
432.89	745.63
433.265	774.56
433.641	777.27
434.016	765.97
434.392	789.02
434.767	809.81
435.143	829.7
435.518	816.81
435.894	838.96
436.269	835.35
436.644	831.96
437.02	840.32
437.395	831.05
437.77	847.32
438.145	884.84
438.52	870.15
438.895	884.16
439.271	880.32
439.646	909.47
440.021	925.51
440.395	934.33
440.77	909.24
441.145	917.38
441.52	951.5
441.895	934.55
442.27	967.77
442.645	944.72
443.019	947.88
443.394	942.46
443.769	968.9
444.143	987.88
444.518	1026.75
444.892	988.34
445.267	1018.39
445.641	1027.2
446.016	1044.61
446.39	1034.89
446.764	1060.65
447.139	1010.93
447.513	1075.34
447.887	1062.68
448.262	1081.44
448.636	1074.21
449.01	1095
449.384	1116.47
449.758	1093.42
450.132	1134.09
450.506	1151.04
450.88	1170.7
451.254	1136.58
451.628	1142.23
452.002	1181.32
452.376	1175.45
452.75	1210.25
453.123	1209.12
453.497	1239.63
453.871	1223.58
454.244	1229.23
454.618	1240.53
454.992	1251.15
455.365	1263.58
455.739	1275.33
456.112	1307.88
456.486	1295.9
456.859	1320.53
457.232	1331.38
457.606	1344.48
457.979	1350.81
458.352	1384.71
458.725	1375.67
459.099	1352.85
459.472	1378.38
459.845	1419.51
460.218	1410.02
460.591	1436.01
460.964	1426.29
461.337	1472.39
461.71	1451.83
462.083	1504.93
462.456	1463.8
462.829	1475.78
463.201	1530.02
463.574	1537.25
463.947	1539.51
464.32	1563.69
464.692	1596.23
465.065	1609.56
465.438	1600.97
465.81	1643.69
466.183	1657.02
466.555	1680.52
466.928	1697.7
467.3	1703.8
467.672	1693.18
468.045	1768.2
468.417	1757.58
468.789	1779.73
469.161	1823.79
469.534	1838.26
469.906	1858.6
470.278	1845.94
470.65	1888.88
471.022	1933.62
471.394	1936.56
471.766	1960.51
472.138	1992.83
472.51	2006.16
472.882	2029.66
473.253	2050.23
473.625	2095.65
473.997	2101.75
474.369	2121.64
474.74	2171.81
475.112	2199.6
475.484	2235.31
475.855	2274.86
476.227	2284.35
476.598	2309.66
476.97	2367.28
477.341	2409.54
477.713	2442.76
478.084	2443.66
478.455	2527.5
478.827	2546.49
479.198	2604.34
479.569	2591.91
479.94	2631.68
480.311	2661.74
480.682	2753.94
481.053	2762.98
481.424	2809.53
481.795	2859.7
482.166	2916.87
482.537	2957.78
482.908	3002.75
483.279	3031.22
483.65	3077.77
484.021	3128.17
484.391	3154.61
484.762	3207.94
485.133	3221.05
485.503	3265.56
485.874	3309.18
486.244	3346.01
486.615	3433.7
486.985	3480.47
487.356	3534.26
487.726	3596.63
488.097	3648.15
488.467	3660.13
488.837	3703.29
489.207	3771.09
489.578	3810.18
489.948	3828.26
490.318	3921.59
490.688	3941.7
491.058	3978.09
491.428	4064.19
491.798	4098.76
492.168	4169.27
492.538	4139.67
492.908	4179.89
493.278	4254.24
493.648	4265.99
494.017	4363.84
494.387	4431.41
494.757	4442.03
495.126	4480.9
495.496	4467.57
495.866	4551.63
496.235	4587.11
496.605	4616.71
496.974	4647.22
497.344	4696.03
497.713	4766.54
498.082	4802.92
498.452	4797.27
498.821	4819.42
499.19	4833.66
499.559	4894.67
499.928	4916.37
500.298	4973.54
500.667	5034.56
501.036	5029.36
501.405	5083.37
501.774	5104.84
502.143	5173.76
502.512	5218.96
502.88	5244.95
503.249	5220.77
503.618	5326.53
503.987	5387.77
504.356	5396.58
504.724	5388.9
505.093	5412.63
505.462	5467.09
505.83	5520.65
506.199	5576.69
506.567	5590.93
506.936	5662.79
507.304	5695.33
507.672	5729
508.041	5716.35
508.409	5790.02
508.777	5841.54
509.145	5888.77
509.514	5910.47
509.882	5996.11
510.25	6037.24
510.618	6004.47
510.986	6043.8
511.354	6105.26
511.722	6199.72
512.09	6215.09
512.458	6261.19
512.826	6285.6
513.193	6353.84
513.561	6359.27
513.929	6431.36
514.297	6513.84
514.664	6518.36
515.032	6587.74
515.4	6583.67
515.767	6670.45
516.135	6744.12
516.502	6755.87
516.869	6749.77
517.237	6868.41
517.604	6872.47
517.972	6896.65
518.339	7008.06
518.706	7048.97
519.073	7065.92
519.44	7102.53
519.808	7189.98
520.175	7229.3
520.542	7311.11
520.909	7318.34
521.276	7305.68
521.643	7459.35
522.009	7507.49
522.376	7593.59
522.743	7621.61
523.11	7695.73
523.477	7710.87
523.843	7815.73
524.21	7876.06
524.577	7972.78
524.943	7957.64
525.31	8030.64
525.676	8139.56
526.043	8140.46
526.409	8224.08
526.776	8311.98
527.142	8326
527.508	8399.89
527.874	8382.27
528.241	8573.22
528.607	8583.16
528.973	8652.99
529.339	8638.08
529.705	8735.25
530.071	8793.78
530.437	8751.52
530.803	8862.7
531.169	8930.73
531.535	8893.21
531.901	9031.06
532.267	9045.3
532.632	9144.96
532.998	9145.18
533.364	9197.16
533.73	9267.21
534.095	9292.75
534.461	9329.13
534.826	9408
535.192	9436.02
535.557	9504.95
535.923	9472.63
536.288	9574.1
536.653	9591.5
537.019	9632.85
537.384	9703.59
537.749	9702.23
538.114	9732.51
538.479	9737.71
538.845	9828.56
539.21	9828.1
539.575	9869.91
539.94	9853.64
540.305	9981.09
540.67	9988.55
541.034	10079.62
541.399	10053.18
541.764	10044.37
542.129	10088.21
542.494	10107.87
542.858	10202.56
543.223	10231.26
543.587	10245.27
543.952	10262.44
544.316	10265.38
544.681	10396.9
545.045	10386.51
545.41	10438.93
545.774	10499.27
546.138	10455.21
546.503	10516.22
546.867	10496.79
547.231	10580.85
547.595	10669.44
547.959	10652.71
548.324	10679.38
548.688	10750.34
549.052	10785.82
549.416	10851.58
549.779	10829.88
550.143	10890.67
550.507	10912.37
550.871	10961.63
551.235	10988.52
551.599	11090.89
551.962	11080.27
552.326	11087.96
552.689	11179.71
553.053	11206.82
553.417	11256.77
553.78	11313.49
554.143	11275.75
554.507	11414.05
554.87	11495.18
555.234	11597.55
555.597	11484.1
555.96	11479.13
556.323	11517.55
556.686	11593.48
557.05	11736.98
557.413	11729.52
557.776	11665.79
558.139	11857.43
558.502	11842.29
558.865	11923.19
559.228	12034.82
559.59	12047.71
559.953	12090.87
560.316	12284.08
560.679	12238.21
561.041	12319.34
561.404	12301.03
561.767	12415.15
562.129	12347.58
562.492	12522.72
562.854	12513.68
563.217	12569.73
563.579	12606.79
563.941	12694.24
564.304	12721.59
564.666	12801.58
565.028	12827.12
565.39	12837.74
565.753	12935.82
566.115	12989.83
566.477	13003.84
566.839	13054.91
567.201	13229.82
567.563	13253.32
567.925	13330.84
568.287	13270.95
568.648	13321.57
569.01	13462.58
569.372	13514.11
569.734	13430.95
570.095	13540.32
570.457	13587.78
570.819	13522.02
571.18	13659.19
571.542	13739.41
571.903	13709.36
572.265	13752.52
572.626	13782.35
572.987	13784.61
573.349	13897.6
573.71	13923.81
574.071	13964.04
574.432	13972.85
574.794	13974.66
575.155	14136.24
575.516	13962.23
575.877	14110.25
576.238	14185.05
576.599	14189.12
576.96	14272.05
577.32	14225.28
577.681	14265.95
578.042	14324.71
578.403	14374.88
578.763	14296.91
579.124	14369.45
579.485	14470.02
579.845	14423.91
580.206	14458.72
580.566	14416.46
580.927	14492.16
581.287	14531.26
581.648	14420.07
582.008	14521.77
582.368	14610.12
582.728	14602.44
583.089	14578.71
583.449	14607.41
583.809	14596.79
584.169	14613.06
584.529	14600.41
584.889	14730.57
585.249	14652.84
585.609	14670.91
585.969	14709.56
586.329	14623.01
586.688	14729.9
587.048	14625.27
587.408	14589.33
587.768	14651.93
588.127	14630.91
588.487	14627.75
588.846	14702.55
589.206	14685.15
589.565	14560.63
589.925	14696
590.284	14584.81
590.643	14593.4
591.003	14699.84
591.362	14675.89
591.721	14758.37
592.08	14765.83
592.44	14751.14
592.799	14764.02
593.158	14721.08
593.517	14737.35
593.876	14752.95
594.235	14786.62
594.593	14739.39
594.952	14829.78
595.311	14781.87
595.67	14790.01
596.029	14950
596.387	14887.86
596.746	14893.73
597.104	14769.44
597.463	14861.42
597.822	14799.95
598.18	14804.7
598.538	14860.06
598.897	14941.42
599.255	14742.55
599.613	15060.96
599.972	14962.88
600.33	14893.05
600.688	14907.07
601.046	14924.92
601.404	15045.82
601.762	15067.97
602.12	14968.31
602.478	14948.65
602.836	15006.27
603.194	15000.62
603.552	15092.6
603.91	14977.35
604.268	15025.48
604.625	15002.88
604.983	15019.15
605.341	14988.87
605.698	15072.49
606.056	15211.01
606.413	15163.1
606.771	15177.12
607.128	15194.97
607.485	15202.65
607.843	15216.21
608.2	15190.67
608.557	15248.75
608.914	15117.91
609.272	15389.09
609.629	15295.53
609.986	15293.72
610.343	15217.34
610.7	15420.5
611.057	15368.52
611.414	15462.53
611.771	15375.98
612.127	15421.18
612.484	15422.76
612.841	15498.24
613.198	15457.79
613.554	15474.06
613.911	15600.38
614.267	15630.66
614.624	15549.31
614.98	15484.68
615.337	15530.33
615.693	15603.54
616.05	15470.21
616.406	15585.69
616.762	15587.27
617.118	15636.31
617.475	15641.96
617.831	15620.49
618.187	15674.73
618.543	15586.82
618.899	15711.11
619.255	15746.37
619.611	15690.32
619.967	15729.64
620.323	15765.12
620.678	15694.39
621.034	15701.85
621.39	15683.09
621.746	15672.02
622.101	15917.66
622.457	15741.85
622.812	15736.65
623.168	15788.17
623.523	15662.07
623.879	15787.72
624.234	15715.63
624.589	15789.53
624.945	15781.17
625.3	15806.03
625.655	15871.11
626.01	15811.22
626.365	15742.07
626.72	15751.79
627.075	15757.21
627.43	15747.95
627.785	15714.05
628.14	15701.62
628.495	15742.07
628.85	15698.46
629.205	15693.03
629.559	15732.35
629.914	15614.84
630.269	15665.24
630.623	15605.13
630.978	15638.8
631.332	15617.56
631.687	15638.12
632.041	15622.53
632.396	15679.25
632.75	15619.36
633.104	15620.49
633.459	15576.43
633.813	15551.12
634.167	15487.84
634.521	15422.08
634.875	15400.61
635.229	15540.5
635.583	15417.79
635.937	15328.07
636.291	15441.51
636.645	15340.05
636.999	15314.96
637.352	15444.45
637.706	15229.54
638.06	15395.64
638.413	15305.25
638.767	15336.21
639.121	15243.78
639.474	15245.36
639.828	15161.75
640.181	15174.63
640.534	15286.26
640.888	15188.19
641.241	15083.78
641.594	15118.36
641.947	15170.56
642.301	15113.61
642.654	15117.91
643.007	15088.3
643.36	15015.99
643.713	15081.52
644.066	15084.46
644.419	14999.94
644.771	14965.14
645.124	14970.79
645.477	14960.85
645.83	14720.86
646.182	14623.91
646.535	14488.77
646.888	14475.21
647.24	14415.33
647.593	14490.58
647.945	14416.01
648.298	14322.67
648.65	14227.76
649.002	14254.65
649.355	14311.83
649.707	14363.58
650.059	14416.01
650.411	14550.69
650.763	14613.97
651.115	14759.95
651.467	14715.43
651.819	14625.04
652.171	14732.61
652.523	14574.42
652.875	14591.14
653.227	14562.22
653.578	14720.4
653.93	14606.06
654.282	14591.59
654.633	14454.65
654.985	14409
655.337	14515.44
655.688	14519.05
656.039	14512.73
656.391	14418.94
656.742	14472.05
657.094	14484.7
657.445	14531.03
657.796	14534.87
658.147	14427.08
658.498	14406.51
658.849	14458.94
659.2	14450.58
659.551	14352.05
659.902	14464.59
660.253	14357.25
660.604	14395.21
660.955	14308.89
661.306	14348.66
661.656	14366.29
662.007	14345.5
662.358	14288.55
662.708	14309.79
663.059	14324.03
663.409	14211.49
663.76	14289.23
664.11	14218.72
664.461	14266.86
664.811	14244.71
665.161	14313.41
665.511	14178.72
665.862	14234.09
666.212	14176.24
666.562	14278.16
666.912	14212.62
667.262	14189.8
667.612	14173.98
667.962	14263.01
668.312	14169.91
668.662	14304.6
669.011	14287.19
669.361	14222.11
669.711	14185.95
670.06	14201.32
670.41	14155.22
670.76	14122
671.109	14183.47
671.459	14154.09
671.808	14076.58
672.157	14249
672.507	14083.58
672.856	14004.49
673.205	14054.88
673.554	14051.95
673.904	14033.42
674.253	14135.79
674.602	14046.52
674.951	13879.07
675.3	13745.06
675.649	14001.78
675.998	13987.99
676.346	13987.54
676.695	14034.77
677.044	14009.01
677.393	13996.36
677.741	14041.78
678.09	14003.81
678.438	13796.59
678.787	13911.84
679.135	13986.86
679.484	13945.74
679.832	13879.52
680.181	13806.3
680.529	13855.79
680.877	13701.22
681.225	13804.95
681.573	13903.48
681.922	13735.35
682.27	13701
682.618	13683.6
682.966	13712.97
683.314	13642.24
683.661	13650.38
684.009	13588.68
684.357	13496.26
684.705	13502.36
685.053	13599.53
685.4	13559.76
685.748	13481.57
686.095	13527.44
686.443	13405.18
686.79	13443.6
687.138	13461.91
687.485	13468.46
687.832	13332.87
688.18	13363.83
688.527	13299.42
688.874	13245.87
689.221	13282.7
689.568	13204.96
689.915	13161.35
690.262	13187.79
690.609	13192.76
690.956	13141.01
691.303	13040.45
691.65	13048.36
691.997	12960.68
692.344	12881.81
692.69	12968.81
693.037	12883.16
693.383	12789.83
693.73	12878.64
694.077	12789.83
694.423	12766.78
694.769	12647.01
695.116	12630.29
695.462	12703.06
695.808	12598.2
696.155	12566.56
696.501	12615.6
696.847	12597.07
697.193	12460.8
697.539	12543.96
697.885	12476.17
698.231	12453.57
698.577	12411.54
698.923	12369.96
699.269	12264.42
699.614	12239.34
699.96	12309.39
700.306	12280.47
700.651	12194.82
700.997	12120.7
701.342	12173.13
701.688	12181.71
702.033	12079.34
702.379	12077.31
702.724	12026.92
703.069	12018.78
703.415	11943.75
703.76	11875.96
704.105	11947.6
704.45	11971.1
704.795	11840.25
705.14	11761.84
705.485	11782.18
705.83	11774.72
706.175	11722.29
706.52	11682.52
706.865	11679.13
707.209	11651.78
707.554	11621.05
707.899	11609.53
708.243	11453.15
708.588	11501.51
708.932	11433.26
709.277	11466.03
709.621	11462.18
709.966	11356.2
710.31	11351.45
710.654	11323.21
710.998	11354.62
711.342	11321.4
711.687	11319.36
712.031	11275.07
712.375	11202.98
712.719	11193.49
713.063	11115.75
713.407	11301.51
713.75	11138.58
714.094	11169.76
714.438	11098.35
714.782	11128.41
715.125	11108.97
715.469	11126.15
715.812	11003.89
716.156	10960.95
716.499	10962.08
716.843	10993.5
717.186	10959.82
717.53	11030.11
717.873	10980.84
718.216	10877.34
718.559	10873.27
718.902	10827.17
719.246	10813.16
719.589	10809.32
719.932	10708.98
720.275	10755.76
720.617	10686.61
720.96	10648.42
721.303	10664.47
721.646	10707.4
721.989	10631.47
722.331	10622.88
722.674	10645.93
723.016	10662.66
723.359	10595.31
723.701	10501.31
724.044	10519.16
724.386	10470.8
724.729	10419.95
725.071	10533.4
725.413	10481.65
725.755	10444.36
726.097	10445.49
726.439	10401.65
726.782	10401.65
727.124	10495.88
727.465	10368.88
727.807	10357.35
728.149	10392.83
728.491	10267.41
728.833	10415.66
729.175	10314.87
729.516	10272.16
729.858	10217.7
730.199	10236.68
730.541	10247.08
730.882	10180.64
731.224	10316.68
731.565	10150.13
731.906	10167.76
732.248	10145.83
732.589	10160.52
732.93	10103.8
733.271	10122.33
733.612	10075.55
733.953	10090.24
734.294	10073.75
734.635	10077.36
734.976	10043.01
735.317	9974.54
735.658	9944.71
735.999	10016.35
736.339	10004.37
736.68	10012.73
737.021	9919.63
737.361	9927.99
737.702	9920.3
738.042	9901.1
738.383	9810.48
738.723	9933.41
739.063	9875.33
739.404	9863.58
739.744	9810.02
740.084	9795.56
740.424	9770.48
740.764	9770.25
741.104	9755.79
741.444	9750.37
741.784	9742.91
742.124	9739.07
742.464	9738.84
742.804	9672.85
743.143	9708.56
743.483	9633.31
743.823	9590.82
744.162	9644.38
744.502	9615.68
744.841	9562.35
745.181	9552.18
745.52	9513.99
745.86	9546.08
746.199	9548.34
746.538	9506.76
746.877	9561.22
747.216	9540.65
747.556	9516.92
747.895	9534.33
748.234	9456.14
748.573	9422.24
748.911	9444.16
749.25	9422.46
749.589	9372.52
749.928	9440.09
750.267	9440.77
750.605	9361
750.944	9371.84
751.283	9276.03
751.621	9337.72
751.96	9259.53
752.298	9324.61
752.636	9271.73
752.975	9263.15
753.313	9206.2
753.651	9280.55
753.989	9181.34
754.327	9102.02
754.666	9140.66
755.004	9170.72
755.342	9099.76
755.679	9115.35
756.017	9065.41
756.355	9186.99
756.693	8979.09
757.031	9047.56
757.368	8983.83
757.706	8976.37
758.044	8917.62
758.381	8936.83
758.719	8899.09
