Data from foam1_polythene_foam_FLMS001491_00062.txt Node
Date: Wed Feb 08 10:55:13 GMT 2017
User: dcchb
Spectrometer: FLMS00149
Trigger mode: 0
Integration Time (sec): 2.000000E-2
Scans to average: 10
Electric dark correction enabled: true
Nonlinearity correction enabled: false
Boxcar width: 0
XAxis mode: Wavelengths
Number of Pixels in Spectrum: 2048
>>>>>Begin Spectral Data<<<<<
341.393	-9.07
341.776	-9.07
342.16	-9.07
342.543	-39.12
342.927	-70.76
343.31	-72.34
343.693	-42.74
344.077	-66.47
344.46	-46.13
344.843	-43.42
345.226	-61.72
345.61	-31.21
345.993	-12.01
346.376	-12.23
346.759	5.17
347.142	18.95
347.525	30.48
347.908	63.92
348.291	82.46
348.674	92.62
349.057	94.66
349.44	120.87
349.823	119.06
350.206	161.32
350.588	160.65
350.971	198.61
351.354	190.48
351.737	221.43
352.119	215.56
352.502	247.42
352.884	258.04
353.267	266.86
353.65	264.6
354.032	305.95
354.414	268.67
354.797	277.7
355.179	311.6
355.562	303.92
355.944	303.92
356.326	317.25
356.709	323.35
357.091	330.13
357.473	325.39
357.855	313.64
358.238	314.77
358.62	324.26
359.002	299.17
359.384	329
359.766	329.68
360.148	316.57
360.53	302.11
360.912	310.47
361.294	340.75
361.676	327.42
362.057	345.73
362.439	311.38
362.821	318.61
363.203	302.79
363.584	317.03
363.966	321.32
364.348	298.27
364.729	313.41
365.111	299.62
365.493	310.02
365.874	322.68
366.256	289.91
366.637	287.42
367.019	293.52
367.4	297.82
367.781	303.01
368.163	323.13
368.544	293.07
368.925	284.03
369.306	283.58
369.688	291.26
370.069	282.9
370.45	282
370.831	288.33
371.212	293.52
371.593	304.14
371.974	284.48
372.355	276.57
372.736	277.93
373.117	283.35
373.498	292.85
373.879	262.56
374.26	311.6
374.641	290.36
375.021	295.11
375.402	281.77
375.783	301.66
376.163	299.4
376.544	296.24
376.925	289
377.305	290.59
377.686	294.88
378.066	300.53
378.447	311.15
378.827	289.46
379.208	301.21
379.588	298.95
379.968	304.14
380.349	312.51
380.729	292.17
381.109	311.83
381.489	307.53
381.87	316.35
382.25	311.83
382.63	311.6
383.01	300.3
383.39	313.64
383.77	292.85
384.15	309.12
384.53	315.67
384.91	297.37
385.29	296.46
385.67	304.37
386.049	314.54
386.429	323.35
386.809	340.98
387.189	309.12
387.568	309.34
387.948	305.5
388.328	306.63
388.707	347.53
389.087	323.13
389.466	324.48
389.846	333.97
390.225	327.42
390.605	320.87
390.984	311.83
391.363	327.42
391.743	323.58
392.122	317.48
392.501	311.15
392.881	341.43
393.26	329.45
393.639	307.31
394.018	336.23
394.397	294.2
394.776	336.91
395.155	322.22
395.534	341.66
395.913	330.36
396.292	345.05
396.671	328.32
397.05	345.05
397.429	336.23
397.808	345.5
398.186	332.62
398.565	332.84
398.944	341.66
399.323	362.45
399.701	334.43
400.08	347.53
400.458	365.39
400.837	338.95
401.215	344.14
401.594	350.02
401.972	364.93
402.351	367.19
402.729	339.4
403.107	342.34
403.486	352.96
403.864	353.41
404.242	354.99
404.62	359.06
404.999	365.39
405.377	373.97
405.755	341.88
406.133	353.41
406.511	350.92
406.889	370.81
407.267	355.89
407.645	351.6
408.023	360.87
408.401	380.07
408.779	367.65
409.156	367.42
409.534	382.11
409.912	354.76
410.29	370.81
410.667	366.97
411.045	384.37
411.422	385.05
411.8	384.82
412.178	391.83
412.555	394.99
412.933	376.69
413.31	375.78
413.687	383.24
414.065	369.68
414.442	389.79
414.819	392.73
415.197	393.63
415.574	402
415.951	402.45
416.328	359.28
416.705	400.19
417.082	402.45
417.46	394.31
417.837	399.74
418.214	422.33
418.591	413.29
418.967	407.87
419.344	399.28
419.721	407.42
420.098	399.28
420.475	419.62
420.852	404.03
421.228	415.33
421.605	403.8
421.982	409
422.358	418.27
422.735	424.82
423.111	424.37
423.488	413.07
423.864	426.63
424.241	443.58
424.617	413.07
424.994	414.88
425.37	423.92
425.746	423.24
426.123	455.55
426.499	448.32
426.875	417.14
427.251	446.51
427.627	434.31
428.003	457.36
428.379	471.37
428.756	465.5
429.132	431.82
429.507	464.37
429.883	457.36
430.259	483.12
430.635	453.07
431.011	476.12
431.387	458.72
431.763	467.53
432.138	469.11
432.514	459.85
432.89	475.89
433.265	474.08
433.641	489.68
434.016	500.98
434.392	501.2
434.767	492.61
435.143	501.43
435.518	512.95
435.894	507.53
436.269	509.34
436.644	494.42
437.02	516.12
437.395	513.18
437.77	516.79
438.145	512.05
438.52	532.16
438.895	523.8
439.271	538.49
439.646	517.47
440.021	537.81
440.395	552.05
440.77	544.36
441.145	550.69
441.52	550.47
441.895	564.48
442.27	562.44
442.645	563.12
443.019	581.43
443.394	565.83
443.769	589.79
444.143	581.65
444.518	566.06
444.892	594.31
445.267	590.24
445.641	617.58
446.016	598.6
446.39	602.44
446.764	605.61
447.139	608.54
447.513	628.43
447.887	627.98
448.262	637.7
448.636	629.11
449.01	635.21
449.384	642.44
449.758	651.93
450.132	634.76
450.506	644.02
450.88	652.16
451.254	670.01
451.628	656.9
452.002	654.87
452.376	673.63
452.75	645.6
453.123	650.8
453.497	677.02
453.871	670.24
454.244	677.69
454.618	683.8
454.992	672.27
455.365	672.5
455.739	684.02
456.112	694.87
456.486	681.31
456.859	698.48
457.232	710.91
457.606	706.62
457.979	697.58
458.352	685.15
458.725	717.02
459.099	695.32
459.472	703.68
459.845	722.89
460.218	736.22
460.591	719.5
460.964	723.12
461.337	733.51
461.71	755.43
462.083	731.93
462.456	712.5
462.829	761.08
463.201	733.74
463.574	754.08
463.947	756.79
464.32	741.65
464.692	772.15
465.065	754.75
465.438	754.98
465.81	781.42
466.183	765.15
466.555	779.16
466.928	790.46
467.3	791.82
467.672	788.65
468.045	790.46
468.417	797.46
468.789	799.5
469.161	806.5
469.534	821.19
469.906	834.98
470.278	821.42
470.65	834.98
471.022	840.85
471.394	836.11
471.766	855.54
472.138	863.9
472.51	833.62
472.882	860.06
473.253	875.2
473.625	886.95
473.997	900.51
474.369	935.09
474.74	904.13
475.112	910.23
475.484	908.42
475.855	937.8
476.227	943.68
476.598	936.22
476.97	959.04
477.341	958.36
477.713	966.5
478.084	972.83
478.455	1009.21
478.827	995.43
479.198	1033.16
479.569	1030.23
479.94	1042.43
480.311	1067.06
480.682	1050.11
481.053	1067.97
481.424	1098.25
481.795	1105.93
482.166	1129.21
482.537	1119.72
482.908	1133.95
483.279	1138.7
483.65	1168.3
484.021	1174.86
484.391	1179.15
484.762	1173.5
485.133	1160.17
485.503	1204.69
485.874	1241.52
486.244	1240.84
486.615	1258.92
486.985	1273.16
487.356	1292.82
487.726	1306.83
488.097	1308.86
488.467	1311.12
488.837	1340.5
489.207	1359.71
489.578	1377.56
489.948	1392.7
490.318	1381.4
490.688	1402.65
491.058	1424.12
491.428	1428.18
491.798	1433.38
492.168	1443.32
492.538	1472.7
492.908	1467.73
493.278	1484.9
493.648	1506.15
494.017	1512.47
494.387	1545.47
494.757	1507.73
495.126	1551.57
495.496	1568.74
495.866	1562.42
496.235	1572.81
496.605	1572.13
496.974	1620.49
497.344	1616.43
497.713	1576.43
498.082	1640.38
498.452	1642.87
498.821	1642.64
499.19	1643.54
499.559	1652.13
499.928	1701.62
500.298	1707.72
500.667	1716.76
501.036	1702.53
501.405	1702.07
501.774	1715.63
502.143	1762.64
502.512	1773.48
502.88	1736.2
503.249	1753.37
503.618	1790.89
503.987	1780.26
504.356	1823.65
504.724	1788.63
505.093	1836.53
505.462	1807.16
505.83	1841.51
506.199	1856.65
506.567	1854.61
506.936	1847.38
507.304	1858
507.672	1902.52
508.041	1870.88
508.409	1890.09
508.777	1973.25
509.145	1937.55
509.514	1956.76
509.882	1953.14
510.25	1967.83
510.618	1966.93
510.986	1969.86
511.354	1988.39
511.722	1996.08
512.09	2039.47
512.458	2026.36
512.826	2038.79
513.193	2073.82
513.561	2052.57
513.929	2094.83
514.297	2081.5
514.664	2113.81
515.032	2145.9
515.4	2122.4
515.767	2133.25
516.135	2153.59
516.502	2127.83
516.869	2170.08
517.237	2169.63
517.604	2203.53
517.972	2218.44
518.339	2242.62
518.706	2257.31
519.073	2228.61
519.44	2247.37
519.808	2288.05
520.175	2268.84
520.542	2309.52
520.909	2342.28
521.276	2294.15
521.643	2345.22
522.009	2363.3
522.376	2375.5
522.743	2392.9
523.11	2402.62
523.477	2415.95
523.843	2450.98
524.21	2466.35
524.577	2469.06
524.943	2500.92
525.31	2511.32
525.676	2519.45
526.043	2521.04
526.409	2558.32
526.776	2583.41
527.142	2561.49
527.508	2593.58
527.874	2601.49
528.241	2624.08
528.607	2623.86
528.973	2645.33
529.339	2651.65
529.705	2675.16
530.071	2691.2
530.437	2704.99
530.803	2729.17
531.169	2709.51
531.535	2707.92
531.901	2754.02
532.267	2741.14
532.632	2776.62
532.998	2777.98
533.364	2791.08
533.73	2825.43
534.095	2829.95
534.461	2826.11
534.826	2821.82
535.192	2851.2
535.557	2866.79
535.923	2852.33
536.288	2866.11
536.653	2895.26
537.019	2905.66
537.384	2898.88
537.749	2893.23
538.114	2935.26
538.479	2889.84
538.845	2981.81
539.21	2931.65
539.575	2965.54
539.94	2971.19
540.305	2982.04
540.67	2973.45
541.034	2957.63
541.399	3015.71
541.764	3044.41
542.129	3005.09
542.494	3015.26
542.858	3038.08
543.223	3049.84
543.587	3063.39
543.952	3039.21
544.316	3089.61
544.681	3088.25
545.045	3083.73
545.41	3093
545.774	3090.74
546.138	3147.23
546.503	3120.79
546.867	3138.87
547.231	3133.9
547.595	3143.62
547.959	3149.95
548.324	3182.03
548.688	3191.53
549.052	3160.57
549.416	3186.55
549.779	3208.47
550.143	3224.75
550.507	3211.64
550.871	3255.48
551.235	3203.05
551.599	3230.4
551.962	3281.92
552.326	3294.8
552.689	3288.02
553.053	3280.56
553.417	3302.26
553.78	3338.42
554.143	3333.9
554.507	3357.4
554.87	3358.75
555.234	3388.13
555.597	3350.17
555.96	3369.15
556.323	3378.19
556.686	3376.15
557.05	3455.47
557.413	3458.41
557.776	3439.2
558.139	3526.21
558.502	3465.87
558.865	3487.34
559.228	3519.43
559.59	3555.81
559.953	3511.97
560.316	3548.35
560.679	3563.04
561.041	3595.81
561.404	3563.49
561.767	3609.14
562.129	3642.36
562.492	3581.8
562.854	3635.58
563.217	3648.24
563.579	3681.68
563.941	3685.75
564.304	3725.52
564.666	3685.98
565.028	3701.57
565.39	3745.64
565.753	3760.1
566.115	3759.19
566.477	3780.44
566.839	3780.89
567.201	3843.94
567.563	3832.64
567.925	3835.58
568.287	3849.36
568.648	3898.17
569.01	3837.84
569.372	3895.24
569.734	3885.97
570.095	3925.29
570.457	3944.95
570.819	3929.13
571.18	3936.59
571.542	3961
571.903	3982.24
572.265	3993.54
572.626	3992.86
572.987	3984.95
573.349	4033.99
573.71	4012.52
574.071	4039.41
574.432	4068.57
574.794	4085.29
575.155	4048.45
575.516	4105.4
575.877	4071.73
576.238	4139.98
576.599	4088.45
576.96	4138.17
577.32	4122.58
577.681	4132.29
578.042	4094.1
578.403	4155.79
578.763	4142.91
579.124	4100.2
579.485	4156.47
579.845	4145.17
580.206	4141.78
580.566	4131.61
580.927	4160.31
581.287	4156.47
581.648	4163.25
582.008	4186.3
582.368	4149.24
582.728	4135.46
583.089	4185.17
583.449	4148.79
583.809	4159.86
584.169	4193.08
584.529	4124.38
584.889	4179.3
585.249	4172.74
585.609	4139.98
585.969	4215.23
586.329	4170.03
586.688	4172.29
587.048	4171.84
587.408	4183.14
587.768	4213.65
588.127	4153.08
588.487	4168
588.846	4212.06
589.206	4161.9
589.565	4207.77
589.925	4206.64
590.284	4148.56
590.643	4195.34
591.003	4210.71
591.362	4195.12
591.721	4157.15
592.08	4151.5
592.44	4180.65
592.799	4165.74
593.158	4177.04
593.517	4175.46
593.876	4172.29
594.235	4150.37
594.593	4214.32
594.952	4237.15
595.311	4139.52
595.67	4194.44
596.029	4224.27
596.387	4229.24
596.746	4246.87
597.104	4186.75
597.463	4195.12
597.822	4181.1
598.18	4202.12
598.538	4186.75
598.897	4222.23
599.255	4196.47
599.613	4226.98
599.972	4191.05
600.33	4227.21
600.688	4207.77
601.046	4181.78
601.404	4219.75
601.762	4209.8
602.12	4225.85
602.478	4178.39
602.836	4231.05
603.194	4231.27
603.552	4212.74
603.91	4214.78
604.268	4245.51
604.625	4194.66
604.983	4172.52
605.341	4212.97
605.698	4206.19
606.056	4205.51
606.413	4255
606.771	4266.98
607.128	4266.3
607.485	4214.55
607.843	4193.76
608.2	4213.19
608.557	4237.83
608.914	4270.37
609.272	4239.63
609.629	4319.18
609.986	4263.59
610.343	4260.42
610.7	4312.63
611.057	4241.22
611.414	4251.16
611.771	4257.03
612.127	4313.3
612.484	4282.35
612.841	4274.44
613.198	4243.93
613.554	4278.5
613.911	4263.36
614.267	4272.4
614.624	4250.93
614.98	4323.25
615.337	4252.29
615.693	4315.34
616.05	4264.94
616.406	4297.94
616.762	4274.89
617.118	4228.34
617.475	4246.19
617.831	4294.1
618.187	4279.63
618.543	4292.97
618.899	4272.18
619.255	4311.95
619.611	4289.12
619.967	4318.28
620.323	4310.82
620.678	4249.13
621.034	4303.81
621.39	4238.73
621.746	4273.08
622.101	4316.69
622.457	4210.48
622.812	4273.98
623.168	4230.59
623.523	4258.62
623.879	4260.65
624.234	4241.22
624.589	4293.42
624.945	4239.41
625.3	4236.92
625.655	4248.67
626.01	4248.22
626.365	4250.93
626.72	4198.96
627.075	4215.23
627.43	4229.24
627.785	4240.76
628.14	4249.13
628.495	4218.39
628.85	4268.79
629.205	4231.05
629.559	4263.36
629.914	4188.56
630.269	4176.36
630.623	4225.85
630.978	4191.73
631.332	4183.14
631.687	4219.3
632.041	4196.25
632.396	4174.78
632.75	4158.96
633.104	4169.58
633.459	4130.48
633.813	4159.64
634.167	4136.36
634.521	4166.64
634.875	4126.87
635.229	4113.76
635.583	4077.83
635.937	4128.68
636.291	4118.73
636.645	4090.26
636.999	4039.64
637.352	4051.16
637.706	4068.79
638.06	4058.62
638.413	4060.43
638.767	4060.43
639.121	4065.85
639.474	4001.45
639.828	4016.14
640.181	4010.94
640.534	4039.87
640.888	4009.36
641.241	4038.74
641.594	3988.34
641.947	4055.68
642.301	3951.96
642.654	3966.2
643.007	3967.33
643.36	3950.83
643.713	3982.24
644.066	3990.83
644.419	3929.13
644.771	3911.73
645.124	3874.45
645.477	3854.56
645.83	3810.04
646.182	3833.32
646.535	3864.05
646.888	3839.87
647.24	3810.27
647.593	3841.23
647.945	3820.21
648.298	3797.84
648.65	3846.2
649.002	3780.89
649.355	3744.51
649.707	3761
650.059	3765.75
650.411	3802.36
650.763	3793.54
651.115	3837.38
651.467	3831.06
651.819	3843.03
652.171	3846.65
652.523	3801.45
652.875	3818.4
653.227	3762.13
653.578	3788.8
653.93	3800.55
654.282	3807.78
654.633	3788.35
654.985	3789.25
655.337	3764.17
655.688	3774.11
656.039	3790.83
656.391	3749.03
656.742	3744.51
657.094	3761.23
657.445	3752.42
657.796	3731.17
658.147	3770.72
658.498	3765.75
658.849	3721.68
659.2	3757.39
659.551	3739.76
659.902	3735.69
660.253	3749.25
660.604	3753.32
660.955	3728.69
661.306	3678.97
661.656	3742.47
662.007	3699.76
662.358	3710.16
662.708	3681.68
663.059	3673.32
663.409	3655.69
663.76	3697.28
664.11	3682.81
664.461	3687.33
664.811	3699.99
665.161	3702.7
665.511	3675.58
665.862	3661.34
666.212	3685.07
666.562	3662.7
666.912	3679.65
667.262	3609.59
667.612	3642.81
667.962	3654.56
668.312	3627.45
668.662	3662.47
669.011	3639.88
669.361	3638.75
669.711	3612.98
670.06	3645.07
670.41	3638.52
670.76	3619.09
671.109	3600.56
671.459	3570.27
671.808	3598.97
672.157	3592.65
672.507	3585.87
672.856	3632.42
673.205	3622.02
673.554	3582.02
673.904	3601.68
674.253	3593.78
674.602	3608.69
674.951	3580.89
675.3	3559.65
675.649	3572.53
675.998	3525.98
676.346	3554.91
676.695	3587
677.044	3542.03
677.393	3543.61
677.741	3559.43
678.09	3559.88
678.438	3542.25
678.787	3519.65
679.135	3532.53
679.484	3529.6
679.832	3536.83
680.181	3486.21
680.529	3520.78
680.877	3477.85
681.225	3461.8
681.573	3468.81
681.922	3480.33
682.27	3438.07
682.618	3479.2
682.966	3455.47
683.314	3438.53
683.661	3431.52
684.009	3468.58
684.357	3378.87
684.705	3428.81
685.053	3433.55
685.4	3423.61
685.748	3389.94
686.095	3415.93
686.443	3386.1
686.79	3394.46
687.138	3325.53
687.485	3372.99
687.832	3342.93
688.18	3332.09
688.527	3346.1
688.874	3380.67
689.221	3318.75
689.568	3318.08
689.915	3312.65
690.262	3318.75
690.609	3320.11
690.956	3280.79
691.303	3292.77
691.65	3292.99
691.997	3274.46
692.344	3271.3
692.69	3267.91
693.037	3282.6
693.383	3240.56
693.73	3211.19
694.077	3224.75
694.423	3214.8
694.769	3200.34
695.116	3194.46
695.462	3202.15
695.808	3201.47
696.155	3227.23
696.501	3177.97
696.847	3149.49
697.193	3162.37
697.539	3161.24
697.885	3129.38
698.231	3132.32
698.577	3127.35
698.923	3108.36
699.269	3133.45
699.614	3113.11
699.96	3052.77
700.306	3135.48
700.651	3061.13
700.997	3054.81
701.342	3049.16
701.688	3074.24
702.033	3024.07
702.379	3010.06
702.724	3030.4
703.069	3046.22
703.415	3011.19
703.76	2975.94
704.105	3004.86
704.45	2993.34
704.795	2984.98
705.14	2967.58
705.485	2933.45
705.83	2988.14
706.175	2952.66
706.52	2967.35
706.865	2957.86
707.209	2934.36
707.554	2885.77
707.899	2961.48
708.243	2912.44
708.588	2920.8
708.932	2866.34
709.277	2876.28
709.621	2913.79
709.966	2867.92
710.31	2876.73
710.654	2825.66
710.998	2856.17
711.342	2859.78
711.687	2806.9
712.031	2859.33
712.375	2833.8
712.719	2818.2
713.063	2820.01
713.407	2837.86
713.75	2786.34
714.094	2798.54
714.438	2786.79
714.782	2829.95
715.125	2788.82
715.469	2813.46
715.812	2780.69
716.156	2775.27
716.499	2789.73
716.843	2788.6
717.186	2735.04
717.53	2759
717.873	2772.78
718.216	2752.44
718.559	2785.89
718.902	2729.17
719.246	2735.95
719.589	2732.56
719.932	2704.31
720.275	2695.95
720.617	2704.99
720.96	2716.74
721.303	2695.27
721.646	2685.78
721.989	2697.3
722.331	2671.77
722.674	2677.19
723.016	2697.3
723.359	2678.32
723.701	2663.4
724.044	2658.66
724.386	2655.04
724.729	2647.13
725.071	2653.91
725.413	2686
725.755	2660.01
726.097	2629.28
726.439	2631.54
726.782	2596.29
727.124	2642.16
727.465	2614.14
727.807	2602.16
728.149	2588.38
728.491	2613.91
728.833	2608.94
729.175	2631.09
729.516	2584.76
729.858	2583.41
730.199	2608.26
730.541	2570.75
730.882	2576.4
731.224	2567.36
731.565	2558.77
731.906	2583.63
732.248	2574.82
732.589	2566.91
732.93	2528.04
733.271	2544.76
733.612	2560.13
733.953	2545.67
734.294	2563.97
734.635	2546.12
734.976	2534.82
735.317	2541.83
735.658	2536.4
735.999	2545.22
736.339	2524.65
736.68	2509.06
737.021	2513.13
737.361	2511.77
737.702	2514.48
738.042	2491.21
738.383	2513.13
738.723	2490.98
739.063	2512.22
739.404	2520.58
739.744	2512.67
740.084	2455.95
740.424	2496.18
740.764	2473.35
741.104	2488.95
741.444	2482.62
741.784	2455.27
742.124	2455.95
742.464	2502.05
742.804	2460.92
743.143	2454.82
743.483	2410.3
743.823	2438.78
744.162	2425.9
744.502	2421.15
744.841	2457.53
745.181	2431.09
745.52	2403.75
745.86	2412.11
746.199	2430.64
746.538	2439.91
746.877	2419.57
747.216	2405.33
747.556	2406.46
747.895	2394.94
748.234	2407.59
748.573	2397.65
748.911	2406.24
749.25	2372.34
749.589	2368.72
749.928	2383.19
750.267	2389.29
750.605	2373.02
750.944	2375.05
751.283	2349.29
751.621	2350.19
751.96	2380.47
752.298	2340.93
752.636	2354.03
752.975	2330.98
753.313	2314.26
753.651	2350.19
753.989	2313.13
754.327	2324.66
754.666	2318.1
755.004	2309.06
755.342	2325.11
755.679	2309.52
756.017	2310.19
756.355	2266.13
756.693	2304.54
757.031	2299.12
757.368	2264.32
757.706	2256.41
758.044	2285.79
758.381	2281.95
758.719	2243.75
759.056	2249.18
759.394	2262.06
759.731	2235.17
760.068	2230.2
760.405	2244.66
760.743	2213.25
761.08	2240.59
761.417	2228.39
761.754	2203.76
762.091	2206.02
762.428	2161.72
762.765	2192.91
763.102	2166.24
763.438	2169.18
763.775	2160.59
764.112	2163.08
764.449	2161.95
764.785	2189.74
765.122	2137.09
765.458	2136.19
765.795	2131.44
766.131	2131.89
766.467	2107.49
766.804	2095.74
767.14	2109.29
767.476	2102.06
767.812	2101.84
768.148	2113.59
768.485	2059.58
768.821	2087.15
769.157	2069.52
769.492	2073.82
769.828	2085.11
770.164	2030.2
770.5	2043.76
770.836	2067.04
771.171	2040.37
771.507	2023.42
771.842	2032.01
772.178	2006.92
