Data from foam_black_FLMS001491_00078.txt Node
Date: Wed Feb 08 10:44:37 GMT 2017
User: dcchb
Spectrometer: FLMS00149
Trigger mode: 0
Integration Time (sec): 2.000000E-2
Scans to average: 10
Electric dark correction enabled: true
Nonlinearity correction enabled: false
Boxcar width: 0
XAxis mode: Wavelengths
Number of Pixels in Spectrum: 2048
>>>>>Begin Spectral Data<<<<<
341.393	-19.21
341.776	-19.21
342.16	-19.21
342.543	-58.98
342.927	-68.25
343.31	-61.02
343.693	-66.21
344.077	-47.46
344.46	-65.99
344.843	-61.24
345.226	-40.9
345.61	-40.45
345.993	-9.72
346.376	-15.82
346.759	4.29
347.142	52.88
347.525	21.69
347.908	50.85
348.291	87
348.674	89.04
349.057	103.05
349.44	114.8
349.823	140.56
350.206	180.56
350.588	186.21
350.971	193.89
351.354	223.95
351.737	228.47
352.119	235.02
352.502	258.52
352.884	256.26
353.267	257.17
353.65	259.2
354.032	292.2
354.414	304.17
354.797	300.78
355.179	279.77
355.562	313.44
355.944	318.64
356.326	307.34
356.709	314.34
357.091	337.62
357.473	306.66
357.855	329.26
358.238	337.17
358.62	343.27
359.002	326.77
359.384	317.73
359.766	341.69
360.148	319.77
360.53	338.52
360.912	296.26
361.294	308.92
361.676	312.76
362.057	308.92
362.439	318.86
362.821	310.95
363.203	310.05
363.584	310.27
363.966	322.48
364.348	314.79
364.729	309.6
365.111	316.83
365.493	301.01
365.874	314.79
366.256	313.66
366.637	291.52
367.019	300.11
367.4	291.29
367.781	293.78
368.163	295.36
368.544	288.58
368.925	317.28
369.306	308.92
369.688	307.79
370.069	308.69
370.45	287
370.831	307.79
371.212	285.19
371.593	291.74
371.974	294.68
372.355	305.75
372.736	299.88
373.117	300.33
373.498	298.98
373.879	307.56
374.26	284.51
374.641	295.59
375.021	305.98
375.402	331.06
375.783	321.57
376.163	315.92
376.544	298.52
376.925	299.65
377.305	305.53
377.686	331.29
378.066	321.12
378.447	324.96
378.827	324.29
379.208	303.27
379.588	301.91
379.968	322.93
380.349	309.6
380.729	329.26
381.109	312.76
381.489	307.11
381.87	318.18
382.25	332.19
382.63	335.81
383.01	323.38
383.39	353.66
383.77	318.64
384.15	338.3
384.53	315.92
384.91	317.73
385.29	341.01
385.67	347.11
386.049	338.75
386.429	346.88
386.809	343.95
387.189	333.78
387.568	327.9
387.948	350.27
388.328	340.78
388.707	326.77
389.087	349.14
389.466	345.53
389.846	368.58
390.225	373.55
390.605	358.86
390.984	355.47
391.363	364.96
391.743	361.8
392.122	358.41
392.501	379.65
392.881	355.02
393.26	342.14
393.639	356.6
394.018	366.54
394.397	367.67
394.776	372.87
395.155	372.42
395.534	372.87
395.913	367
396.292	377.39
396.671	373.55
397.05	377.17
397.429	367.67
397.808	368.13
398.186	384.85
398.565	376.94
398.944	378.07
399.323	364.74
399.701	381.01
400.08	375.81
400.458	388.01
400.837	397.05
401.215	395.92
401.594	380.55
401.972	393.66
402.351	390.72
402.729	393.44
403.107	408.12
403.486	407.22
403.864	433.66
404.242	397.73
404.62	400.44
404.999	398.86
405.377	404.28
405.755	405.64
406.133	385.98
406.511	402.7
406.889	415.13
407.267	425.75
407.645	407.45
408.023	440.67
408.401	426.2
408.779	442.7
409.156	441.34
409.534	431.4
409.912	432.31
410.29	455.36
410.667	428.69
411.045	419.65
411.422	464.17
411.8	459.42
412.178	438.86
412.555	463.26
412.933	462.36
413.31	470.95
413.687	458.97
414.065	459.42
414.442	470.72
414.819	474.79
415.197	488.12
415.574	488.57
415.951	499.2
416.328	504.62
416.705	491.74
417.082	499.87
417.46	495.13
417.837	504.17
418.214	495.35
418.591	475.02
418.967	505.3
419.344	514.34
419.721	510.95
420.098	512.98
420.475	510.04
420.852	527.44
421.228	531.74
421.605	498.52
421.982	524.96
422.358	519.08
422.735	506.88
423.111	529.25
423.488	550.72
423.864	528.12
424.241	525.18
424.617	554.34
424.994	545.07
425.37	558.4
425.746	544.62
426.123	566.54
426.499	579.87
426.875	567.44
427.251	578.74
427.627	559.99
428.003	573.77
428.379	577.61
428.756	580.55
429.132	595.01
429.507	572.87
429.883	599.08
430.259	602.24
430.635	596.59
431.011	611.28
431.387	593.66
431.763	595.69
432.138	643.6
432.514	637.27
432.89	647.21
433.265	630.72
433.641	657.84
434.016	642.47
434.392	659.64
434.767	653.32
435.143	673.65
435.518	686.99
435.894	680.66
436.269	674.33
436.644	693.09
437.02	703.03
437.395	690.6
437.77	707.55
438.145	722.24
438.52	716.37
438.895	733.77
439.271	719.53
439.646	719.53
440.021	724.05
440.395	722.47
440.77	736.03
441.145	744.39
441.52	737.83
441.895	725.18
442.27	753.2
442.645	760.21
443.019	753.43
443.394	763.37
443.769	745.97
444.143	746.42
444.518	771.28
444.892	796.59
445.267	771.28
445.641	795.01
446.016	780.54
446.39	778.06
446.764	774.67
447.139	794.1
447.513	792.3
447.887	795.01
448.262	786.19
448.636	811.05
449.01	785.29
449.384	815.35
449.758	836.14
450.132	861.9
450.506	840.88
450.88	827.77
451.254	842.69
451.628	829.58
452.002	844.95
452.376	851.28
452.75	861.22
453.123	846.53
453.497	884.04
453.871	886.98
454.244	896.47
454.618	901.67
454.992	921.56
455.365	929.69
455.739	916.36
456.112	950.03
456.486	968.79
456.859	957.49
457.232	972.86
457.606	968.79
457.979	983.25
458.352	1018.05
458.725	1015.34
459.099	1007.21
459.472	1007.66
459.845	1016.47
460.218	1033.19
460.591	1044.04
460.964	1064.38
461.337	1045.62
461.71	1065.06
462.083	1093.3
462.456	1087.2
462.829	1086.53
463.201	1108.45
463.574	1096.24
463.947	1119.29
464.32	1148.9
464.692	1148.22
465.065	1143.02
465.438	1169.91
465.81	1199.52
466.183	1220.76
466.555	1223.02
466.928	1197.71
467.3	1228.89
467.672	1233.87
468.045	1238.61
468.417	1245.39
468.789	1284.71
469.161	1289.46
469.534	1303.69
469.906	1308.67
470.278	1303.02
470.65	1347.31
471.022	1371.04
471.394	1405.39
471.766	1354.99
472.138	1382.79
472.51	1388.21
472.882	1467.08
473.253	1455.55
473.625	1482.22
473.997	1508.43
474.369	1514.99
474.74	1506.63
475.112	1519.06
475.484	1559.28
475.855	1593.18
476.227	1593.86
476.598	1629.11
476.97	1654.42
477.341	1691.03
477.713	1710.24
478.084	1688.54
478.455	1745.04
478.827	1746.17
479.198	1791.59
479.569	1808.54
479.94	1828.65
480.311	1853.96
480.682	1902.32
481.053	1927.63
481.424	1953.39
481.795	1959.72
482.166	1993.39
482.537	2055.77
482.908	2081.75
483.279	2088.76
483.65	2103.9
484.021	2152.49
484.391	2156.1
484.762	2165.59
485.133	2204.01
485.503	2226.38
485.874	2260.51
486.244	2319.26
486.615	2356.77
486.985	2329.2
487.356	2381.41
487.726	2410.11
488.097	2432.25
488.467	2413.95
488.837	2492.82
489.207	2524.23
489.578	2551.8
489.948	2587.05
490.318	2610.78
490.688	2605.36
491.058	2635.86
491.428	2679.7
491.798	2704.79
492.168	2735.07
492.538	2773.71
492.908	2769.42
493.278	2805.35
493.648	2806.93
494.017	2874.95
494.387	2871.79
494.757	2898.23
495.126	2907.95
495.496	2944.33
495.866	2976.19
496.235	2962.63
496.605	3020.94
496.974	3020.94
497.344	3022.97
497.713	3086.92
498.082	3083.08
498.452	3097.55
498.821	3145.45
499.19	3136.19
499.559	3184.78
499.928	3222.51
500.298	3213.25
500.667	3283.08
501.036	3264.55
501.405	3271.55
501.774	3284.21
502.143	3351.1
502.512	3379.35
502.88	3393.81
503.249	3388.39
503.618	3420.7
503.987	3422.06
504.356	3464.32
504.724	3462.73
505.093	3507.7
505.462	3480.81
505.83	3510.87
506.199	3554.03
506.567	3613.01
506.936	3573.47
507.304	3623.63
507.672	3675.84
508.041	3654.37
508.409	3691.43
508.777	3766.45
509.145	3725.55
509.514	3749.96
509.882	3817.07
510.25	3828.83
510.618	3797.19
510.986	3826.57
511.354	3877.19
511.722	3930.97
512.09	3910.18
512.458	3950.18
512.826	3991.31
513.193	4013.68
513.561	4007.8
513.929	3972.55
514.297	4076.05
514.664	4088.25
515.032	4085.09
515.4	4146.78
515.767	4181.58
516.135	4192.88
516.502	4193.34
516.869	4204.41
517.237	4285.31
517.604	4250.96
517.972	4338.42
518.339	4328.25
518.706	4326.44
519.073	4382.26
519.44	4424.29
519.808	4496.15
520.175	4503.38
520.542	4504.06
520.909	4544.74
521.276	4558.52
521.643	4606.21
522.009	4660.44
522.376	4656.6
522.743	4677.39
523.11	4742.47
523.477	4811.4
523.843	4804.17
524.21	4824.51
524.577	4871.74
524.943	4934.79
525.31	4965.97
525.676	4924.84
526.043	5011.17
526.409	5080.09
526.776	5119.87
527.142	5071.05
527.508	5134.55
527.874	5177.94
528.241	5249.13
528.607	5217.72
528.973	5298.62
529.339	5271.27
529.705	5366.19
530.071	5404.15
530.437	5460.65
530.803	5421.1
531.169	5466.75
531.535	5506.97
531.901	5517.82
532.267	5578.84
532.632	5588.33
532.998	5612.96
533.364	5628.78
533.73	5601.43
534.095	5680.75
534.461	5713.07
534.826	5733.86
535.192	5735.22
535.557	5820.64
535.923	5804.37
536.288	5791.94
536.653	5786.97
537.019	5857.02
537.384	5923.46
537.749	5926.4
538.114	5965.27
538.479	5912.16
538.845	5966.17
539.21	5971.14
539.575	6033.06
539.94	6036.9
540.305	6004.36
540.67	6024.25
541.034	6094.53
541.399	6099.05
541.764	6125.04
542.129	6082.1
542.494	6160.97
542.858	6151.25
543.223	6172.72
543.587	6220.85
543.952	6286.39
544.316	6250.46
544.681	6230.12
545.045	6335.88
545.41	6307.63
545.774	6329.1
546.138	6338.59
546.503	6365.48
546.867	6352.38
547.231	6394.86
547.595	6391.47
547.959	6414.52
548.324	6432.15
548.688	6498.59
549.052	6466.04
549.416	6534.29
549.779	6502.88
550.143	6539.26
550.507	6621.29
550.871	6577.91
551.235	6563.22
551.599	6637.79
551.962	6647.06
552.326	6699.48
552.689	6742.2
553.053	6749.43
553.417	6739.48
553.78	6848.63
554.143	6815.64
554.507	6854.51
554.87	6856.09
555.234	6942.42
555.597	6965.92
555.96	6966.37
556.323	7035.07
556.686	7066.03
557.05	7058.8
557.413	7105.8
557.776	7143.99
558.139	7216.53
558.502	7267.38
558.865	7228.28
559.228	7260.37
559.59	7304.89
559.953	7317.77
560.316	7457.21
560.679	7422.63
561.041	7506.47
561.404	7524.1
561.767	7552.12
562.129	7593.25
562.492	7639.8
562.854	7684.09
563.217	7687.71
563.579	7713.47
563.941	7751.21
564.304	7761.6
564.666	7826.91
565.028	7843.18
565.39	7862.62
565.753	7941.26
566.115	7895.84
566.477	7966.12
566.839	7954.37
567.201	8022.84
567.563	8009.73
567.925	8099.67
568.287	8049.28
568.648	8089.5
569.01	8153.68
569.372	8187.36
569.734	8185.32
570.095	8248.37
570.457	8249.73
570.819	8368.14
571.18	8322.94
571.542	8385.32
571.903	8375.6
572.265	8461.02
572.626	8440.91
572.987	8423.06
573.349	8492.66
573.71	8458.08
574.071	8523.84
574.432	8642.94
574.794	8651.98
575.155	8635.71
575.516	8635.48
575.877	8669.83
576.238	8734.46
576.599	8731.3
576.96	8801.8
577.32	8740.79
577.681	8740.56
578.042	8835.7
578.403	8773.55
578.763	8853.33
579.124	8896.94
579.485	8877.51
579.845	8904.4
580.206	8872.76
580.566	8928.58
580.927	9007.67
581.287	9000.44
581.648	8951.63
582.008	8983.27
582.368	9037.28
582.728	8984.17
583.089	9025.98
583.449	9045.41
583.809	8952.31
584.169	9074.79
584.529	9041.57
584.889	9049.25
585.249	9042.47
585.609	8983.94
585.969	9063.72
586.329	9088.8
586.688	9117.27
587.048	9060.33
587.408	8989.59
587.768	8979.65
588.127	9031.4
588.487	9022.14
588.846	9037.28
589.206	8969.48
589.565	9056.49
589.925	9066.88
590.284	9029.14
590.643	9084.05
591.003	9079.31
591.362	9119.31
591.721	9097.39
592.08	9072.76
592.44	9006.54
592.799	9074.79
593.158	9069.37
593.517	9040.44
593.876	9081.8
594.235	9073.43
594.593	9049.71
594.952	9045.41
595.311	9053.55
595.67	9010.61
596.029	9065.07
596.387	9122.92
596.746	9113.21
597.104	9043.38
597.463	9016.26
597.822	9105.98
598.18	9053.77
598.538	9067.78
598.897	9063.94
599.255	9096.94
599.613	9177.84
599.972	9167.44
600.33	9112.3
600.688	9068.69
601.046	9169.7
601.404	9230.49
601.762	9193.66
602.12	9201.11
602.478	9192.75
602.836	9213.09
603.194	9139.19
603.552	9169.25
603.91	9184.17
604.268	9226.65
604.625	9210.15
604.983	9234.56
605.341	9203.37
605.698	9280.66
606.056	9268
606.413	9295.57
606.771	9313.2
607.128	9281.34
607.485	9315.24
607.843	9298.74
608.2	9278.85
608.557	9342.81
608.914	9318.63
609.272	9337.83
609.629	9347.78
609.986	9436.81
610.343	9372.18
610.7	9384.16
611.057	9356.14
611.414	9361.11
611.771	9378.74
612.127	9411.05
612.484	9386.65
612.841	9473.42
613.198	9414.67
613.554	9447.89
613.911	9451.5
614.267	9522.46
614.624	9465.97
614.98	9504.61
615.337	9553.42
615.693	9528.34
616.05	9470.26
616.406	9569.01
616.762	9514.33
617.118	9470.71
617.475	9458.73
617.831	9505.51
618.187	9527.43
618.543	9531.27
618.899	9559.3
619.255	9638.84
619.611	9548.22
619.967	9566.98
620.323	9597.71
620.678	9570.14
621.034	9529.69
621.39	9556.58
621.746	9537.6
622.101	9730.59
622.457	9607.88
622.812	9594.1
623.168	9646.53
623.523	9563.59
623.879	9630.48
624.234	9584.15
624.589	9552.74
624.945	9658.5
625.3	9592.06
625.655	9673.19
626.01	9664.6
626.365	9647.88
626.72	9715.9
627.075	9686.3
627.43	9639.75
627.785	9604.72
628.14	9646.75
628.495	9658.28
628.85	9748.67
629.205	9682.91
629.559	9748.9
629.914	9676.81
630.269	9707.54
630.623	9717.71
630.978	9617.37
631.332	9754.77
631.687	9770.82
632.041	9635.45
632.396	9683.36
632.75	9635.9
633.104	9722
633.459	9640.65
633.813	9576.92
634.167	9655.11
634.521	9648.79
634.875	9648.11
635.229	9640.42
635.583	9647.2
635.937	9599.52
636.291	9658.5
636.645	9636.13
636.999	9650.37
637.352	9622.12
637.706	9591.16
638.06	9563.36
638.413	9591.16
638.767	9492.41
639.121	9523.59
639.474	9520.88
639.828	9546.42
640.181	9584.38
640.534	9562.91
640.888	9497.83
641.241	9449.92
641.594	9482.01
641.947	9503.48
642.301	9402.24
642.654	9460.32
643.007	9439.07
643.36	9412.86
643.713	9331.51
644.066	9437.49
644.419	9359.98
644.771	9296.25
645.124	9183.71
645.477	9179.19
645.83	9114.56
646.182	9054
646.535	9020.55
646.888	9060.1
647.24	8989.82
647.593	9074.79
647.945	8992.53
648.298	9016.26
648.65	8963.61
649.002	8898.98
649.355	8986.88
649.707	8883.16
650.059	8912.53
650.411	9045.64
650.763	9064.39
651.115	9126.77
651.467	9085.86
651.819	9129.48
652.171	9106.65
652.523	9001.35
652.875	9060.33
653.227	8966.09
653.578	9017.62
653.93	9042.93
654.282	9001.35
654.633	9002.02
654.985	9040.21
655.337	8999.54
655.688	8954.11
656.039	9069.82
656.391	8995.47
656.742	9004.06
657.094	9048.35
657.445	9021.68
657.796	8981.91
658.147	9029.82
658.498	8948.92
658.849	8990.05
659.2	8999.54
659.551	8920.44
659.902	9002.48
660.253	8928.13
660.604	8933.55
660.955	8995.92
661.306	9028.92
661.656	8945.98
662.007	8944.85
662.358	8969.03
662.708	9028.92
663.059	8957.5
663.409	8903.27
663.76	9016.49
664.11	8967
664.461	8885.42
664.811	8961.8
665.161	8981.91
665.511	8996.37
665.862	8913.66
666.212	8914.57
666.562	8905.53
666.912	8871.63
667.262	8881.57
667.612	8908.92
667.962	8845.42
668.312	8868.47
668.662	8916.15
669.011	8878.86
669.361	8901.23
669.711	8857.17
670.06	8806.77
670.41	8856.04
670.76	8807.9
671.109	8812.2
671.459	8813.55
671.808	8778.07
672.157	8808.58
672.507	8770.39
672.856	8753.67
673.205	8734.46
673.554	8784.63
673.904	8714.35
674.253	8822.37
674.602	8699.43
674.951	8611.75
675.3	8522.04
675.649	8686.33
675.998	8639.77
676.346	8642.48
676.695	8625.31
677.044	8672.09
677.393	8661.24
677.741	8644.52
678.09	8639.32
678.438	8524.97
678.787	8628.02
679.135	8557.06
679.484	8529.49
679.832	8536.27
680.181	8532.88
680.529	8538.08
680.877	8480.68
681.225	8536.5
681.573	8559.77
681.922	8454.69
682.27	8486.78
682.618	8446.78
682.966	8443.85
683.314	8445.43
683.661	8453.56
684.009	8338.99
684.357	8336.96
684.705	8381.93
685.053	8364.3
685.4	8400.46
685.748	8354.36
686.095	8326.33
686.443	8249.95
686.79	8272.78
687.138	8266.45
687.485	8307.58
687.832	8291.53
688.18	8288.14
688.527	8206.79
688.874	8256.51
689.221	8261.03
689.568	8181.71
689.915	8199.11
690.262	8146.23
690.609	8159.33
690.956	8133.8
691.303	8110.07
691.65	8095.61
691.997	8153.91
692.344	8118.43
692.69	8062.61
693.037	8141.93
693.383	8079.79
693.73	8026.91
694.077	7991.2
694.423	7986.91
694.769	7922.73
695.116	7919.11
695.462	7974.71
695.808	7932.9
696.155	7947.36
696.501	7890.19
696.847	7865.56
697.193	7820.13
697.539	7889.96
697.885	7828.95
698.231	7791.66
698.577	7795.73
698.923	7779.23
699.269	7781.94
699.614	7747.37
699.96	7733.36
700.306	7719.12
700.651	7641.61
700.997	7611.78
701.342	7625.11
701.688	7590.53
702.033	7558.9
702.379	7620.36
702.724	7524.55
703.069	7587.15
703.415	7529.07
703.76	7506.92
704.105	7491.33
704.45	7442.06
704.795	7416.98
705.14	7328.39
705.485	7389.18
705.83	7320.94
706.175	7331.56
706.52	7324.55
706.865	7305.8
707.209	7313.71
707.554	7220.38
707.899	7235.06
708.243	7180.38
708.588	7206.59
708.932	7122.52
709.277	7116.2
709.621	7110.32
709.966	7086.59
710.31	7077.78
710.654	6985.81
710.998	7102.19
711.342	7115.75
711.687	7003.66
712.031	7035.52
712.375	6977.44
712.719	7014.73
713.063	6963.43
713.407	6989.87
713.75	6895.19
714.094	6910.1
714.438	6848.41
714.782	6881.85
715.125	6852.02
715.469	6795.08
715.812	6786.26
716.156	6781.06
716.499	6811.12
716.843	6778.13
717.186	6780.84
717.53	6733.16
717.873	6813.38
718.216	6790.1
718.559	6762.53
718.902	6703.55
719.246	6704.23
719.589	6662.65
719.932	6588.3
720.275	6655.87
720.617	6695.19
720.96	6627.85
721.303	6648.19
721.646	6626.72
721.989	6560.28
722.331	6589.43
722.674	6569.54
723.016	6580.17
723.359	6584.01
723.701	6529.55
724.044	6579.94
724.386	6569.32
724.729	6580.84
725.071	6567.74
725.413	6548.98
725.755	6519.38
726.097	6468.53
726.439	6510.56
726.782	6505.14
727.124	6534.97
727.465	6517.34
727.807	6519.6
728.149	6485.71
728.491	6441.64
728.833	6479.83
729.175	6383.79
729.516	6491.35
729.858	6450.45
730.199	6451.13
730.541	6538.59
730.882	6440.51
731.224	6412.26
731.565	6418.59
731.906	6506.27
732.248	6406.39
732.589	6462.2
732.93	6389.89
733.271	6416.1
733.612	6467.4
733.953	6442.32
734.294	6383.79
734.635	6388.08
734.976	6429.66
735.317	6366.39
735.658	6388.98
735.999	6374.75
736.339	6358.25
736.68	6367.52
737.021	6360.96
737.361	6328.42
737.702	6360.06
738.042	6391.92
738.383	6305.37
738.723	6302.21
739.063	6356.22
739.404	6322.77
739.744	6299.04
740.084	6300.63
740.424	6318.7
740.764	6298.37
741.104	6275.77
741.444	6241.19
741.784	6280.74
742.124	6259.5
742.464	6210.01
742.804	6235.99
743.143	6202.77
743.483	6250.01
743.823	6182.44
744.162	6147.41
744.502	6159.61
744.841	6143.12
745.181	6168.65
745.52	6137.92
745.86	6130.01
746.199	6124.13
746.538	6098.37
746.877	6111.7
747.216	6094.76
747.556	6027.86
747.895	6064.47
748.234	6040.29
748.573	6074.87
748.911	6053.4
749.25	6012.95
749.589	5996.23
749.928	6011.59
750.267	6007.07
750.605	6009.56
750.944	5954.87
751.283	5931.82
751.621	5909.22
751.96	5923.01
752.298	5918.94
752.636	5848.43
752.975	5876.91
753.313	5796.01
753.651	5863.12
753.989	5878.04
754.327	5833.29
754.666	5741.32
755.004	5775.22
755.342	5765.05
755.679	5721.21
756.017	5719.62
756.355	5723.47
756.693	5713.07
757.031	5702
757.368	5655.67
757.706	5659.96
758.044	5671.04
758.381	5688.21
758.719	5627.2
759.056	5620.64
759.394	5596.01
759.731	5536.8
760.068	5553.98
760.405	5493.19
760.743	5515.79
761.08	5546.75
761.417	5487.99
761.754	5536.8
762.091	5449.12
762.428	5450.93
762.765	5425.39
763.102	5450.48
763.438	5395.56
763.775	5385.17
764.112	5391.95
764.449	5410.03
764.785	5388.33
765.122	5346.07
765.458	5375
765.795	5330.93
766.131	5329.35
766.467	5318.5
766.804	5322.35
767.14	5280.31
767.476	5239.86
767.812	5212.74
768.148	5215.91
768.485	5143.37
768.821	5236.7
769.157	5157.15
769.492	5138.4
769.828	5179.07
770.164	5129.13
770.5	5086.42
770.836	5086.65
