Data from foam2_polystyrene_foam_FLMS001491_00046.txt Node
Date: Wed Feb 08 10:58:01 GMT 2017
User: dcchb
Spectrometer: FLMS00149
Trigger mode: 0
Integration Time (sec): 2.000000E-2
Scans to average: 10
Electric dark correction enabled: true
Nonlinearity correction enabled: false
Boxcar width: 0
XAxis mode: Wavelengths
Number of Pixels in Spectrum: 2048
>>>>>Begin Spectral Data<<<<<
341.393	-14.31
341.776	-14.31
342.16	-14.31
342.543	-66.74
342.927	-61.99
343.31	-76.45
343.693	-68.32
344.077	-59.96
344.46	-63.35
344.843	-54.08
345.226	-54.08
345.61	-0.52
345.993	-9.11
346.376	-10.24
346.759	-5.49
347.142	15.75
347.525	58.91
347.908	52.58
348.291	56.2
348.674	116.76
349.057	101.4
349.44	121.73
349.823	144.56
350.206	165.12
350.588	218.68
350.971	220.71
351.354	253.71
351.737	246.93
352.119	272.46
352.502	282.86
352.884	277.66
353.267	315.4
353.65	288.96
354.032	316.08
354.414	318.11
354.797	339.13
355.179	330.99
355.562	351.33
355.944	349.98
356.326	341.16
356.709	337.55
357.091	353.59
357.473	378
357.855	343.2
358.238	361.05
358.62	381.16
359.002	366.47
359.384	378.68
359.766	343.2
360.148	362.86
360.53	373.7
360.912	339.36
361.294	361.28
361.676	363.99
362.057	341.16
362.439	373.03
362.821	352.69
363.203	353.59
363.584	361.28
363.966	341.16
364.348	349.52
364.729	345.68
365.111	366.02
365.493	379.35
365.874	357.89
366.256	356.98
366.637	335.29
367.019	339.58
367.4	333.03
367.781	338.23
368.163	329.19
368.544	349.07
368.925	363.54
369.306	361.05
369.688	347.49
370.069	361.05
370.45	338.23
370.831	359.92
371.212	367.15
371.593	382.29
371.974	366.25
372.355	387.26
372.736	360.37
373.117	384.1
373.498	376.19
373.879	378
374.26	367.6
374.641	364.89
375.021	366.47
375.402	379.13
375.783	372.12
376.163	410.77
376.544	394.27
376.925	428.39
377.305	391.56
377.686	378.68
378.066	394.5
378.447	406.7
378.827	401.73
379.208	416.19
379.588	407.15
379.968	406.25
380.349	410.09
380.729	427.94
381.109	425.68
381.489	418
381.87	423.42
382.25	437.21
382.63	441.05
383.01	439.01
383.39	434.27
383.77	452.35
384.15	455.28
384.53	448.96
384.91	459.58
385.29	468.62
385.67	453.7
386.049	460.48
386.429	432.23
386.809	479.46
387.189	473.82
387.568	491.89
387.948	487.37
388.328	503.64
388.707	495.28
389.087	512.23
389.466	509.07
389.846	505.23
390.225	504.1
390.605	524.21
390.984	519.01
391.363	526.92
391.743	522.85
392.122	557.43
392.501	528.5
392.881	539.58
393.26	547.03
393.639	558.11
394.018	561.72
394.397	549.29
394.776	556.75
395.155	549.75
395.534	583.42
395.913	587.26
396.292	585.68
396.671	571.89
397.05	598.78
397.429	602.63
397.808	615.28
398.186	606.69
398.565	603.98
398.944	603.76
399.323	626.81
399.701	627.26
400.08	641.04
400.458	665.9
400.837	638.56
401.215	666.35
401.594	660.48
401.972	682.4
402.351	671.32
402.729	673.13
403.107	676.75
403.486	677.43
403.864	715.84
404.242	723.07
404.62	714.94
404.999	708.16
405.377	723.07
405.755	730.76
406.133	724.66
406.511	724.43
406.889	748.61
407.267	804.43
407.645	745.67
408.023	784.54
408.401	776.41
408.779	810.3
409.156	829.51
409.534	820.47
409.912	843.07
410.29	827.25
410.667	848.04
411.045	876.06
411.422	877.65
411.8	897.53
412.178	897.53
412.555	892.11
412.933	914.48
413.31	919
413.687	942.5
414.065	940.24
414.442	953.58
414.819	975.04
415.197	950.86
415.574	1010.98
415.951	1000.81
416.328	1021.37
416.705	1037.42
417.082	1026.57
417.46	1024.54
417.837	1054.36
418.214	1073.8
418.591	1071.31
418.967	1070.86
419.344	1092.56
419.721	1097.3
420.098	1100.01
420.475	1107.7
420.852	1121.48
421.228	1148.37
421.605	1156.96
421.982	1154.7
422.358	1168.49
422.735	1224.76
423.111	1190.18
423.488	1192.21
423.864	1201.93
424.241	1252.55
424.617	1259.78
424.994	1268.14
425.37	1286
425.746	1270.18
426.123	1282.61
426.499	1317.86
426.875	1339.1
427.251	1361.25
427.627	1374.81
428.003	1359.44
428.379	1383.85
428.756	1411.87
429.132	1458.42
429.507	1452.32
429.883	1451.42
430.259	1510.85
430.635	1510.4
431.011	1519.21
431.387	1584.52
431.763	1571.87
432.138	1586.78
432.514	1619.55
432.89	1627.01
433.265	1688.47
433.641	1677.4
434.016	1679.66
434.392	1697.74
434.767	1758.08
435.143	1774.8
435.518	1765.53
435.894	1800.79
436.269	1814.34
436.644	1837.4
437.02	1850.05
437.395	1875.81
437.77	1893.66
438.145	1932.08
438.52	1928.69
438.895	1986.77
439.271	1979.76
439.646	2015.92
440.021	2036.26
440.395	2043.72
440.77	2040.1
441.145	2101.34
441.52	2109.03
441.895	2109.48
442.27	2148.12
442.645	2140.44
443.019	2166.65
443.394	2203.71
443.769	2218.85
444.143	2162.58
444.518	2238.97
444.892	2252.3
445.267	2231.06
445.641	2283.94
446.016	2299.53
446.39	2362.35
446.764	2332.75
447.139	2367.55
447.513	2379.98
447.887	2386.99
448.262	2414.33
448.636	2410.26
449.01	2454.1
449.384	2497.72
449.758	2476.7
450.132	2551.73
450.506	2538.17
450.88	2552.18
451.254	2572.97
451.628	2634.21
452.002	2631.72
452.376	2663.14
452.75	2685.28
453.123	2682.57
453.497	2746.07
453.871	2765.05
454.244	2812.51
454.618	2815.22
454.992	2896.8
455.365	2871.72
455.739	2950.59
456.112	2989.46
456.486	2992.85
456.859	3020.19
457.232	3097.7
457.606	3083.69
457.979	3133.63
458.352	3168.43
458.725	3208.43
459.099	3214.53
459.472	3303.57
459.845	3356.68
460.218	3363.23
460.591	3374.76
460.964	3412.5
461.337	3494.53
461.71	3564.58
462.083	3600.74
462.456	3617.91
462.829	3631.7
463.201	3670.79
463.574	3690.91
463.947	3731.36
464.32	3812.94
464.692	3857.23
465.065	3894.74
465.438	3985.36
465.81	4014.51
466.183	4066.49
466.555	4107.39
466.928	4157.79
467.3	4139.71
467.672	4235.98
468.045	4367.5
468.417	4351.23
468.789	4388.06
469.161	4470.77
469.534	4496.08
469.906	4658.56
470.278	4643.42
470.65	4702.86
471.022	4830.08
471.394	4908.95
471.766	4930.87
472.138	4992.79
472.51	5102.62
472.882	5171.54
473.253	5247.25
473.625	5323.63
473.997	5431.42
474.369	5407.02
474.74	5520.46
475.112	5667.8
475.484	5717.97
475.855	5848.82
476.227	5893.79
476.598	6064.18
476.97	6055.36
477.341	6185.53
477.713	6340.55
478.084	6358.18
478.455	6501.23
478.827	6597.27
479.198	6749.13
479.569	6718.4
479.94	6919.97
480.311	7024.15
480.682	7203.36
481.053	7323.13
481.424	7482.9
481.795	7502.78
482.166	7634.3
482.537	7775.54
482.908	7921.08
483.279	7980.51
483.65	8158.58
484.021	8317.45
484.391	8391.8
484.762	8451.46
485.133	8540.95
485.503	8714.73
485.874	8929.41
486.244	8996.08
486.615	9144.55
486.985	9255.51
487.356	9436.74
487.726	9535.5
488.097	9704.31
488.467	9715.83
488.837	9931.19
489.207	10140
489.578	10239.43
489.948	10304.74
490.318	10462.93
490.688	10551.97
491.058	10692.98
491.428	10818.85
491.798	10932.52
492.168	11176.36
492.538	11225.17
492.908	11321.89
493.278	11460.42
493.648	11513.3
494.017	11709
494.387	11781.09
494.757	11932.05
495.126	11997.81
495.496	12148.08
495.866	12189.21
496.235	12346.95
496.605	12501.75
496.974	12491.8
497.344	12571.58
497.713	12772.02
498.082	12862.42
498.452	13040.49
498.821	13141.28
499.19	13193.48
499.559	13305.79
499.928	13330.88
500.298	13418.79
500.667	13613.81
501.036	13532.68
501.405	13758.66
501.774	13811.09
502.143	13937.19
502.512	14009.05
502.88	14148.26
503.249	14129.95
503.618	14318.42
503.987	14377.18
504.356	14425.76
504.724	14529.26
505.093	14618.75
505.462	14708.92
505.83	14787.56
506.199	14984.17
506.567	15199.98
506.936	15101.68
507.304	15386.64
507.672	15446.08
508.041	15494.66
508.409	15624.38
508.777	15789.34
509.145	15966.97
509.514	15931.49
509.882	16051.03
510.25	16206.28
510.618	16323.79
510.986	16392.04
511.354	16516.56
511.722	16689.21
512.09	16877.23
512.458	16938.69
512.826	17023.21
513.193	17022.31
513.561	17159.25
513.929	17448.96
514.297	17556.08
514.664	17645.12
515.032	17702.74
515.4	17903.64
515.767	18005.33
516.135	18194.71
516.502	18121.71
516.869	18379.11
517.237	18553.34
517.604	18459.56
517.972	18726.89
518.339	18742.04
518.706	18974.57
519.073	19001.01
519.44	19176.83
519.808	19442.58
520.175	19390.61
520.542	19734.33
520.909	19825.62
521.276	19888.9
521.643	20096.35
522.009	20215.22
522.376	20349.45
522.743	20540.18
523.11	20731.14
523.477	20986.27
523.843	21068.08
524.21	21230.11
524.577	21456.09
524.943	21587.38
525.31	21701.96
525.676	21937.88
526.043	22176.97
526.409	22162.51
526.776	22429.62
527.142	22429.17
527.508	22667.58
527.874	22881.59
528.241	22917.07
528.607	23107.57
528.973	23361.58
529.339	23437.05
529.705	23579.2
530.071	23755.46
530.437	23880.66
530.803	24083.59
531.169	24163.81
531.535	24290.14
531.901	24349.8
532.267	24576.23
532.632	24718.38
532.998	24803.57
533.364	24863.68
533.73	24977.13
534.095	25228.64
534.461	25388.41
534.826	25458.02
535.192	25561.07
535.557	25723.09
535.923	25735.98
536.288	25836.99
536.653	25995.63
537.019	26012.58
537.384	26036.31
537.749	26132.58
538.114	26278.56
538.479	26325.56
538.845	26542.28
539.21	26529.4
539.575	26731.66
539.94	26751.54
540.305	26907.24
540.67	26999.45
541.034	26975.72
541.399	27233.79
541.764	27294.58
542.129	27441.02
542.494	27483.27
542.858	27722.36
543.223	27646.21
543.587	27905.64
543.952	27843.49
544.316	27972.53
544.681	27986.76
545.045	28120.09
545.41	28245.74
545.774	28289.13
546.138	28390.6
546.503	28545.85
546.867	28606.18
547.231	28852.28
547.595	28783.81
547.959	28996.46
548.324	29018.6
548.688	29121.88
549.052	29291.14
549.416	29398.48
549.779	29391.92
550.143	29432.83
550.507	29553.28
550.871	29587.85
551.235	29741.75
551.599	29964.34
551.962	29869.2
552.326	30128.63
552.689	30183.09
553.053	30165.69
553.417	30374.27
553.78	30636.19
554.143	30537.88
554.507	30680.03
554.87	30872.79
555.234	31181.03
555.597	31027.36
555.96	31177.41
556.323	31315.49
556.686	31433.45
557.05	31681.13
557.413	31767.68
557.776	31742.82
558.139	31994.57
558.502	32098.52
558.865	32247.67
559.228	32394.56
559.59	32514.78
559.953	32652.63
560.316	33062.34
560.679	33032.96
561.041	33248.09
561.404	33236.12
561.767	33452.16
562.129	33463.91
562.492	33867.51
562.854	33835.88
563.217	34103.67
563.579	34300.5
563.941	34357.22
564.304	34531
564.666	34744.33
565.028	34686.47
565.39	34745.68
565.753	34996.52
566.115	35090.53
566.477	35307.25
566.839	35353.8
567.201	35559.45
567.563	35598.77
567.925	35747.46
568.287	35896.39
568.648	36088.47
569.01	36261.57
569.372	36423.38
569.734	36361.46
570.095	36663.82
570.457	36771.62
570.819	36964.16
571.18	36948.56
571.542	37055.45
571.903	37123.93
572.265	37407.31
572.626	37310.36
572.987	37607.53
573.349	37575.21
573.71	37715.77
574.071	37906.96
574.432	37937.91
574.794	38239.83
575.155	38099.27
575.516	38146.95
575.877	38283.44
576.238	38410.67
576.599	38588.29
576.96	38424.68
577.32	38543.32
577.681	38594.39
578.042	38744.45
578.403	38720.27
578.763	38824.67
579.124	38955.97
579.485	38985.8
579.845	39191.22
580.206	38986.25
580.566	39037.77
580.927	39106.92
581.287	39414.94
581.648	39023.76
582.008	39359.35
582.368	39172.68
582.728	39375.62
583.089	39291.1
583.449	39351.21
583.809	39431.66
584.169	39393.47
584.529	39519.34
584.889	39547.82
585.249	39516.18
585.609	39223.76
585.969	39586.69
586.329	39512.56
586.688	39660.36
587.048	39569.28
587.408	39484.99
587.768	39470.3
588.127	39681.82
588.487	39515.05
588.846	39802.72
589.206	39497.65
589.565	39510.53
589.925	39743.52
590.284	39614.93
590.643	39725.44
591.003	39609.96
591.362	39762.73
591.721	39829.16
592.08	39707.36
592.44	39896.51
592.799	39831.88
593.158	39692.9
593.517	39694.03
593.876	39881.59
594.235	39812.44
594.593	39923.63
594.952	39813.57
595.311	39737.87
595.67	39954.13
596.029	40083.62
596.387	39816.74
596.746	40069.84
597.104	39870.52
597.463	39898.77
597.822	39998.2
598.18	39903.06
598.538	39864.19
598.897	40129.95
599.255	39852.21
599.613	40248.36
599.972	40104.64
600.33	40339.89
600.688	40118.42
601.046	40300.56
601.404	40448.81
601.762	40409.04
602.12	40500.11
602.478	40467.79
602.836	40528.13
603.194	40345.76
603.552	40487
603.91	40419.66
604.268	40581.91
604.625	40181.7
604.983	40696.26
605.341	40404.29
605.698	40647.9
606.056	40757.5
606.413	40605.87
606.771	40905.07
607.128	40876.59
607.485	40698.75
607.843	40898.97
608.2	41021.9
608.557	41209.24
608.914	40910.49
609.272	41207.21
609.629	41286.3
609.986	41352.97
610.343	41188.22
610.7	41462.34
611.057	41333.98
611.414	41374.66
611.771	41466.18
612.127	41702.34
612.484	41561.77
612.841	41728.78
613.198	41488.78
613.554	41462.79
613.911	41640.42
614.267	41614.88
614.624	41476.13
614.98	41759.28
615.337	41871.37
615.693	41950.46
616.05	41815.33
616.406	42091.93
616.762	41871.37
617.118	42026.62
617.475	41960.86
617.831	41964.25
618.187	42124.25
618.543	42186.84
618.899	42396.78
619.255	42144.81
619.611	42191.36
619.967	42238.59
620.323	42297.35
620.678	42257.12
621.034	42253.28
621.39	42309.55
621.746	42099.61
622.101	42471.81
622.457	42132.15
622.812	42327.18
623.168	42472.03
623.523	42337.8
623.879	42435.65
624.234	42206.96
624.589	42444.24
624.945	42505.48
625.3	42582.99
625.655	42541.64
626.01	42578.92
626.365	42497.57
626.72	42326.27
627.075	42303.9
627.43	42364.24
627.785	42233.17
628.14	42477.91
628.495	42357.69
628.85	42310.68
629.205	42207.41
629.559	42397.91
629.914	42389.78
630.269	42291.7
630.623	42139.84
630.978	41955.44
631.332	42234.53
631.687	42130.12
632.041	42068.88
632.396	42135.77
632.75	41912.05
633.104	41955.21
633.459	41829.79
633.813	41913.4
634.167	41821.43
634.521	41924.7
634.875	41834.31
635.229	41736.91
635.583	41484.71
635.937	41592.28
636.291	41512.96
636.645	41545.5
636.999	41317.26
637.352	41525.39
637.706	41332.85
638.06	41399.97
638.413	41281.78
638.767	41193.65
639.121	41381.89
639.474	41069.13
639.828	41096.93
640.181	40917.72
640.534	41029.36
640.888	40881.11
641.241	40703.27
641.594	40813.55
641.947	40908.46
642.301	40760.67
642.654	40868.23
643.007	40757.5
643.36	40597.73
643.713	40703.94
644.066	40749.14
644.419	40495.59
644.771	39978.99
645.124	39991.65
645.477	39786.91
645.83	39530.42
646.182	39311.66
646.535	39270.08
646.888	39198.22
647.24	39075.96
647.593	39293.13
647.945	39234.83
648.298	38834.39
648.65	38888.4
649.002	38725.24
649.355	38958.45
649.707	38895.18
650.059	39012.91
650.411	39287.71
650.763	39564.76
651.115	39882.27
651.467	39771.54
651.819	39696.96
652.171	39589.17
652.523	39648.38
652.875	39588.27
653.227	39332.45
653.578	39466.91
653.93	39404.09
654.282	39330.87
654.633	39236.19
654.985	39259.46
655.337	39097.88
655.688	39172.91
656.039	39153.7
656.391	38941.28
656.742	39046.13
657.094	39149.18
657.445	39181.05
657.796	39138.34
658.147	38943.09
658.498	38927.72
658.849	39065.12
659.2	38888.85
659.551	39013.59
659.902	38978.79
660.253	39057.89
660.604	39007.27
660.955	38847.04
661.306	38906.93
661.656	38827.38
662.007	38917.78
662.358	38814.73
662.708	38849.3
663.059	38788.51
663.409	38671.68
663.76	38782.86
664.11	38723.88
664.461	38713.49
664.811	38687.05
665.161	38731.11
665.511	38669.87
665.862	38532.48
666.212	38567.95
666.562	38655.86
666.912	38664.9
667.262	38524.34
667.612	38521.18
667.962	38613.83
668.312	38453.38
668.662	38652.02
669.011	38468.75
669.361	38371.12
669.711	38388.98
670.06	38484.12
670.41	38338.81
670.76	38249.55
671.109	38387.62
671.459	38445.25
671.808	38376.55
672.157	38571.57
672.507	38364.8
672.856	38227.85
673.205	38200.96
673.554	38395.08
673.904	38302.43
674.253	38420.39
674.602	38322.31
674.951	37710.58
675.3	37410.7
675.649	38068.76
675.998	38011.81
676.346	37905.37
676.695	38125.25
677.044	37798.94
677.393	38027.63
677.741	37968.87
678.09	37946.95
678.438	37814.08
678.787	37759.39
679.135	37902.66
679.484	37596.45
679.832	37675.55
680.181	37405.27
680.529	37690.92
680.877	37504.25
681.225	37531.37
681.573	37726.17
681.922	37537.93
682.27	37351.94
682.618	37398.27
682.966	37397.14
683.314	37416.57
683.661	37184.04
684.009	36936.81
684.357	36868.79
684.705	36842.12
685.053	36873.99
685.4	36685.29
685.748	36745.63
686.095	36494.34
686.443	36580.66
686.79	36627.44
687.138	36469.03
687.485	36397.62
687.832	36351.52
688.18	36354.45
688.527	36091.86
688.874	36044.86
689.221	36074.24
689.568	35979.55
689.915	35864.52
690.262	35828.14
690.609	35708.37
690.956	35573.91
691.303	35416.63
691.65	35415.95
691.997	35351.99
692.344	35131.21
692.69	35298.66
693.037	35084.88
693.383	34964.89
693.73	35033.36
694.077	34680.15
694.423	34804.44
694.769	34659.58
695.116	34540.72
695.462	34494.39
695.808	34401.28
696.155	34497.55
696.501	34134.17
696.847	34176.88
697.193	33956.55
697.539	34135.75
697.885	33872.94
698.231	33769.21
698.577	33833.84
698.923	33771.24
699.269	33670.68
699.614	33483.12
699.96	33477.92
700.306	33445.38
700.651	33211.94
700.997	33202.9
701.342	32994.99
701.688	33116.8
702.033	33016.24
702.379	32867.99
702.724	32889.46
703.069	32854.43
703.415	32616.02
703.76	32540.99
704.105	32614.89
704.45	32588
704.795	32319.76
705.14	32298.29
705.485	32297.39
705.83	32136.94
706.175	32113.66
706.52	31963.16
706.865	31804.06
707.209	31733.11
707.554	31607.91
707.899	31658.31
708.243	31537.41
708.588	31454.02
708.932	31239.79
709.277	31279.11
709.621	31263.51
709.966	31070.98
710.31	31143.29
710.654	30821.94
710.998	30905.78
711.342	30836.41
711.687	30837.31
712.031	30694.94
712.375	30506.25
712.719	30546.92
713.063	30494.72
713.407	30734.04
713.75	30423.54
714.094	30394.16
714.438	30287.49
714.782	30391.22
715.125	30142.19
715.469	30294.27
715.812	30054.96
716.156	29821.52
716.499	29907.62
716.843	29943.55
717.186	29757.34
717.53	29846.38
717.873	29863.1
718.216	29689.32
718.559	29544.01
718.902	29392.83
719.246	29440.74
719.589	29435.99
719.932	29230.8
720.275	29300.4
720.617	29276.22
720.96	29231.93
721.303	29118.03
721.646	29249.33
721.989	28906.06
722.331	29051.37
722.674	28958.72
723.016	28912.84
723.359	28873.97
723.701	28863.35
724.044	28754.43
724.386	28516.24
724.729	28756.01
725.071	28508.56
725.413	28540.42
725.755	28470.14
726.097	28468.11
726.439	28310.6
726.782	28273.31
727.124	28477.6
727.465	28281.67
727.807	28153.31
728.149	28088.23
728.491	28107.66
728.833	28079.64
729.175	27995.58
729.516	27981.34
729.858	27840.1
730.199	27842.59
730.541	27777.96
730.882	27769.14
731.224	27872.87
731.565	27716.71
731.906	27610.05
732.248	27754.23
732.589	27557.4
732.93	27546.78
733.271	27475.82
733.612	27534.12
733.953	27390.85
734.294	27309.49
734.635	27277.63
734.976	27437.17
735.317	27163.06
735.658	27038.31
735.999	27072.89
736.339	27047.13
736.68	27068.82
737.021	26977.3
737.361	26837.42
737.702	27001.25
738.042	26844.65
738.383	26821.15
738.723	26917.87
739.063	26681.71
739.404	26887.58
739.744	26652.34
740.084	26544.77
740.424	26506.13
740.764	26500.25
741.104	26641.49
741.444	26450.08
741.784	26335.28
742.124	26419.57
742.464	26347.71
742.804	26260.26
743.143	26189.52
743.483	26344.32
743.823	26206.25
744.162	26179.58
744.502	26195.85
744.841	26095.74
745.181	26126.7
745.52	25990.21
745.86	25960.15
746.199	25902.07
746.538	25874.05
746.877	25924.45
747.216	25943.65
747.556	25725.13
747.895	25868.85
748.234	25656.66
748.573	25641.97
748.911	25561.97
749.25	25746.82
749.589	25476.1
749.928	25401.75
750.267	25462.99
750.605	25386.61
750.944	25370.11
751.283	25206.05
751.621	25293.05
751.96	25100.74
752.298	25157.23
752.636	25074.3
752.975	24887.18
753.313	24949.1
