Data from foam_black_FLMS001491_00065.txt Node
Date: Wed Feb 08 10:44:24 GMT 2017
User: dcchb
Spectrometer: FLMS00149
Trigger mode: 0
Integration Time (sec): 2.000000E-2
Scans to average: 10
Electric dark correction enabled: true
Nonlinearity correction enabled: false
Boxcar width: 0
XAxis mode: Wavelengths
Number of Pixels in Spectrum: 2048
>>>>>Begin Spectral Data<<<<<
341.393	-11.65
341.776	-11.65
342.16	-11.65
342.543	-56.85
342.927	-69.5
343.31	-67.47
343.693	-57.75
344.077	-94.59
344.46	-55.94
344.843	-58.66
345.226	-52.33
345.61	-27.7
345.993	-11.65
346.376	17.27
346.759	1
347.142	25.41
347.525	55.69
347.908	48.23
348.291	76.03
348.674	96.37
349.057	106.08
349.44	134.33
349.823	146.31
350.206	156.48
350.588	183.37
350.971	208.91
351.354	209.13
351.737	202.13
352.119	235.57
352.502	233.99
352.884	257.04
353.267	260.43
353.65	297.72
354.032	286.87
354.414	259.08
354.797	302.46
355.179	306.76
355.562	335.46
355.944	298.85
356.326	311.28
356.709	312.86
357.091	301.56
357.473	342.24
357.855	325.06
358.238	326.19
358.62	320.77
359.002	335.68
359.384	337.04
359.766	310.83
360.148	328
360.53	313.76
360.912	323.25
361.294	323.03
361.676	318.28
362.057	316.02
362.439	320.99
362.821	302.01
363.203	299.07
363.584	292.97
363.966	285.74
364.348	286.19
364.729	304.72
365.111	291.62
365.493	313.31
365.874	304.95
366.256	305.63
366.637	298.17
367.019	306.76
367.4	293.2
367.781	297.04
368.163	302.01
368.544	293.42
368.925	298.17
369.306	322.58
369.688	296.59
370.069	288.45
370.45	293.88
370.831	282.8
371.212	299.75
371.593	288.23
371.974	296.14
372.355	306.98
372.736	313.99
373.117	294.33
373.498	292.97
373.879	303.82
374.26	306.31
374.641	302.46
375.021	278.74
375.402	317.38
375.783	305.85
376.163	287.32
376.544	300.43
376.925	297.72
377.305	290.49
377.686	290.49
378.066	318.28
378.447	322.12
378.827	308.57
379.208	316.25
379.588	306.08
379.968	327.55
380.349	309.02
380.729	329.13
381.109	314.67
381.489	312.86
381.87	322.35
382.25	336.59
382.63	328
383.01	325.06
383.39	329.81
383.77	314.89
384.15	317.15
384.53	332.75
384.91	322.58
385.29	336.81
385.67	319.64
386.049	342.24
386.429	318.06
386.809	325.06
387.189	331.84
387.568	334.78
387.948	333.88
388.328	317.38
388.707	332.29
389.087	365.74
389.466	342.01
389.846	343.37
390.225	340.43
390.605	353.76
390.984	329.81
391.363	344.04
391.743	350.82
392.122	341.33
392.501	325.74
392.881	362.8
393.26	345.85
393.639	354.67
394.018	353.08
394.397	355.57
394.776	355.12
395.155	368.45
395.534	363.93
395.913	354.89
396.292	366.87
396.671	368.45
397.05	350.6
397.429	356.47
397.808	384.95
398.186	372.29
398.565	368
398.944	349.47
399.323	367.09
399.701	358.51
400.08	370.48
400.458	385.85
400.837	378.62
401.215	381.33
401.594	355.8
401.972	367.09
402.351	360.09
402.729	383.14
403.107	390.15
403.486	377.49
403.864	399.86
404.242	388.11
404.62	376.36
404.999	391.95
405.377	388.11
405.755	391.05
406.133	411.16
406.511	389.24
406.889	400.77
407.267	403.48
407.645	396.7
408.023	417.26
408.401	403.93
408.779	398.05
409.156	411.16
409.534	407.77
409.912	413.87
410.29	421.1
410.667	396.92
411.045	437.38
411.422	418.17
411.8	451.39
412.178	434.89
412.555	426.08
412.933	408.9
413.31	422.91
413.687	427.21
414.065	447.77
414.442	425.62
414.819	462.69
415.197	440.99
415.574	425.85
415.951	436.92
416.328	445.96
416.705	437.6
417.082	445.28
417.46	446.87
417.837	468.11
418.214	450.26
418.591	468.79
418.967	483.25
419.344	475.57
419.721	475.79
420.098	466.75
420.475	484.83
420.852	466.3
421.228	480.54
421.605	470.82
421.982	468.56
422.358	507.2
422.735	475.57
423.111	479.86
423.488	496.81
423.864	483.48
424.241	487.77
424.617	492.29
424.994	506.75
425.37	492.06
425.746	480.54
426.123	498.39
426.499	517.15
426.875	515.11
427.251	509.69
427.627	539.29
428.003	509.69
428.379	516.47
428.756	535.45
429.132	519.86
429.507	553.98
429.883	534.32
430.259	526.64
430.635	547.88
431.011	559.41
431.387	553.3
431.763	566.86
432.138	547.66
432.514	569.35
432.89	559.63
433.265	569.35
433.641	588.33
434.016	570.03
434.392	570.71
434.767	571.61
435.143	580.65
435.518	593.98
435.894	579.07
436.269	609.35
436.644	590.37
437.02	586.98
437.395	618.16
437.77	583.13
438.145	603.7
438.52	629.23
438.895	617.26
439.271	604.6
439.646	632.4
440.021	626.07
440.395	624.72
440.77	635.79
441.145	653.64
441.52	630.59
441.895	637.82
442.27	638.27
442.645	651.83
443.019	624.26
443.394	659.29
443.769	666.07
444.143	656.58
444.518	654.32
444.892	647.31
445.267	656.58
445.641	665.17
446.016	686.18
446.39	661.32
446.764	682.79
447.139	660.19
447.513	701.55
447.887	665.84
448.262	695.9
448.636	679.18
449.01	679.18
449.384	702.91
449.758	683.92
450.132	711.27
450.506	721.44
450.88	715.56
451.254	719.18
451.628	702.68
452.002	742.45
452.376	730.7
452.75	716.92
453.123	728.89
453.497	778.84
453.871	752.17
454.244	771.15
454.618	770.02
454.992	762.56
455.365	764.15
455.739	792.85
456.112	789.91
456.486	787.87
456.859	783.13
457.232	831.04
457.606	826.97
457.979	807.54
458.352	798.72
458.725	827.2
459.099	843.47
459.472	842.34
459.845	871.71
460.218	843.24
460.591	843.69
460.964	866.74
461.337	870.58
461.71	877.14
462.083	921.2
462.456	904.26
462.829	897.02
463.201	889.57
463.574	901.09
463.947	935.89
464.32	923.24
464.692	946.29
465.065	949.9
465.438	953.75
465.81	985.61
466.183	967.31
466.555	957.14
466.928	994.65
467.3	973.41
467.672	1006.85
468.045	1010.92
468.417	999.62
468.789	1025.61
469.161	1009.79
469.534	1029
469.906	1065.38
470.278	1057.47
470.65	1078.26
471.022	1073.52
471.394	1102.89
471.766	1111.48
472.138	1129.56
472.51	1118.94
472.882	1176.11
473.253	1137.24
473.625	1169.11
473.997	1177.47
474.369	1191.71
474.74	1194.42
475.112	1191.03
475.484	1231.93
475.855	1258.82
476.227	1247.98
476.598	1273.29
476.97	1301.08
477.341	1328.2
477.713	1320.74
478.084	1323.91
478.455	1343.57
478.827	1360.52
479.198	1398.93
479.569	1404.58
479.94	1433.51
480.311	1431.47
480.682	1472.83
481.053	1487.07
481.424	1485.26
481.795	1520.96
482.166	1555.76
482.537	1572.71
482.908	1579.72
483.279	1562.09
483.65	1605.48
484.021	1623.33
484.391	1664.24
484.762	1658.59
485.133	1693.39
485.503	1671.69
485.874	1720.28
486.244	1730
486.615	1767.28
486.985	1770.45
487.356	1813.84
487.726	1824.23
488.097	1863.78
488.467	1853.61
488.837	1849.54
489.207	1896.32
489.578	1892.93
489.948	1941.52
490.318	1975.64
490.688	1969.99
491.058	1994.17
491.428	2018.58
491.798	1998.92
492.168	2064.45
492.538	2042.08
492.908	2120.95
493.278	2144.22
493.648	2082.98
494.017	2153.04
494.387	2151.91
494.757	2172.92
495.126	2150.1
495.496	2201.85
495.866	2245.01
496.235	2206.82
496.605	2202.07
496.974	2268.97
497.344	2242.3
497.713	2259.47
498.082	2293.15
498.452	2314.39
498.821	2313.03
499.19	2317.1
499.559	2339.47
499.928	2372.92
500.298	2395.29
500.667	2372.47
501.036	2405.91
501.405	2398.45
501.774	2431
502.143	2451.11
502.512	2429.87
502.88	2422.18
503.249	2497.43
503.618	2475.74
503.987	2499.24
504.356	2512.8
504.724	2529.98
505.093	2531.11
505.462	2565.68
505.83	2588.51
506.199	2553.93
506.567	2586.02
506.936	2624.44
507.304	2646.36
507.672	2626.7
508.041	2628.5
508.409	2681.16
508.777	2718.22
509.145	2735.39
509.514	2732.23
509.882	2733.36
510.25	2765.22
510.618	2751.44
510.986	2794.38
511.354	2846.35
511.722	2827.37
512.09	2845.45
512.458	2848.39
512.826	2889.97
513.193	2917.31
513.561	2912.56
513.929	2940.36
514.297	2982.85
514.664	2967.7
515.032	3016.74
515.4	2966.12
515.767	2996.63
516.135	3060.36
516.502	3041.83
516.869	3090.87
517.237	3024.88
517.604	3106.01
517.972	3085.89
518.339	3178.32
518.706	3149.62
519.073	3158.89
519.44	3154.14
519.808	3176.51
520.175	3195.04
520.542	3211.54
520.909	3277.98
521.276	3274.59
521.643	3318.43
522.009	3294.7
522.376	3343.74
522.743	3372.67
523.11	3390.29
523.477	3424.19
523.843	3449.05
524.21	3454.7
524.577	3514.36
524.943	3512.1
525.31	3543.73
525.676	3573.79
526.043	3609.95
526.409	3613.34
526.776	3663.05
527.142	3644.52
527.508	3673
527.874	3713.22
528.241	3713.9
528.607	3734.69
528.973	3748.02
529.339	3744.18
529.705	3816.72
530.071	3848.13
530.437	3841.35
530.803	3814.24
531.169	3847.91
531.535	3835.93
531.901	3871.64
532.267	3858.75
532.632	3928.36
532.998	3962.25
533.364	3914.57
533.73	3988.92
534.095	4024.17
534.461	4017.17
534.826	4005.19
535.192	4052.65
535.557	4061.91
535.923	4052.42
536.288	4105.53
536.653	4128.58
537.019	4102.59
537.384	4142.81
537.749	4137.17
538.114	4203.15
538.479	4194.79
538.845	4213.1
539.21	4224.39
539.575	4238.18
539.94	4276.14
540.305	4315.47
540.67	4272.75
541.034	4270.5
541.399	4342.81
541.764	4351.17
542.129	4329.02
542.494	4296.48
542.858	4344.84
543.223	4295.13
543.587	4375.13
543.952	4369.02
544.316	4411.73
544.681	4369.02
545.045	4444.73
545.41	4410.6
545.774	4456.93
546.138	4462.58
546.503	4467.78
546.867	4436.59
547.231	4499.87
547.595	4484.5
547.959	4538.51
548.324	4533.99
548.688	4592.75
549.052	4576.48
549.416	4630.26
549.779	4636.14
550.143	4649.24
550.507	4639.75
550.871	4702.35
551.235	4732.63
551.599	4744.38
551.962	4706.19
552.326	4790.93
552.689	4818.73
553.053	4785.74
553.417	4782.57
553.78	4865.73
554.143	4891.95
554.507	4902.79
554.87	4879.52
555.234	4951.61
555.597	4929.23
555.96	4938.95
556.323	4977.82
556.686	4972.4
557.05	4943.7
557.413	5007.88
557.776	5014.2
558.139	5087.87
558.502	5024.15
558.865	5049.23
559.228	5122.9
559.59	5175.78
559.953	5127.87
560.316	5168.78
560.679	5126.52
561.041	5217.59
561.404	5209.23
561.767	5228.44
562.129	5263.24
562.492	5290.36
562.854	5344.82
563.217	5294.87
563.579	5364.7
563.941	5394.53
564.304	5393.4
564.666	5390.92
565.028	5466.85
565.39	5455.1
565.753	5514.76
566.115	5576.9
566.477	5607.64
566.839	5582.1
567.201	5650.8
567.563	5666.62
567.925	5683.57
568.287	5710.91
568.648	5713.39
569.01	5772.38
569.372	5720.4
569.734	5770.57
570.095	5809.21
570.457	5819.38
570.819	5848.31
571.18	5808.76
571.542	5878.14
571.903	5876.55
572.265	5888.31
572.626	5905.48
572.987	5912.26
573.349	5944.12
573.71	5960.17
574.071	5940.51
574.432	5961.75
574.794	6025.7
575.155	6041.3
575.516	5957.23
575.877	6012.82
576.238	6044.69
576.599	6051.24
576.96	6064.8
577.32	6010.79
577.681	6085.59
578.042	6109.54
578.403	6130.11
578.763	6114.29
579.124	6096.21
579.485	6182.08
579.845	6171.46
580.206	6185.25
580.566	6212.59
580.927	6203.33
581.287	6226.6
581.648	6268.41
582.008	6225.25
582.368	6173.04
582.728	6212.82
583.089	6226.83
583.449	6299.14
583.809	6321.06
584.169	6225.7
584.529	6245.81
584.889	6314.96
585.249	6217.79
585.609	6308.18
585.969	6326.71
586.329	6266.6
586.688	6288.07
587.048	6277.22
587.408	6237.22
587.768	6305.7
588.127	6253.49
588.487	6278.58
588.846	6271.8
589.206	6228.86
589.565	6206.72
589.925	6368.07
590.284	6256.43
590.643	6226.83
591.003	6240.16
591.362	6247.17
591.721	6240.61
592.08	6275.41
592.44	6244.45
592.799	6308.86
593.158	6237
593.517	6261.18
593.876	6241.29
594.235	6229.99
594.593	6240.61
594.952	6230.67
595.311	6228.64
595.67	6292.81
596.029	6268.18
596.387	6309.31
596.746	6352.47
597.104	6295.3
597.463	6296.43
597.822	6323.55
598.18	6294.62
598.538	6306.15
598.897	6356.54
599.255	6333.27
599.613	6362.19
599.972	6333.49
600.33	6379.14
600.688	6350.21
601.046	6385.92
601.404	6352.47
601.762	6399.7
602.12	6397.44
602.478	6386.6
602.836	6412.81
603.194	6368.29
603.552	6396.54
603.91	6319.93
604.268	6439.03
604.625	6364.68
604.983	6380.5
605.341	6349.99
605.698	6412.13
606.056	6405.58
606.413	6411.46
606.771	6427.5
607.128	6372.59
607.485	6363.32
607.843	6374.62
608.2	6448.97
608.557	6417.33
608.914	6432.02
609.272	6451.91
609.629	6481.51
609.986	6512.7
610.343	6453.04
610.7	6498.91
611.057	6471.57
611.414	6499.36
611.771	6505.92
612.127	6499.59
612.484	6530.77
612.841	6553.6
613.198	6533.26
613.554	6512.47
613.911	6596.31
614.267	6592.92
614.624	6558.57
614.98	6574.84
615.337	6647.38
615.693	6578.91
616.05	6541.85
616.406	6641.96
616.762	6600.15
617.118	6566.48
617.475	6601.06
617.831	6633.82
618.187	6608.06
618.543	6558.8
618.899	6658.45
619.255	6639.25
619.611	6651
619.967	6633.14
620.323	6689.87
620.678	6597.67
621.034	6603.99
621.39	6623.88
621.746	6609.87
622.101	6638.57
622.457	6591.56
622.812	6595.41
623.168	6629.76
623.523	6656.2
623.879	6654.39
624.234	6585.24
624.589	6629.98
624.945	6634.73
625.3	6657.78
625.655	6655.07
626.01	6672.92
626.365	6659.58
626.72	6615.29
627.075	6651.22
627.43	6600.6
627.785	6638.57
628.14	6677.44
628.495	6699.58
628.85	6702.97
629.205	6592.47
629.559	6694.61
629.914	6653.26
630.269	6632.92
630.623	6672.47
630.978	6622.07
631.332	6619.59
631.687	6645.57
632.041	6608.51
632.396	6677.89
632.75	6566.03
633.104	6594.5
633.459	6597.67
633.813	6594.05
634.167	6606.03
634.521	6538.23
634.875	6586.14
635.229	6544.79
635.583	6560.15
635.937	6506.14
636.291	6503.88
636.645	6534.84
636.999	6531
637.352	6544.56
637.706	6457.33
638.06	6451.68
638.413	6454.62
638.767	6366.94
639.121	6424.56
639.474	6466.14
639.828	6388.18
640.181	6464.56
640.534	6432.47
640.888	6356.99
641.241	6335.98
641.594	6365.13
641.947	6372.13
642.301	6377.56
642.654	6334.17
643.007	6334.62
643.36	6387.95
643.713	6335.3
644.066	6400.61
644.419	6256.21
644.771	6247.17
645.124	6217.34
645.477	6221.63
645.83	6166.04
646.182	6112.48
646.535	6097.11
646.888	6158.13
647.24	6157
647.593	6163.1
647.945	6141.18
648.298	6148.86
648.65	6134.17
649.002	6121.29
649.355	6153.16
649.707	6099.15
650.059	6098.92
650.411	6186.38
650.763	6201.52
651.115	6275.64
651.467	6223.44
651.819	6214.17
652.171	6228.41
652.523	6183.89
652.875	6193.16
653.227	6103.67
653.578	6199.48
653.93	6203.33
654.282	6183.67
654.633	6113.61
654.985	6148.41
655.337	6123.78
655.688	6119.03
656.039	6148.19
656.391	6108.41
656.742	6126.94
657.094	6101.41
657.445	6109.99
657.796	6062.09
658.147	6106.83
658.498	6103.67
658.849	6076.78
659.2	6079.49
659.551	6078.58
659.902	6102.76
660.253	6051.24
660.604	6096.44
660.955	6019.83
661.306	6027.74
661.656	6041.75
662.007	6031.13
662.358	6048.3
662.708	6063.44
663.059	6039.04
663.409	6040.62
663.76	6051.24
664.11	6082.2
664.461	6051.69
664.811	6078.36
665.161	6086.49
665.511	6058.47
665.862	6045.59
666.212	6056.44
666.562	6044.91
666.912	6031.8
667.262	6086.49
667.612	6027.29
667.962	6054.4
668.312	6071.58
668.662	6118.13
669.011	6050.56
669.361	6050.56
669.711	5999.94
670.06	6025.93
670.41	6016.66
670.76	5968.98
671.109	6028.41
671.459	6025.25
671.808	5986.61
672.157	5982.99
672.507	5962.88
672.856	5959.94
673.205	5931.24
673.554	5942.77
673.904	5912.94
674.253	5962.43
674.602	5969.43
674.951	5869.55
675.3	5858.93
675.649	5899.15
675.998	5949.32
676.346	5897.8
676.695	5887.18
677.044	5870.45
677.393	5838.36
677.741	5832.94
678.09	5834.07
678.438	5828.87
678.787	5851.02
679.135	5842.21
679.484	5811.02
679.832	5849.21
680.181	5813.73
680.529	5804.69
680.877	5825.26
681.225	5820.28
681.573	5824.58
681.922	5778.48
682.27	5783
682.618	5810.12
682.966	5755.88
683.314	5821.64
683.661	5767.86
684.009	5736.9
684.357	5749.33
684.705	5736.67
685.053	5761.98
685.4	5735.09
685.748	5690.57
686.095	5695.32
686.443	5729.21
686.79	5726.5
687.138	5723.56
687.485	5711.14
687.832	5717.46
688.18	5673.17
688.527	5648.76
688.874	5701.42
689.221	5674.53
689.568	5610.12
689.915	5641.31
690.262	5643.79
690.609	5644.7
690.956	5593.85
691.303	5613.74
691.65	5571.03
691.997	5552.04
692.344	5533.06
692.69	5532.38
693.037	5529.22
693.383	5492.84
693.73	5453.74
694.077	5475.21
694.423	5429.79
694.769	5400.86
695.116	5375.78
695.462	5397.47
695.808	5349.34
696.155	5369.9
696.501	5323.12
696.847	5297.59
697.193	5277.02
697.539	5220.3
697.885	5196.8
698.231	5200.64
698.577	5207.65
698.923	5211.94
699.269	5111.38
699.614	5154.09
699.96	5139.62
700.306	5131.94
700.651	5086.29
700.997	5086.97
701.342	5129.91
701.688	5084.94
702.033	5074.09
702.379	5089.68
702.724	5014.66
703.069	5006.75
703.415	5002
703.76	4966.75
704.105	4951.16
704.45	4990.02
704.795	5018.05
705.14	4986.86
705.485	5017.82
705.83	4925.17
706.175	5013.3
706.52	4931.72
706.865	4922.68
707.209	4936.69
707.554	4944.15
707.899	4962.45
708.243	4924.72
708.588	4919.52
708.932	4847.2
709.277	4864.15
709.621	4891.04
709.966	4852.4
710.31	4835.45
710.654	4853.3
710.998	4838.39
711.342	4842.91
711.687	4878.61
712.031	4816.02
712.375	4825.51
712.719	4818.5
713.063	4809.24
713.407	4840.42
713.75	4831.38
714.094	4789.8
714.438	4740.09
714.782	4728.79
715.125	4716.13
715.469	4703.7
715.812	4716.13
716.156	4684.95
716.499	4646.76
716.843	4658.51
717.186	4649.92
717.53	4639.75
717.873	4656.02
718.216	4613.54
718.559	4620.54
718.902	4555.69
719.246	4627.32
719.589	4536.25
719.932	4559.3
720.275	4554.56
720.617	4505.29
720.96	4501.22
721.303	4521.34
721.646	4556.82
721.989	4465.97
722.331	4451.96
722.674	4453.32
723.016	4477.5
723.359	4468.23
723.701	4466.87
724.044	4422.13
724.386	4413.77
724.729	4434.56
725.071	4407.89
725.413	4402.92
725.755	4412.41
726.097	4358.18
726.439	4376.03
726.782	4332.87
727.124	4416.48
727.465	4398.18
727.807	4408.12
728.149	4341
728.491	4372.19
728.833	4367.22
729.175	4396.82
729.516	4386.88
729.858	4376.25
730.199	4361.11
730.541	4351.85
730.882	4343.04
731.224	4398.63
731.565	4309.36
731.906	4311.62
732.248	4343.71
732.589	4337.39
732.93	4359.31
733.271	4291.96
733.612	4296.48
733.953	4322.92
734.294	4310.04
734.635	4280.21
734.976	4298.29
735.317	4277.73
735.658	4270.27
735.999	4273.21
736.339	4259.2
736.68	4280.89
737.021	4261
737.361	4255.35
737.702	4278.86
738.042	4283.15
738.383	4230.72
738.723	4222.36
739.063	4249.93
739.404	4230.27
739.744	4164.74
740.084	4156.83
740.424	4170.16
740.764	4198.18
741.104	4211.29
741.444	4162.02
741.784	4156.37
742.124	4180.33
742.464	4126.77
742.804	4146.66
743.143	4140.55
743.483	4092.42
743.823	4096.71
744.162	4097.39
744.502	4075.92
744.841	4045.87
745.181	4135.81
745.52	4063.27
745.86	4076.6
746.199	4075.92
746.538	4065.75
746.877	4084.51
747.216	4057.62
747.556	4044.74
747.895	4045.64
748.234	4009.48
748.573	4002.03
748.911	3984.17
749.25	3948.24
749.589	3943.72
749.928	3967
750.267	3953.22
750.605	3952.54
750.944	3965.19
751.283	3910.73
751.621	3916.15
751.96	3927
752.298	3890.39
752.636	3919.09
752.975	3903.73
753.313	3863.05
753.651	3837.06
753.989	3922.03
754.327	3866.89
754.666	3834.8
755.004	3836.16
755.342	3877.51
755.679	3856.95
756.017	3831.64
756.355	3900.11
756.693	3813.11
757.031	3836.38
757.368	3806.55
757.706	3825.08
758.044	3809.49
758.381	3820.56
758.719	3796.16
759.056	3821.69
759.394	3809.49
759.731	3774.01
760.068	3760.68
760.405	3772.88
760.743	3771.07
761.08	3771.98
761.417	3709.15
761.754	3710.96
762.091	3745.99
762.428	3732.88
762.765	3728.14
763.102	3718.87
763.438	3703.96
763.775	3666.9
764.112	3724.75
764.449	3697.4
764.785	3680.91
765.122	3642.26
765.458	3661.25
765.795	3687.69
766.131	3614.92
766.467	3615.37
766.804	3610.17
767.14	3579.21
767.476	3591.87
767.812	3572.89
768.148	3545.09
768.485	3495.15
768.821	3558.42
769.157	3526.79
769.492	3487.24
769.828	3480.46
770.164	3410.63
770.5	3454.92
770.836	3451.76
771.171	3385.09
771.507	3384.87
771.842	3364.3
