Data from foam1_polythene_foam_FLMS001491_00003.txt Node
Date: Wed Feb 08 10:54:17 GMT 2017
User: dcchb
Spectrometer: FLMS00149
Trigger mode: 0
Integration Time (sec): 2.000000E-2
Scans to average: 10
Electric dark correction enabled: true
Nonlinearity correction enabled: false
Boxcar width: 0
XAxis mode: Wavelengths
Number of Pixels in Spectrum: 2048
>>>>>Begin Spectral Data<<<<<
341.393	-4.53
341.776	-4.53
342.16	-4.53
342.543	-56.28
342.927	-57.19
343.31	-56.06
343.693	-69.16
344.077	-53.57
344.46	-61.93
344.843	-59.67
345.226	-51.09
345.61	-51.99
345.993	-11.99
346.376	13.77
346.759	10.61
347.142	27.33
347.525	32.98
347.908	58.74
348.291	70.04
348.674	87.44
349.057	114.56
349.44	125.41
349.823	144.39
350.206	142.81
350.588	185.07
350.971	198.4
351.354	214.44
351.737	194.33
352.119	235.01
352.502	238.85
352.884	253.76
353.267	250.15
353.65	273.43
354.032	282.69
354.414	296.93
354.797	315.91
355.179	302.8
355.562	302.58
355.944	316.36
356.326	331.73
356.709	311.39
357.091	321.33
357.473	348.45
357.855	333.08
358.238	321.56
358.62	312.29
359.002	323.37
359.384	309.58
359.766	301.45
360.148	324.95
360.53	317.49
360.912	324.72
361.294	327.21
361.676	303.25
362.057	312.75
362.439	303.03
362.821	293.76
363.203	316.59
363.584	322.24
363.966	309.58
364.348	289.47
364.729	314.78
365.111	321.79
365.493	297.61
365.874	298.51
366.256	309.81
366.637	296.02
367.019	294.89
367.4	287.89
367.781	282.01
368.163	279.07
368.544	288.34
368.925	298.28
369.306	289.7
369.688	296.7
370.069	279.3
370.45	286.98
370.831	289.7
371.212	293.54
371.593	295.12
371.974	283.37
372.355	295.35
372.736	292.18
373.117	278.85
373.498	295.8
373.879	298.06
374.26	311.16
374.641	292.86
375.021	299.64
375.402	320.66
375.783	265.29
376.163	301.67
376.544	291.28
376.925	303.93
377.305	293.54
377.686	285.18
378.066	310.03
378.447	302.12
378.827	303.03
379.208	288.79
379.588	323.14
379.968	331.95
380.349	298.96
380.729	310.26
381.109	293.31
381.489	318.85
381.87	308
382.25	304.84
382.63	311.39
383.01	335.34
383.39	311.84
383.77	307.55
384.15	325.63
384.53	319.98
384.91	322.01
385.29	340.32
385.67	314.33
386.049	319.53
386.429	333.54
386.809	330.15
387.189	327.21
387.568	317.04
387.948	327.66
388.328	335.12
388.707	334.44
389.087	329.02
389.466	332.18
389.846	324.72
390.225	336.93
390.605	351.62
390.984	326.3
391.363	312.29
391.743	331.28
392.122	333.54
392.501	338.51
392.881	350.03
393.26	355
393.639	332.63
394.018	335.8
394.397	329.02
394.776	348.68
395.155	340.54
395.534	358.17
395.913	333.08
396.292	368.34
396.671	363.37
397.05	356.13
397.429	358.17
397.808	349.36
398.186	353.42
398.565	371.05
398.944	360.43
399.323	353.87
399.701	368.34
400.08	370.37
400.458	392.52
400.837	354.1
401.215	375.57
401.594	372.86
401.972	364.04
402.351	368.34
402.729	404.95
403.107	370.15
403.486	377.38
403.864	385.06
404.242	370.6
404.62	377.83
404.999	385.96
405.377	387.55
405.755	392.74
406.133	390.26
406.511	386.19
406.889	388.22
407.267	380.99
407.645	394.33
408.023	374.89
408.401	402.91
408.779	398.17
409.156	410.37
409.534	380.09
409.912	414.89
410.29	408.34
410.667	405.17
411.045	426.87
411.422	428.45
411.8	427.32
412.178	383.48
412.555	421.44
412.933	415.57
413.31	423.7
413.687	414.89
414.065	430.48
414.442	422.57
414.819	425.96
415.197	416.47
415.574	448.34
415.951	416.47
416.328	428.45
416.705	442.46
417.082	444.72
417.46	438.39
417.837	434.32
418.214	438.62
418.591	429.35
418.967	463.25
419.344	442.91
419.721	480.43
420.098	474.32
420.475	446.3
420.852	467.32
421.228	461.22
421.605	445.85
421.982	457.83
422.358	450.82
422.735	481.33
423.111	478.62
423.488	466.19
423.864	482.46
424.241	463.93
424.617	481.78
424.994	485.62
425.37	510.25
425.746	482.46
426.123	509.58
426.499	508
426.875	491.5
427.251	519.07
427.627	534.66
428.003	515.45
428.379	499.41
428.756	534.21
429.132	530.82
429.507	546.19
429.883	543.93
430.259	517.71
430.635	537.6
431.011	537.37
431.387	532.18
431.763	542.57
432.138	565.39
432.514	554.55
432.89	549.12
433.265	595.45
433.641	559.97
434.016	575.34
434.392	580.08
434.767	575.11
435.143	569.69
435.518	580.54
435.894	617.6
436.269	587.77
436.644	608.33
437.02	617.14
437.395	603.13
437.77	631.38
438.145	651.72
438.52	630.7
438.895	632.96
439.271	649.46
439.646	677.71
440.021	631.61
440.395	659.63
440.77	664.38
441.145	672.96
441.52	672.96
441.895	657.37
442.27	687.2
442.645	684.49
443.019	686.97
443.394	697.37
443.769	731.49
444.143	687.2
444.518	712.96
444.892	706.86
445.267	707.99
445.641	722.45
446.016	725.62
446.39	733.07
446.764	755.9
447.139	742.57
447.513	750.47
447.887	771.27
448.262	746.41
448.636	774.2
449.01	773.3
449.384	788.67
449.758	770.59
450.132	798.16
450.506	788.67
450.88	785.95
451.254	796.8
451.628	768.78
452.002	812.39
452.376	803.58
452.75	806.29
453.123	821.66
453.497	806.07
453.871	837.25
454.244	832.96
454.618	859.17
454.992	866.63
455.365	849.68
455.739	860.53
456.112	869.79
456.486	870.92
456.859	875.44
457.232	864.14
457.606	890.36
457.979	886.97
458.352	865.27
458.725	900.08
459.099	904.14
459.472	901.43
459.845	912.28
460.218	926.97
460.591	908.66
460.964	921.77
461.337	936.01
461.71	912.5
462.083	940.98
462.456	947.53
462.829	937.36
463.201	973.75
463.574	937.59
463.947	971.94
464.32	973.75
464.692	971.94
465.065	1029.34
465.438	987.08
465.81	1019.85
466.183	1013.74
466.555	1000.19
466.928	1019.17
467.3	1015.33
467.672	1037.47
468.045	1064.59
468.417	1038.15
468.789	1061.43
469.161	1084.48
469.534	1112.5
469.906	1111.37
470.278	1129.45
470.65	1098.71
471.022	1122.89
471.394	1142.55
471.766	1159.05
472.138	1141.65
472.51	1158.15
472.882	1169.9
473.253	1178.94
473.625	1213.06
473.997	1236.34
474.369	1226.62
474.74	1231.82
475.112	1235.21
475.484	1306.17
475.855	1274.08
476.227	1293.06
476.598	1322.89
476.97	1313.17
477.341	1339.39
477.713	1360.4
478.084	1345.49
478.455	1401.08
478.827	1404.24
479.198	1431.81
479.569	1409.44
479.94	1463
480.311	1487.4
480.682	1505.93
481.053	1537.8
481.424	1538.93
481.795	1577.8
482.166	1568.53
482.537	1590
482.908	1640.62
483.279	1615.31
483.65	1638.59
484.021	1714.74
484.391	1696.44
484.762	1705.03
485.133	1717
485.503	1745.93
485.874	1792.71
486.244	1806.49
486.615	1834.51
486.985	1825.7
487.356	1858.24
487.726	1891.91
488.097	1903.89
488.467	1911.57
488.837	1924.91
489.207	1971.01
489.578	1963.55
489.948	1999.26
490.318	2047.16
490.688	2053.49
491.058	2094.17
491.428	2079.93
491.798	2128.29
492.168	2157.44
492.538	2118.35
492.908	2153.38
493.278	2199.48
493.648	2225.92
494.017	2239.25
494.387	2260.49
494.757	2288.06
495.126	2311.11
495.496	2306.82
495.866	2346.36
496.235	2337.33
496.605	2377.1
496.974	2438.57
497.344	2425.23
497.713	2436.31
498.082	2427.49
498.452	2446.02
498.821	2477.89
499.19	2491.9
499.559	2473.14
499.928	2505.23
500.298	2519.47
500.667	2545.23
501.036	2545.91
501.405	2563.76
501.774	2598.56
502.143	2630.65
502.512	2617.09
502.88	2626.81
503.249	2653.7
503.618	2667.94
503.987	2681.72
504.356	2725.11
504.724	2708.62
505.093	2750.87
505.462	2747.48
505.83	2771.21
506.199	2744.77
506.567	2843.07
506.936	2845.79
507.304	2858.22
507.672	2908.61
508.041	2907.03
508.409	2908.61
508.777	2912
509.145	2912.68
509.514	2959.23
509.882	2993.13
510.25	2978.44
510.618	2973.69
510.986	3029.96
511.354	3062.28
511.722	3062.05
512.09	3106.34
512.458	3111.09
512.826	3132.78
513.193	3143.18
513.561	3179.56
513.929	3215.72
514.297	3213.91
514.664	3274.48
515.032	3239
515.4	3240.8
515.767	3289.16
516.135	3346.79
516.502	3309.73
516.869	3371.65
517.237	3360.35
517.604	3393.12
517.972	3407.35
518.339	3422.27
518.706	3469.05
519.073	3509.5
519.44	3482.38
519.808	3572.77
520.175	3515.15
520.542	3576.16
520.909	3620.68
521.276	3611.64
521.643	3647.35
522.009	3683.96
522.376	3766.21
522.743	3734.35
523.11	3780.23
523.477	3766.21
523.843	3762.15
524.21	3845.76
524.577	3869.26
524.943	3865.19
525.31	3916.04
525.676	3977.73
526.043	3982.03
526.409	3993.33
526.776	4062.93
527.142	4035.81
527.508	4073.78
527.874	4073.1
528.241	4122.82
528.607	4134.11
528.973	4176.83
529.339	4186.09
529.705	4243.49
530.071	4311.96
530.437	4288.46
530.803	4306.31
531.169	4314.67
531.535	4298.4
531.901	4333.43
532.267	4386.54
532.632	4439.87
532.998	4407.33
533.364	4471.28
533.73	4469.25
534.095	4504.73
534.461	4546.53
534.826	4579.75
535.192	4518.96
535.557	4544.27
535.923	4557.61
536.288	4586.98
536.653	4677.83
537.019	4647.1
537.384	4632.86
537.749	4729.13
538.114	4703.82
538.479	4678.73
538.845	4726.87
539.21	4712.4
539.575	4718.73
539.94	4728.68
540.305	4777.49
540.67	4803.25
541.034	4814.32
541.399	4866.75
541.764	4890.03
542.129	4841.44
542.494	4902.46
542.858	4906.07
543.223	4929.57
543.587	4940.19
543.952	4928.9
544.316	4972.96
544.681	4955.34
545.045	5014.77
545.41	4953.98
545.774	4985.62
546.138	5052.96
546.503	5090.02
546.867	5071.72
547.231	5153.07
547.595	5124.82
547.959	5171.6
548.324	5184.71
548.688	5196.46
549.052	5169.12
549.416	5195.33
549.779	5196.01
550.143	5264.25
550.507	5266.51
550.871	5266.29
551.235	5276.01
551.599	5300.64
551.962	5332.28
552.326	5353.74
552.689	5414.98
553.053	5398.49
553.417	5431.03
553.78	5482.55
554.143	5513.06
554.507	5492.04
554.87	5487.3
555.234	5557.35
555.597	5519.61
555.96	5568.43
556.323	5578.82
556.686	5659.95
557.05	5619.73
557.413	5661.31
557.776	5677.35
558.139	5690.23
558.502	5660.4
558.865	5751.25
559.228	5755.99
559.59	5841.19
559.953	5795.77
560.316	5858.59
560.679	5872.15
561.041	5913.95
561.404	5976.55
561.767	5957.8
562.129	5935.2
562.492	6061.52
562.854	6004.35
563.217	6035.31
563.579	6066.49
563.941	6102.42
564.304	6096.55
564.666	6200.05
565.028	6137.23
565.39	6194.63
565.753	6224
566.115	6276.66
566.477	6249.09
566.839	6340.16
567.201	6352.36
567.563	6369.31
567.925	6425.13
568.287	6419.93
568.648	6442.3
569.01	6457.67
569.372	6497.22
569.734	6479.36
570.095	6522.98
570.457	6534.73
570.819	6526.14
571.18	6576.54
571.542	6626.93
571.903	6663.99
572.265	6668.29
572.626	6636.2
572.987	6686.14
573.349	6689.3
573.71	6738.11
574.071	6755.06
574.432	6774.05
574.794	6747.61
575.155	6750.99
575.516	6801.84
575.877	6793.71
576.238	6891.56
576.599	6848.62
576.96	6841.61
577.32	6875.51
577.681	6842.07
578.042	6893.82
578.403	6890.43
578.763	6907.37
579.124	6934.94
579.485	6959.12
579.845	6922.06
580.206	6936.53
580.566	6981.95
580.927	6994.83
581.287	7028.5
581.648	6994.15
582.008	7020.82
582.368	7030.31
582.728	7034.6
583.089	7005.68
583.449	6992.34
583.809	7007.49
584.169	7009.75
584.529	7027.6
584.889	7051.33
585.249	7012.23
585.609	7021.27
585.969	7087.26
586.329	7034.15
586.688	7054.26
587.048	6989.41
587.408	7021.95
587.768	7057.88
588.127	6996.86
588.487	7077.31
588.846	7092.91
589.206	6942.63
589.565	7072.57
589.925	7037.09
590.284	7077.09
590.643	7124.77
591.003	7087.26
591.362	7129.52
591.721	7069.86
592.08	7038.67
592.44	7100.59
592.799	7055.39
593.158	7122.96
593.517	7078.9
593.876	7059.24
594.235	7064.21
594.593	7048.16
594.952	7125.22
595.311	7111.44
595.67	7092
596.029	7142.85
596.387	7127.03
596.746	7144.2
597.104	7097.43
597.463	7085.9
597.822	7151.44
598.18	7078.22
598.538	7088.16
598.897	7110.08
599.255	7148.05
599.613	7183.53
599.972	7155.96
600.33	7108.73
600.688	7101.49
601.046	7133.36
601.404	7238.44
601.762	7163.64
602.12	7247.48
602.478	7123.64
602.836	7138.56
603.194	7184.88
603.552	7187.82
603.91	7122.74
604.268	7165
604.625	7168.16
604.983	7236.41
605.341	7144.43
605.698	7207.25
606.056	7238.21
606.413	7228.5
606.771	7173.13
607.128	7195.28
607.485	7204.09
607.843	7214.26
608.2	7309.4
608.557	7236.86
608.914	7211.77
609.272	7227.59
609.629	7263.07
609.986	7347.14
610.343	7282.73
610.7	7332.22
611.057	7319.57
611.414	7313.01
611.771	7301.71
612.127	7312.56
612.484	7332.67
612.841	7371.54
613.198	7363.41
613.554	7259
613.911	7382.62
614.267	7406.57
614.624	7318.21
614.98	7404.76
615.337	7411.99
615.693	7441.37
616.05	7405.44
616.406	7402.28
616.762	7363.86
617.118	7333.8
617.475	7360.47
617.831	7446.12
618.187	7408.83
618.543	7428.27
618.899	7433.24
619.255	7488.38
619.611	7406.34
619.967	7437.53
620.323	7447.02
620.678	7445.67
621.034	7386.46
621.39	7414.25
621.746	7329.96
622.101	7425.78
622.457	7391.2
622.812	7490.18
623.168	7433.69
623.523	7535.61
623.879	7500.81
624.234	7461.94
624.589	7495.83
624.945	7464.65
625.3	7456.51
625.655	7384.88
626.01	7436.4
626.365	7452.67
626.72	7379.23
627.075	7492.44
627.43	7375.61
627.785	7379.68
628.14	7427.14
628.495	7373.13
628.85	7401.6
629.205	7403.18
629.559	7430.98
629.914	7365.89
630.269	7427.36
630.623	7356.18
630.978	7310.53
631.332	7425.33
631.687	7361.6
632.041	7372.45
632.396	7357.31
632.75	7308.04
633.104	7303.52
633.459	7302.84
633.813	7267.59
634.167	7267.59
634.521	7269.4
634.875	7223.98
635.229	7268.95
635.583	7313.01
635.937	7241.38
636.291	7253.58
636.645	7233.24
636.999	7223.52
637.352	7201.83
637.706	7161.61
638.06	7174.94
638.413	7085.9
638.767	7146.01
639.121	7174.94
639.474	7130.87
639.828	7114.6
640.181	7141.04
640.534	7193.02
640.888	7134.26
641.241	7128.39
641.594	7148.27
641.947	7099.46
642.301	7076.18
642.654	7051.55
643.007	6955.51
643.36	7015.85
643.713	6969.29
644.066	7014.26
644.419	6986.02
644.771	6947.6
645.124	6923.65
645.477	6897.43
645.83	6804.78
646.182	6829.64
646.535	6788.06
646.888	6860.6
647.24	6829.18
647.593	6813.82
647.945	6798.68
648.298	6817.89
648.65	6723.42
649.002	6671.67
649.355	6714.16
649.707	6661.73
650.059	6690.88
650.411	6767.04
650.763	6792.58
651.115	6837.77
651.467	6831.22
651.819	6840.26
652.171	6875.51
652.523	6878.22
652.875	6831.9
653.227	6851.11
653.578	6829.86
653.93	6781.95
654.282	6773.82
654.633	6703.09
654.985	6678.45
655.337	6758.45
655.688	6742.63
656.039	6759.81
656.391	6658.12
656.742	6715.06
657.094	6747.38
657.445	6746.93
657.796	6768.62
658.147	6695.18
658.498	6685.01
658.849	6702.41
659.2	6701.5
659.551	6743.31
659.902	6678.68
660.253	6674.39
660.604	6661.05
660.955	6606.14
661.306	6636.87
661.656	6655.63
662.007	6631
662.358	6657.89
662.708	6579.02
663.059	6571.79
663.409	6575.63
663.76	6635.52
664.11	6560.94
664.461	6596.65
664.811	6615.86
665.161	6547.16
665.511	6573.82
665.862	6648.85
666.212	6663.99
666.562	6637.55
666.912	6626.93
667.262	6572.69
667.612	6555.29
667.962	6526.59
668.312	6545.58
668.662	6566.59
669.011	6593.48
669.361	6538.35
669.711	6596.2
670.06	6508.29
670.41	6546.71
670.76	6508.97
671.109	6562.75
671.459	6515.29
671.808	6597.55
672.157	6575.18
672.507	6484.79
672.856	6524.11
673.205	6520.49
673.554	6550.1
673.904	6483.88
674.253	6571.34
674.602	6487.95
674.951	6397.78
675.3	6382.42
675.649	6438.46
675.998	6430.78
676.346	6422.64
676.695	6464.22
677.044	6467.39
677.393	6462.64
677.741	6432.36
678.09	6430.55
678.438	6424.45
678.787	6471.23
679.135	6440.95
679.484	6435.75
679.832	6412.47
680.181	6418.8
680.529	6394.85
680.877	6367.95
681.225	6374.51
681.573	6334.51
681.922	6295.41
682.27	6299.93
682.618	6318.46
682.966	6313.72
683.314	6270.56
683.661	6300.61
684.009	6237.79
684.357	6244.12
684.705	6261.74
685.053	6231.23
685.4	6227.62
685.748	6247.05
686.095	6227.62
686.443	6215.64
686.79	6211.57
687.138	6223.33
687.485	6205.7
687.832	6159.6
688.18	6171.12
688.527	6028.3
688.874	6091.8
689.221	6059.04
689.568	6101.07
689.915	6044.35
690.262	6055.87
690.609	6002.54
690.956	5997.79
691.303	6022.88
691.65	5984.69
691.997	5990.34
692.344	5937.68
692.69	6020.17
693.037	6025.59
693.383	5926.61
693.73	5982.88
694.077	5921.64
694.423	5908.98
694.769	5883.67
695.116	5850.45
695.462	5858.14
695.808	5807.29
696.155	5829.44
696.501	5774.52
696.847	5745.15
697.193	5719.84
697.539	5718.03
697.885	5777.24
698.231	5715.77
698.577	5771.81
698.923	5713.96
699.269	5714.19
699.614	5703.79
699.96	5682.1
700.306	5708.76
700.651	5680.06
700.997	5651.36
701.342	5597.58
701.688	5581.08
702.033	5587.41
702.379	5561.87
702.724	5497.69
703.069	5531.14
703.415	5421.54
703.76	5447.07
704.105	5447.3
704.45	5452.95
704.795	5459.73
705.14	5419.28
705.485	5468.99
705.83	5399.84
706.175	5454.53
706.52	5464.47
706.865	5405.95
707.209	5380.64
707.554	5370.24
707.899	5372.73
708.243	5417.24
708.588	5327.98
708.932	5253.86
709.277	5287.3
709.621	5282.56
709.966	5199.17
710.31	5217.48
710.654	5190.36
710.998	5170.47
711.342	5186.06
711.687	5153.75
712.031	5147.42
712.375	5188.32
712.719	5208.21
713.063	5239.62
713.407	5254.54
713.75	5193.3
714.094	5164.82
714.438	5141.09
714.782	5157.82
715.125	5087.31
715.469	5089.57
715.812	5084.82
716.156	5073.3
716.499	5006.18
716.843	4983.36
717.186	5002.34
717.53	4947.88
717.873	5038.05
718.216	5010.7
718.559	4953.08
718.902	4967.09
719.246	4998.95
719.589	4988.1
719.932	4951.04
720.275	5006.41
720.617	5004.83
720.96	4984.26
721.303	5022.45
721.646	4972.06
721.989	4913.98
722.331	4983.81
722.674	4939.07
723.016	4918.05
723.359	4960.76
723.701	4861.1
724.044	4818.39
724.386	4819.29
724.729	4837.6
725.071	4800.54
725.413	4822.68
725.755	4843.7
726.097	4797.15
726.439	4779.3
726.782	4809.58
727.124	4784.94
727.465	4745.62
727.807	4815.23
728.149	4831.72
728.491	4834.21
728.833	4812.97
729.175	4808.45
729.516	4792.18
729.858	4765.51
730.199	4800.99
730.541	4772.97
730.882	4732.29
731.224	4729.81
731.565	4666.98
731.906	4696.59
732.248	4680.31
732.589	4640.77
732.93	4618.62
733.271	4692.74
733.612	4659.75
733.953	4672.63
734.294	4661.11
734.635	4693.42
734.976	4711.27
735.317	4671.05
735.658	4664.72
735.999	4645.51
736.339	4673.54
736.68	4675.12
737.021	4665.85
737.361	4612.97
737.702	4629.02
738.042	4639.86
738.383	4544.5
738.723	4537.27
739.063	4515.57
739.404	4532.52
739.744	4605.97
740.084	4526.19
740.424	4567.55
740.764	4487.55
741.104	4508.57
741.444	4492.98
741.784	4528.45
742.124	4543.14
742.464	4486.2
742.804	4517.61
743.143	4506.08
743.483	4533.65
743.823	4523.71
744.162	4498.62
744.502	4506.31
744.841	4490.94
745.181	4500.88
745.52	4451.85
745.86	4480.32
746.199	4407.78
746.538	4413.2
746.877	4412.98
747.216	4397.38
747.556	4351.51
747.895	4381.34
748.234	4348.57
748.573	4366.2
748.911	4363.03
749.25	4314.9
749.589	4333.43
749.928	4373.88
750.267	4365.29
750.605	4346.31
750.944	4354.45
751.283	4392.64
751.621	4375.01
751.96	4365.97
752.298	4333.43
752.636	4311.51
752.975	4313.09
753.313	4272.87
753.651	4293.43
753.989	4262.02
754.327	4270.83
754.666	4231.06
755.004	4204.62
755.342	4211.17
755.679	4194.45
756.017	4158.97
756.355	4128.69
756.693	4137.73
757.031	4165.75
757.368	4155.58
757.706	4133.21
758.044	4185.64
758.381	4139.31
758.719	4147.22
759.056	4117.84
759.394	4102.02
759.731	4139.76
760.068	4152.65
760.405	4108.13
760.743	4115.36
761.08	4123.95
761.417	4074.23
761.754	4101.12
762.091	4057.05
762.428	4052.53
762.765	3965.31
763.102	3963.5
763.438	3930.96
763.775	3920.33
764.112	3935.7
764.449	3948.58
764.785	3935.7
765.122	3875.82
765.458	3926.44
765.795	3891.63
766.131	3911.97
766.467	3898.87
766.804	3884.63
767.14	3874.69
767.476	3867.23
767.812	3820.45
768.148	3872.65
768.485	3814.12
768.821	3860.45
769.157	3847.57
769.492	3831.52
769.828	3818.87
770.164	3780.23
770.5	3728.02
770.836	3727.12
771.171	3712.43
