Data from foam1_polythene_foam_FLMS001491_00023.txt Node
Date: Wed Feb 08 10:54:35 GMT 2017
User: dcchb
Spectrometer: FLMS00149
Trigger mode: 0
Integration Time (sec): 2.000000E-2
Scans to average: 10
Electric dark correction enabled: true
Nonlinearity correction enabled: false
Boxcar width: 0
XAxis mode: Wavelengths
Number of Pixels in Spectrum: 2048
>>>>>Begin Spectral Data<<<<<
341.393	-6.48
341.776	-6.48
342.16	-6.48
342.543	-81.51
342.927	-76.99
343.31	-73.37
343.693	-66.37
344.077	-59.81
344.46	-65.69
344.843	-42.41
345.226	-34.96
345.61	-37.67
345.993	-19.59
346.376	-2.87
346.759	2.78
347.142	14.76
347.525	33.29
347.908	52.72
348.291	85.49
348.674	108.09
349.057	105.6
349.44	123.68
349.823	145.83
350.206	152.16
350.588	181.99
350.971	187.86
351.354	215.21
351.737	244.36
352.119	222.89
352.502	238.93
352.884	256.56
353.267	257.01
353.65	271.48
354.032	279.61
354.414	303.79
354.797	300.4
355.179	287.52
355.562	307.18
355.944	303.11
356.326	332.27
356.709	311.93
357.091	306.5
357.473	323.9
357.855	339.5
358.238	315.09
358.62	334.3
359.002	311.25
359.384	313.96
359.766	329.1
360.148	333.85
360.53	316.9
360.912	317.8
361.294	304.47
361.676	307.86
362.057	320.74
362.439	315.32
362.821	299.72
363.203	305.37
363.584	287.52
363.966	292.49
364.348	306.28
364.729	308.99
365.111	301.98
365.493	301.08
365.874	310.12
366.256	284.13
366.637	284.13
367.019	306.28
367.4	303.79
367.781	287.52
368.163	301.08
368.544	291.81
368.925	301.53
369.306	306.28
369.688	282.78
370.069	271.48
370.45	286.62
370.831	287.29
371.212	269.22
371.593	300.4
371.974	292.04
372.355	298.59
372.736	290.91
373.117	295.66
373.498	278.71
373.879	287.07
374.26	289.78
374.641	304.24
375.021	296.56
375.402	281.65
375.783	303.34
376.163	318.25
376.544	305.15
376.925	304.7
377.305	307.63
377.686	322.32
378.066	313.51
378.447	321.87
378.827	326.84
379.208	324.81
379.588	303.57
379.968	313.73
380.349	324.13
380.729	326.16
381.109	328.42
381.489	322.55
381.87	296.33
382.25	344.92
382.63	315.32
383.01	316.45
383.39	324.36
383.77	309.89
384.15	316.67
384.53	327.97
384.91	332.94
385.29	326.16
385.67	330.46
386.049	334.3
386.429	336.78
386.809	327.29
387.189	333.85
387.568	331.14
387.948	332.72
388.328	350.57
388.707	330.01
389.087	341.08
389.466	344.92
389.846	353.06
390.225	343.34
390.605	343.56
390.984	339.27
391.363	357.12
391.743	349.44
392.122	346.5
392.501	348.54
392.881	339.27
393.26	370
393.639	347.41
394.018	377.91
394.397	341.08
394.776	351.25
395.155	360.97
395.534	354.64
395.913	379.27
396.292	362.77
396.671	378.59
397.05	367.52
397.429	358.48
397.808	367.07
398.186	367.29
398.565	380.85
398.944	365.94
399.323	390.12
399.701	373.39
400.08	356.45
400.458	390.79
400.837	376.78
401.215	386.05
401.594	393.05
401.972	381.53
402.351	354.86
402.729	393.96
403.107	389.66
403.486	376.11
403.864	396.22
404.242	403
404.62	389.44
404.999	405.71
405.377	390.34
405.755	399.61
406.133	407.29
406.511	395.99
406.889	396.9
407.267	407.74
407.645	433.96
408.023	434.86
408.401	435.09
408.779	420.4
409.156	449.32
409.534	425.37
409.912	418.82
410.29	437.12
410.667	431.47
411.045	433.28
411.422	443.22
411.8	448.19
412.178	452.26
412.555	442.09
412.933	462.43
413.31	464.47
413.687	454.07
414.065	457.91
414.442	460.17
414.819	458.36
415.197	477.57
415.574	471.24
415.951	481.64
416.328	478.02
416.705	480.51
417.082	471.24
417.46	477.57
417.837	463.34
418.214	469.66
418.591	492.49
418.967	492.71
419.344	504.69
419.721	513.96
420.098	488.42
420.475	492.49
420.852	496.78
421.228	507.18
421.605	506.95
421.982	535.65
422.358	542.2
422.735	535.65
423.111	540.17
423.488	556.89
423.864	532.49
424.241	542.43
424.617	535.88
424.994	533.39
425.37	567.06
425.746	542.66
426.123	569.32
426.499	570
426.875	592.82
427.251	580.62
427.627	568.64
428.003	593.5
428.379	579.94
428.756	584.24
429.132	605.03
429.507	599.83
429.883	586.04
430.259	593.73
430.635	607.96
431.011	635.53
431.387	618.13
431.763	641.86
432.138	638.02
432.514	621.75
432.89	659.04
433.265	654.74
433.641	662.65
434.016	670.11
434.392	682.99
434.767	690.67
435.143	673.27
435.518	676.44
435.894	704.46
436.269	701.52
436.644	696.1
437.02	700.62
437.395	714.18
437.77	732.03
438.145	745.14
438.52	731.58
438.895	742.88
439.271	749.88
439.646	755.53
440.021	769.54
440.395	775.64
440.77	775.42
441.145	760.5
441.52	790.78
441.895	809.99
442.27	786.04
442.645	783.33
443.019	818.81
443.394	784
443.769	827.62
444.143	847.05
444.518	842.53
444.892	851.12
445.267	841.63
445.641	845.02
446.016	863.78
446.39	872.82
446.764	847.96
447.139	880.27
447.513	874.62
447.887	904.23
448.262	868.52
448.636	905.13
449.01	909.2
449.384	950.78
449.758	941.06
450.132	932.93
450.506	916.66
450.88	927.96
451.254	945.58
451.628	959.59
452.002	965.69
452.376	970.89
452.75	979.03
453.123	999.14
453.497	980.61
453.871	987.16
454.244	994.17
454.618	1034.39
454.992	1005.69
455.365	1041.4
455.739	1034.39
456.112	1046.37
456.486	1050.21
456.859	1059.93
457.232	1064.68
457.606	1073.71
457.979	1074.84
458.352	1084.34
458.725	1133.15
459.099	1105.35
459.472	1123.43
459.845	1165.92
460.218	1117.78
460.591	1124.33
460.964	1146.93
461.337	1161.85
461.71	1199.14
462.083	1213.82
462.456	1194.84
462.829	1198.46
463.201	1210.21
463.574	1214.5
463.947	1236.87
464.32	1248.17
464.692	1247.95
465.065	1274.61
465.438	1294.5
465.81	1271.68
466.183	1302.86
466.555	1297.66
466.928	1315.29
467.3	1303.54
467.672	1336.98
468.045	1371.33
468.417	1363.65
468.789	1360.71
469.161	1379.7
469.534	1403.88
469.906	1443.2
470.278	1456.53
470.65	1456.98
471.022	1488.85
471.394	1487.72
471.766	1525.45
472.138	1525.23
472.51	1559.58
472.882	1561.39
473.253	1601.38
473.625	1591.89
473.997	1595.06
474.369	1622.17
474.74	1648.16
475.112	1690.42
475.484	1687.71
475.855	1715.96
476.227	1710.08
476.598	1782.85
476.97	1752.79
477.341	1804.77
477.713	1818.55
478.084	1825.11
478.455	1867.37
478.827	1885.22
479.198	1928.83
479.569	1930.64
479.94	1973.35
480.311	1970.64
480.682	2024.65
481.053	2070.98
481.424	2109.39
481.795	2121.6
482.166	2145.1
482.537	2186
482.908	2239.56
483.279	2245.66
483.65	2270.07
484.021	2323.4
484.391	2378.77
484.762	2365.66
485.133	2360.23
485.503	2427.58
485.874	2452.21
486.244	2453.57
486.615	2530.17
486.985	2539.66
487.356	2591.19
487.726	2595.93
488.097	2656.95
488.467	2638.19
488.837	2681.36
489.207	2721.58
489.578	2774.01
489.948	2813.1
490.318	2836.38
490.688	2841.13
491.058	2897.4
491.428	2931.97
491.798	2955.7
492.168	3000.22
492.538	2989.37
492.908	3056.71
493.278	3075.7
493.648	3084.96
494.017	3124.51
494.387	3142.59
494.757	3188.01
495.126	3191.4
495.496	3223.94
495.866	3256.48
496.235	3310.72
496.605	3289.25
496.974	3327.21
497.344	3396.37
497.713	3426.42
498.082	3408.34
498.452	3444.27
498.821	3498.74
499.19	3489.7
499.559	3534.44
499.928	3542.12
500.298	3569.69
500.667	3594.78
501.036	3601.78
501.405	3630.03
501.774	3659.18
502.143	3681.1
502.512	3703.25
502.88	3733.98
503.249	3756.58
503.618	3759.75
503.987	3783.02
504.356	3821.21
504.724	3848.56
505.093	3887.43
505.462	3908.22
505.83	3917.71
506.199	3931.27
506.567	3959.06
506.936	3957.71
507.304	4056.69
507.672	4060.53
508.041	4076.57
508.409	4113.18
508.777	4145.5
509.145	4199.06
509.514	4200.64
509.882	4224.14
510.25	4241.77
510.618	4275.89
510.986	4283.35
511.354	4325.15
511.722	4324.7
512.09	4408.54
512.458	4433.63
512.826	4396.34
513.193	4476.11
513.561	4464.13
513.929	4515.88
514.297	4540.29
514.664	4611.47
515.032	4593.4
515.4	4628.65
515.767	4689.66
516.135	4740.06
516.502	4725.14
516.869	4760.4
517.237	4840.85
517.604	4779.15
517.972	4876.55
518.339	4876.78
518.706	4909.32
519.073	4923.11
519.44	4984.8
519.808	4990.45
520.175	5075.42
520.542	5131.46
520.909	5142.53
521.276	5126.26
521.643	5192.7
522.009	5240.61
522.376	5244.45
522.743	5328.07
523.11	5358.57
523.477	5363.55
523.843	5448.74
524.21	5491.45
524.577	5523.09
524.943	5548.4
525.31	5614.16
525.676	5643.76
526.043	5702.29
526.409	5711.56
526.776	5776.87
527.142	5815.28
527.508	5785
527.874	5855.74
528.241	5917.43
528.607	5954.72
528.973	5946.13
529.339	5929.41
529.705	6033.36
530.071	6058.44
530.437	6083.07
530.803	6083.07
531.169	6160.59
531.535	6145.9
531.901	6175.05
532.267	6209.85
532.632	6235.61
532.998	6281.04
533.364	6292.79
533.73	6322.39
534.095	6429.73
534.461	6398.55
534.826	6411.65
535.192	6469.28
535.557	6593.34
535.923	6544.98
536.288	6580.46
536.653	6629.5
537.019	6588.15
537.384	6606
537.749	6655.49
538.114	6676.05
538.479	6710.63
538.845	6711.53
539.21	6714.24
539.575	6800.12
539.94	6786.78
540.305	6887.8
540.67	6828.37
541.034	6837.4
541.399	6861.81
541.764	6905.43
542.129	6972.32
542.494	6942.03
542.858	6982.03
543.223	7001.02
543.587	7060
543.952	7047.34
544.316	7100.22
544.681	7072.2
545.045	7120.34
545.41	7153.78
545.774	7136.15
546.138	7189.94
546.503	7191.75
546.867	7219.54
547.231	7177.28
547.595	7269.26
547.959	7349.93
548.324	7282.37
548.688	7339.99
549.052	7366.88
549.416	7397.84
549.779	7382.93
550.143	7408.69
550.507	7495.92
550.871	7527.56
551.235	7481
551.599	7516.48
551.962	7575.46
552.326	7599.42
552.689	7631.73
553.053	7597.61
553.417	7632.86
553.78	7711.51
554.143	7737.49
554.507	7807.1
554.87	7807.32
555.234	7855.01
555.597	7777.04
555.96	7838.06
556.323	7863.82
556.686	7985.85
557.05	7993.98
557.413	8062.23
557.776	8076.02
558.139	8076.69
558.502	8099.52
558.865	8115.34
559.228	8143.81
559.59	8215
559.953	8170.48
560.316	8280.3
560.679	8250.48
561.041	8325.05
561.404	8382.9
561.767	8424.71
562.129	8388.55
562.492	8481.66
562.854	8489.56
563.217	8504.03
563.579	8569.79
563.941	8588.55
564.304	8666.96
564.666	8725.04
565.028	8634.19
565.39	8766.62
565.753	8779.05
566.115	8854.3
566.477	8922.77
566.839	8878.71
567.201	8946.73
567.563	8963.9
567.925	9031.02
568.287	9061.3
568.648	9057.46
569.01	9091.13
569.372	9066.27
569.734	9099.04
570.095	9155.54
570.457	9289.77
570.819	9201.64
571.18	9278.92
571.542	9290
571.903	9324.35
572.265	9302.42
572.626	9405.47
572.987	9436.43
573.349	9424.91
573.71	9540.16
574.071	9521.85
574.432	9538.8
574.794	9657.22
575.155	9529.31
575.516	9503.32
575.877	9599.14
576.238	9537.45
576.599	9627.16
576.96	9673.71
577.32	9669.19
577.681	9653.38
578.042	9722.3
578.403	9699.25
578.763	9710.78
579.124	9752.81
579.485	9823.09
579.845	9780.6
580.206	9783.54
580.566	9795.07
580.927	9824.67
581.287	9808.85
581.648	9827.83
582.008	9948.96
582.368	9850.43
582.728	9782.19
583.089	9864.22
583.449	9842.52
583.809	9827.61
584.169	9841.85
584.529	9881.17
584.889	9889.3
585.249	9838
585.609	9798.01
585.969	9908.51
586.329	9840.72
586.688	9868.96
587.048	9896.31
587.408	9808.85
587.768	9865.57
588.127	9851.34
588.487	9841.85
588.846	9888.17
589.206	9824.22
589.565	9874.16
589.925	9969.75
590.284	9917.78
590.643	9923.2
591.003	9918
591.362	9972.69
591.721	9878.68
592.08	9899.02
592.44	9967.27
592.799	9906.25
593.158	9902.64
593.517	9942.63
593.876	9908.06
594.235	9920.94
594.593	9943.99
594.952	9976.53
595.311	9921.17
595.67	10038.68
596.029	10001.16
596.387	10042.07
596.746	9999.58
597.104	9928.17
597.463	9908.06
597.822	10026.93
598.18	9921.39
598.538	9963.65
598.897	10000.71
599.255	9974.5
599.613	10050.88
599.972	10011.33
600.33	10025.8
600.688	10052.01
601.046	10020.37
601.404	10091.1
601.762	10118
602.12	10101.5
602.478	10107.6
602.836	10107.83
603.194	10123.65
603.552	10089.3
603.91	10078
604.268	10122.29
604.625	10078.9
604.983	10090.2
605.341	10114.15
605.698	10129.52
606.056	10113.03
606.413	10101.73
606.771	10181.72
607.128	10188.73
607.485	10182.18
607.843	10149.86
608.2	10256.07
608.557	10199.58
608.914	10181.27
609.272	10255.62
609.629	10270.31
609.986	10263.76
610.343	10227.15
610.7	10372.23
611.057	10306.01
611.414	10278.67
611.771	10222.85
612.127	10311.44
612.484	10356.63
612.841	10400.48
613.198	10368.39
613.554	10326.35
613.911	10364.54
614.267	10317.99
614.624	10363.19
614.98	10369.06
615.337	10458.78
615.693	10313.92
616.05	10329.97
616.406	10395.28
616.762	10332.45
617.118	10417.65
617.475	10373.58
617.831	10485.22
618.187	10437.54
618.543	10437.76
618.899	10476.63
619.255	10512.11
619.611	10410.64
619.967	10514.82
620.323	10518.66
620.678	10430.3
621.034	10398.67
621.39	10389.63
621.746	10421.94
622.101	10510.98
622.457	10445.9
622.812	10444.77
623.168	10506.01
623.523	10518.89
623.879	10517.76
624.234	10479.34
624.589	10488.61
624.945	10520.7
625.3	10508.95
625.655	10564.99
626.01	10484.99
626.365	10507.14
626.72	10500.81
627.075	10400.48
627.43	10409.97
627.785	10444.09
628.14	10380.81
628.495	10403.41
628.85	10395.5
629.205	10490.64
629.559	10412.45
629.914	10366.35
630.269	10454.94
630.623	10342.4
630.978	10372
631.332	10435.95
631.687	10377.65
632.041	10317.77
632.396	10413.13
632.75	10286.81
633.104	10371.32
633.459	10284.77
633.813	10299.23
634.167	10186.24
634.521	10218.33
634.875	10205.23
635.229	10251.33
635.583	10177.88
635.937	10142.63
636.291	10160.26
636.645	10176.07
636.999	10095.85
637.352	10119.35
637.706	10084.78
638.06	10196.64
638.413	10141.5
638.767	10040.94
639.121	10131.56
639.474	10063.31
639.828	9957.1
640.181	10016.08
640.534	10008.62
640.888	9989.41
641.241	9956.19
641.594	9935.18
641.947	10026.93
642.301	9950.77
642.654	10012.69
643.007	9940.83
643.36	9984.89
643.713	9910.77
644.066	10004.78
644.419	9876.2
644.771	9840.72
645.124	9734.05
645.477	9696.31
645.83	9650.66
646.182	9599.59
646.535	9653.83
646.888	9575.64
647.24	9485.7
647.593	9548.75
647.945	9525.24
648.298	9454.51
648.65	9502.19
649.002	9388.3
649.355	9508.97
649.707	9436.88
650.059	9534.51
650.411	9612.93
650.763	9661.74
651.115	9764.79
651.467	9734.05
651.819	9705.13
652.171	9642.3
652.523	9613.6
652.875	9601.4
653.227	9545.36
653.578	9692.02
653.93	9588.97
654.282	9567.05
654.633	9531.8
654.985	9546.71
655.337	9536.54
655.688	9590.33
656.039	9561.63
656.391	9498.35
656.742	9543.55
657.094	9487.28
657.445	9560.5
657.796	9580.84
658.147	9503.32
658.498	9482.31
658.849	9521.63
659.2	9503.32
659.551	9462.65
659.902	9514.62
660.253	9500.84
660.604	9475.53
660.955	9427.17
661.306	9462.87
661.656	9480.5
662.007	9458.13
662.358	9549.65
662.708	9398.24
663.059	9375.19
663.409	9322.31
663.76	9374.51
664.11	9372.93
664.461	9355.3
664.811	9335.42
665.161	9388.75
665.511	9337.68
665.862	9361.18
666.212	9347.85
666.562	9338.81
666.912	9275.53
667.262	9315.98
667.612	9265.82
667.962	9339.03
668.312	9305.14
668.662	9309.2
669.011	9295.42
669.361	9223.1
669.711	9286.15
670.06	9234.4
670.41	9197.79
670.76	9221.07
671.109	9236.66
671.459	9193.95
671.808	9195.08
672.157	9167.06
672.507	9160.51
672.856	9157.12
673.205	9078.93
673.554	9191.02
673.904	9063.34
674.253	9195.76
674.602	9147.4
674.951	9066.05
675.3	8944.02
675.649	9139.72
675.998	9078.02
676.346	9137.68
676.695	9184.91
677.044	9062.88
677.393	9058.59
677.741	9123.22
678.09	9074.86
678.438	9039.15
678.787	9042.77
679.135	9086.84
679.484	9049.78
679.832	9015.2
680.181	9026.95
680.529	8993.51
680.877	9030.12
681.225	9037.12
681.573	9057.91
681.922	8973.85
682.27	8881.64
682.618	8935.2
682.966	8948.76
683.314	8951.47
683.661	8945.37
684.009	8820.63
684.357	8863.79
684.705	8824.25
685.053	8840.74
685.4	8854.53
685.748	8796.68
686.095	8772.5
686.443	8784.7
686.79	8701.31
687.138	8794.87
687.485	8763
687.832	8662.44
688.18	8663.35
688.527	8597.13
688.874	8621.76
689.221	8633.97
689.568	8550.35
689.915	8605.72
690.262	8502.9
690.609	8531.37
690.956	8501.54
691.303	8508.77
691.65	8412.05
691.997	8438.49
692.344	8401.88
692.69	8445.05
693.037	8348.78
693.383	8268.55
693.73	8325.5
694.077	8338.38
694.423	8278.95
694.769	8258.84
695.116	8233.75
695.462	8207.54
695.808	8173.64
696.155	8165.96
696.501	8052.06
696.847	8083.7
697.193	8087.54
697.539	8074.43
697.885	8032.18
698.231	7979.75
698.577	8014.78
698.923	7997.37
699.269	7922.8
699.614	7938.84
699.96	7893.65
700.306	7873.99
700.651	7881.45
700.997	7814.33
701.342	7843.48
701.688	7820.66
702.033	7758.28
702.379	7805.06
702.724	7711.96
703.069	7822.46
703.415	7742.24
703.76	7730.71
704.105	7715.8
704.45	7733.43
704.795	7619.76
705.14	7596.71
705.485	7593.77
705.83	7564.62
706.175	7555.8
706.52	7559.42
706.865	7514.68
707.209	7483.49
707.554	7489.59
707.899	7511.51
708.243	7448.69
708.588	7460.67
708.932	7416.82
709.277	7416.82
709.621	7441.91
709.966	7416.15
710.31	7376.15
710.654	7332.08
710.998	7315.36
711.342	7383.38
711.687	7309.93
712.031	7311.52
712.375	7258.18
712.719	7216.15
713.063	7211.41
713.407	7265.64
713.75	7200.33
714.094	7166.66
714.438	7175.93
714.782	7200.56
715.125	7164.63
715.469	7137.28
715.812	7171.63
716.156	7073.1
716.499	7097.74
716.843	7081.47
717.186	7036.27
717.53	7061.58
717.873	7102.48
718.216	7081.24
718.559	7033.78
718.902	6980
719.246	6985.42
719.589	6983.84
719.932	7004.41
720.275	6972.54
720.617	6974.8
720.96	6957.18
721.303	6891.41
721.646	6915.82
721.989	6874.47
722.331	6907.01
722.674	6932.32
723.016	6878.99
723.359	6873.34
723.701	6876.27
724.044	6835.6
724.386	6747.46
724.729	6822.49
725.071	6839.44
725.413	6771.87
725.755	6781.36
726.097	6695.94
726.439	6740.46
726.782	6699.33
727.124	6789.04
727.465	6714.7
727.807	6711.76
728.149	6665.88
728.491	6661.14
728.833	6739.78
729.175	6679.67
729.516	6603.51
729.858	6627.24
730.199	6572.1
730.541	6608.03
730.882	6547.24
731.224	6623.4
731.565	6536.62
731.906	6535.49
732.248	6519
732.589	6496.17
732.93	6507.24
733.271	6479.22
733.612	6469.51
733.953	6500.69
734.294	6493.46
734.635	6482.84
734.976	6453.91
735.317	6406.68
735.658	6421.14
735.999	6439.22
736.339	6476.06
736.68	6468.15
737.021	6392.67
737.361	6368.04
737.702	6436.74
738.042	6379.79
738.383	6344.08
738.723	6370.52
739.063	6413.24
739.404	6396.51
739.744	6378.43
740.084	6297.31
740.424	6350.64
740.764	6322.39
741.104	6283.97
741.444	6260.7
741.784	6264.76
742.124	6271.54
742.464	6243.97
742.804	6243.75
743.143	6248.95
743.483	6257.53
743.823	6239.45
744.162	6177.31
744.502	6219.79
744.841	6148.84
745.181	6210.53
745.52	6139.12
745.86	6156.97
746.199	6159
746.538	6191.32
746.877	6143.86
747.216	6130.98
747.556	6152.68
747.895	6161.72
748.234	6099.57
748.573	6093.92
748.911	6090.98
749.25	6105.22
749.589	6051.89
749.928	6022.29
750.267	6037.43
750.605	6036.3
750.944	5978.44
751.283	5975.05
751.621	5980.03
751.96	5963.76
752.298	5970.54
752.636	5974.15
752.975	5942.97
753.313	5883.98
753.651	5950.87
753.989	5919.91
754.327	5880.37
754.666	5851.89
755.004	5909.07
755.342	5882.85
755.679	5852.57
756.017	5789.97
756.355	5834.04
756.693	5798.34
757.031	5796.3
757.368	5800.82
757.706	5776.87
758.044	5773.93
758.381	5767.38
758.719	5750.2
759.056	5703.88
759.394	5701.16
759.731	5631.33
760.068	5680.15
760.405	5720.82
760.743	5625.23
761.08	5600.38
761.417	5554.5
761.754	5626.82
762.091	5587.04
762.428	5570.77
762.765	5593.14
763.102	5526.7
763.438	5547.95
763.775	5491.23
764.112	5467.72
764.449	5553.6
764.785	5467.95
765.122	5368.07
765.458	5433.6
765.795	5380.49
766.131	5342.08
766.467	5372.81
766.804	5285.36
767.14	5334.85
767.476	5307.05
767.812	5296.65
768.148	5255.98
768.485	5270.44
768.821	5230.89
