Data from foam1_polythene_foam_FLMS001491_00079.txt Node
Date: Wed Feb 08 10:55:23 GMT 2017
User: dcchb
Spectrometer: FLMS00149
Trigger mode: 0
Integration Time (sec): 2.000000E-2
Scans to average: 10
Electric dark correction enabled: true
Nonlinearity correction enabled: false
Boxcar width: 0
XAxis mode: Wavelengths
Number of Pixels in Spectrum: 2048
>>>>>Begin Spectral Data<<<<<
341.393	-14.62
341.776	-14.62
342.16	-14.62
342.543	-51.91
342.927	-65.92
343.31	-63.66
343.693	-46.48
344.077	-47.84
344.46	-46.03
344.843	-25.24
345.226	-64.11
345.61	-55.3
345.993	-32.47
346.376	-14.17
346.759	-5.8
347.142	26.06
347.525	50.69
347.908	67.41
348.291	61.76
348.674	84.36
349.057	110.8
349.44	127.52
349.823	157.35
350.206	157.81
350.588	185.83
350.971	196.9
351.354	191.93
351.737	214.3
352.119	241.42
352.502	249.56
352.884	248.2
353.267	280.29
353.65	288.42
354.032	285.94
354.414	319.61
354.797	305.83
355.179	315.32
355.562	322.1
355.944	314.86
356.326	330.91
356.709	329.55
357.091	332.04
357.473	350.8
357.855	337.01
358.238	334.3
358.62	308.76
359.002	324.13
359.384	311.7
359.766	336.56
360.148	342.21
360.53	310.8
360.912	328.42
361.294	320.06
361.676	328.2
362.057	309.22
362.439	320.74
362.821	316.9
363.203	345.15
363.584	305.15
363.966	317.12
364.348	316.9
364.729	327.97
365.111	294.07
365.493	328.65
365.874	319.16
366.256	340.63
366.637	297.46
367.019	306.5
367.4	318.03
367.781	306.05
368.163	331.14
368.544	308.31
368.925	319.16
369.306	316.45
369.688	325.94
370.069	298.59
370.45	323.9
370.831	313.96
371.212	316.9
371.593	291.81
371.974	326.16
372.355	303.57
372.736	321.19
373.117	320.74
373.498	315.54
373.879	298.82
374.26	310.8
374.641	324.58
375.021	310.57
375.402	309.67
375.783	312.83
376.163	324.13
376.544	328.42
376.925	320.29
377.305	310.12
377.686	323.45
378.066	334.98
378.447	323
378.827	335.66
379.208	342.43
379.588	331.14
379.968	344.02
380.349	334.07
380.729	333.85
381.109	325.03
381.489	342.66
381.87	360.51
382.25	363.68
382.63	345.37
383.01	343.11
383.39	348.99
383.77	364.13
384.15	352.15
384.53	349.89
384.91	355.09
385.29	354.64
385.67	352.15
386.049	358.03
386.429	367.74
386.809	357.35
387.189	370.68
387.568	371.81
387.948	382.43
388.328	388.53
388.707	368.65
389.087	388.76
389.466	370.23
389.846	377.01
390.225	392.83
390.605	395.31
390.984	391.47
391.363	382.21
391.743	397.57
392.122	392.6
392.501	373.85
392.881	419.95
393.26	400.51
393.639	402.09
394.018	428.08
394.397	411.59
394.776	411.81
395.155	414.3
395.534	403.68
395.913	406.39
396.292	410.23
396.671	423.79
397.05	421.75
397.429	417.23
397.808	418.82
398.186	415.65
398.565	437.57
398.944	426.95
399.323	436.67
399.701	448.65
400.08	424.01
400.458	442.32
400.837	439.16
401.215	463.56
401.594	457.69
401.972	450
402.351	465.6
402.729	447.29
403.107	457.23
403.486	453.62
403.864	465.82
404.242	491.36
404.62	472.37
404.999	484.35
405.377	481.41
405.755	493.84
406.133	497.23
406.511	495.2
406.889	489.1
407.267	502.2
407.645	507.4
408.023	493.39
408.401	493.39
408.779	506.05
409.156	514.41
409.534	525.03
409.912	511.24
410.29	517.57
410.667	537.23
411.045	534.29
411.422	536.55
411.8	539.49
412.178	541.98
412.555	539.04
412.933	536.78
413.31	535.65
413.687	552.37
414.065	572.94
414.442	580.62
414.819	570.68
415.197	586.5
415.574	584.91
415.951	573.61
416.328	607.74
416.705	601.41
417.082	612.48
417.46	614.52
417.837	620.17
418.214	605.48
418.591	605.7
418.967	625.59
419.344	636.89
419.721	653.61
420.098	662.2
420.475	640.96
420.852	654.74
421.228	658.13
421.605	654.52
421.982	644.35
422.358	683.44
422.735	681.41
423.111	663.33
423.488	667.62
423.864	691.8
424.241	699.94
424.617	703.33
424.994	712.59
425.37	715.53
425.746	713.27
426.123	733.84
426.499	722.99
426.875	739.71
427.251	756.66
427.627	767.28
428.003	749.88
428.379	740.39
428.756	780.16
429.132	779.49
429.507	788.75
429.883	786.04
430.259	825.36
430.635	812.25
431.011	828.75
431.387	827.62
431.763	844.34
432.138	845.7
432.514	882.31
432.89	867.39
433.265	893.15
433.641	893.83
434.016	913.04
434.392	916.66
434.767	925.47
435.143	925.92
435.518	937.22
435.894	954.17
436.269	972.02
436.644	979.93
437.02	978.35
437.395	994.17
437.77	1001.63
438.145	1019.7
438.52	1014.96
438.895	1045.01
439.271	1026.26
439.646	1050.89
440.021	1048.18
440.395	1089.08
440.77	1062.19
441.145	1065.35
441.52	1065.35
441.895	1081.4
442.27	1124.11
442.645	1094.28
443.019	1127.27
443.394	1149.64
443.769	1123.88
444.143	1149.19
444.518	1163.88
444.892	1175.86
445.267	1194.84
445.641	1179.25
446.016	1207.72
446.39	1203.43
446.764	1201.85
447.139	1207.27
447.513	1223.77
447.887	1258.57
448.262	1255.18
448.636	1257.89
449.01	1279.13
449.384	1271.9
449.758	1309.64
450.132	1314.16
450.506	1323.43
450.88	1318.91
451.254	1347.61
451.628	1338.57
452.002	1389.64
452.376	1382.86
452.75	1383.31
453.123	1407.04
453.497	1410.65
453.871	1399.81
454.244	1438.45
454.618	1446.36
454.992	1472.12
455.365	1450.88
455.739	1508.73
456.112	1510.31
456.486	1515.96
456.859	1522.52
457.232	1552.35
457.606	1557.54
457.979	1544.66
458.352	1565.91
458.725	1620.37
459.099	1609.29
459.472	1614.49
459.845	1674.83
460.218	1670.31
460.591	1671.89
460.964	1680.93
461.337	1700.59
461.71	1751.66
462.083	1762.06
462.456	1771.1
462.829	1760.93
463.201	1805.67
463.574	1780.59
463.947	1839.57
464.32	1882.73
464.692	1887.48
465.065	1883.64
465.438	1923.64
465.81	1939.91
466.183	1917.31
466.555	2016.74
466.928	1983.75
467.3	2004.99
467.672	2045.89
468.045	2087.93
468.417	2118.88
468.789	2085.44
469.161	2121.82
469.534	2140.58
469.906	2197.3
470.278	2225.77
470.65	2263.06
471.022	2293.12
471.394	2317.98
471.766	2329.5
472.138	2353.46
472.51	2395.26
472.882	2416.96
473.253	2441.36
473.625	2532.66
473.997	2535.6
474.369	2538.08
474.74	2574.01
475.112	2616.95
475.484	2639.55
475.855	2685.42
476.227	2722.48
476.598	2810.84
476.97	2799.32
477.341	2863.72
477.713	2939.65
478.084	2891.52
478.455	3012.42
478.827	2976.72
479.198	3103.72
479.569	3134
479.94	3190.95
480.311	3179.87
480.682	3258.29
481.053	3362.47
481.424	3446.08
481.795	3412.41
482.166	3484.95
482.537	3489.7
482.908	3595.68
483.279	3647.88
483.65	3696.47
484.021	3740.76
484.391	3790.03
484.762	3817.37
485.133	3890.14
485.503	3910.7
485.874	3992.28
486.244	4020.76
486.615	4126.97
486.985	4144.59
487.356	4189.11
487.726	4239.51
488.097	4369.67
488.467	4334.19
488.837	4427.98
489.207	4500.97
489.578	4547.75
489.948	4651.25
490.318	4704.13
490.688	4707.07
491.058	4764.01
491.428	4879.72
491.798	4883.78
492.168	4980.73
492.538	4993.61
492.908	5031.12
493.278	5121.52
493.648	5107.28
494.017	5241.51
494.387	5283.1
494.757	5316.77
495.126	5352.7
495.496	5379.59
495.866	5420.95
496.235	5434.5
496.605	5581.39
496.974	5589.08
497.344	5597.44
497.713	5715.85
498.082	5760.37
498.452	5713.59
498.821	5817.54
499.19	5827.04
499.559	5909.29
499.928	5884.66
500.298	5975.28
500.667	6064.54
501.036	6016.64
501.405	6100.02
501.774	6165.11
502.143	6215.27
502.512	6184.09
502.88	6269.06
503.249	6226.35
503.618	6301.15
503.987	6290.75
504.356	6412.56
504.724	6471.99
505.093	6477.64
505.462	6545.66
505.83	6592.21
506.199	6644.42
506.567	6704.08
506.936	6770.51
507.304	6786.56
507.672	6806.67
508.041	6858.42
508.409	6924.63
508.777	6962.83
509.145	7070.17
509.514	7140.67
509.882	7172.99
510.25	7085.76
510.618	7250.05
510.986	7238.75
511.354	7294.57
511.722	7397.84
512.09	7418.63
512.458	7424.06
512.826	7496.82
513.193	7573.43
513.561	7605.07
513.929	7721.9
514.297	7774.33
514.664	7812.52
515.032	7893.42
515.4	7931.84
515.767	7867.43
516.135	7925.51
516.502	7936.36
516.869	8105.39
517.237	8108.11
517.604	8153.53
517.972	8290.47
518.339	8360.75
518.706	8341.55
519.073	8402.79
519.44	8519.62
519.808	8559.39
520.175	8520.52
520.542	8693.85
520.909	8680.07
521.276	8764.81
521.643	8892.27
522.009	8985.6
522.376	9001.19
522.743	9059.27
523.11	9167.06
523.477	9268.3
523.843	9275.08
524.21	9345.81
524.577	9360.73
524.943	9539.93
525.31	9555.98
525.676	9684.56
526.043	9743.77
526.409	9811.34
526.776	9899.47
527.142	9966.59
527.508	10055.63
527.874	10038.22
528.241	10030.32
528.607	10089.52
528.973	10150.76
529.339	10221.95
529.705	10317.09
530.071	10468.95
530.437	10548.49
530.803	10572.22
531.169	10706.91
531.535	10591.88
531.901	10651.32
532.267	10710.98
532.632	10715.5
532.998	10751.43
533.364	10853.57
533.73	10956.84
534.095	11030.74
534.461	11113
534.826	11173.34
535.192	11145.99
535.557	11300.34
535.923	11222.83
536.288	11206.56
536.653	11314.58
537.019	11307.34
537.384	11385.08
537.749	11447.68
538.114	11449.71
538.479	11540.78
538.845	11586.88
539.21	11644.28
539.575	11696.03
539.94	11729.03
540.305	11775.58
540.67	11850.38
541.034	11809.7
541.399	11855.8
541.764	11941.45
542.129	11921.11
542.494	11959.08
542.858	12133.54
543.223	12025.52
543.587	12092.18
543.952	12125.63
544.316	12265.51
544.681	12262.12
545.045	12411.5
545.41	12398.84
545.774	12331.72
546.138	12399.74
546.503	12509.35
546.867	12417.82
547.231	12616.46
547.595	12522.45
547.959	12664.37
548.324	12613.75
548.688	12727.19
549.052	12781.88
549.416	12752.96
549.779	12895.32
550.143	12792.73
550.507	12916.12
550.871	12953.85
551.235	12986.4
551.599	13093.74
551.962	13076.11
552.326	13138.26
552.689	13145.49
553.053	13135.32
553.417	13249.44
553.78	13396.33
554.143	13408.53
554.507	13438.14
554.87	13453.95
555.234	13578.7
555.597	13530.56
555.96	13673.61
556.323	13665.7
556.686	13646.72
557.05	13815.75
557.413	13831.12
557.776	13842.42
558.139	13973.94
558.502	13955.41
558.865	14020.27
559.228	14105.69
559.59	14108.63
559.953	14178
560.316	14453.48
560.679	14392.69
561.041	14481.5
561.404	14520.82
561.767	14551.55
562.129	14510.2
562.492	14694.6
562.854	14597.88
563.217	14763.3
563.579	14806.23
563.941	14901.83
564.304	14900.24
564.666	15053.23
565.028	15055.72
565.39	15092.1
565.753	15185.66
566.115	15260.23
566.477	15385.88
566.839	15347.24
567.201	15504.52
567.563	15510.62
567.925	15629.49
568.287	15567.34
568.648	15678.08
569.01	15761.24
569.372	15888.92
569.734	15818.19
570.095	15921.69
570.457	16010.27
570.819	16057.73
571.18	16034.9
571.542	16123.94
571.903	16108.8
572.265	16125.3
572.626	16228.57
572.987	16284.61
573.349	16393.54
573.71	16368
574.071	16400.32
574.432	16552.4
574.794	16584.27
575.155	16642.12
575.516	16515.79
575.877	16598.73
576.238	16603.93
576.599	16681.89
576.96	16793.53
577.32	16653.42
577.681	16758.95
578.042	16811.83
578.403	16800.76
578.763	16896.8
579.124	16861.32
579.485	16929.12
579.845	17108.77
580.206	16998.04
580.566	16994.65
580.927	17060.41
581.287	17113.52
581.648	17012.28
582.008	17024.71
582.368	17047.08
582.728	17162.33
583.089	17002.56
583.449	17062.67
583.809	17057.25
584.169	17154.2
584.529	17119.85
584.889	17235.78
585.249	17085.05
585.609	17122.56
585.969	17203.91
586.329	17215.44
586.688	17188.32
587.048	17110.36
587.408	17127.76
587.768	17150.35
588.127	17116.23
588.487	17070.36
588.846	17256.57
589.206	17095.89
589.565	17211.82
589.925	17340.18
590.284	17283.68
590.643	17228.54
591.003	17327.52
591.362	17295.66
591.721	17201.65
592.08	17304.7
592.44	17365.72
592.799	17271.93
593.158	17211.82
593.517	17271.03
593.876	17213.4
594.235	17271.25
594.593	17219.73
594.952	17372.72
595.311	17191.48
595.67	17194.19
596.029	17221.76
596.387	17364.59
596.746	17446.84
597.104	17343.8
597.463	17386.73
597.822	17308.09
598.18	17316.9
598.538	17370.46
598.897	17510.57
599.255	17312.84
599.613	17555.99
599.972	17499.95
600.33	17473.96
600.688	17507.63
601.046	17554.64
601.404	17481.42
601.762	17433.06
602.12	17525.71
602.478	17516.22
602.836	17571.81
603.194	17499.95
603.552	17539.72
603.91	17422.89
604.268	17574.75
604.625	17558.03
604.983	17630.34
605.341	17653.39
605.698	17656.56
606.056	17710.11
606.413	17655.65
606.771	17671.02
607.128	17765.03
607.485	17685.26
607.843	17703.79
608.2	17726.84
608.557	17931.8
608.914	17723.9
609.272	17963.67
609.629	17843.67
609.986	17948.98
610.343	17831.01
610.7	17958.02
611.057	17912.37
611.414	17910.56
611.771	17963.67
612.127	18025.59
612.484	17955.08
612.841	18094.96
613.198	17996.89
613.554	18006.38
613.911	18120.5
614.267	18073.27
614.624	18071.91
614.98	18020.61
615.337	18183.32
615.693	18119.59
616.05	18149.42
616.406	18148.97
616.762	18132.7
617.118	18085.92
617.475	18128.86
617.831	18216.99
618.187	18329.31
618.543	18381.06
618.899	18359.36
619.255	18333.15
619.611	18264.22
619.967	18383.54
620.323	18364.56
620.678	18362.3
621.034	18245.24
621.39	18352.36
621.746	18221.74
622.101	18518
622.457	18297.44
622.812	18334.05
623.168	18422.41
623.523	18367.72
623.879	18384.22
624.234	18279.82
624.589	18377.44
624.945	18394.84
625.3	18366.82
625.655	18287.73
626.01	18425.12
626.365	18378.8
626.72	18300.61
627.075	18328.4
627.43	18355.97
627.785	18286.37
628.14	18227.61
628.495	18335.41
628.85	18326.37
629.205	18207.95
629.559	18200.72
629.914	18262.42
630.269	18279.14
630.623	18160.27
630.978	18164.79
631.332	18328.4
631.687	18136.54
632.041	18120.5
632.396	18128.18
632.75	18137.67
633.104	18175.64
633.459	18073.49
633.813	18062.87
634.167	18034.62
634.521	17960.95
634.875	18033.04
635.229	17927.96
635.583	17825.82
635.937	17804.35
636.291	17794.18
636.645	17824.01
636.999	17789.21
637.352	17981.07
637.706	17854.74
638.06	17834.4
638.413	17815.87
638.767	17697.23
639.121	17699.94
639.474	17703.79
639.828	17668.76
640.181	17628.99
640.534	17624.69
640.888	17520.97
641.241	17440.52
641.594	17538.82
641.947	17422.44
642.301	17522.77
642.654	17457.69
643.007	17648.87
643.36	17649.78
643.713	17383.57
644.066	17554.86
644.419	17445.04
644.771	17410.46
645.124	17218.37
645.477	17185.61
645.83	17098.38
646.182	16883.47
646.535	16760.53
646.888	16836.01
647.24	16729.57
647.593	16763.02
647.945	16629.69
648.298	16557.83
648.65	16561.9
649.002	16508.11
649.355	16744.94
649.707	16697.94
650.059	16720.99
650.411	16959.4
650.763	17046.85
651.115	17200.52
651.467	17094.76
651.819	16998.95
652.171	17046.85
652.523	16839.63
652.875	16871.72
653.227	16713.76
653.578	16998.27
653.93	16804.15
654.282	16760.08
654.633	16723.02
654.985	16715.79
655.337	16740.65
655.688	16675.56
656.039	16799.63
656.391	16649.58
656.742	16702
657.094	16776.58
657.445	16797.37
657.796	16774.32
658.147	16766.41
658.498	16634.66
658.849	16776.58
659.2	16658.84
659.551	16656.36
659.902	16592.18
660.253	16682.8
660.604	16576.58
660.955	16399.19
661.306	16606.64
661.656	16535.91
662.007	16508.34
662.358	16550.14
662.708	16579.75
663.059	16565.51
663.409	16482.8
663.76	16571.16
664.11	16639.86
664.461	16525.51
664.811	16551.95
665.161	16478.73
665.511	16528.45
665.862	16470.82
666.212	16518.51
666.562	16553.76
666.912	16352.18
667.262	16353.54
667.612	16394.22
667.962	16359.41
668.312	16361.9
668.662	16475.12
669.011	16341.56
669.361	16453.88
669.711	16384.5
670.06	16442.58
670.41	16382.92
670.76	16335.23
671.109	16443.93
671.459	16344.5
671.808	16258.4
672.157	16271.96
672.507	16227.67
672.856	16194.22
673.205	16274.67
673.554	16274.67
673.904	16161.91
674.253	16241.9
674.602	16173.88
674.951	15920.1
675.3	15825.19
675.649	16152.87
675.998	16079.42
676.346	16156.03
676.695	16198.29
677.044	16134.11
677.393	16094.79
677.741	16202.36
678.09	16084.62
678.438	16063.83
678.787	16073.32
679.135	16043.04
679.484	16019.54
679.832	16060.44
680.181	15887.34
680.529	15976.15
680.877	15895.7
681.225	15700
681.573	15774.35
681.922	15863.38
682.27	15703.16
682.618	15724.85
682.966	15682.82
683.314	15792.88
683.661	15795.14
684.009	15636.72
684.357	15643.28
684.705	15715.36
685.053	15658.64
685.4	15740.67
685.748	15639.21
686.095	15542.94
686.443	15482.38
686.79	15412.55
687.138	15374.13
687.485	15457.52
687.832	15330.51
688.18	15312.21
688.527	15154.25
688.874	15232.89
689.221	15158.77
689.568	15134.36
689.915	15060.92
690.262	15081.48
690.609	15078.77
690.956	14983.41
691.303	15046.68
691.65	14954.71
691.997	14940.24
692.344	14874.48
692.69	14918.77
693.037	14908.83
693.383	14734.37
693.73	14855.73
694.077	14648.95
694.423	14656.63
694.769	14636.3
695.116	14581.83
695.462	14573.47
695.808	14503.64
696.155	14502.29
696.501	14416.41
696.847	14355.17
697.193	14228.85
697.539	14323.99
697.885	14217.55
698.231	14202.18
698.577	14115.18
698.923	14208.96
699.269	14121.96
699.614	13999.93
699.96	14072.47
700.306	14099.81
700.651	14013.94
700.997	14049.42
701.342	13942.98
701.688	13965.81
702.033	13810.33
702.379	13856.2
702.724	13760.84
703.069	13801.74
703.415	13586.38
703.76	13572.14
704.105	13627.96
704.45	13608.98
704.795	13446.04
705.14	13408.76
705.485	13430.45
705.83	13373.28
706.175	13418.47
706.52	13392.71
706.865	13409.21
707.209	13332.15
707.554	13385.93
707.899	13408.98
708.243	13233.17
708.588	13362.88
708.932	13207.41
709.277	13211.7
709.621	13170.35
709.966	13078.6
710.31	13057.58
710.654	13050.12
710.998	12990.01
711.342	12864.14
711.687	12807.19
712.031	12831.82
712.375	12695.78
712.719	12723.8
713.063	12766.74
713.407	12788.89
713.75	12679.74
714.094	12645.84
714.438	12686.97
714.782	12735.55
715.125	12648.78
715.469	12734.43
715.812	12632.05
716.156	12585.5
716.499	12636.57
716.843	12601.55
717.186	12538.95
717.53	12584.6
717.873	12574.2
718.216	12559.29
718.559	12491.95
718.902	12274.1
719.246	12369.69
719.589	12325.17
719.932	12203.82
720.275	12132.41
720.617	12199.07
720.96	12213.53
721.303	12232.74
721.646	12164.5
721.989	12034.78
722.331	12207.89
722.674	12048.34
723.016	12078.85
723.359	12152.52
723.701	12249.24
724.044	12137.38
724.386	12024.39
724.729	12099.64
725.071	12038.62
725.413	12025.74
725.755	12010.15
726.097	12018.74
726.439	11824.84
726.782	11830.49
727.124	11917.05
727.465	11778.97
727.807	11710.95
728.149	11655.36
728.491	11661.01
728.833	11701.01
729.175	11665.53
729.516	11655.13
729.858	11637.28
730.199	11697.84
730.541	11627.11
730.882	11615.81
731.224	11699.42
731.565	11537.17
731.906	11686.77
732.248	11658.52
732.589	11681.8
732.93	11581.69
733.271	11586.66
733.612	11576.26
733.953	11588.69
734.294	11501.01
734.635	11409.04
734.976	11401.58
735.317	11283.62
735.658	11299.21
735.999	11342.15
736.339	11306.89
736.68	11289.49
737.021	11220.11
737.361	11225.99
737.702	11215.82
738.042	11255.37
738.383	11258.76
738.723	11275.03
739.063	11220.11
739.404	11241.36
739.744	11241.58
740.084	11239.1
740.424	11263.28
740.764	11170.4
741.104	11139.44
741.444	11131.76
741.784	11058.99
742.124	11129.27
742.464	11090.4
742.804	11020.35
743.143	10938.54
743.483	10992.55
743.823	10929.27
744.162	10927.01
744.502	10910.07
744.841	10768.6
745.181	10858.54
745.52	10771.31
745.86	10875.94
746.199	10786.68
746.538	10825.55
746.877	10823.06
747.216	10736.51
747.556	10810.18
747.895	10745.78
748.234	10710.98
748.573	10729.05
748.911	10770.41
749.25	10759.34
749.589	10683.86
749.928	10685.21
750.267	10747.58
750.605	10653.8
750.944	10644.08
751.283	10637.31
751.621	10597.53
751.96	10474.15
752.298	10369.29
752.636	10450.64
752.975	10413.36
753.313	10351.66
753.651	10347.37
753.989	10333.36
754.327	10258.33
754.666	10192.34
755.004	10236.64
755.342	10207.26
755.679	10228.73
756.017	10192.12
756.355	10327.71
756.693	10182.4
