Data from foam2_polystyrene_foam_FLMS001491_00040.txt Node
Date: Wed Feb 08 10:57:53 GMT 2017
User: dcchb
Spectrometer: FLMS00149
Trigger mode: 0
Integration Time (sec): 2.000000E-2
Scans to average: 10
Electric dark correction enabled: true
Nonlinearity correction enabled: false
Boxcar width: 0
XAxis mode: Wavelengths
Number of Pixels in Spectrum: 2048
>>>>>Begin Spectral Data<<<<<
341.393	-3.71
341.776	-3.71
342.16	-3.71
342.543	-59.08
342.927	-74.22
343.31	-52.98
343.693	-68.8
344.077	-78.97
344.46	-54.33
344.843	-54.56
345.226	-38.52
345.61	-37.16
345.993	-7.1
346.376	0.13
346.759	18.43
347.142	34.02
347.525	51.65
347.908	29.05
348.291	65.66
348.674	83.51
349.057	109.95
349.44	120.12
349.823	159.44
350.206	137.3
350.588	187.01
350.971	219.1
351.354	213.68
351.737	226.34
352.119	252.1
352.502	248.93
352.884	270.85
353.267	301.36
353.65	303.17
354.032	303.85
354.414	313.34
354.797	315.83
355.179	320.12
355.562	310.63
355.944	320.57
356.326	347.46
356.709	349.04
357.091	355.6
357.473	354.92
357.855	335.71
358.238	330.06
358.62	339.78
359.002	340.91
359.384	334.58
359.766	350.85
360.148	348.59
360.53	320.12
360.912	341.81
361.294	332.55
361.676	345.43
362.057	322.38
362.439	349.5
362.821	332.1
363.203	329.16
363.584	353.11
363.966	344.52
364.348	340.68
364.729	330.74
365.111	333.68
365.493	327.58
365.874	328.03
366.256	341.14
366.637	322.6
367.019	335.71
367.4	327.12
367.781	333.68
368.163	352.43
368.544	332.77
368.925	324.19
369.306	340.01
369.688	336.62
370.069	325.99
370.45	326.45
370.831	337.07
371.212	334.36
371.593	332.32
371.974	352.21
372.355	340.23
372.736	353.34
373.117	343.39
373.498	331.42
373.879	351.3
374.26	329.16
374.641	345.2
375.021	341.36
375.402	357.63
375.783	363.51
376.163	365.54
376.544	372.09
376.925	364.64
377.305	355.82
377.686	339.33
378.066	363.73
378.447	355.37
378.827	371.19
379.208	346.33
379.588	351.08
379.968	367.58
380.349	366.45
380.729	356.73
381.109	379.55
381.489	378.2
381.87	363.73
382.25	376.84
382.63	396.27
383.01	404.86
383.39	396.05
383.77	390.63
384.15	390.4
384.53	409.38
384.91	401.92
385.29	418.87
385.67	394.92
386.049	421.58
386.429	421.81
386.809	387.01
387.189	426.56
387.568	429.72
387.948	413
388.328	429.04
388.707	404.41
389.087	434.69
389.466	428.36
389.846	429.04
390.225	442.38
390.605	469.72
390.984	452.09
391.363	445.31
391.743	440.57
392.122	453.67
392.501	462.04
392.881	460.45
393.26	504.52
393.639	473.79
394.018	480.57
394.397	488.93
394.776	491.19
395.155	498.42
395.534	495.48
395.913	491.19
396.292	491.64
396.671	493
397.05	514.46
397.429	490.06
397.808	514.69
398.186	493.9
398.565	518.98
398.944	547.68
399.323	517.18
399.701	535.03
400.08	521.02
400.458	538.19
400.837	528.93
401.215	557.85
401.594	572.09
401.972	548.81
402.351	546.78
402.729	565.31
403.107	563.5
403.486	591.98
403.864	581.58
404.242	577.74
404.62	580.9
404.999	602.82
405.377	603.73
405.755	597.4
406.133	599.43
406.511	621.35
406.889	626.1
407.267	627.46
407.645	637.17
408.023	642.6
408.401	639.66
408.779	637.62
409.156	645.31
409.534	660.67
409.912	683.95
410.29	688.47
410.667	690.96
411.045	678.08
411.422	711.29
411.8	695.7
412.178	691.63
412.555	723.05
412.933	728.02
413.31	754.91
413.687	719.88
414.065	738.41
414.442	768.24
414.819	755.36
415.197	779.54
415.574	779.77
415.951	793.33
416.328	807.11
416.705	775.25
417.082	811.86
417.46	808.69
417.837	804.4
418.214	827
418.591	839.65
418.967	843.95
419.344	835.36
419.721	845.53
420.098	871.29
420.475	878.75
420.852	869.26
421.228	912.87
421.605	898.63
421.982	937.05
422.358	893.21
422.735	951.29
423.111	921.01
423.488	944.74
423.864	935.92
424.241	966.88
424.617	977.73
424.994	967.79
425.37	969.14
425.746	960.78
426.123	1008.69
426.499	1010.95
426.875	988.8
427.251	1015.02
427.627	1055.69
428.003	1055.92
428.379	1061.57
428.756	1064.51
429.132	1085.97
429.507	1113.32
429.883	1127.78
430.259	1151.74
430.635	1132.53
431.011	1141.11
431.387	1174.11
431.763	1182.47
432.138	1185.63
432.514	1219.76
432.89	1204.62
433.265	1240.09
433.641	1252.98
434.016	1291.62
434.392	1285.74
434.767	1314.22
435.143	1292.75
435.518	1325.74
435.894	1350.6
436.269	1335.91
436.644	1386.76
437.02	1391.05
437.395	1373.88
437.77	1413.2
438.145	1463.14
438.52	1427.66
438.895	1437.6
439.271	1457.04
439.646	1503.14
440.021	1511.73
440.395	1490.94
440.77	1494.33
441.145	1557.6
441.52	1568.67
441.895	1566.41
442.27	1575.45
442.645	1578.39
443.019	1628.78
443.394	1576.81
443.769	1620.2
444.143	1640.08
444.518	1685.73
444.892	1647.99
445.267	1650.03
445.641	1722.57
446.016	1744.49
446.39	1730.93
446.764	1727.54
447.139	1717.14
447.513	1771.15
447.887	1755.11
448.262	1778.16
448.636	1767.76
449.01	1842.11
449.384	1866.07
449.758	1847.31
450.132	1869.23
450.506	1869.68
450.88	1885.05
451.254	1929.12
451.628	1894.77
452.002	1937.03
452.376	1949.45
452.75	1970.24
453.123	1997.14
453.497	2020.86
453.871	2033.75
454.244	2090.24
454.618	2096.34
454.992	2127.53
455.365	2110.58
455.739	2159.17
456.112	2153.29
456.486	2173.18
456.859	2178.37
457.232	2230.35
457.606	2276.45
457.979	2259.05
458.352	2303.8
458.725	2336.34
459.099	2349.67
459.472	2426.05
459.845	2417.01
460.218	2457.92
460.591	2443
460.964	2465.6
461.337	2553.28
461.71	2582.21
462.083	2579.72
462.456	2610.23
462.829	2609.78
463.201	2665.14
463.574	2682.09
463.947	2725.48
464.32	2777
464.692	2752.37
465.065	2805.25
465.438	2798.92
465.81	2865.81
466.183	2882.99
466.555	2974.74
466.928	2995.98
467.3	2981.07
467.672	3007.73
468.045	3097.22
468.417	3096.77
468.789	3140.61
469.161	3157.33
469.534	3235.3
469.906	3264.22
470.278	3309.64
470.65	3326.59
471.022	3416.08
471.394	3470.77
471.766	3470.77
472.138	3553.93
472.51	3626.92
472.882	3635.51
473.253	3659.01
473.625	3711.89
473.997	3842.29
474.369	3879.35
474.74	3896.97
475.112	3939.91
475.484	4030.76
475.855	4064.65
476.227	4077.31
476.598	4187.14
476.97	4267.59
477.341	4378.77
477.713	4431.42
478.084	4425.1
478.455	4549.16
478.827	4605.66
479.198	4710.06
479.569	4727.91
479.94	4826.21
480.311	4941.47
480.682	4978.75
481.053	5085.42
481.424	5230.95
481.795	5262.36
482.166	5326.31
482.537	5387.33
482.908	5547.33
483.279	5547.1
483.65	5687.21
484.021	5746.42
484.391	5800.2
484.762	5840.43
485.133	5926.75
485.503	6011.27
485.874	6172.39
486.244	6166.52
486.615	6368.32
486.985	6410.13
487.356	6524.93
487.726	6559.28
488.097	6718.14
488.467	6731.7
488.837	6810.8
489.207	6915.43
489.578	7084.46
489.948	7124.23
490.318	7208.98
490.688	7242.42
491.058	7366.04
491.428	7460.95
491.798	7503.88
492.168	7699.13
492.538	7657.33
492.908	7773.48
493.278	7965.57
493.648	7917.21
494.017	8017.77
494.387	8144.77
494.757	8148.16
495.126	8307.71
495.496	8293.69
495.866	8347.7
496.235	8473.8
496.605	8558.77
496.974	8573.24
497.344	8715.6
497.713	8719.67
498.082	8763.06
498.452	8935.71
498.821	8974.13
499.19	8965.32
499.559	9045.54
499.928	9179.32
500.298	9245.08
500.667	9333.89
501.036	9266.55
501.405	9370.05
501.774	9457.96
502.143	9568.01
502.512	9548.12
502.88	9664.96
503.249	9761.45
503.618	9741.57
503.987	9785.86
504.356	9913.31
504.724	9990.15
505.093	10025.63
505.462	10063.14
505.83	10151.72
506.199	10271.95
506.567	10382.23
506.936	10403.47
507.304	10541.54
507.672	10523.69
508.041	10658.83
508.409	10742.9
508.777	10755.55
509.145	10828.77
509.514	10849.33
509.882	11054.07
510.25	11062.89
510.618	11211.13
510.986	11105.37
511.354	11336.33
511.722	11475.08
512.09	11449.09
512.458	11493.16
512.826	11664.45
513.193	11686.37
513.561	11769.54
513.929	11881.62
514.297	11994.39
514.664	12078
515.032	12172.91
515.4	12253.59
515.767	12300.37
516.135	12332.46
516.502	12362.51
516.869	12588.27
517.237	12637.08
517.604	12550.08
517.972	12845.67
518.339	12884.76
518.706	12961.37
519.073	13025.55
519.44	13150.52
519.808	13225.54
520.175	13295.82
520.542	13494.01
520.909	13475.03
521.276	13554.12
521.643	13742.36
522.009	13802.02
522.376	13943.04
522.743	14026.65
523.11	14171.73
523.477	14303.71
523.843	14423.7
524.21	14471.16
524.577	14642.45
524.943	14677.71
525.31	14852.17
525.676	14939.4
526.043	14984.37
526.409	15062.78
526.776	15262.1
527.142	15287.86
527.508	15443.79
527.874	15530.34
528.241	15691.01
528.607	15667.96
528.973	15888.52
529.339	16004
529.705	16027.5
530.071	16111.57
530.437	16287.38
530.803	16312.47
531.169	16467.04
531.535	16457.1
531.901	16552.69
532.267	16573.93
532.632	16711.78
532.998	16810.08
533.364	16923.52
533.73	16866.58
534.095	17218.43
534.461	17163.07
534.826	17173.46
535.192	17259.11
535.557	17468.59
535.923	17463.85
536.288	17538.2
536.653	17613.22
537.019	17548.82
537.384	17673.11
537.749	17843.05
538.114	17798.3
538.479	17855.93
538.845	17932.54
539.21	18012.99
539.575	18136.83
539.94	18226.31
540.305	18296.82
540.67	18341.11
541.034	18406.2
541.399	18484.39
541.764	18566.64
542.129	18586.53
542.494	18630.6
542.858	18816.81
543.223	18749.92
543.587	18979.06
543.952	18862.68
544.316	18960.76
544.681	18960.08
545.045	19065.39
545.41	19195.33
545.774	19236.46
546.138	19287.76
546.503	19382.44
546.867	19418.37
547.231	19510.57
547.595	19643.68
547.959	19730.23
548.324	19860.4
548.688	19824.69
549.052	19870.34
549.416	19992.82
549.779	19955.31
550.143	20110.33
550.507	20166.6
550.871	20198.69
551.235	20262.87
551.599	20355.3
551.962	20534.05
552.326	20513.71
552.689	20630.09
553.053	20549.42
553.417	20649.53
553.78	20967.49
554.143	20871.44
554.507	20953.7
554.87	21024.89
555.234	21300.81
555.597	21133.58
555.96	21257.42
556.323	21292.67
556.686	21334.03
557.05	21539
557.413	21603.63
557.776	21709.39
558.139	21849.5
558.502	21728.6
558.865	21882.72
559.228	22086.55
559.59	22218.98
559.953	22187.11
560.316	22457.39
560.679	22446.09
561.041	22662.13
561.404	22706.65
561.767	22800.66
562.129	22715.24
562.492	23046.3
562.854	23030.48
563.217	23084.72
563.579	23202.68
563.941	23370.13
564.304	23461.66
564.666	23579.85
565.028	23602.22
565.39	23699.39
565.753	23855.55
566.115	23882.44
566.477	24024.13
566.839	24138.93
567.201	24237.46
567.563	24305.02
567.925	24587.73
568.287	24620.27
568.648	24536.66
569.01	24712.25
569.372	24946.59
569.734	24874.73
570.095	24983.2
570.457	25121.95
570.819	25066.81
571.18	25180.71
571.542	25295.28
571.903	25343.87
572.265	25422.28
572.626	25440.59
572.987	25577.99
573.349	25581.83
573.71	25721.48
574.071	25887.81
574.432	25917.41
574.794	26067.24
575.155	26026.79
575.516	25935.49
575.877	26072.21
576.238	26223.17
576.599	26301.13
576.96	26326.44
577.32	26419.77
577.681	26488.92
578.042	26513.1
578.403	26435.14
578.763	26615.47
579.124	26662.02
579.485	26624.29
579.845	26665.64
580.206	26612.99
580.566	26677.17
580.927	26682.82
581.287	26824.73
581.648	26729.14
582.008	26832.64
582.368	26843.04
582.728	26950.83
583.089	26824.96
583.449	26925.07
583.809	27010.04
584.169	26958.29
584.529	26879.42
584.889	27089.36
585.249	26949.02
585.609	26819.99
585.969	27099.53
586.329	26957.61
586.688	26978.4
587.048	27003.03
587.408	26971.4
587.768	27062.92
588.127	26992.19
588.487	26929.59
588.846	27189.92
589.206	26970.04
589.565	27052.07
589.925	27125.06
590.284	27008
590.643	27106.08
591.003	27118.06
591.362	27135.91
591.721	27051.62
592.08	27123.93
592.44	27102.69
592.799	27092.07
593.158	27083.03
593.517	26996.25
593.876	27024.73
594.235	27135.68
594.593	27132.3
594.952	27254.78
595.311	27088.91
595.67	27165.51
596.029	27222.01
596.387	27400.31
596.746	27457.48
597.104	27298.84
597.463	27313.76
597.822	27326.19
598.18	27376.58
598.538	27322.12
598.897	27452.74
599.255	27206.19
599.613	27685.95
599.972	27383.36
600.33	27445.96
600.688	27426.98
601.046	27510.59
601.404	27666.97
601.762	27552.85
602.12	27673.3
602.478	27805.95
602.836	27698.38
603.194	27597.37
603.552	27591.04
603.91	27560.76
604.268	27726.4
604.625	27598.05
604.983	27747.65
605.341	27535.9
605.698	27823.35
606.056	28003.91
606.413	27868.55
606.771	27949.67
607.128	27929.79
607.485	27790.13
607.843	27948.54
608.2	27974.31
608.557	28088.43
608.914	27954.87
609.272	28134.53
609.629	28065.6
609.986	28248.42
610.343	28285.26
610.7	28401.64
611.057	28291.81
611.414	28365.26
611.771	28301.98
612.127	28447.06
612.484	28390.57
612.841	28508.08
613.198	28450.23
613.554	28472.37
613.911	28589.66
614.267	28593.27
614.624	28546.04
614.98	28617.23
615.337	28645.02
615.693	28643.22
616.05	28564.12
616.406	28791.23
616.762	28661.97
617.118	28729.09
617.475	28652.26
617.831	28681.63
618.187	28692.03
618.543	28719.15
618.899	28875.3
619.255	28925.02
619.611	28842.98
619.967	28840.72
620.323	29073.71
620.678	28844.57
621.034	28823.32
621.39	28833.27
621.746	28871.91
622.101	29115.52
622.457	28963.43
622.812	28806.15
623.168	29004.34
623.523	28958.46
623.879	29042.3
624.234	28817.22
624.589	29070.32
624.945	28992.81
625.3	28977.22
625.655	29012.92
626.01	29035.3
626.365	28888.41
626.72	28860.16
627.075	28887.28
627.43	28824.68
627.785	28795.98
628.14	28906.03
628.495	28882.76
628.85	28800.05
629.205	28709.43
629.559	29019.7
629.914	28831.23
630.269	28871.68
630.623	28719.15
630.978	28650.22
631.332	28837.79
631.687	28724.12
632.041	28582.88
632.396	28561.86
632.75	28589.43
633.104	28643.44
633.459	28422.88
633.813	28390.34
634.167	28331.81
634.521	28423.33
634.875	28443
635.229	28414.3
635.583	28190.12
635.937	28256.79
636.291	28164.58
636.645	28229.89
636.999	28203.23
637.352	28261.98
637.706	28071.71
638.06	28247.97
638.413	28031.03
638.767	28042.55
639.121	28053.17
639.474	27951.03
639.828	27927.98
640.181	27916.46
640.534	27824.03
640.888	27674.88
641.241	27538.16
641.594	27741.54
641.947	27781.77
642.301	27570.48
642.654	27650.25
643.007	27623.58
643.36	27667.2
643.713	27482.34
644.066	27592.4
644.419	27411.84
644.771	27256.13
645.124	27030.15
645.477	26965.29
645.83	26881.68
646.182	26709.93
646.535	26611.18
646.888	26674.68
647.24	26424.74
647.593	26630.61
647.945	26452.09
648.298	26263.39
648.65	26308.14
649.002	26231.3
649.355	26350.85
649.707	26329.6
650.059	26425.42
650.411	26744.73
650.763	26744.28
651.115	26974.33
651.467	26914.9
651.819	26942.7
652.171	26857.27
652.523	26768.91
652.875	26812.08
653.227	26662.02
653.578	26914.9
653.93	26876.03
654.282	26709.71
654.633	26648.92
654.985	26603.27
655.337	26725.3
655.688	26708.35
656.039	26670.16
656.391	26462.03
656.742	26599.88
657.094	26502.71
657.445	26491.86
657.796	26410.96
658.147	26402.37
658.498	26330.51
658.849	26410.96
659.2	26548.81
659.551	26353.78
659.902	26527.79
660.253	26416.61
660.604	26418.42
660.955	26229.04
661.306	26345.65
661.656	26296.61
662.007	26377.96
662.358	26262.71
662.708	26363.05
663.059	26259.1
663.409	26119.44
663.76	26161.25
664.11	26268.14
664.461	26329.83
664.811	26283.96
665.161	26224.07
665.511	26216.39
665.862	26201.02
666.212	26098.88
666.562	26219.1
666.912	26180.23
667.262	26233.79
667.612	26037.63
667.962	26193.56
668.312	26126.9
668.662	26126.9
669.011	25966.45
669.361	25988.37
669.711	25904.3
670.06	26048.93
670.41	25871.99
670.76	25920.35
671.109	26136.84
671.459	25918.32
671.808	26004.42
672.157	25945.43
672.507	25776.85
672.856	25811.65
673.205	25822.27
673.554	25907.02
673.904	25769.85
674.253	25939.78
674.602	25773.01
674.951	25338.9
675.3	25300.93
675.649	25639.45
675.998	25605.1
676.346	25686.91
676.695	25728.49
677.044	25527.37
677.393	25550.87
677.741	25714.03
678.09	25555.39
678.438	25498.44
678.787	25482.62
679.135	25467.25
679.484	25345
679.832	25388.16
680.181	25377.54
680.529	25339.8
680.877	25404.88
681.225	25187.26
681.573	25342.06
681.922	25197.66
682.27	25097.09
682.618	25103.42
682.966	24884.22
683.314	24989.53
683.661	24907.04
684.009	24708.18
684.357	24707.27
684.705	24667.5
685.053	24697.78
685.4	24706.37
685.748	24472.7
686.095	24441.97
686.443	24531.91
686.79	24459.15
687.138	24474.74
687.485	24375.53
687.832	24261.86
688.18	24264.12
688.527	24202.88
688.874	24198.36
689.221	24055.54
689.568	24168.76
689.915	24019.16
690.262	24013.51
690.609	23855.09
690.956	23899.61
691.303	23802.21
691.65	23672.05
691.997	23671.6
692.344	23508.66
692.69	23528.1
693.037	23591.37
693.383	23384.37
693.73	23321.1
694.077	23330.59
694.423	23250.59
694.769	23141.44
695.116	23155.22
695.462	23096.24
695.808	23008.79
696.155	23064.83
696.501	22780.77
696.847	22846.31
697.193	22737.38
697.539	22751.39
697.885	22660.32
698.231	22545.07
698.577	22557.95
698.923	22467.56
699.269	22339.43
699.614	22281.35
699.96	22258.75
700.306	22206.77
700.651	22091.98
700.997	21995.93
701.342	22075.03
701.688	21962.94
702.033	21896.95
702.379	21932.88
702.724	21844.98
703.069	21901.7
703.415	21660.8
703.76	21714.81
704.105	21785.77
704.45	21761.14
704.795	21555.04
705.14	21499.67
705.485	21496.29
705.83	21343.97
706.175	21447.25
706.52	21357.08
706.865	21259.68
707.209	21247.03
707.554	21166.12
707.899	21240.47
708.243	20987.15
708.588	20910.99
708.932	20773.59
709.277	20793.48
709.621	20793.7
709.966	20641.17
710.31	20683.88
710.654	20540.38
710.998	20592.13
711.342	20646.36
711.687	20574.28
712.031	20364.79
712.375	20346.94
712.719	20347.16
713.063	20298.8
713.407	20361.63
713.75	20270.78
714.094	20205.25
714.438	20217.67
714.782	20308.29
715.125	19992.6
715.469	20197.34
715.812	20051.13
716.156	19892.26
716.499	19910.11
716.843	20012.48
717.186	19814.52
717.53	19792.15
717.873	19838.02
718.216	19837.57
718.559	19821.75
718.902	19529.56
719.246	19666.5
719.589	19473.51
719.932	19390.13
720.275	19450.24
720.617	19488.88
720.96	19412.72
721.303	19359.17
721.646	19359.17
721.989	19281.65
722.331	19276.91
722.674	19205.72
723.016	19213.18
723.359	19200.07
723.701	19231.26
724.044	19092.73
724.386	19034.88
724.729	19069.91
725.071	19040.08
725.413	19007.54
725.755	18971.38
726.097	18899.29
726.439	18802.57
726.782	18864.94
727.124	18868.11
727.465	18743.82
727.807	18718.96
728.149	18625.17
728.491	18609.81
728.833	18789.92
729.175	18608.45
729.516	18579.07
729.858	18606.64
730.199	18493.43
730.541	18441.45
730.882	18452.98
731.224	18541.79
731.565	18305.86
731.906	18342.92
732.248	18269.03
732.589	18238.52
732.93	18232.19
733.271	18188.58
733.612	18208.24
733.953	18153.55
734.294	18138.63
734.635	18094.11
734.976	18129.37
735.317	17935.93
735.658	17908.13
735.999	17948.36
736.339	17976.6
736.68	18035.81
737.021	17952.2
737.361	17811.86
737.702	17940.67
738.042	17838.08
738.383	17729.38
738.723	17891.63
739.063	17759.66
739.404	17822.71
739.744	17806.44
740.084	17729.38
740.424	17702.26
740.764	17691.87
741.104	17719.89
741.444	17568.93
741.784	17462.04
742.124	17529.38
742.464	17415.04
742.804	17465.2
743.143	17427.24
743.483	17533
743.823	17324.87
744.162	17462.04
744.502	17312.44
744.841	17319.67
745.181	17284.87
745.52	17266.79
745.86	17265.89
746.199	17131.2
746.538	17116.74
746.877	17173.23
747.216	17146.12
747.556	17031.09
747.895	17043.07
748.234	16914.26
748.573	16931.21
748.911	16894.6
749.25	16916.97
749.589	16871.32
749.928	16889.85
750.267	16844.43
750.605	16813.7
750.944	16841.27
751.283	16740.7
751.621	16818.22
751.96	16646.02
752.298	16747.03
752.636	16706.58
752.975	16592.69
753.313	16566.02
753.651	16576.87
753.989	16496.42
754.327	16441.28
754.666	16386.14
755.004	16377.32
