Data from foam1_polythene_foam_FLMS001491_00066.txt Node
Date: Wed Feb 08 10:55:13 GMT 2017
User: dcchb
Spectrometer: FLMS00149
Trigger mode: 0
Integration Time (sec): 2.000000E-2
Scans to average: 10
Electric dark correction enabled: true
Nonlinearity correction enabled: false
Boxcar width: 0
XAxis mode: Wavelengths
Number of Pixels in Spectrum: 2048
>>>>>Begin Spectral Data<<<<<
341.393	8.04
341.776	8.04
342.16	8.04
342.543	-55.46
342.927	-46.2
343.31	-60.89
343.693	-66.76
344.077	-85.52
344.46	-50.72
344.843	-56.14
345.226	-44.84
345.61	-31.06
345.993	-10.72
346.376	13.23
346.759	5.78
347.142	27.7
347.525	52.33
347.908	47.13
348.291	88.26
348.674	82.61
349.057	89.62
349.44	133.46
349.823	142.72
350.206	152.44
350.588	179.33
350.971	190.63
351.354	196.05
351.737	210.74
352.119	234.7
352.502	236.51
352.884	257.07
353.267	254.36
353.65	264.98
354.032	280.57
354.414	299.1
354.797	294.58
355.179	279.67
355.562	307.46
355.944	313.11
356.326	304.07
356.709	309.27
357.091	311.98
357.473	316.05
357.855	313.34
358.238	316.5
358.62	318.31
359.002	304.98
359.384	322.83
359.766	319.44
360.148	333.45
360.53	321.25
360.912	328.93
361.294	295.49
361.676	320.34
362.057	326.45
362.439	318.76
362.821	310.63
363.203	291.42
363.584	273.11
363.966	309.05
364.348	287.13
364.729	284.87
365.111	293
365.493	282.38
365.874	328.03
366.256	296.16
366.637	295.71
367.019	293.9
367.4	297.75
367.781	291.19
368.163	274.7
368.544	286.22
368.925	305.88
369.306	307.01
369.688	293
370.069	305.2
370.45	273.79
370.831	281.02
371.212	301.36
371.593	302.72
371.974	305.66
372.355	289.16
372.736	294.13
373.117	293
373.498	301.36
373.879	268.37
374.26	297.75
374.641	303.85
375.021	291.87
375.402	309.05
375.783	314.02
376.163	286.67
376.544	298.2
376.925	307.24
377.305	300.91
377.686	294.13
378.066	286.22
378.447	303.62
378.827	293.23
379.208	328.93
379.588	305.43
379.968	316.5
380.349	310.85
380.729	305.66
381.109	304.75
381.489	302.49
381.87	301.59
382.25	316.95
382.63	307.69
383.01	332.1
383.39	307.01
383.77	327.8
384.15	305.88
384.53	324.86
384.91	318.31
385.29	307.46
385.67	326.67
386.049	323.28
386.429	307.69
386.809	313.79
387.189	327.8
387.568	308.59
387.948	341.81
388.328	320.34
388.707	311.08
389.087	318.54
389.466	301.14
389.846	316.28
390.225	318.76
390.605	310.63
390.984	318.99
391.363	320.8
391.743	320.57
392.122	328.48
392.501	320.12
392.881	334.36
393.26	323.73
393.639	343.39
394.018	330.51
394.397	333.23
394.776	339.33
395.155	345.65
395.534	348.14
395.913	344.52
396.292	348.14
396.671	353.34
397.05	337.07
397.429	343.85
397.808	340.68
398.186	360.12
398.565	337.97
398.944	333.23
399.323	337.75
399.701	359.67
400.08	350.4
400.458	348.14
400.837	353.34
401.215	347.91
401.594	357.86
401.972	329.38
402.351	347.46
402.729	358.99
403.107	342.72
403.486	349.72
403.864	350.4
404.242	371.42
404.62	343.85
404.999	363.28
405.377	356.05
405.755	368.25
406.133	363.51
406.511	349.5
406.889	362.15
407.267	374.58
407.645	375.94
408.023	347.69
408.401	373.9
408.779	360.8
409.156	363.51
409.534	380.91
409.912	372.32
410.29	363.96
410.667	369.38
411.045	375.48
411.422	391.3
411.8	393.34
412.178	384.3
412.555	378.65
412.933	390.17
413.31	377.74
413.687	358.54
414.065	378.87
414.442	397.63
414.819	385.43
415.197	398.08
415.574	389.95
415.951	396.73
416.328	373
416.705	386.78
417.082	381.36
417.46	379.78
417.837	400.79
418.214	423.39
418.591	408.7
418.967	393.56
419.344	408.7
419.721	403.05
420.098	416.39
420.475	430.62
420.852	410.51
421.228	406.9
421.605	426.1
421.982	404.41
422.358	426.33
422.735	423.17
423.111	432.43
423.488	437.86
423.864	429.95
424.241	434.01
424.617	411.19
424.994	454.8
425.37	407.35
425.746	430.85
426.123	441.7
426.499	416.39
426.875	439.44
427.251	451.19
427.627	450.51
428.003	423.39
428.379	431.08
428.756	465.88
429.132	453.22
429.507	445.77
429.883	476.05
430.259	479.44
430.635	443.96
431.011	462.26
431.387	471.08
431.763	464.07
432.138	450.74
432.514	478.98
432.89	479.21
433.265	480.11
433.641	488.7
434.016	483.5
434.392	482.37
434.767	499.55
435.143	482.83
435.518	501.81
435.894	518.31
436.269	534.58
436.644	512.43
437.02	527.12
437.395	513.56
437.77	536.38
438.145	537.29
438.52	555.14
438.895	541.13
439.271	515.59
439.646	537.29
440.021	519.66
440.395	553.11
440.77	549.94
441.145	554.91
441.52	556.95
441.895	541.36
442.27	549.49
442.645	570.06
443.019	585.87
443.394	537.29
443.769	569.15
444.143	566.67
444.518	604.18
444.892	572.54
445.267	578.87
445.641	610.96
446.016	586.78
446.39	610.05
446.764	607.57
447.139	598.3
447.513	616.16
447.887	640.34
448.262	615.93
448.636	629.26
449.01	632.88
449.384	623.39
449.758	653.9
450.132	678.98
450.506	647.79
450.88	655.48
451.254	620.9
451.628	665.42
452.002	648.7
452.376	663.84
452.75	676.72
453.123	659.32
453.497	669.94
453.871	688.92
454.244	697.74
454.618	706.55
454.992	662.48
455.365	685.08
455.739	687.79
456.112	691.41
456.486	687.57
456.859	697.06
457.232	700.45
457.606	685.98
457.979	703.61
458.352	705.19
458.725	709.71
459.099	710.39
459.472	734.35
459.845	726.44
460.218	708.36
460.591	729.6
460.964	725.08
461.337	728.02
461.71	739.77
462.083	751.29
462.456	747.68
462.829	735.93
463.201	718.07
463.574	745.87
463.947	770.95
464.32	747.23
464.692	768.24
465.065	727.11
465.438	788.35
465.81	756.49
466.183	779.99
466.555	781.35
466.928	798.07
467.3	804.63
467.672	783.61
468.045	796.49
468.417	786.77
468.789	812.99
469.161	795.59
469.534	833.33
469.906	829.71
470.278	795.13
470.65	821.57
471.022	820.22
471.394	845.98
471.766	862.93
472.138	862.25
472.51	880.33
472.882	875.81
473.253	871.06
473.625	892.76
473.997	896.37
474.369	916.71
474.74	897.5
475.112	913.55
475.484	900.67
475.855	918.52
476.227	935.02
476.598	944.96
476.97	933.44
477.341	953.77
477.713	992.64
478.084	983.15
478.455	998.52
478.827	1030.16
479.198	1028.8
479.569	1034
479.94	1040.33
480.311	1057.27
480.682	1049.14
481.053	1100.44
481.424	1102.7
481.795	1119.42
482.166	1137.95
482.537	1136.37
482.908	1153.32
483.279	1171.17
483.65	1175.01
484.021	1182.69
484.391	1194.9
484.762	1220.43
485.133	1187.44
485.503	1220.21
485.874	1256.82
486.244	1216.82
486.615	1252.52
486.985	1299.53
487.356	1313.54
487.726	1284.84
488.097	1333.2
488.467	1310.38
488.837	1337.72
489.207	1361.45
489.578	1368
489.948	1366.64
490.318	1392.18
490.688	1405.06
491.058	1441.9
491.428	1429.02
491.798	1429.02
492.168	1448.22
492.538	1431.73
492.908	1484.16
493.278	1498.62
493.648	1510.14
494.017	1518.51
494.387	1512.4
494.757	1498.62
495.126	1552.4
495.496	1544.04
495.866	1546.98
496.235	1589.92
496.605	1599.18
496.974	1561.22
497.344	1603.02
497.713	1629.24
498.082	1648.45
498.452	1665.17
498.821	1627.65
499.19	1632.4
499.559	1677.6
499.928	1657.94
500.298	1699.07
500.667	1693.64
501.036	1722.12
501.405	1728.67
501.774	1702
502.143	1742
502.512	1766.63
502.88	1768.44
503.249	1745.17
503.618	1760.98
503.987	1793.98
504.356	1807.54
504.724	1834.2
505.093	1806.86
505.462	1818.38
505.83	1853.41
506.199	1837.82
506.567	1894.99
506.936	1880.08
507.304	1870.59
507.672	1888.67
508.041	1935.9
508.409	1897.7
508.777	1914.88
509.145	1937.25
509.514	1963.69
509.882	1977.25
510.25	1997.36
510.618	1982.45
510.986	1991.94
511.354	1961.66
511.722	2044.59
512.09	2051.82
512.458	2010.02
512.826	2033.52
513.193	2059.51
513.561	2072.84
513.929	2069
514.297	2100.64
514.664	2123.24
515.032	2084.59
515.4	2126.4
515.767	2156
516.135	2162.56
516.502	2191.26
516.869	2195.78
517.237	2247.3
517.604	2227.41
517.972	2220.63
518.339	2241.88
518.706	2211.37
519.073	2285.49
519.44	2242.33
519.808	2291.82
520.175	2276.45
520.542	2309.22
520.909	2332.04
521.276	2311.03
521.643	2347.18
522.009	2364.58
522.376	2391.93
522.743	2394.41
523.11	2374.98
523.477	2447.07
523.843	2398.93
524.21	2443.23
524.577	2462.66
524.943	2466.05
525.31	2477.12
525.676	2526.61
526.043	2528.42
526.409	2557.35
526.776	2580.17
527.142	2564.35
527.508	2626.5
527.874	2589.44
528.241	2605.71
528.607	2635.09
528.973	2642.77
529.339	2676.89
529.705	2673.05
530.071	2725.48
530.437	2690.23
530.803	2724.35
531.169	2715.08
531.535	2706.95
531.901	2749.89
532.267	2740.39
532.632	2737.91
532.998	2782.2
533.364	2796.44
533.73	2765.03
534.095	2824.91
534.461	2869.43
534.826	2848.19
535.192	2839.6
535.557	2871.92
535.923	2869.43
536.288	2866.27
536.653	2885.02
537.019	2867.4
537.384	2907.4
537.749	2870.56
538.114	2945.59
538.479	2929.99
538.845	2958.02
539.21	2924.34
539.575	2931.58
539.94	2972.48
540.305	2988.07
540.67	2963.89
541.034	3001.4
541.399	2985.81
541.764	3024.23
542.129	3030.33
542.494	3051.12
542.858	3036.43
543.223	3026.26
543.587	3050.67
543.952	3064.91
544.316	3050.89
544.681	3078.92
545.045	3098.58
545.41	3079.82
545.774	3105.13
546.138	3125.47
546.503	3137.22
546.867	3140.61
547.231	3178.8
547.595	3224.22
547.959	3205.92
548.324	3130.44
548.688	3176.77
549.052	3209.53
549.416	3176.99
549.779	3196.2
550.143	3192.36
550.507	3204.34
550.871	3245.24
551.235	3239.82
551.599	3291.34
551.962	3296.31
552.326	3304.22
552.689	3333.15
553.053	3308.29
553.417	3312.58
553.78	3324.33
554.143	3353.49
554.507	3379.02
554.87	3384.22
555.234	3365.01
555.597	3373.37
555.96	3401.39
556.323	3389.87
556.686	3429.64
557.05	3420.6
557.413	3441.84
557.776	3438.68
558.139	3494.27
558.502	3489.98
558.865	3473.26
559.228	3525.91
559.59	3541.5
559.953	3490.2
560.316	3556.42
560.679	3606.59
561.041	3572.69
561.404	3580.37
561.767	3626.92
562.129	3591.9
562.492	3637.09
562.854	3627.83
563.217	3620.14
563.579	3668.05
563.941	3713.93
564.304	3729.75
564.666	3716.41
565.028	3726.36
565.39	3748.28
565.753	3803.87
566.115	3774.04
566.477	3818.56
566.839	3823.53
567.201	3804.77
567.563	3835.96
567.925	3846.13
568.287	3870.08
568.648	3853.59
569.01	3845.22
569.372	3910.53
569.734	3882.06
570.095	3923.41
570.457	3896.75
570.819	3950.31
571.18	3967.25
571.542	3967.71
571.903	4000.25
572.265	4006.12
572.626	4004.54
572.987	4026.01
573.349	3989.17
573.71	4051.32
574.071	4052.22
574.432	4028.27
574.794	4059
575.155	4041.6
575.516	4077.99
575.877	4086.8
576.238	4074.37
576.599	4099.91
576.96	4101.26
577.32	4111.43
577.681	4100.36
578.042	4094.03
578.403	4135.39
578.763	4134.26
579.124	4136.06
579.485	4218.32
579.845	4160.24
580.206	4149.17
580.566	4157.08
580.927	4199.34
581.287	4193.69
581.648	4182.84
582.008	4187.14
582.368	4129.06
582.728	4146.91
583.089	4158.44
583.449	4191.66
583.809	4164.31
584.169	4232.56
584.529	4159.34
584.889	4224.2
585.249	4182.16
585.609	4164.09
585.969	4186.68
586.329	4217.42
586.688	4216.97
587.048	4183.52
587.408	4135.84
587.768	4187.36
588.127	4216.97
588.487	4136.74
588.846	4191.43
589.206	4178.32
589.565	4205.67
589.925	4196.63
590.284	4131.54
590.643	4198.21
591.003	4204.54
591.362	4189.62
591.721	4200.92
592.08	4174.03
592.44	4228.94
592.799	4191.43
593.158	4200.92
593.517	4220.36
593.876	4229.62
594.235	4188.49
594.593	4230.98
594.952	4192.56
595.311	4219.9
595.67	4184.2
596.029	4226.91
596.387	4196.17
596.746	4217.87
597.104	4169.73
597.463	4226.23
597.822	4219.45
598.18	4197.3
598.538	4166.12
598.897	4206.8
599.255	4162.5
599.613	4218.32
599.972	4187.81
600.33	4217.87
600.688	4235.04
601.046	4188.72
601.404	4207.93
601.762	4176.97
602.12	4235.72
602.478	4248.83
602.836	4184.88
603.194	4192.79
603.552	4170.19
603.91	4178.1
604.268	4222.61
604.625	4185.1
604.983	4239.34
605.341	4174.71
605.698	4239.79
606.056	4211.09
606.413	4260.35
606.771	4303.29
607.128	4247.25
607.485	4231.2
607.843	4215.61
608.2	4219.9
608.557	4193.46
608.914	4230.07
609.272	4240.47
609.629	4280.47
609.986	4273.01
610.343	4237.98
610.7	4283.18
611.057	4249.05
611.414	4290.18
611.771	4272.11
612.127	4285.66
612.484	4280.69
612.841	4274.14
613.198	4283.86
613.554	4258.09
613.911	4300.35
614.267	4245.67
614.624	4258.32
614.98	4273.01
615.337	4288.6
615.693	4288.38
616.05	4267.36
616.406	4286.34
616.762	4260.81
617.118	4258.77
617.475	4288.6
617.831	4282.5
618.187	4294.93
618.543	4253.12
618.899	4333.57
619.255	4262.39
619.611	4289.51
619.967	4298.32
620.323	4253.57
620.678	4281.82
621.034	4301.48
621.39	4259
621.746	4278.43
622.101	4307.13
622.457	4236.63
622.812	4302.61
623.168	4310.07
623.523	4281.82
623.879	4283.63
624.234	4227.81
624.589	4293.35
624.945	4269.85
625.3	4237.76
625.655	4301.03
626.01	4237.76
626.365	4260.13
626.72	4223.29
627.075	4269.39
627.43	4244.76
627.785	4207.02
628.14	4217.64
628.495	4211.99
628.85	4217.87
629.205	4238.21
629.559	4203.18
629.914	4204.54
630.269	4196.85
630.623	4206.34
630.978	4204.08
631.332	4178.55
631.687	4202.95
632.041	4182.16
632.396	4131.32
632.75	4182.39
633.104	4142.84
633.459	4149.17
633.813	4162.28
634.167	4162.96
634.521	4112.11
634.875	4114.82
635.229	4131.09
635.583	4114.82
635.937	4137.65
636.291	4091.09
636.645	4057.87
636.999	4094.26
637.352	4063.98
637.706	4100.13
638.06	4045.9
638.413	4023.98
638.767	4023.52
639.121	4018.33
639.474	4007.93
639.828	4050.42
640.181	4110.08
640.534	4035.95
640.888	4019.46
641.241	4037.76
641.594	4053.58
641.947	3997.99
642.301	4010.42
642.654	3994.15
643.007	4002.96
643.36	3997.31
643.713	3991.66
644.066	3958.22
644.419	3949.4
644.771	3911.44
645.124	3874.38
645.477	3880.48
645.83	3860.82
646.182	3857.88
646.535	3862.4
646.888	3848.16
647.24	3780.59
647.593	3834.38
647.945	3855.39
648.298	3826.47
648.65	3819.01
649.002	3783.08
649.355	3802.06
649.707	3791.89
650.059	3810.87
650.411	3786.47
650.763	3824.66
651.115	3843.64
651.467	3794.15
651.819	3816.07
652.171	3843.19
652.523	3791.44
652.875	3773.81
653.227	3775.17
653.578	3839.12
653.93	3767.03
654.282	3765
654.633	3788.5
654.985	3767.26
655.337	3770.42
655.688	3744.21
656.039	3797.77
656.391	3717.54
656.742	3728.84
657.094	3737.88
657.445	3744.21
657.796	3741.27
658.147	3754.38
658.498	3753.93
658.849	3713.25
659.2	3749.63
659.551	3779.91
659.902	3740.14
660.253	3716.19
660.604	3709.63
660.955	3726.36
661.306	3705.11
661.656	3715.28
662.007	3739.01
662.358	3699.01
662.708	3708.73
663.059	3661.05
663.409	3636.19
663.76	3687.94
664.11	3684.55
664.461	3696.3
664.811	3644.55
665.161	3660.6
665.511	3681.61
665.862	3683.42
666.212	3670.77
666.562	3680.93
666.912	3656.3
667.262	3670.31
667.612	3656.75
667.962	3660.14
668.312	3647.26
668.662	3683.87
669.011	3662.18
669.361	3643.65
669.711	3636.64
670.06	3627.83
670.41	3576.3
670.76	3629.18
671.109	3614.5
671.459	3593.7
671.808	3588.28
672.157	3630.31
672.507	3598.22
672.856	3581.95
673.205	3563.65
673.554	3594.61
673.904	3610.65
674.253	3614.72
674.602	3576.98
674.951	3527.27
675.3	3513.03
675.649	3565.91
675.998	3564.78
676.346	3571.11
676.695	3569.07
677.044	3541.28
677.393	3570.43
677.741	3556.64
678.09	3538.57
678.438	3540.15
678.787	3534.72
679.135	3543.31
679.484	3520.71
679.832	3492.92
680.181	3512.8
680.529	3500.6
680.877	3532.92
681.225	3500.6
681.573	3502.18
681.922	3470.32
682.27	3450.43
682.618	3453.37
682.966	3426.48
683.314	3480.04
683.661	3454.05
684.009	3462.41
684.357	3447.27
684.705	3444.56
685.053	3453.37
685.4	3430.32
685.748	3386.25
686.095	3366.82
686.443	3400.94
686.79	3402.3
687.138	3371.79
687.485	3381.51
687.832	3386.48
688.18	3373.82
688.527	3376.08
688.874	3341.96
689.221	3315.97
689.568	3344.45
689.915	3363.2
690.262	3342.41
690.609	3335.63
690.956	3305.58
691.303	3320.49
691.65	3288.4
691.997	3293.83
692.344	3272.36
692.69	3283.2
693.037	3282.07
693.383	3217.67
693.73	3296.99
694.077	3225.35
694.423	3207.05
694.769	3180.61
695.116	3222.64
695.462	3229.42
695.808	3203.88
696.155	3186.03
696.501	3153.72
696.847	3186.03
697.193	3147.16
697.539	3170.21
697.885	3126.15
698.231	3157.78
698.577	3136.09
698.923	3170.89
699.269	3071.46
699.614	3113.72
699.96	3078.69
700.306	3077.79
700.651	3098.8
700.997	3116.43
701.342	3070.55
701.688	3066.94
702.033	3028.97
702.379	3023.55
702.724	3063.1
703.069	3066.49
703.415	3000.95
703.76	3009.77
704.105	3038.47
704.45	3018.13
704.795	2951.46
705.14	3032.14
705.485	2948.98
705.83	2973.38
706.175	3004.57
706.52	2989.43
706.865	2969.09
707.209	2948.07
707.554	2899.03
707.899	2932.03
708.243	2916.66
708.588	2962.54
708.932	2889.09
709.277	2895.64
709.621	2890.22
709.966	2862.88
710.31	2878.92
710.654	2887.28
710.998	2847.51
711.342	2836.66
711.687	2819.04
712.031	2840.28
712.375	2842.54
712.719	2840.28
713.063	2842.54
713.407	2801.64
713.75	2838.47
714.094	2798.02
714.438	2809.77
714.782	2788.75
715.125	2807.28
715.469	2820.84
715.812	2800.28
716.156	2759.15
716.499	2763.9
716.843	2775.87
717.186	2743.11
717.53	2763.9
717.873	2718.7
718.216	2721.64
718.559	2765.25
718.902	2706.27
719.246	2730.45
719.589	2727.74
719.932	2753.05
720.275	2741.3
720.617	2733.16
720.96	2748.3
721.303	2753.5
721.646	2736.1
721.989	2671.24
722.331	2682.99
722.674	2699.04
723.016	2680.96
723.359	2688.19
723.701	2687.29
724.044	2668.98
724.386	2650.45
724.729	2641.64
725.071	2651.36
725.413	2638.02
725.755	2657.91
726.097	2631.47
726.439	2619.04
726.782	2599.61
727.124	2604.8
727.465	2588.31
727.807	2615.65
728.149	2668.53
728.491	2584.69
728.833	2631.47
729.175	2588.31
729.516	2642.09
729.858	2614.3
730.199	2592.15
730.541	2609.1
730.882	2596.89
731.224	2609.78
731.565	2549.89
731.906	2562.09
732.248	2584.92
732.589	2564.58
732.93	2533.17
733.271	2555.54
733.612	2557.8
733.953	2569.1
734.294	2540.17
734.635	2542.43
734.976	2558.25
735.317	2524.58
735.658	2547.86
735.999	2524.35
736.339	2521.64
736.68	2515.54
737.021	2523.9
737.361	2509.44
737.702	2512.83
738.042	2516.67
738.383	2464.92
738.723	2487.75
739.063	2506.28
739.404	2505.82
739.744	2491.36
740.084	2469.44
740.424	2491.36
740.764	2465.15
741.104	2512.6
741.444	2475.77
741.784	2465.15
742.124	2445.26
742.464	2452.94
742.804	2474.41
743.143	2458.82
743.483	2471.47
743.823	2454.98
744.162	2460.4
744.502	2463.34
744.841	2450.23
745.181	2438.48
745.52	2441.19
745.86	2436
746.199	2404.81
746.538	2425.83
746.877	2446.84
747.216	2409.56
747.556	2418.37
747.895	2404.58
748.234	2417.69
748.573	2382.21
748.911	2387.63
749.25	2382.44
749.589	2412.27
749.928	2372.27
750.267	2385.83
750.605	2352.16
750.944	2359.84
751.283	2353.51
751.621	2357.35
751.96	2377.01
752.298	2332.04
752.636	2351.93
752.975	2312.38
753.313	2337.92
753.651	2351.03
753.989	2302.89
754.327	2339.05
754.666	2312.16
755.004	2325.72
755.342	2343.79
755.679	2311.48
756.017	2332.72
756.355	2295.43
756.693	2283.46
757.031	2294.53
757.368	2268.99
757.706	2283.23
758.044	2282.1
758.381	2286.85
758.719	2259.73
759.056	2261.99
759.394	2277.58
759.731	2277.36
760.068	2215.21
760.405	2237.36
760.743	2241.42
761.08	2220.63
761.417	2200.3
761.754	2195.1
762.091	2250.01
762.428	2196.91
762.765	2144.03
763.102	2212.72
763.438	2185.15
763.775	2185.38
764.112	2200.3
764.449	2186.96
764.785	2181.54
765.122	2193.29
765.458	2134.53
765.795	2149
766.131	2138.38
766.467	2120.52
766.804	2130.92
767.14	2096.34
767.476	2092.95
767.812	2104.48
768.148	2098.83
768.485	2117.13
768.821	2103.57
769.157	2063.58
769.492	2083.69
769.828	2069
770.164	2064.71
770.5	2065.84
770.836	2057.02
771.171	2042.33
771.507	2054.08
771.842	2030.36
772.178	2037.36
772.513	2016.57
