Data from foam_black_FLMS001491_00056.txt Node
Date: Wed Feb 08 10:44:08 GMT 2017
User: dcchb
Spectrometer: FLMS00149
Trigger mode: 0
Integration Time (sec): 2.000000E-2
Scans to average: 10
Electric dark correction enabled: true
Nonlinearity correction enabled: false
Boxcar width: 0
XAxis mode: Wavelengths
Number of Pixels in Spectrum: 2048
>>>>>Begin Spectral Data<<<<<
341.393	-6.75
341.776	-6.75
342.16	-6.75
342.543	-58.95
342.927	-79.97
343.31	-74.55
343.693	-73.42
344.077	-71.38
344.46	-62.57
344.843	-44.26
345.226	-32.74
345.61	-51.04
345.993	-3.14
346.376	8.84
346.759	26.47
347.142	28.95
347.525	26.47
347.908	37.54
348.291	77.77
348.674	95.62
349.057	111.44
349.44	119.12
349.823	129.06
350.206	149.63
350.588	200.93
350.971	190.08
351.354	200.93
351.737	223.75
352.119	251.32
352.502	242.28
352.884	258.33
353.267	264.65
353.65	255.61
354.032	273.24
354.414	280.7
354.797	290.19
355.179	318.89
355.562	315.5
355.944	313.69
356.326	317.99
356.709	334.93
357.091	320.47
357.473	306.69
357.855	333.35
358.238	301.04
358.62	338.32
359.002	310.53
359.384	332.67
359.766	319.34
360.148	316.63
360.53	309.85
360.912	313.92
361.294	322.05
361.676	312.11
362.057	334.71
362.439	339.91
362.821	326.12
363.203	319.34
363.584	321.83
363.966	308.27
364.348	299.68
364.729	300.59
365.111	304.2
365.493	286.12
365.874	320.47
366.256	307.14
366.637	308.27
367.019	315.95
367.4	322.96
367.781	296.52
368.163	320.92
368.544	322.96
368.925	317.99
369.306	309.17
369.688	318.66
370.069	293.35
370.45	305.56
370.831	298.1
371.212	303.3
371.593	263.07
371.974	321.38
372.355	299
372.736	302.17
373.117	308.27
373.498	294.26
373.879	319.57
374.26	283.41
374.641	301.26
375.021	314.6
375.402	295.16
375.783	320.92
376.163	323.18
376.544	305.1
376.925	321.83
377.305	322.51
377.686	303.75
378.066	327.48
378.447	315.73
378.827	300.59
379.208	303.98
379.588	313.69
379.968	321.83
380.349	325.22
380.729	323.86
381.109	304.43
381.489	320.02
381.87	322.51
382.25	331.54
382.63	333.58
383.01	318.44
383.39	315.05
383.77	324.09
384.15	320.7
384.53	318.21
384.91	321.83
385.29	336.74
385.67	322.96
386.049	343.07
386.429	319.34
386.809	325.9
387.189	317.31
387.568	323.64
387.948	344.2
388.328	335.39
388.707	327.7
389.087	347.82
389.466	356.4
389.846	351.88
390.225	343.52
390.605	363.86
390.984	325.9
391.363	332.22
391.743	342.84
392.122	337.65
392.501	353.92
392.881	355.27
393.26	374.26
393.639	349.17
394.018	366.8
394.397	357.53
394.776	373.58
395.155	358.21
395.534	366.12
395.913	362.73
396.292	364.99
396.671	386.01
397.05	354.82
397.429	369.28
397.808	374.48
398.186	366.35
398.565	374.93
398.944	360.47
399.323	349.62
399.701	373.8
400.08	353.24
400.458	395.95
400.837	378.78
401.215	373.58
401.594	367.93
401.972	366.8
402.351	395.72
402.729	386.91
403.107	392.79
403.486	379.68
403.864	371.09
404.242	409.06
404.62	368.83
404.999	376.06
405.377	390.75
405.755	402.5
406.133	393.92
406.511	393.46
406.889	407.93
407.267	398.66
407.645	388.72
408.023	410.64
408.401	389.17
408.779	401.6
409.156	424.42
409.534	429.4
409.912	395.5
410.29	418.32
410.667	432.56
411.045	428.49
411.422	420.13
411.8	433.24
412.178	433.01
412.555	425.78
412.933	436.17
413.31	452.9
413.687	446.34
414.065	434.59
414.442	451.32
414.819	440.24
415.197	451.54
415.574	437.3
415.951	453.12
416.328	456.06
416.705	434.82
417.082	437.3
417.46	458.55
417.837	469.17
418.214	469.39
418.591	477.08
418.967	447.02
419.344	461.49
419.721	459.68
420.098	460.36
420.475	481.37
420.852	494.25
421.228	484.76
421.605	460.58
421.982	472.56
422.358	496.51
422.735	506.46
423.111	505.55
423.488	506.91
423.864	484.99
424.241	493.8
424.617	515.72
424.994	512.78
425.37	526.57
425.746	501.03
426.123	537.87
426.499	499.45
426.875	508.94
427.251	527.92
427.627	524.99
428.003	526.34
428.379	549.84
428.756	530.18
429.132	534.03
429.507	559.56
429.883	552.33
430.259	536.96
430.635	540.58
431.011	560.24
431.387	562.73
431.763	560.01
432.138	571.99
432.514	561.82
432.89	558.88
433.265	587.81
433.641	577.41
434.016	557.98
434.392	586.45
434.767	606.57
435.143	574.7
435.518	593.46
435.894	618.54
436.269	607.7
436.644	605.44
437.02	624.42
437.395	643.63
437.77	616.28
438.145	634.59
438.52	629.39
438.895	639.11
439.271	628.94
439.646	631.88
440.021	634.14
440.395	630.97
440.77	630.52
441.145	654.7
441.52	648.15
441.895	655.15
442.27	666.23
442.645	671.2
443.019	680.46
443.394	656.28
443.769	686.34
444.143	659.67
444.518	671.65
444.892	685.89
445.267	668.49
445.641	673.23
446.016	689.73
446.39	686.34
446.764	685.43
447.139	694.02
447.513	683.17
447.887	710.74
448.262	722.72
448.636	717.98
449.01	721.82
449.384	706.22
449.758	718.2
450.132	716.17
450.506	731.08
450.88	731.31
451.254	744.42
451.628	745.32
452.002	744.64
452.376	752.55
452.75	757.97
453.123	753.45
453.497	745.09
453.871	754.58
454.244	794.81
454.618	777.18
454.992	781.48
455.365	783.51
455.739	796.84
456.112	777.86
456.486	806.11
456.859	803.62
457.232	821.48
457.606	841.36
457.979	833.68
458.352	850.4
458.725	857.86
459.099	849.27
459.472	872.1
459.845	884.3
460.218	873
460.591	874.58
460.964	874.58
461.337	891.98
461.71	924.07
462.083	926.78
462.456	917.29
462.829	913
463.201	932.66
463.574	933.79
463.947	925.43
464.32	948.25
464.692	961.36
465.065	952.77
465.438	977.4
465.81	989.38
466.183	989.15
466.555	1018.31
466.928	1022.6
467.3	1031.19
467.672	1022.37
468.045	1051.53
468.417	1070.06
468.789	1037.97
469.161	1039.77
469.534	1067.12
469.906	1095.37
470.278	1094.91
470.65	1099.21
471.022	1127
471.394	1149.38
471.766	1131.52
472.138	1142.82
472.51	1151.41
472.882	1158.87
473.253	1207.91
473.625	1207
473.997	1222.59
474.369	1244.06
474.74	1208.81
475.112	1254.01
475.484	1259.66
475.855	1281.35
476.227	1258.3
476.598	1336.94
476.97	1322.25
477.341	1375.81
477.713	1352.08
478.084	1367.68
478.455	1428.24
478.827	1407.45
479.198	1438.63
479.569	1448.35
479.94	1480.44
480.311	1494.68
480.682	1529.25
481.053	1547.78
481.424	1549.82
481.795	1550.72
482.166	1584.62
482.537	1607.22
482.908	1614.45
483.279	1638.18
483.65	1662.13
484.021	1713.2
484.391	1727.21
484.762	1750.49
485.133	1728.12
485.503	1745.07
485.874	1785.97
486.244	1800.43
486.615	1840.88
486.985	1842.92
487.356	1859.87
487.726	1865.52
488.097	1915.23
488.467	1910.94
488.837	1942.12
489.207	1946.64
489.578	1985.06
489.948	2009.24
490.318	2023.7
490.688	2051.5
491.058	2052.86
491.428	2080.65
491.798	2118.62
492.168	2125.85
492.538	2129.69
492.908	2120.88
493.278	2213.76
493.648	2182.8
494.017	2230.25
494.387	2237.26
494.757	2208.33
495.126	2229.12
495.496	2261.89
495.866	2289.46
496.235	2317.26
496.605	2334.43
496.974	2355.9
497.344	2370.36
497.713	2377.37
498.082	2400.64
498.452	2414.65
498.821	2404.03
499.19	2394.77
499.559	2428.89
499.928	2453.98
500.298	2498.27
500.667	2501.43
501.036	2492.62
501.405	2529.45
501.774	2519.51
502.143	2491.71
502.512	2559.96
502.88	2561.09
503.249	2596.8
503.618	2578.27
503.987	2632.5
504.356	2615.1
504.724	2656
505.093	2681.09
505.462	2684.48
505.83	2687.87
506.199	2706.85
506.567	2713.18
506.936	2716.34
507.304	2732.61
507.672	2779.39
508.041	2767.19
508.409	2771.48
508.777	2839.95
509.145	2842.67
509.514	2860.07
509.882	2856.9
510.25	2870.91
510.618	2850.35
510.986	2877.69
511.354	2926.28
511.722	2967.86
512.09	2988.42
512.458	2978.71
512.826	2983.45
513.193	3032.94
513.561	2999.95
513.929	3064.58
514.297	3063.9
514.664	3054.64
515.032	3080.17
515.4	3131.25
515.767	3179.83
516.135	3159.49
516.502	3136.22
516.869	3217.12
517.237	3217.57
517.604	3227.06
517.972	3256.21
518.339	3280.62
518.706	3289.66
519.073	3298.47
519.44	3323.56
519.808	3365.36
520.175	3344.12
520.542	3394.74
520.909	3400.39
521.276	3445.59
521.643	3405.59
522.009	3434.74
522.376	3504.79
522.743	3457.11
523.11	3561.29
523.477	3571.91
523.843	3576.88
524.21	3610.1
524.577	3638.8
524.943	3659.37
525.31	3690.1
525.676	3730.1
526.043	3709.99
526.409	3744.79
526.776	3758.35
527.142	3782.75
527.508	3830.44
527.874	3843.32
528.241	3872.92
528.607	3889.87
528.973	3919.25
529.339	3939.13
529.705	3944.78
530.071	3988.62
530.437	3983.65
530.803	4031.56
531.169	4055.06
531.535	4024.1
531.901	4088.51
532.267	4127.83
532.632	4129.64
532.998	4146.13
533.364	4146.36
533.73	4136.87
534.095	4206.47
534.461	4194.72
534.826	4248.73
535.192	4216.87
535.557	4316.07
535.923	4256.19
536.288	4268.62
536.653	4267.26
537.019	4347.94
537.384	4286.7
537.749	4303.87
538.114	4338.22
538.479	4343.64
538.845	4365.56
539.21	4389.97
539.575	4407.82
539.94	4401.72
540.305	4456.86
540.67	4433.58
541.034	4434.49
541.399	4485.79
541.764	4468.16
542.129	4508.16
542.494	4537.31
542.858	4536.63
543.223	4573.92
543.587	4570.08
543.952	4596.74
544.316	4625.22
544.681	4621.83
545.045	4674.71
545.41	4667.48
545.774	4702.28
546.138	4721.03
546.503	4719.9
546.867	4757.19
547.231	4772.56
547.595	4712.67
547.959	4779.56
548.324	4761.48
548.688	4859.11
549.052	4824.08
549.416	4888.04
549.779	4851.2
550.143	4887.13
550.507	4916.51
550.871	4900.01
551.235	4914.02
551.599	4965.1
551.962	4944.08
552.326	4965.1
552.689	5018.43
553.053	4988.15
553.417	4995.83
553.78	5058.88
554.143	5037.41
554.507	5038.99
554.87	5062.72
555.234	5137.97
555.597	5087.8
555.96	5091.65
556.323	5152.21
556.686	5112.21
557.05	5182.49
557.413	5211.19
557.776	5224.52
558.139	5282.38
558.502	5238.76
558.865	5297.06
559.228	5345.65
559.59	5333
559.953	5373.22
560.316	5408.7
560.679	5403.28
561.041	5456.38
561.404	5469.71
561.767	5486.21
562.129	5473.78
562.492	5544.52
562.854	5557.17
563.217	5530.5
563.579	5620.22
563.941	5646.43
564.304	5678.3
564.666	5690.73
565.028	5740.44
565.39	5714
565.753	5804.4
566.115	5808.69
566.477	5840.33
566.839	5838.29
567.201	5899.53
567.563	5878.52
567.925	5937.27
568.287	5922.81
568.648	5972.07
569.01	6003.03
569.372	6026.08
569.734	5996.48
570.095	6047.1
570.457	6021.34
570.819	6104.73
571.18	6087.33
571.542	6081.45
571.903	6126.19
572.265	6159.87
572.626	6191.5
572.987	6180.2
573.349	6131.39
573.71	6158.28
574.071	6245.29
574.432	6194.89
574.794	6289.13
575.155	6269.69
575.516	6230.15
575.877	6287.77
576.238	6320.54
576.599	6289.58
576.96	6302.46
577.32	6343.14
577.681	6337.04
578.042	6368.45
578.403	6385.17
578.763	6370.71
579.124	6390.82
579.485	6462.23
579.845	6443.02
580.206	6465.17
580.566	6463.36
580.927	6416.36
581.287	6522.34
581.648	6464.27
582.008	6507.43
582.368	6519.86
582.728	6460.65
583.089	6514.21
583.449	6506.07
583.809	6492.51
584.169	6513.98
584.529	6515.79
584.889	6558.27
585.249	6551.27
585.609	6464.49
585.969	6562.57
586.329	6466.3
586.688	6547.88
587.048	6458.84
587.408	6482.34
587.768	6550.82
588.127	6503.59
588.487	6536.13
588.846	6565.28
589.206	6543.81
589.565	6534.55
589.925	6514.43
590.284	6549.69
590.643	6490.71
591.003	6542.68
591.362	6558.27
591.721	6503.59
592.08	6515.34
592.44	6579.06
592.799	6579.97
593.158	6576.8
593.517	6518.5
593.876	6560.53
594.235	6470.82
594.593	6543.81
594.952	6581.32
595.311	6488.22
595.67	6560.99
596.029	6615
596.387	6600.53
596.746	6590.14
597.104	6553.08
597.463	6534.77
597.822	6640.08
598.18	6600.08
598.538	6558.95
598.897	6645.96
599.255	6562.12
599.613	6640.53
599.972	6613.41
600.33	6675.11
600.688	6653.41
601.046	6651.6
601.404	6649.34
601.762	6674.2
602.12	6685.28
602.478	6749.68
602.836	6699.97
603.194	6689.8
603.552	6690.93
603.91	6675.33
604.268	6744.03
604.625	6686.63
604.983	6647.54
605.341	6692.96
605.698	6734.09
606.056	6788.1
606.413	6742.68
606.771	6756.91
607.128	6794.88
607.485	6755.33
607.843	6693.64
608.2	6816.57
608.557	6811.83
608.914	6750.36
609.272	6803.47
609.629	6856.35
609.986	6822.22
610.343	6745.61
610.7	6881.66
611.057	6825.16
611.414	6841.43
611.771	6795.1
612.127	6833.75
612.484	6786.06
612.841	6824.03
613.198	6859.06
613.554	6836.46
613.911	6868.55
614.267	6847.76
614.624	6846.63
614.98	6863.12
615.337	6866.29
615.693	6882.56
616.05	6838.27
616.406	6896.12
616.762	6857.02
617.118	6887.08
617.475	6893.18
617.831	6930.47
618.187	6939.05
618.543	6901.99
618.899	6990.8
619.255	7000.97
619.611	6910.36
619.967	6950.81
620.323	6933.86
620.678	6935.89
621.034	6938.15
621.39	6978.6
621.746	6919.39
622.101	7077.36
622.457	6914.42
622.812	6937.25
623.168	7005.04
623.523	7038.71
623.879	7020.41
624.234	7003.69
624.589	7026.06
624.945	6991.48
625.3	7063.12
625.655	7062.22
626.01	7081.88
626.365	7008.43
626.72	7023.35
627.075	7059.28
627.43	7039.17
627.785	7013.86
628.14	7026.51
628.495	6981.31
628.85	7013.18
629.205	7007.3
629.559	7018.37
629.914	6989.22
630.269	6967.08
630.623	6952.39
630.978	6979.28
631.332	7011.37
631.687	7024.48
632.041	6984.7
632.396	6972.95
632.75	6907.42
633.104	6959.17
633.459	6864.93
633.813	6916.46
634.167	6885.27
634.521	6866.74
634.875	6859.96
635.229	6864.03
635.583	6828.78
635.937	6814.99
636.291	6828.32
636.645	6833.97
636.999	6774.77
637.352	6756.01
637.706	6754.65
638.06	6763.24
638.413	6747.87
638.767	6709
639.121	6731.6
639.474	6659.06
639.828	6704.03
640.181	6749.23
640.534	6684.15
640.888	6709.23
641.241	6626.75
641.594	6627.2
641.947	6713.75
642.301	6635.79
642.654	6613.64
643.007	6718.04
643.36	6644.83
643.713	6661.32
644.066	6655.22
644.419	6562.79
644.771	6499.29
645.124	6500.65
645.477	6453.87
645.83	6400.09
646.182	6433.31
646.535	6448.67
646.888	6439.63
647.24	6444.38
647.593	6449.58
647.945	6470.82
648.298	6430.82
648.65	6448.9
649.002	6394.89
649.355	6408.9
649.707	6368.22
650.059	6430.59
650.411	6393.08
650.763	6499.07
651.115	6544.04
651.467	6534.77
651.819	6544.94
652.171	6527.09
652.523	6537.03
652.875	6488.9
653.227	6450.48
653.578	6504.94
653.93	6533.64
654.282	6475.11
654.633	6455.68
654.985	6488.22
655.337	6495.22
655.688	6494.77
656.039	6475.34
656.391	6420.88
656.742	6483.47
657.094	6428.11
657.445	6486.41
657.796	6385.4
658.147	6390.82
658.498	6406.41
658.849	6428.33
659.2	6381.56
659.551	6391.5
659.902	6377.94
660.253	6309.92
660.604	6389.92
660.955	6356.25
661.306	6365.51
661.656	6326.64
662.007	6350.82
662.358	6317.15
662.708	6339.52
663.059	6339.07
663.409	6298.39
663.76	6296.13
664.11	6314.66
664.461	6345.17
664.811	6298.85
665.161	6256.13
665.511	6305.4
665.862	6285.74
666.212	6287.77
666.562	6294.1
666.912	6282.57
667.262	6287.77
667.612	6293.42
667.962	6252.75
668.312	6252.29
668.662	6265.17
669.011	6292.29
669.361	6240.32
669.711	6260.2
670.06	6288.68
670.41	6215.23
670.76	6248
671.109	6267.21
671.459	6257.94
671.808	6229.92
672.157	6293.42
672.507	6231.28
672.856	6224.27
673.205	6255.23
673.554	6254.33
673.904	6272.86
674.253	6292.29
674.602	6233.54
674.951	6180.2
675.3	6139.75
675.649	6224.95
675.998	6240.54
676.346	6195.35
676.695	6259.98
677.044	6242.35
677.393	6224.95
677.741	6241.22
678.09	6215.23
678.438	6170.26
678.787	6257.72
679.135	6212.07
679.484	6156.25
679.832	6211.39
680.181	6206.87
680.529	6156.93
680.877	6118.96
681.225	6118.74
681.573	6158.74
681.922	6115.12
682.27	6095.24
682.618	6144.5
682.966	6055.24
683.314	6104.73
683.661	6005.52
684.009	6031.51
684.357	6057.5
684.705	6061.34
685.053	6019.08
685.4	6040.77
685.748	5976.37
686.095	5963.26
686.443	5933.66
686.79	5950.15
687.138	5915.35
687.485	5910.61
687.832	5915.13
688.18	5845.52
688.527	5849.14
688.874	5861.12
689.221	5853.43
689.568	5812.98
689.915	5797.39
690.262	5807.56
690.609	5785.41
690.956	5743.15
691.303	5773.66
691.65	5728.47
691.997	5734.79
692.344	5694.12
692.69	5727.56
693.037	5714.68
693.383	5695.25
693.73	5657.05
694.077	5638.75
694.423	5624.74
694.769	5643.72
695.116	5591.29
695.462	5602.37
695.808	5589.71
696.155	5577.73
696.501	5541.35
696.847	5522.37
697.193	5484.18
697.539	5545.19
697.885	5511.52
698.231	5510.84
698.577	5490.05
698.923	5527.57
699.269	5491.41
699.614	5450.05
699.96	5443.05
700.306	5389.27
700.651	5431.52
700.997	5414.8
701.342	5402.37
701.688	5415.03
702.033	5384.75
702.379	5431.98
702.724	5331.41
703.069	5357.85
703.415	5310.85
703.76	5294.8
704.105	5320.11
704.45	5311.98
704.795	5295.71
705.14	5277.86
705.485	5237.86
705.83	5204.41
706.175	5256.84
706.52	5196.05
706.865	5207.57
707.209	5171.19
707.554	5118.09
707.899	5208.03
708.243	5167.8
708.588	5131.87
708.932	5103.62
709.277	5107.92
709.621	5084.41
709.966	5074.47
710.31	5050.74
710.654	5057.3
710.998	5051.65
711.342	5007.81
711.687	5064.98
712.031	5003.06
712.375	4992.89
712.719	4990.86
713.063	4954.02
713.407	4983.4
713.75	4977.3
714.094	4997.18
714.438	4935.94
714.782	4972.33
715.125	4936.62
715.469	4935.94
715.812	4886.45
716.156	4896.85
716.499	4912.89
716.843	4890.07
717.186	4888.94
717.53	4914.02
717.873	4934.36
718.216	4845.1
718.559	4827.7
718.902	4776.85
719.246	4828.38
719.589	4777.98
719.932	4764.65
720.275	4811.65
720.617	4827.7
720.96	4762.84
721.303	4759.68
721.646	4758.1
721.989	4733.46
722.331	4767.81
722.674	4731.2
723.016	4701.83
723.359	4717.19
723.701	4700.02
724.044	4709.51
724.386	4702.28
724.729	4694.82
725.071	4669.51
725.413	4673.35
725.755	4647.59
726.097	4646.23
726.439	4621.15
726.782	4629.51
727.124	4637.19
727.465	4630.87
727.807	4586.57
728.149	4610.98
728.491	4538.21
728.833	4578.44
729.175	4569.85
729.516	4614.6
729.858	4589.74
730.199	4512.68
730.541	4491.21
730.882	4526.91
731.224	4526.46
731.565	4489.4
731.906	4531.89
732.248	4543.41
732.589	4513.58
732.93	4521.94
733.271	4552.9
733.612	4526.24
733.953	4495.96
734.294	4493.92
734.635	4489.85
734.976	4528.5
735.317	4469.06
735.658	4455.96
735.999	4460.93
736.339	4446.01
736.68	4434.71
737.021	4462.74
737.361	4438.33
737.702	4441.27
738.042	4454.6
738.383	4422.96
738.723	4410.08
739.063	4469.52
739.404	4393.13
739.744	4397.88
740.084	4378.44
740.424	4364.21
740.764	4321.72
741.104	4362.85
741.444	4335.06
741.784	4342.74
742.124	4339.12
742.464	4329.86
742.804	4299.12
743.143	4344.77
743.483	4253.7
743.823	4292.34
744.162	4277.88
744.502	4293.7
744.841	4277.43
745.181	4260.93
745.52	4281.05
745.86	4258.45
746.199	4189.75
746.538	4224.55
746.877	4239.46
747.216	4225.45
747.556	4201.27
747.895	4199.69
748.234	4212.57
748.573	4182.74
748.911	4186.81
749.25	4208.51
749.589	4190.88
749.928	4143.42
750.267	4148.85
750.605	4126.7
750.944	4119.92
751.283	4115.63
751.621	4156.76
751.96	4160.14
752.298	4142.29
752.636	4121.28
752.975	4082.18
753.313	4104.33
753.651	4096.42
753.989	4083.54
754.327	4073.59
754.666	4060.03
755.004	4084.21
755.342	4065.91
755.679	4031.33
756.017	4030.2
756.355	4081.05
756.693	4006.7
757.031	4004.89
757.368	3988.62
757.706	3987.72
758.044	3983.65
758.381	3942.98
758.719	3978
759.056	3926.93
759.394	3931.22
759.731	3905.01
760.068	3902.07
760.405	3893.03
760.743	3888.29
761.08	3905.01
761.417	3932.58
761.754	3889.19
762.091	3866.82
762.428	3837.89
762.765	3853.03
763.102	3856.88
763.438	3776.43
763.775	3804
764.112	3797.67
764.449	3781.17
764.785	3704.56
765.122	3749.53
765.458	3717.44
765.795	3731
766.131	3746.14
766.467	3714.51
766.804	3704.34
767.14	3674.73
767.476	3666.37
767.812	3655.3
768.148	3662.3
768.485	3593.38
768.821	3661.17
769.157	3623.89
769.492	3601.52
769.828	3624.57
770.164	3580.95
770.5	3647.39
770.836	3579.14
771.171	3529.65
771.507	3552.93
771.842	3502.99
