Data from foam1_polythene_foam_FLMS001491_00077.txt Node
Date: Wed Feb 08 10:55:22 GMT 2017
User: dcchb
Spectrometer: FLMS00149
Trigger mode: 0
Integration Time (sec): 2.000000E-2
Scans to average: 10
Electric dark correction enabled: true
Nonlinearity correction enabled: false
Boxcar width: 0
XAxis mode: Wavelengths
Number of Pixels in Spectrum: 2048
>>>>>Begin Spectral Data<<<<<
341.393	-3.22
341.776	-3.22
342.16	-3.22
342.543	-51.81
342.927	-58.81
343.31	-69.43
343.693	-65.82
344.077	-45.48
344.46	-66.72
344.843	-47.51
345.226	-52.03
345.61	-31.02
345.993	-8.64
346.376	-14.29
346.759	15.08
347.142	25.48
347.525	67.74
347.908	48.08
348.291	68.87
348.674	76.1
349.057	99.6
349.44	136.89
349.823	140.05
350.206	142.09
350.588	175.53
350.971	229.09
351.354	208.98
351.737	222.99
352.119	246.49
352.502	255.3
352.884	279.48
353.267	257.56
353.65	290.11
354.032	299.82
354.414	296.21
354.797	297.79
355.179	311.57
355.562	320.84
355.944	312.25
356.326	307.51
356.709	321.52
357.091	333.49
357.473	318.35
357.855	319.48
358.238	333.49
358.62	337.79
359.002	329.88
359.384	335.08
359.766	350.44
360.148	323.32
360.53	321.74
360.912	332.59
361.294	325.58
361.676	322.65
362.057	345.02
362.439	319.71
362.821	327.17
363.203	311.12
363.584	326.04
363.966	331.23
364.348	327.84
364.729	331.46
365.111	306.83
365.493	309.77
365.874	328.75
366.256	303.21
366.637	300.27
367.019	317.9
367.4	319.71
367.781	329.43
368.163	327.39
368.544	318.13
368.925	313.61
369.306	328.07
369.688	308.41
370.069	321.52
370.45	322.19
370.831	326.94
371.212	313.38
371.593	319.26
371.974	314.74
372.355	319.71
372.736	307.05
373.117	330.1
373.498	312.48
373.879	319.71
374.26	309.31
374.641	314.29
375.021	334.62
375.402	313.38
375.783	358.8
376.163	335.3
376.544	334.62
376.925	352.93
377.305	335.98
377.686	321.74
378.066	311.35
378.447	327.17
378.827	345.92
379.208	335.98
379.588	306.15
379.968	335.3
380.349	344.57
380.729	344.12
381.109	349.09
381.489	354.96
381.87	349.09
382.25	351.35
382.63	365.81
383.01	359.03
383.39	334.62
383.77	351.8
384.15	361.52
384.53	348.41
384.91	349.54
385.29	345.47
385.67	374.17
386.049	370.56
386.429	375.75
386.809	338.47
387.189	364.23
387.568	375.53
387.948	364.23
388.328	359.71
388.707	372.14
389.087	365.36
389.466	376.43
389.846	352.7
390.225	376.2
390.605	396.54
390.984	394.28
391.363	359.48
391.743	403.77
392.122	390.67
392.501	398.58
392.881	394.06
393.26	402.87
393.639	394.06
394.018	406.94
394.397	395.87
394.776	403.77
395.155	409.2
395.534	412.36
395.913	402.19
396.292	434.96
396.671	443.55
397.05	400.84
397.429	425.7
397.808	437.22
398.186	428.63
398.565	430.89
398.944	445.13
399.323	437.22
399.701	429.99
400.08	437.22
400.458	444.9
400.837	447.39
401.215	461.85
401.594	457.11
401.972	443.1
402.351	441.06
402.729	457.78
403.107	469.08
403.486	449.42
403.864	450.55
404.242	461.85
404.62	457.11
404.999	454.39
405.377	460.72
405.755	487.61
406.133	457.56
406.511	476.77
406.889	488.52
407.267	498.01
407.645	498.69
408.023	506.37
408.401	502.53
408.779	512.7
409.156	511.57
409.534	536.43
409.912	518.57
410.29	544.56
410.667	543.43
411.045	546.37
411.422	543.21
411.8	522.87
412.178	532.58
412.555	560.61
412.933	567.39
413.31	563.54
413.687	576.2
414.065	568.52
414.442	606.26
414.819	589.76
415.197	604.45
415.574	602.41
415.951	589.31
416.328	591.57
416.705	597.67
417.082	615.29
417.46	621.85
417.837	612.13
418.214	628.85
418.591	606.26
418.967	630.89
419.344	652.13
419.721	638.8
420.098	667.04
420.475	658.01
420.852	649.87
421.228	661.62
421.605	646.25
421.982	677.44
422.358	669.76
422.735	670.21
423.111	675.41
423.488	670.21
423.864	690.09
424.241	689.42
424.617	727.61
424.994	706.37
425.37	726.25
425.746	723.31
426.123	737.33
426.499	721.51
426.875	728.51
427.251	748.85
427.627	763.31
428.003	777.55
428.379	758.57
428.756	777.55
429.132	787.27
429.507	778.45
429.883	799.7
430.259	808.74
430.635	801.5
431.011	839.47
431.387	829.75
431.763	842.18
432.138	881.05
432.514	873.82
432.89	885.12
433.265	889.64
433.641	895.74
434.016	899.81
434.392	934.61
434.767	926.02
435.143	942.29
435.518	944.55
435.894	954.49
436.269	969.41
436.644	986.58
437.02	971.67
437.395	982.06
437.77	1008.05
438.145	989.52
438.52	1017.32
438.895	1032.01
439.271	1046.02
439.646	1063.42
440.021	1084.43
440.395	1079.92
440.77	1063.42
441.145	1095.73
441.52	1100.71
441.895	1119.46
442.27	1125.79
442.645	1123.98
443.019	1141.83
443.394	1133.25
443.769	1156.3
444.143	1163.08
444.518	1165.79
444.892	1135.05
445.267	1159.01
445.641	1193.81
446.016	1185.9
446.39	1211.66
446.764	1214.6
447.139	1206.01
447.513	1227.26
447.887	1253.47
448.262	1242.62
448.636	1259.35
449.01	1243.53
449.384	1270.19
449.758	1280.59
450.132	1310.87
450.506	1349.51
450.88	1293.92
451.254	1340.47
451.628	1373.92
452.002	1326.46
452.376	1340.7
452.75	1370.08
453.123	1388.16
453.497	1427.48
453.871	1429.28
454.244	1463.41
454.618	1455.72
454.992	1499.79
455.365	1484.2
455.739	1490.07
456.112	1502.95
456.486	1530.52
456.859	1525.1
457.232	1553.57
457.606	1557.64
457.979	1523.29
458.352	1604.2
458.725	1617.98
459.099	1624.31
459.472	1671.76
459.845	1650.75
460.218	1677.87
460.591	1640.13
460.964	1683.97
461.337	1733.23
461.71	1735.72
462.083	1760.12
462.456	1764.87
462.829	1763.96
463.201	1790.86
463.574	1835.6
463.947	1845.54
464.32	1852.32
464.692	1867.01
465.065	1896.84
465.438	1915.15
465.81	1929.61
466.183	1961.7
466.555	2010.96
466.928	1978.65
467.3	1990.4
467.672	2042.83
468.045	2061.81
468.417	2073.56
468.789	2100
469.161	2120.57
469.534	2163.5
469.906	2186.1
470.278	2210.51
470.65	2234.24
471.022	2268.81
471.394	2281.69
471.766	2292.31
472.138	2347
472.51	2395.59
472.882	2426.09
473.253	2449.14
473.625	2480.1
473.997	2553.1
474.369	2544.51
474.74	2601.68
475.112	2634.45
475.484	2640.78
475.855	2685.97
476.227	2719.19
476.598	2788.34
476.97	2806.2
477.341	2852.52
477.713	2903.14
478.084	2934.1
478.455	3012.07
478.827	2993.31
479.198	3099.75
479.569	3113.99
479.94	3178.17
480.311	3205.06
480.682	3260.65
481.053	3323.47
481.424	3397.14
481.795	3435.11
482.166	3487.99
482.537	3551.26
482.908	3621.32
483.279	3663.8
483.65	3739.28
484.021	3753.07
484.391	3758.94
484.762	3810.92
485.133	3854.08
485.503	3941.76
485.874	3989.22
486.244	4049.78
486.615	4151.02
486.985	4192.83
487.356	4227.18
487.726	4280.06
488.097	4334.52
488.467	4339.04
488.837	4468.98
489.207	4513.72
489.578	4593.95
489.948	4618.81
490.318	4684.34
490.688	4721.85
491.058	4754.85
491.428	4862.41
491.798	4916.2
492.168	5002.75
492.538	5004.11
492.908	5030.77
493.278	5084.1
493.648	5156.87
494.017	5242.74
494.387	5266.47
494.757	5306.24
495.126	5349.86
495.496	5363.87
495.866	5420.82
496.235	5442.96
496.605	5496.75
496.974	5522.74
497.344	5630.08
497.713	5666.46
498.082	5759.79
498.452	5801.82
498.821	5807.93
499.19	5782.16
499.559	5886.57
499.928	5887.92
500.298	5964.98
500.667	6014.7
501.036	6020.12
501.405	6119.78
501.774	6131.08
502.143	6184.41
502.512	6200.91
502.88	6298.08
503.249	6235.94
503.618	6302.6
503.987	6340.12
504.356	6401.81
504.724	6413.56
505.093	6485.65
505.462	6543.27
505.83	6533.11
506.199	6671.86
506.567	6691.97
506.936	6701.01
507.304	6749.14
507.672	6797.05
508.041	6805.87
508.409	6927.22
508.777	7018.97
509.145	7050.15
509.514	7067.33
509.882	7156.37
510.25	7140.55
510.618	7222.35
510.986	7259.41
511.354	7304.84
511.722	7339.64
512.09	7473.87
512.458	7419.64
512.826	7451.05
513.193	7590.03
513.561	7626.18
513.929	7683.81
514.297	7756.35
514.664	7858.95
515.032	7831.6
515.4	7859.4
515.767	7898.49
516.135	7966.51
516.502	7939.4
516.869	8069.11
517.237	8119.5
517.604	8185.27
517.972	8309.56
518.339	8390.46
518.706	8368.76
519.073	8427.52
519.44	8518.59
519.808	8547.52
520.175	8571.47
520.542	8658.47
520.909	8748.19
521.276	8844.23
521.643	8868.64
522.009	8930.1
522.376	9038.12
522.743	9067.5
523.11	9129.42
523.477	9161.51
523.843	9294.16
524.21	9357.44
524.577	9430.43
524.943	9455.06
525.31	9540.48
525.676	9653.25
526.043	9758.56
526.409	9800.82
526.776	9851.21
527.142	9893.69
527.508	10014.6
527.874	10072.9
528.241	10014.6
528.607	10029.51
528.973	10151.32
529.339	10194.93
529.705	10320.8
530.071	10386.56
530.437	10496.16
530.803	10512.44
531.169	10615.03
531.535	10631.75
531.901	10597.63
532.267	10797.4
532.632	10789.94
532.998	10750.62
533.364	10899.32
533.73	10928.7
534.095	10996.72
534.461	11073.78
534.826	11142.02
535.192	11189.48
535.557	11286.65
535.923	11205.98
536.288	11286.43
536.653	11316.48
537.019	11318.06
537.384	11398.74
537.749	11392.19
538.114	11525.97
538.479	11507.89
538.845	11635.57
539.21	11532.75
539.575	11668.11
539.94	11725.74
540.305	11787.66
540.67	11799.18
541.034	11843.25
541.399	11878.5
541.764	11927.09
542.129	11937.71
542.494	11960.08
542.858	12048.21
543.223	12086.41
543.587	12223.58
543.952	12183.58
544.316	12196.23
544.681	12251.6
545.045	12290.92
545.41	12326.85
545.774	12291.15
546.138	12319.85
546.503	12401.88
546.867	12344.03
547.231	12546.73
547.595	12570.91
547.959	12671.25
548.324	12649.78
548.688	12649.33
549.052	12750.57
549.416	12755.54
549.779	12709.89
550.143	12798.03
550.507	12982.2
550.871	12931.35
551.235	12969.32
551.599	13078.24
551.962	13081.63
552.326	13115.76
552.689	13268.97
553.053	13149.43
553.417	13255.41
553.78	13325.69
554.143	13396.88
554.507	13477.33
554.87	13464.67
555.234	13602.07
555.597	13538.34
555.96	13620.6
556.323	13705.57
556.686	13723.42
557.05	13806.13
557.413	13859.69
557.776	13921.61
558.139	13919.35
558.502	14018.11
558.865	14001.16
559.228	14104.66
559.59	14113.47
559.953	14206.58
560.316	14349.17
560.679	14383.97
561.041	14421.94
561.404	14495.61
561.767	14581.71
562.129	14476.85
562.492	14685.43
562.854	14657.64
563.217	14694.02
563.579	14770.85
563.941	14861.7
564.304	14967.01
564.666	15033.67
565.028	15046.33
565.39	15086.33
565.753	15221.69
566.115	15218.07
566.477	15315.25
566.839	15384.62
567.201	15459.2
567.563	15433.44
567.925	15653.32
568.287	15552.3
568.648	15685.86
569.01	15723.37
569.372	15955.91
569.734	15800.66
570.095	16053.76
570.457	16009.24
570.819	16072.52
571.18	16017.6
571.542	16176.47
571.903	16128.33
572.265	16227.54
572.626	16175.79
572.987	16256.24
573.349	16265.5
573.71	16416.01
574.071	16469.34
574.432	16424.82
574.794	16657.13
575.155	16566.29
575.516	16502.11
575.877	16595.21
576.238	16677.7
576.599	16634.99
576.96	16675.44
577.32	16846.73
577.681	16789.78
578.042	16867.97
578.403	16862.55
578.763	16928.76
579.124	16954.3
579.485	16942.1
579.845	17083.79
580.206	16987.07
580.566	16944.58
580.927	16980.97
581.287	17078.59
581.648	16949.1
582.008	17097.35
582.368	17020.96
582.728	17070.68
583.089	17139.83
583.449	16999.5
583.809	17075.43
584.169	17209.89
584.529	17168.53
584.889	17242.88
585.249	17132.37
585.609	17134.86
585.969	17206.04
586.329	17240.85
586.688	17129.89
587.048	17173.96
587.408	17116.56
587.768	17172.6
588.127	17125.37
588.487	17094.18
588.846	17266.38
589.206	17097.8
589.565	17178.02
589.925	17194.97
590.284	17258.25
590.643	17306.83
591.003	17219.6
591.362	17233.39
591.721	17208.98
592.08	17271.13
592.44	17251.24
592.799	17293.05
593.158	17273.16
593.517	17234.29
593.876	17227.97
594.235	17221.86
594.593	17342.54
594.952	17284.69
595.311	17131.02
595.67	17284.91
596.029	17398.36
596.387	17352.71
596.746	17406.94
597.104	17314.06
597.463	17392.03
597.822	17402.65
598.18	17286.04
598.538	17292.82
598.897	17409.2
599.255	17272.94
599.613	17538.92
599.972	17524.23
600.33	17492.36
600.688	17399.03
601.046	17522.65
601.404	17530.78
601.762	17509.31
602.12	17624.79
602.478	17612.14
602.836	17569.2
603.194	17530.56
603.552	17523.55
603.91	17585.92
604.268	17594.51
604.625	17547.73
604.983	17548.41
605.341	17547.73
605.698	17629.76
606.056	17656.2
606.413	17630.21
606.771	17780.27
607.128	17663.89
607.485	17656.88
607.843	17646.94
608.2	17909.08
608.557	17900.04
608.914	17766.71
609.272	17915.18
609.629	17851
609.986	17964.89
610.343	17839.7
610.7	18041.95
611.057	17867.5
611.414	17894.84
611.771	17952.69
612.127	18067.72
612.484	18031.56
612.841	18059.36
613.198	17898.68
613.554	17951.56
613.911	17962.41
614.267	18092.58
614.624	18002.41
614.98	18153.82
615.337	18145.23
615.693	18094.61
616.05	18072.69
616.406	18275.85
616.762	18084.67
617.118	18162.63
617.475	18239.46
617.831	18224.55
618.187	18203.53
618.543	18264.77
618.899	18412.11
619.255	18286.69
619.611	18268.84
619.967	18383.41
620.323	18349.74
620.678	18296.19
621.034	18302.06
621.39	18275.4
621.746	18365.11
622.101	18500.93
622.457	18291.44
622.812	18371.44
623.168	18299.12
623.523	18272.23
623.879	18377.77
624.234	18288.5
624.589	18334.6
624.945	18336.86
625.3	18377.31
625.655	18366.01
626.01	18361.49
626.365	18426.8
626.72	18424.54
627.075	18336.41
627.43	18382.51
627.785	18331.66
628.14	18318.11
628.495	18321.72
628.85	18261.84
629.205	18269.75
629.559	18296.86
629.914	18211.22
630.269	18223.65
630.623	18130.31
630.978	18206.47
631.332	18286.02
631.687	18193.59
632.041	18193.36
632.396	18290.31
632.75	18149.97
633.104	18177.54
633.459	18066.36
633.813	18059.13
634.167	17956.53
634.521	17969.19
634.875	17993.59
635.229	17960.38
635.583	17824.56
635.937	17905.01
636.291	17820.49
636.645	17884.22
636.999	17800.38
637.352	17908.4
637.706	17812.58
638.06	17968.96
638.413	17770.32
638.767	17764
639.121	17757.89
639.474	17681.06
639.828	17708.18
640.181	17582.31
640.534	17585.02
640.888	17506.15
641.241	17470.67
641.594	17475.42
641.947	17539.14
642.301	17427.51
642.654	17488.98
643.007	17476.55
643.36	17485.36
643.713	17490.33
644.066	17552.93
644.419	17397.23
644.771	17337.79
645.124	17199.04
645.477	17144.8
645.83	17124.24
646.182	16902.55
646.535	16824.81
646.888	16840.86
647.24	16649.45
647.593	16757.02
647.945	16593.41
648.298	16592.95
648.65	16623.01
649.002	16556.12
649.355	16648.55
649.707	16682.22
650.059	16770.12
650.411	16925.37
650.763	17138.93
651.115	17152.26
651.467	16999.04
651.819	17048.76
652.171	16992.72
652.523	16885.38
652.875	16901.42
653.227	16800.41
653.578	16937.35
653.93	16817.35
654.282	16759.05
654.633	16715.66
654.985	16801.08
655.337	16848.09
655.688	16762.89
656.039	16904.58
656.391	16663.46
656.742	16851.03
657.094	16811.03
657.445	16867.07
657.796	16784.59
658.147	16674.31
658.498	16564.03
658.849	16684.7
659.2	16656.45
659.551	16547.31
659.902	16629.34
660.253	16610.58
660.604	16591.37
660.955	16503.46
661.306	16566.97
661.656	16460.75
662.007	16473.63
662.358	16561.32
662.708	16501.43
663.059	16583.24
663.409	16365.16
663.76	16562.9
664.11	16523.35
664.461	16619.39
664.811	16491.49
665.161	16507.53
665.511	16341.43
665.862	16450.13
666.212	16490.81
666.562	16380.3
666.912	16369.68
667.262	16284.04
667.612	16374.65
667.962	16325.84
668.312	16245.84
668.662	16363.81
669.011	16525.16
669.361	16326.97
669.711	16415.11
670.06	16479.96
670.41	16402.45
670.76	16394.99
671.109	16438.16
671.459	16382.56
671.808	16353.41
672.157	16295.56
672.507	16229.35
672.856	16169.69
673.205	16162
673.554	16221.44
673.904	16184.6
674.253	16191.83
674.602	16224.38
674.951	15980.09
675.3	15886.53
675.649	16059.86
675.998	16177.15
676.346	16139.41
676.695	16160.2
677.044	16038.84
677.393	16075.45
677.741	16122.68
678.09	16079.29
678.438	16046.98
678.787	16094.44
679.135	15964.95
679.484	15930.15
679.832	16004.49
680.181	15847.44
680.529	15935.8
680.877	15945.29
681.225	15810.6
681.573	15867.77
681.922	15720.89
682.27	15695.8
682.618	15773.54
682.966	15656.93
683.314	15677.95
683.661	15747.55
684.009	15689.93
684.357	15616.48
684.705	15673.43
685.053	15635.24
685.4	15613.32
685.748	15580.1
686.095	15587.1
686.443	15513.66
686.79	15461.46
687.138	15380.78
687.485	15450.61
687.832	15360.67
688.18	15322.03
688.527	15236.38
688.874	15221.69
689.221	15169.71
689.568	15150.28
689.915	15044.29
690.262	15043.62
690.609	15064.41
690.956	15025.54
691.303	15001.58
691.65	15041.58
691.997	14967.91
692.344	14952.09
692.69	14847.24
693.037	14928.59
693.383	14771.98
693.73	14885.88
694.077	14804.53
694.423	14692.89
694.769	14644.98
695.116	14598.43
695.462	14516.85
695.808	14480.69
696.155	14508.26
696.501	14340.81
696.847	14351.88
697.193	14282.51
697.539	14277.08
697.885	14261.49
698.231	14186.01
698.577	14169.97
698.923	14275.05
699.269	14130.19
699.614	14103.08
699.96	14012.23
700.306	14131.78
700.651	14042.74
700.997	14106.69
701.342	13982.4
701.688	13971.55
702.033	13865.57
702.379	13859.24
702.724	13775.17
703.069	13793.03
703.415	13634.84
703.76	13619.02
704.105	13669.64
704.45	13627.83
704.795	13506.93
705.14	13409.53
705.485	13459.25
705.83	13479.82
706.175	13394.17
706.52	13411.79
706.865	13404.79
707.209	13361.63
707.554	13320.27
707.899	13441.85
708.243	13322.53
708.588	13294.28
708.932	13231.69
709.277	13232.14
709.621	13258.8
709.966	13066.72
710.31	13178.81
710.654	12972.26
710.998	13015.19
711.342	12955.54
711.687	12818.36
712.031	12796.44
712.375	12770
712.719	12741.3
713.063	12765.48
713.407	12850
713.75	12679.61
714.094	12671.47
714.438	12683.68
714.782	12650.23
715.125	12725.94
715.469	12683.68
715.812	12658.59
716.156	12627.86
716.499	12658.82
716.843	12653.85
717.186	12556.45
717.53	12582.89
717.873	12591.93
718.216	12544.02
718.559	12360.07
718.902	12319.85
719.246	12364.82
719.589	12229
719.932	12254.08
720.275	12189.45
720.617	12089.57
720.96	12125.5
721.303	12114.88
721.646	12167.53
721.989	12067.65
722.331	12126.86
722.674	12016.8
723.016	12142.68
723.359	12156.01
723.701	12160.75
724.044	12145.39
724.386	12089.12
724.729	12126.86
725.071	12046.86
725.413	12017.03
725.755	12045.73
726.097	11956.47
726.439	11960.98
726.782	11783.14
727.124	11942.91
727.465	11739.3
727.807	11760.76
728.149	11665.63
728.491	11704.95
728.833	11702.01
729.175	11642.58
729.516	11624.27
729.858	11695
730.199	11597.38
730.541	11662.69
730.882	11535.46
731.224	11712.18
731.565	11599.86
731.906	11531.17
732.248	11660.88
732.589	11549.7
732.93	11570.71
733.271	11569.36
733.612	11620.65
733.953	11565.97
734.294	11502.69
734.635	11390.15
734.976	11450.49
735.317	11354.67
735.658	11351.51
735.999	11311.51
736.339	11303.83
736.68	11388.34
737.021	11264.73
737.361	11210.5
737.702	11241
738.042	11232.87
738.383	11217.95
738.723	11178.18
739.063	11252.75
739.404	11217.73
739.744	11229.48
740.084	11265.41
740.424	11232.19
740.764	11167.56
741.104	11216.6
741.444	11034.68
741.784	11129.59
742.124	11049.82
742.464	11030.61
742.804	11077.62
743.143	10994
743.483	10983.61
743.823	10912.65
744.162	10818.19
744.502	10882.82
744.841	10833.1
745.181	10897.51
745.52	10811.41
745.86	10842.14
746.199	10774.12
746.538	10776.38
746.877	10859.32
747.216	10787.46
747.556	10741.13
747.895	10802.15
748.234	10708.14
748.573	10745.2
748.911	10789.49
749.25	10751.98
749.589	10739.77
749.928	10663.39
750.267	10678.31
750.605	10688.02
750.944	10625.88
751.283	10575.71
751.621	10551.76
751.96	10432.44
752.298	10488.93
752.636	10399.67
752.975	10408.94
753.313	10347.47
753.651	10379.11
753.989	10302.95
754.327	10232.67
754.666	10187.25
755.004	10334.81
755.342	10290.75
755.679	10332.33
756.017	10296.4
756.355	10255.27
756.693	10205.1
