Data from foam1_polythene_foam_FLMS001491_00037.txt Node
Date: Wed Feb 08 10:54:45 GMT 2017
User: dcchb
Spectrometer: FLMS00149
Trigger mode: 0
Integration Time (sec): 2.000000E-2
Scans to average: 10
Electric dark correction enabled: true
Nonlinearity correction enabled: false
Boxcar width: 0
XAxis mode: Wavelengths
Number of Pixels in Spectrum: 2048
>>>>>Begin Spectral Data<<<<<
341.393	-24.41
341.776	-24.41
342.16	-24.41
342.543	-49.04
342.927	-65.99
343.31	-56.04
343.693	-73.22
344.077	-50.39
344.46	-53.78
344.843	-70.73
345.226	-40.22
345.61	-36.61
345.993	-23.95
346.376	7.23
346.759	17.63
347.142	22.82
347.525	39.77
347.908	51.3
348.291	67.34
348.674	80.68
349.057	118.19
349.44	113.22
349.823	160.9
350.206	173.1
350.588	163.16
350.971	199.99
351.354	211.29
351.737	222.14
352.119	252.87
352.502	249.71
352.884	245.87
353.267	274.57
353.65	267.79
354.032	291.97
354.414	288.58
354.797	294.23
355.179	321.35
355.562	296.72
355.944	303.27
356.326	324.29
356.709	304.85
357.091	303.04
357.473	336.71
357.855	322.93
358.238	306.66
358.62	309.37
359.002	341.91
359.384	320.22
359.766	319.77
360.148	325.19
360.53	329.03
360.912	325.42
361.294	322.48
361.676	320.44
362.057	324.51
362.439	301.91
362.821	323.16
363.203	296.26
363.584	329.48
363.966	292.87
364.348	314.12
364.729	292.2
365.111	303.27
365.493	288.58
365.874	299.88
366.256	298.75
366.637	285.19
367.019	309.37
367.4	292.42
367.781	304.62
368.163	281.12
368.544	296.94
368.925	294.46
369.306	297.17
369.688	305.98
370.069	305.53
370.45	282.48
370.831	301.24
371.212	315.47
371.593	297.62
371.974	308.24
372.355	272.99
372.736	290.84
373.117	301.69
373.498	292.87
373.879	293.55
374.26	316.38
374.641	303.72
375.021	298.98
375.402	305.08
375.783	291.07
376.163	328.58
376.544	299.43
376.925	296.94
377.305	312.99
377.686	295.36
378.066	295.13
378.447	323.38
378.827	327.45
379.208	323.83
379.588	325.42
379.968	317.05
380.349	316.6
380.729	313.21
381.109	305.53
381.489	305.3
381.87	312.31
382.25	311.86
382.63	316.15
383.01	320.9
383.39	307.79
383.77	326.32
384.15	295.59
384.53	309.37
384.91	328.8
385.29	319.09
385.67	311.63
386.049	335.36
386.429	302.36
386.809	320.9
387.189	342.14
387.568	331.97
387.948	333.78
388.328	338.52
388.707	309.6
389.087	327.22
389.466	330.16
389.846	360.67
390.225	335.81
390.605	332.19
390.984	338.07
391.363	341.23
391.743	336.71
392.122	336.49
392.501	340.78
392.881	353.66
393.26	349.6
393.639	345.75
394.018	336.26
394.397	365.41
394.776	341.69
395.155	359.09
395.534	353.44
395.913	348.24
396.292	347.79
396.671	353.44
397.05	363.61
397.429	351.86
397.808	374.45
398.186	362.02
398.565	359.76
398.944	378.07
399.323	381.01
399.701	370.61
400.08	365.19
400.458	360.89
400.837	372.42
401.215	379.88
401.594	375.58
401.972	354.34
402.351	391.63
402.729	381.01
403.107	386.88
403.486	369.48
403.864	363.15
404.242	385.75
404.62	396.37
404.999	387.79
405.377	389.59
405.755	384.62
406.133	382.14
406.511	400.67
406.889	403.38
407.267	385.98
407.645	380.55
408.023	366.54
408.401	387.11
408.779	385.75
409.156	399.09
409.534	377.62
409.912	436.37
410.29	418.97
410.667	407.22
411.045	414
411.422	422.59
411.8	409.03
412.178	430.5
412.555	424.17
412.933	422.81
413.31	428.24
413.687	448.12
414.065	418.97
414.442	411.97
414.819	445.41
415.197	405.64
415.574	443.15
415.951	432.31
416.328	436.37
416.705	432.31
417.082	450.84
417.46	440.21
417.837	463.72
418.214	439.31
418.591	444.73
418.967	465.3
419.344	454.9
419.721	461.46
420.098	446.09
420.475	450.38
420.852	457.16
421.228	450.38
421.605	450.61
421.982	472.3
422.358	468.91
422.735	492.64
423.111	464.17
423.488	456.26
423.864	450.16
424.241	477.28
424.617	485.86
424.994	466.43
425.37	469.59
425.746	485.64
426.123	476.6
426.499	481.12
426.875	503.94
427.251	514.11
427.627	493.32
428.003	517.05
428.379	507.78
428.756	529.7
429.132	497.39
429.507	542.13
429.883	519.08
430.259	529.93
430.635	500.33
431.011	559.99
431.387	531.51
431.763	550.49
432.138	556.82
432.514	540.1
432.89	549.36
433.265	568.57
433.641	572.64
434.016	571.51
434.392	559.31
434.767	566.09
435.143	583.26
435.518	585.75
435.894	586.65
436.269	573.09
436.644	607.89
437.02	583.71
437.395	612.64
437.77	609.7
438.145	609.48
438.52	616.93
438.895	632.53
439.271	641.11
439.646	648.34
440.021	646.76
440.395	640.44
440.77	649.47
441.145	645.18
441.52	636.82
441.895	666.65
442.27	659.42
442.645	658.29
443.019	678.17
443.394	680.66
443.769	689.47
444.143	674.11
444.518	693.99
444.892	676.14
445.267	677.27
445.641	690.83
446.016	706.42
446.39	712.3
446.764	727.89
447.139	711.62
447.513	721.79
447.887	752.3
448.262	736.48
448.636	757.72
449.01	765.86
449.384	757.72
449.758	756.59
450.132	752.07
450.506	780.77
450.88	746.87
451.254	770.83
451.628	804.95
452.002	785.97
452.376	761.56
452.75	806.08
453.123	790.71
453.497	802.24
453.871	826.64
454.244	805.4
454.618	811.5
454.992	826.19
455.365	813.76
455.739	855.57
456.112	849.24
456.486	847.89
456.859	865.29
457.232	856.93
457.606	839.3
457.979	838.62
458.352	857.6
458.725	853.31
459.099	866.64
459.472	874.78
459.845	871.16
460.218	881.11
460.591	883.82
460.964	855.8
461.337	880.65
461.71	909.81
462.083	880.65
462.456	899.19
462.829	904.61
463.201	926.08
463.574	935.79
463.947	914.55
464.32	932.86
464.692	958.39
465.065	953.87
465.438	977.15
465.81	940.54
466.183	958.17
466.555	969.24
466.928	988.45
467.3	987.54
467.672	1007.88
468.045	1004.49
468.417	1011.5
468.789	1010.59
469.161	1026.87
469.534	1018.28
469.906	1052.85
470.278	1053.08
470.65	1040.88
471.022	1051.05
471.394	1099.86
471.766	1058.05
472.138	1061.67
472.51	1118.16
472.882	1109.12
473.253	1132.63
473.625	1146.64
473.997	1166.75
474.369	1146.41
474.74	1145.96
475.112	1159.29
475.484	1185.51
475.855	1177.14
476.227	1207.88
476.598	1230.7
476.97	1253.75
477.341	1254.88
477.713	1289.01
478.084	1289.23
478.455	1298.04
478.827	1333.3
479.198	1349.12
479.569	1335.33
479.94	1364.03
480.311	1384.14
480.682	1398.61
481.053	1429.11
481.424	1436.8
481.795	1464.37
482.166	1475.89
482.537	1475.44
482.908	1511.15
483.279	1519.28
483.65	1548.21
484.021	1519.51
484.391	1575.78
484.762	1595.89
485.133	1577.13
485.503	1620.3
485.874	1624.82
486.244	1653.97
486.615	1696.45
486.985	1684.02
487.356	1689.67
487.726	1734.42
488.097	1757.69
488.467	1757.92
488.837	1784.81
489.207	1826.84
489.578	1847.41
489.948	1832.95
490.318	1865.94
490.688	1876.79
491.058	1868.2
491.428	1926.73
491.798	1938.03
492.168	1963.11
492.538	1971.47
492.908	1964.47
493.278	1992.04
493.648	1997.91
494.017	2021.64
494.387	2034.75
494.757	2039.95
495.126	2074.07
495.496	2091.24
495.866	2088.08
496.235	2096.67
496.605	2123.79
496.974	2143.45
497.344	2181.19
497.713	2176.21
498.082	2190
498.452	2218.47
498.821	2211.92
499.19	2259.38
499.559	2245.59
499.928	2294.4
500.298	2281.52
500.667	2275.65
501.036	2284.91
501.405	2339.83
501.774	2309.32
502.143	2362.65
502.512	2373.04
502.88	2376.43
503.249	2370.11
503.618	2417.56
503.987	2379.82
504.356	2418.47
504.724	2420.73
505.093	2466.15
505.462	2477.22
505.83	2503.89
506.199	2538.24
506.567	2536.2
506.936	2527.84
507.304	2549.76
507.672	2565.36
508.041	2563.77
508.409	2583.89
508.777	2592.7
509.145	2632.7
509.514	2636.77
509.882	2633.38
510.25	2662.08
510.618	2680.83
510.986	2709.31
511.354	2698.91
511.722	2707.95
512.09	2751.34
512.458	2766.93
512.826	2783.2
513.193	2780.49
513.561	2796.76
513.929	2819.36
514.297	2842.19
514.664	2886.03
515.032	2837.89
515.4	2902.3
515.767	2933.03
516.135	2933.48
516.502	2927.61
516.869	2963.31
517.237	2989.98
517.604	2989.3
517.972	3008.73
518.339	3011.9
518.706	3018.9
519.073	3048.51
519.44	3096.19
519.808	3119.47
520.175	3116.3
520.542	3160.37
520.909	3161.27
521.276	3148.17
521.643	3224.77
522.009	3199.01
522.376	3221.84
522.743	3240.82
523.11	3298.9
523.477	3306.58
523.843	3355.84
524.21	3366.47
524.577	3404.66
524.943	3370.76
525.31	3404.2
525.676	3464.99
526.043	3446.92
526.409	3449.63
526.776	3517.87
527.142	3540.25
527.508	3549.06
527.874	3556.29
528.241	3588.61
528.607	3632.9
528.973	3637.64
529.339	3594.26
529.705	3667.93
530.071	3656.63
530.437	3669.06
530.803	3695.04
531.169	3738.21
531.535	3723.97
531.901	3761.93
532.267	3770.07
532.632	3799.67
532.998	3798.77
533.364	3806.23
533.73	3865.44
534.095	3874.93
534.461	3884.42
534.826	3925.77
535.192	3903.4
535.557	3963.29
535.923	3935.26
536.288	3917.19
536.653	3946.34
537.019	3948.82
537.384	4006.45
537.749	4035.37
538.114	4013.91
538.479	4009.61
538.845	4051.42
539.21	4037.18
539.575	4048.48
539.94	4089.84
540.305	4070.18
540.67	4078.31
541.034	4054.81
541.399	4129.61
541.764	4110.85
542.129	4122.15
542.494	4143.17
542.858	4188.14
543.223	4230.4
543.587	4236.95
543.952	4177.52
544.316	4210.74
544.681	4238.76
545.045	4227.23
545.41	4278.53
545.774	4247.12
546.138	4302.71
546.503	4328.47
546.867	4280.34
547.231	4312.43
547.595	4370.05
547.959	4361.47
548.324	4365.08
548.688	4396.27
549.052	4399.66
549.416	4430.84
549.779	4448.7
550.143	4450.96
550.507	4472.65
550.871	4492.99
551.235	4534.34
551.599	4498.19
551.962	4513.1
552.326	4576.38
552.689	4560.33
553.053	4553.55
553.417	4591.07
553.78	4625.19
554.143	4590.61
554.507	4560.56
554.87	4643.27
555.234	4683.49
555.597	4665.64
555.96	4695.7
556.323	4738.18
556.686	4761
557.05	4807.33
557.413	4807.33
557.776	4773.21
558.139	4816.37
558.502	4768.91
558.865	4821.57
559.228	4842.13
559.59	4839.87
559.953	4899.98
560.316	4947.21
560.679	4974.56
561.041	5016.59
561.404	5006.2
561.767	4995.35
562.129	4981.56
562.492	5055.01
562.854	5040.32
563.217	5043.71
563.579	5099.75
563.941	5163.71
564.304	5145.63
564.666	5161.9
565.028	5210.71
565.39	5200.77
565.753	5235.57
566.115	5244.61
566.477	5326.41
566.839	5299.75
567.201	5279.86
567.563	5308.79
567.925	5384.49
568.287	5343.81
568.648	5365.73
569.01	5389.69
569.372	5439.18
569.734	5443.47
570.095	5496.13
570.457	5517.14
570.819	5523.7
571.18	5525.96
571.542	5508.1
571.903	5563.24
572.265	5582.9
572.626	5579.74
572.987	5600.3
573.349	5574.54
573.71	5598.5
574.071	5685.73
574.432	5731.37
574.794	5749.91
575.155	5688.44
575.516	5665.39
575.877	5722.11
576.238	5742.45
576.599	5762.11
576.96	5757.36
577.32	5763.92
577.681	5719.17
578.042	5821.09
578.403	5786.74
578.763	5785.84
579.124	5826.74
579.485	5791.94
579.845	5857.25
580.206	5811.37
580.566	5841.88
580.927	5829.45
581.287	5850.02
581.648	5845.5
582.008	5901.77
582.368	5844.37
582.728	5838.94
583.089	5823.58
583.449	5892.73
583.809	5837.81
584.169	5861.31
584.529	5856.57
584.889	5907.19
585.249	5849.11
585.609	5839.85
585.969	5880.07
586.329	5841.43
586.688	5868.09
587.048	5899.73
587.408	5891.14
587.768	5891.37
588.127	5905.83
588.487	5914.65
588.846	5859.51
589.206	5845.95
589.565	5883.24
589.925	5909.9
590.284	5943.57
590.643	5877.13
591.003	5897.7
591.362	5916.23
591.721	5914.65
592.08	5897.47
592.44	5876.91
592.799	5905.61
593.158	5939.28
593.517	5874.65
593.876	5858.83
594.235	5860.64
594.593	5887.98
594.952	5889.79
595.311	5875.1
595.67	5896.12
596.029	5900.64
596.387	5919.39
596.746	5920.07
597.104	5897.92
597.463	5915.55
597.822	5899.73
598.18	5885.04
598.538	5924.14
598.897	5952.39
599.255	5896.57
599.613	5967.75
599.972	5920.97
600.33	5974.08
600.688	5928.88
601.046	5958.49
601.404	5957.81
601.762	5952.61
602.12	5978.6
602.478	5979.28
602.836	5938.6
603.194	5905.38
603.552	5938.37
603.91	5919.84
604.268	5997.58
604.625	5931.14
604.983	5937.02
605.341	5934.08
605.698	5987.19
606.056	5979.73
606.413	5940.18
606.771	5969.33
607.128	6013.18
607.485	5945.38
607.843	5926.85
608.2	5965.27
608.557	6007.98
608.914	6001.2
609.272	6022.44
609.629	5991.03
609.986	6033.51
610.343	6035.77
610.7	6014.76
611.057	6034.64
611.414	6047.07
611.771	6016.79
612.127	6029.22
612.484	6004.36
612.841	6078.48
613.198	6027.64
613.554	6035.1
613.911	6048.88
614.267	6088.2
614.624	6057.02
614.98	6060.41
615.337	6082.33
615.693	6013.4
616.05	6059.05
616.406	6100.4
616.762	6055.66
617.118	6024.47
617.475	6075.55
617.831	6059.73
618.187	6089.11
618.543	6074.64
618.899	6108.09
619.255	6092.04
619.611	6104.47
619.967	6122.78
620.323	6144.7
620.678	6059.73
621.034	6134.75
621.39	6080.29
621.746	6083.23
622.101	6105.6
622.457	6107.64
622.812	6103.57
623.168	6057.24
623.523	6098.6
623.879	6082.55
624.234	6069.9
624.589	6082.78
624.945	6096.79
625.3	6076.22
625.655	6124.13
626.01	6122.32
626.365	6083
626.72	6105.15
627.075	6037.58
627.43	6036.9
627.785	6054.76
628.14	6099.05
628.495	6037.81
628.85	6068.77
629.205	6022.21
629.559	6021.54
629.914	6021.76
630.269	6020.86
630.623	5945.15
630.978	5940.18
631.332	5994.42
631.687	6022.21
632.041	5965.49
632.396	5951.48
632.75	5940.41
633.104	5975.89
633.459	5931.37
633.813	5933.18
634.167	5874.65
634.521	5919.84
634.875	5934.53
635.229	5916.23
635.583	5867.64
635.937	5870.58
636.291	5910.35
636.645	5879.62
636.999	5862.44
637.352	5844.82
637.706	5845.27
638.06	5850.69
638.413	5884.14
638.767	5783.58
639.121	5774.99
639.474	5812.95
639.828	5785.61
640.181	5813.18
640.534	5809.56
640.888	5751.71
641.241	5730.24
641.594	5761.66
641.947	5723.24
642.301	5717.14
642.654	5743.13
643.007	5683.01
643.36	5731.15
643.713	5689.12
644.066	5742.67
644.419	5667.87
644.771	5628.78
645.124	5478.27
645.477	5500.42
645.83	5521.66
646.182	5506.75
646.535	5483.02
646.888	5549.01
647.24	5511.49
647.593	5529.12
647.945	5485.73
648.298	5483.47
648.65	5474.66
649.002	5461.78
649.355	5517.14
649.707	5416.35
650.059	5429.91
650.411	5495.9
650.763	5536.13
651.115	5551.49
651.467	5519.18
651.819	5511.27
652.171	5556.01
652.523	5493.87
652.875	5498.61
653.227	5492.96
653.578	5483.25
653.93	5474.66
654.282	5456.35
654.633	5436.92
654.985	5425.62
655.337	5453.42
655.688	5428.11
656.039	5464.26
656.391	5441.89
656.742	5389.69
657.094	5403.93
657.445	5439.86
657.796	5391.72
658.147	5433.98
658.498	5389.24
658.849	5366.19
659.2	5369.12
659.551	5420.42
659.902	5414.55
660.253	5381.1
660.604	5384.72
660.955	5380.42
661.306	5393.08
661.656	5373.42
662.007	5360.76
662.358	5375
662.708	5350.59
663.059	5317.6
663.409	5332.52
663.76	5346.98
664.11	5354.66
664.461	5366.64
664.811	5374.55
665.161	5316.24
665.511	5302.23
665.862	5340.65
666.212	5330.03
666.562	5326.19
666.912	5355.11
667.262	5309.69
667.612	5275.79
667.962	5296.81
668.312	5289.8
668.662	5295.45
669.011	5318.5
669.361	5283.48
669.711	5273.76
670.06	5273.99
670.41	5250.71
670.76	5273.31
671.109	5240.09
671.459	5254.1
671.808	5201.67
672.157	5209.58
672.507	5217.49
672.856	5226.53
673.205	5234.44
673.554	5212.97
673.904	5194.67
674.253	5210.71
674.602	5222.91
674.951	5105.85
675.3	5116.02
675.649	5156.93
675.998	5183.14
676.346	5218.17
676.695	5204.83
677.044	5082.8
677.393	5146.08
677.741	5208.22
678.09	5164.38
678.438	5109.02
678.787	5152.86
679.135	5125.97
679.484	5084.84
679.832	5143.59
680.181	5128.9
680.529	5112.63
680.877	5095.46
681.225	5127.55
681.573	5076.25
681.922	5099.75
682.27	5060.66
682.618	5070.38
682.966	5034.67
683.314	5057.95
683.661	5021.79
684.009	4967.55
684.357	4997.38
684.705	5020.43
685.053	4995.35
685.4	5001.68
685.748	4942.02
686.095	4955.35
686.443	4928.91
686.79	4931.4
687.138	4945.18
687.485	4942.02
687.832	4930.72
688.18	4911.28
688.527	4881.91
688.874	4890.72
689.221	4908.57
689.568	4861.12
689.915	4829.25
690.262	4880.78
690.609	4806.2
690.956	4822.92
691.303	4809.59
691.65	4810.49
691.997	4805.75
692.344	4729.82
692.69	4725.53
693.037	4754
693.383	4742.7
693.73	4747.67
694.077	4681.01
694.423	4739.99
694.769	4699.31
695.116	4708.12
695.462	4677.62
695.808	4672.42
696.155	4681.01
696.501	4587.22
696.847	4611.86
697.193	4572.08
697.539	4628.13
697.885	4555.13
698.231	4562.37
698.577	4558.07
698.923	4532.99
699.269	4532.99
699.614	4484.85
699.96	4459.77
700.306	4509.71
700.651	4474.23
700.997	4488.24
701.342	4430.17
701.688	4429.49
702.033	4461.35
702.379	4426.55
702.724	4412.99
703.069	4421.13
703.415	4366.21
703.76	4389.49
704.105	4363.73
704.45	4342.94
704.795	4321.69
705.14	4343.16
705.485	4295.71
705.83	4281.24
706.175	4342.48
706.52	4306.78
706.865	4309.94
707.209	4286.44
707.554	4264.75
707.899	4258.19
708.243	4244.63
708.588	4288.7
708.932	4222.71
709.277	4219.1
709.621	4250.06
709.966	4206.44
710.31	4176.39
710.654	4181.13
710.998	4146.56
711.342	4191.53
711.687	4150.85
712.031	4133.45
712.375	4122.38
712.719	4130.29
713.063	4121.25
713.407	4176.84
713.75	4127.58
714.094	4073.79
714.438	4100.91
714.782	4104.3
715.125	4074.02
715.469	4034.92
715.812	4059.78
716.156	4014.81
716.499	4083.28
716.843	4062.94
717.186	4031.76
717.53	4015.71
717.873	3962.16
718.216	4036.28
718.559	4026.79
718.902	3970.29
719.246	3947.92
719.589	3968.71
719.932	3931.2
720.275	3973.91
720.617	3889.16
720.96	3897.07
721.303	3941.59
721.646	3931.2
721.989	3940.69
722.331	3915.6
722.674	3869.95
723.016	3886.9
723.359	3889.84
723.701	3900.46
724.044	3871.08
724.386	3844.87
724.729	3850.52
725.071	3826.57
725.413	3846.68
725.755	3833.57
726.097	3809.84
726.439	3846.68
726.782	3791.76
727.124	3819.33
727.465	3805.32
727.807	3843.74
728.149	3801.48
728.491	3783.63
728.833	3793.12
729.175	3815.04
729.516	3790.86
729.858	3762.84
730.199	3764.19
730.541	3763.52
730.882	3735.95
731.224	3742.95
731.565	3751.77
731.906	3737.98
732.248	3706.8
732.589	3720.81
732.93	3695.72
733.271	3719.9
733.612	3704.31
733.953	3740.92
734.294	3686
734.635	3679
734.976	3684.65
735.317	3662.73
735.658	3647.14
735.999	3694.37
736.339	3660.92
736.68	3670.41
737.021	3635.16
737.361	3638.77
737.702	3619.57
738.042	3643.07
738.383	3604.2
738.723	3616.18
739.063	3594.93
739.404	3594.71
739.744	3592.67
740.084	3577.08
740.424	3602.39
740.764	3576.4
741.104	3584.76
741.444	3612.11
741.784	3556.52
742.124	3605.33
742.464	3580.24
742.804	3562.17
743.143	3571.21
743.483	3574.37
743.823	3532.11
744.162	3524.2
744.502	3500.47
744.841	3527.14
745.181	3549.96
745.52	3493.92
745.86	3531.88
746.199	3522.85
746.538	3508.83
746.877	3475.16
747.216	3499.12
747.556	3476.29
747.895	3498.21
748.234	3483.75
748.573	3467.03
748.911	3431.55
749.25	3459.8
749.589	3465.9
749.928	3462.28
750.267	3449.17
750.605	3435.16
750.944	3442.62
751.283	3398.55
751.621	3430.42
751.96	3392.23
752.298	3407.82
752.636	3389.29
752.975	3432
753.313	3380.48
753.651	3375.73
753.989	3365.34
754.327	3391.32
754.666	3333.47
755.004	3394.71
755.342	3327.37
755.679	3353.58
756.017	3314.04
756.355	3339.35
756.693	3358.56
757.031	3348.84
757.368	3274.04
757.706	3294.6
758.044	3288.5
758.381	3256.64
758.719	3271.33
759.056	3266.13
759.394	3258.9
759.731	3272
760.068	3261.84
760.405	3256.86
760.743	3252.57
761.08	3221.16
761.417	3231.33
761.754	3235.17
762.091	3214.6
762.428	3155.17
762.765	3149.52
763.102	3137.32
763.438	3156.3
763.775	3115.62
764.112	3109.52
764.449	3124.44
764.785	3119.69
765.122	3061.84
765.458	3121.05
765.795	3134.61
766.131	3065.46
766.467	3105.23
766.804	3082.86
767.14	3027.94
767.476	3061.39
767.812	3027.49
768.148	3011.45
768.485	3001.05
768.821	3059.13
769.157	3021.62
769.492	2992.69
769.828	2953.37
770.164	2936.65
770.5	2941.39
770.836	2961.05
771.171	2938.23
