Data from foam_black_FLMS001491_00042.txt Node
Date: Wed Feb 08 10:43:56 GMT 2017
User: dcchb
Spectrometer: FLMS00149
Trigger mode: 0
Integration Time (sec): 2.000000E-2
Scans to average: 10
Electric dark correction enabled: true
Nonlinearity correction enabled: false
Boxcar width: 0
XAxis mode: Wavelengths
Number of Pixels in Spectrum: 2048
>>>>>Begin Spectral Data<<<<<
341.393	-2.71
341.776	-2.71
342.16	-2.71
342.543	-73.22
342.927	-70.51
343.31	-58.98
343.693	-75.25
344.077	-58.53
344.46	-67.12
344.843	-60.79
345.226	-38.87
345.61	-23.05
345.993	0.45
346.376	-1.13
346.759	-9.94
347.142	11.53
347.525	50.17
347.908	56.95
348.291	95.59
348.674	89.72
349.057	89.26
349.44	129.26
349.823	142.37
350.206	172.42
350.588	192.54
350.971	191.86
351.354	213.33
351.737	228.24
352.119	228.69
352.502	250.84
352.884	260.11
353.267	267.34
353.65	299.65
354.032	285.19
354.414	293.78
354.797	306.88
355.179	290.39
355.562	289.71
355.944	328.13
356.326	320.22
356.709	329.26
357.091	314.57
357.473	335.81
357.855	340.78
358.238	338.52
358.62	302.14
359.002	345.08
359.384	332.19
359.766	325.42
360.148	338.3
360.53	315.02
360.912	318.86
361.294	318.18
361.676	343.04
362.057	346.88
362.439	328.58
362.821	319.09
363.203	318.41
363.584	307.34
363.966	322.03
364.348	305.75
364.729	343.72
365.111	322.7
365.493	315.25
365.874	329.03
366.256	300.56
366.637	298.52
367.019	305.08
367.4	319.99
367.781	312.53
368.163	309.6
368.544	290.84
368.925	308.92
369.306	326.32
369.688	319.09
370.069	324.29
370.45	309.82
370.831	302.59
371.212	302.59
371.593	317.96
371.974	316.6
372.355	296.94
372.736	312.53
373.117	343.49
373.498	307.34
373.879	313.44
374.26	328.58
374.641	299.88
375.021	313.44
375.402	323.38
375.783	333.32
376.163	311.18
376.544	327.45
376.925	317.28
377.305	346.43
377.686	326.09
378.066	344.85
378.447	337.39
378.827	338.97
379.208	324.51
379.588	331.06
379.968	336.49
380.349	326.09
380.729	331.29
381.109	323.38
381.489	317.73
381.87	364.06
382.25	339.65
382.63	337.39
383.01	354.79
383.39	356.37
383.77	339.43
384.15	350.05
384.53	359.99
384.91	350.5
385.29	355.24
385.67	366.77
386.049	365.41
386.429	378.97
386.809	371.74
387.189	386.88
387.568	369.03
387.948	372.65
388.328	379.2
388.707	376.04
389.087	379.65
389.466	390.27
389.846	375.13
390.225	387.33
390.605	388.92
390.984	385.98
391.363	391.4
391.743	389.37
392.122	404.51
392.501	385.53
392.881	376.26
393.26	385.98
393.639	404.96
394.018	406.09
394.397	407.9
394.776	401.8
395.155	406.09
395.534	421.68
395.913	418.29
396.292	434.56
396.671	404.28
397.05	417.16
397.429	415.36
397.808	413.1
398.186	411.51
398.565	447.67
398.944	404.74
399.323	448.12
399.701	441.34
400.08	443.6
400.458	439.54
400.837	465.3
401.215	466.2
401.594	450.38
401.972	446.32
402.351	475.24
402.729	447.45
403.107	459.87
403.486	456.71
403.864	464.62
404.242	464.17
404.62	479.31
404.999	451.97
405.377	462.36
405.755	470.95
406.133	480.89
406.511	481.34
406.889	492.64
407.267	485.86
407.645	488.8
408.023	501
408.401	476.6
408.779	482.93
409.156	506.43
409.534	506.88
409.912	515.92
410.29	515.47
410.667	520.89
411.045	528.35
411.422	511.4
411.8	528.12
412.178	518.63
412.555	535.58
412.933	539.87
413.31	549.36
413.687	546.2
414.065	553.21
414.442	570.61
414.819	570.15
415.197	563.38
415.574	594.56
415.951	592.53
416.328	575.35
416.705	563.15
417.082	563.38
417.46	581.91
417.837	607.22
418.214	581.91
418.591	607.22
418.967	606.76
419.344	609.25
419.721	598.18
420.098	614.9
420.475	622.36
420.852	613.32
421.228	616.25
421.605	611.28
421.982	632.3
422.358	644.05
422.735	654.22
423.111	638.85
423.488	639.08
423.864	662.36
424.241	657.61
424.617	655.35
424.994	653.09
425.37	664.84
425.746	676.59
426.123	668.91
426.499	684.95
426.875	673.65
427.251	689.93
427.627	710.94
428.003	691.73
428.379	703.03
428.756	731.51
429.132	733.09
429.507	734.67
429.883	717.72
430.259	767.21
430.635	736.7
431.011	759.98
431.387	784.16
431.763	785.29
432.138	806.98
432.514	797.27
432.89	792.52
433.265	828.45
433.641	809.7
434.016	821.9
434.392	820.54
434.767	841.56
435.143	846.98
435.518	841.11
435.894	853.31
436.269	851.73
436.644	880.2
437.02	876.81
437.395	888.56
437.77	879.3
438.145	888.11
438.52	911.16
438.895	899.41
439.271	920.2
439.646	921.56
440.021	913.42
440.395	943.48
440.77	940.31
441.145	941.22
441.52	955.91
441.895	919.75
442.27	986.87
442.645	976.25
443.019	970.82
443.394	931.95
443.769	985.74
444.143	965.17
444.518	991.16
444.892	995.23
445.267	968.34
445.641	990.26
446.016	992.74
446.39	1034.32
446.764	1019.41
447.139	1015.57
447.513	1002.23
447.887	1008.56
448.262	1056.47
448.636	1039.97
449.01	1061.67
449.384	1067.09
449.758	1060.31
450.132	1071.16
450.506	1076.36
450.88	1082.23
451.254	1096.24
451.628	1089.69
452.002	1117.48
452.376	1107.32
452.75	1125.62
453.123	1145.51
453.497	1153.19
453.871	1154.55
454.244	1175.56
454.618	1163.59
454.992	1176.92
455.365	1172.4
455.739	1257.14
456.112	1228.67
456.486	1243.36
456.859	1265.05
457.232	1258.72
457.606	1260.08
457.979	1284.26
458.352	1293.3
458.725	1298.5
459.099	1326.52
459.472	1348.21
459.845	1340.08
460.218	1358.38
460.591	1383.01
460.964	1386.18
461.337	1421.66
461.71	1436.8
462.083	1453.75
462.456	1445.84
462.829	1460.98
463.201	1487.42
463.574	1470.92
463.947	1490.81
464.32	1516.8
464.692	1506.63
465.065	1538.49
465.438	1546.17
465.81	1574.87
466.183	1561.54
466.555	1622.56
466.928	1600.18
467.3	1609.9
467.672	1609
468.045	1643.57
468.417	1722.44
468.789	1702.78
469.161	1726.73
469.534	1740.29
469.906	1771.03
470.278	1776.22
470.65	1795.66
471.022	1820.07
471.394	1876.11
471.766	1874.75
472.138	1917.01
472.51	1929.21
472.882	1946.84
473.253	1989.55
473.625	2007.86
473.997	2038.59
474.369	2044.92
474.74	2053.96
475.112	2100.06
475.484	2075.2
475.855	2173.28
476.227	2174.63
476.598	2232.03
476.97	2266.61
477.341	2280.39
477.713	2316.78
478.084	2307.06
478.455	2376.43
478.827	2375.98
479.198	2441.07
479.569	2480.61
479.94	2519.03
480.311	2567.16
480.682	2588.86
481.053	2634.96
481.424	2688.29
481.795	2708.86
482.166	2754.05
482.537	2799.02
482.908	2832.24
483.279	2853.03
483.65	2909.98
484.021	2971.9
484.391	2985.46
484.762	3016.64
485.133	3048.51
485.503	3070.43
485.874	3157.43
486.244	3159.24
486.615	3193.14
486.985	3257.99
487.356	3312.91
487.726	3334.6
488.097	3402.4
488.467	3390.42
488.837	3435.39
489.207	3453.02
489.578	3562.17
489.948	3536.18
490.318	3619.34
490.688	3587.02
491.058	3643.07
491.428	3735.27
491.798	3767.58
492.168	3836.96
492.538	3801.71
492.908	3841.93
493.278	3891.88
493.648	3950.86
494.017	3959.22
494.387	4011.42
494.757	4070.4
495.126	4072.66
495.496	4151.53
495.866	4145.2
496.235	4168.03
496.605	4236.72
496.974	4248.25
497.344	4292.54
497.713	4288.93
498.082	4323.73
498.452	4414.57
498.821	4415.03
499.19	4425.65
499.559	4488.92
499.928	4507
500.298	4515.36
500.667	4569.6
501.036	4567.11
501.405	4655.24
501.774	4632.87
502.143	4686.43
502.512	4699.54
502.88	4766.43
503.249	4737.73
503.618	4820.89
503.987	4788.12
504.356	4834.45
504.724	4849.14
505.093	4895.46
505.462	4912.41
505.83	4921.45
506.199	4965.97
506.567	5036.93
506.936	4980.43
507.304	5082.35
507.672	5090.94
508.041	5100.88
508.409	5141.11
508.777	5179.07
509.145	5215.46
509.514	5275.79
509.882	5270.6
510.25	5271.95
510.618	5360.54
510.986	5357.6
511.354	5393.3
511.722	5443.47
512.09	5511.95
512.458	5519.63
512.826	5599.85
513.193	5591.27
513.561	5664.03
513.929	5673.75
514.297	5719.4
514.664	5750.36
515.032	5783.35
515.4	5872.39
515.767	5909
516.135	5929.34
516.502	5912.84
516.869	6052.95
517.237	6020.63
517.604	6060.18
517.972	6162.55
518.339	6125.26
518.706	6193.74
519.073	6301.76
519.44	6243.45
519.808	6331.58
520.175	6346.05
520.542	6437.34
520.909	6437.12
521.276	6415.2
521.643	6583.78
522.009	6573.39
522.376	6631.24
522.743	6671.69
523.11	6698.58
523.477	6768.18
523.843	6877.33
524.21	6900.38
524.577	6967.95
524.943	7057.89
525.31	6996.2
525.676	7127.72
526.043	7089.08
526.409	7207.95
526.776	7292.46
527.142	7277.32
527.508	7351.67
527.874	7459.46
528.241	7466.7
528.607	7485.23
528.973	7548.73
529.339	7520.48
529.705	7601.38
530.071	7705.56
530.437	7761.83
530.803	7728.61
531.169	7796.18
531.535	7796.63
531.901	7879.79
532.267	7894.03
532.632	7930.86
532.998	7923.41
533.364	7975.61
533.73	8040.47
534.095	8070.07
534.461	8143.51
534.826	8240.24
535.192	8199.56
535.557	8250.86
535.923	8206.34
536.288	8291.53
536.653	8320.23
537.019	8376.73
537.384	8413.11
537.749	8451.53
538.114	8460.12
538.479	8541.47
538.845	8616.27
539.21	8595.48
539.575	8685.65
539.94	8671.86
540.305	8696.27
540.67	8734.91
541.034	8774.01
541.399	8769.94
541.764	8837.73
542.129	8936.71
542.494	8924.96
542.858	9042.7
543.223	8997.28
543.587	9121.12
543.952	9072.08
544.316	9159.08
544.681	9144.17
545.045	9176.93
545.41	9150.72
545.774	9210.61
546.138	9271.17
546.503	9343.71
546.867	9288.34
547.231	9388.23
547.595	9346.42
547.959	9432.75
548.324	9515.46
548.688	9444.95
549.052	9519.98
549.416	9542.12
549.779	9527.89
550.143	9588.67
550.507	9683.14
550.871	9627.77
551.235	9679.52
551.599	9773.53
551.962	9839.06
552.326	9807.88
552.689	9928.55
553.053	9881.55
553.417	9892.62
553.78	10035.22
554.143	10045.84
554.507	10123.8
554.87	10112.95
555.234	10254.87
555.597	10213.29
555.96	10234.76
556.323	10336
556.686	10314.08
557.05	10460.06
557.413	10432.95
557.776	10512.72
558.139	10524.24
558.502	10580.29
558.865	10665.71
559.228	10749.32
559.59	10730.79
559.953	10790.68
560.316	10795.87
560.679	10824.35
561.041	10909.32
561.404	10970.11
561.767	11074.29
562.129	11060.95
562.492	11167.62
562.854	11123.1
563.217	11252.59
563.579	11248.29
563.941	11303.66
564.304	11331.68
564.666	11505.46
565.028	11493.94
565.39	11610.99
565.753	11626.36
566.115	11638.79
566.477	11768.96
566.839	11867.71
567.201	11912.68
567.563	11989.52
567.925	11958.56
568.287	12054.6
568.648	12088.95
569.01	12172.79
569.372	12276.29
569.734	12164.43
570.095	12382.5
570.457	12442.38
570.819	12406.68
571.18	12413.46
571.542	12535.72
571.903	12604.87
572.265	12739.78
572.626	12621.36
572.987	12620.46
573.349	12716.73
573.71	12772.09
574.071	12809.15
574.432	12874.24
574.794	12907.91
575.155	12869.94
575.516	12944.07
575.877	12915.59
576.238	12995.59
576.599	13043.05
576.96	13020.9
577.32	12989.94
577.681	13098.19
578.042	13113.1
578.403	13121.01
578.763	13074.23
579.124	13222.7
579.485	13186.09
579.845	13183.38
580.206	13243.27
580.566	13233.1
580.927	13235.36
581.287	13299.76
581.648	13228.58
582.008	13330.72
582.368	13238.52
582.728	13304.51
583.089	13275.13
583.449	13267.45
583.809	13296.15
584.169	13323.72
584.529	13345.41
584.889	13455.69
585.249	13292.31
585.609	13327.79
585.969	13406.43
586.329	13393.32
586.688	13380.67
587.048	13464.05
587.408	13505.41
587.768	13436.93
588.127	13378.18
588.487	13403.26
588.846	13543.82
589.206	13452.98
589.565	13495.46
589.925	13578.63
590.284	13516.93
590.643	13561
591.003	13587.67
591.362	13622.92
591.721	13553.54
592.08	13679.19
592.44	13684.16
592.799	13669.47
593.158	13732.97
593.517	13618.4
593.876	13692.52
594.235	13633.09
594.593	13678.51
594.952	13779.98
595.311	13664.05
595.67	13745.18
596.029	13863.36
596.387	13795.12
596.746	13764.16
597.104	13765.06
597.463	13841.22
597.822	13862.01
598.18	13849.58
598.538	13811.39
598.897	13809.13
599.255	13782.24
599.613	13940.88
599.972	13789.02
600.33	13822.46
600.688	13785.85
601.046	13909.46
601.404	13926.87
601.762	13865.17
602.12	14037.82
602.478	13947.88
602.836	13968.45
603.194	13831.05
603.552	13905.17
603.91	13864.49
604.268	13910.82
604.625	13870.14
604.983	13996.47
605.341	13923.48
605.698	14024.49
606.056	14022
606.413	14069.46
606.771	14100.65
607.128	14112.85
607.485	13964.83
607.843	14090.03
608.2	14077.6
608.557	14169.34
608.914	14046.64
609.272	14176.58
609.629	14346.29
609.986	14187.88
610.343	14186.75
610.7	14273.52
611.057	14324.14
611.414	14255.44
611.771	14308.55
612.127	14314.65
612.484	14356.23
612.841	14329.34
613.198	14414.76
613.554	14375.67
613.911	14429.45
614.267	14450.02
614.624	14457.47
614.98	14470.35
615.337	14539.73
615.693	14517.58
616.05	14504.25
616.406	14725.49
616.762	14553.97
617.118	14625.38
617.475	14602.1
617.831	14750.8
618.187	14760.29
618.543	14677.35
618.899	14780.18
619.255	14807.52
619.611	14748.54
619.967	14822.89
620.323	14850.91
620.678	14815.2
621.034	14693.85
621.39	14661.54
621.746	14718.71
622.101	14922.32
622.457	14750.12
622.812	14761.65
623.168	14819.5
623.523	14777.69
623.879	14938.59
624.234	14762.32
624.589	14855.65
624.945	14920.51
625.3	14821.98
625.655	14823.11
626.01	14838.93
626.365	14832.6
626.72	14789.44
627.075	14794.64
627.43	14802.32
627.785	14771.14
628.14	14841.87
628.495	14788.31
628.85	14839.38
629.205	14788.54
629.559	14747.18
629.914	14765.26
630.269	14760.97
630.623	14728.88
630.978	14683.91
631.332	14714.42
631.687	14724.58
632.041	14649.56
632.396	14685.26
632.75	14620.41
633.104	14714.42
633.459	14600.97
633.813	14538.83
634.167	14485.95
634.521	14484.59
634.875	14571.14
635.229	14548.09
635.583	14427.64
635.937	14544.7
636.291	14474.87
636.645	14571.59
636.999	14497.02
637.352	14501.54
637.706	14416.57
638.06	14460.41
638.413	14372.96
638.767	14379.51
639.121	14377.25
639.474	14338.15
639.828	14369.57
640.181	14396.91
640.534	14400.98
640.888	14342.22
641.241	14267.65
641.594	14326.4
641.947	14380.64
642.301	14269.46
642.654	14332.28
643.007	14277.59
643.36	14299.96
643.713	14269.46
644.066	14299.96
644.419	14222.45
644.771	14158.27
645.124	13941.1
645.477	13907.66
645.83	13848.45
646.182	13825.17
646.535	13845.74
646.888	13938.84
647.24	13832.18
647.593	13959.63
647.945	13830.6
648.298	13821.78
648.65	13751.05
649.002	13672.18
649.355	13773.42
649.707	13638.29
650.059	13701.56
650.411	13814.55
650.763	13895.91
651.115	13999.63
651.467	14001.67
651.819	13997.37
652.171	13898.84
652.523	13861.56
652.875	13918.96
653.227	13811.16
653.578	14004.15
653.93	13946.3
654.282	13847.09
654.633	13826.76
654.985	13841.44
655.337	13885.96
655.688	13760.99
656.039	13827.66
656.391	13742.01
656.742	13750.15
657.094	13782.91
657.445	13797.6
657.796	13760.32
658.147	13720.54
658.498	13766.64
658.849	13769.13
659.2	13721.9
659.551	13695.46
659.902	13757.15
660.253	13716.93
660.604	13756.47
660.955	13640.09
661.306	13762.35
661.656	13721.22
662.007	13647.55
662.358	13726.64
662.708	13694.78
663.059	13741.79
663.409	13633.54
663.76	13721.22
664.11	13784.5
664.461	13765.29
664.811	13753.08
665.161	13715.57
665.511	13709.92
665.862	13716.93
666.212	13796.7
666.562	13791.73
666.912	13671.28
667.262	13659.75
667.612	13736.14
667.962	13693.43
668.312	13680.77
668.662	13729.13
669.011	13640.77
669.361	13712.86
669.711	13628.57
670.06	13571.39
670.41	13564.39
670.76	13538.63
671.109	13714.67
671.459	13595.12
671.808	13595.12
672.157	13571.62
672.507	13505.63
672.856	13552.19
673.205	13586.99
673.554	13563.71
673.904	13487.1
674.253	13656.36
674.602	13522.58
674.951	13351.29
675.3	13165.53
675.649	13446.65
675.998	13441.91
676.346	13459.08
676.695	13473.09
677.044	13367.56
677.393	13374.56
677.741	13450.95
678.09	13360.1
678.438	13314.68
678.787	13394.22
679.135	13323.27
679.484	13145.64
679.832	13342.02
680.181	13266.32
680.529	13322.81
680.877	13266.77
681.225	13163.5
681.573	13363.94
681.922	13207.79
682.27	13121.69
682.618	13191.07
682.966	13135.7
683.314	13217.96
683.661	13187.9
684.009	13016.15
684.357	13035.14
684.705	13076.72
685.053	13099.99
685.4	13052.99
685.748	13046.44
686.095	12951.52
686.443	12844.86
686.79	12832.66
687.138	12911.98
687.485	12927.12
687.832	12821.13
688.18	12953.11
688.527	12786.56
688.874	12754.01
689.221	12805.31
689.568	12641.02
689.915	12658.2
690.262	12757.63
690.609	12614.36
690.956	12578.43
691.303	12549.05
691.65	12523.51
691.997	12521.7
692.344	12409.84
692.69	12486.45
693.037	12455.27
693.383	12314.48
693.73	12406
694.077	12307.02
694.423	12318.09
694.769	12250.07
695.116	12219.57
695.462	12203.97
695.808	12118.33
696.155	12150.87
696.501	12046.69
696.847	11995.84
697.193	11849.86
697.539	12009.85
697.885	11905.22
698.231	11971.89
698.577	11926.92
698.923	11883.98
699.269	11803.31
699.614	11775.96
699.96	11755.4
700.306	11719.24
700.651	11627.49
700.997	11685.34
701.342	11665.46
701.688	11702.07
702.033	11660.48
702.379	11694.38
702.724	11559.02
703.069	11637.21
703.415	11572.58
703.76	11600.82
704.105	11509.53
704.45	11518.12
704.795	11414.16
705.14	11465.91
705.485	11420.72
705.83	11387.95
706.175	11474.05
706.52	11390.21
706.865	11344.56
707.209	11336.43
707.554	11341.17
707.899	11410.55
708.243	11333.04
708.588	11316.54
708.932	11238.35
709.277	11241.51
709.621	11217.11
709.966	11257.33
710.31	11252.59
710.654	11124.23
710.998	11169.42
711.342	11133.27
711.687	11177.11
712.031	11060.5
712.375	11015.08
712.719	11066.38
713.063	11015.76
713.407	11048.07
713.75	10957.68
714.094	10931.24
714.438	10873.61
714.782	10935.31
715.125	10815.99
715.469	10841.07
715.812	10799.72
716.156	10756.33
716.499	10837.46
716.843	10788.42
717.186	10728.53
717.53	10697.35
717.873	10612.15
718.216	10670.45
718.559	10606.27
718.902	10508.88
719.246	10468.65
719.589	10506.16
719.932	10467.52
720.275	10434.3
720.617	10393.17
720.96	10439.73
721.303	10412.83
721.646	10400.4
721.989	10291.48
722.331	10331.03
722.674	10243.12
723.016	10196.57
723.359	10241.76
723.701	10208.32
724.044	10178.94
724.386	10024.82
724.729	10193.18
725.071	10103.46
725.413	10080.86
725.755	10051.26
726.097	10020.53
726.439	9974.88
726.782	10054.88
727.124	10033.18
727.465	9940.53
727.807	10030.24
728.149	9960.19
728.491	9943.24
728.833	9990.25
729.175	9863.47
729.516	9929.91
729.858	9864.83
730.199	9886.07
730.541	9952.96
730.882	9951.83
731.224	9919.97
731.565	9844.94
731.906	9849.01
732.248	9922.9
732.589	9840.42
732.93	9884.26
733.271	9816.92
733.612	9827.99
733.953	9859.63
734.294	9790.7
734.635	9832.74
734.976	9847.2
735.317	9833.87
735.658	9885.39
735.999	9834.09
736.339	9765.17
736.68	9788.9
737.021	9804.49
737.361	9731.72
737.702	9827.31
738.042	9791.15
738.383	9792.28
738.723	9791.61
739.063	9758.16
739.404	9773.75
739.744	9710.03
740.084	9689.46
740.424	9728.78
740.764	9732.17
741.104	9751.16
741.444	9622.35
741.784	9683.59
742.124	9624.15
742.464	9569.92
742.804	9669.8
743.143	9634.55
743.483	9533.53
743.823	9523.14
744.162	9520.2
744.502	9528.79
744.841	9454.89
745.181	9502.35
745.52	9472.29
745.86	9434.1
746.199	9427.32
746.538	9338.29
746.877	9431.84
747.216	9381
747.556	9378.96
747.895	9366.08
748.234	9318.4
748.573	9350.26
748.911	9271.62
749.25	9277.04
749.589	9250.15
749.928	9212.19
750.267	9249.93
750.605	9216.71
750.944	9249.47
751.283	9185.75
751.621	9185.97
751.96	9112.53
752.298	9105.07
752.636	9103.94
752.975	9054
753.313	9072.08
753.651	9063.49
753.989	8962.93
754.327	8905.75
754.666	8950.73
755.004	8906.66
755.342	8900.56
755.679	8880.22
756.017	8910.05
756.355	8896.72
756.693	8896.94
757.031	8859.43
757.368	8796.15
757.706	8774.68
758.044	8758.41
758.381	8811.52
758.719	8705.08
759.056	8734.01
759.394	8776.49
759.731	8797.51
760.068	8628.02
760.405	8642.94
