Data from foam1_polythene_foam_FLMS001491_00005.txt Node
Date: Wed Feb 08 10:54:17 GMT 2017
User: dcchb
Spectrometer: FLMS00149
Trigger mode: 0
Integration Time (sec): 2.000000E-2
Scans to average: 10
Electric dark correction enabled: true
Nonlinearity correction enabled: false
Boxcar width: 0
XAxis mode: Wavelengths
Number of Pixels in Spectrum: 2048
>>>>>Begin Spectral Data<<<<<
341.393	-26.78
341.776	-26.78
342.16	-26.78
342.543	-57.29
342.927	-56.61
343.31	-73.11
343.693	-80.79
344.077	-59.77
344.46	-63.61
344.843	-63.16
345.226	-34.01
345.61	-21.81
345.993	-8.25
346.376	4.18
346.759	26.78
347.142	17.29
347.525	40.56
347.908	39.66
348.291	80.56
348.674	88.25
349.057	107.23
349.44	129.6
349.823	145.42
350.206	157.62
350.588	160.56
350.971	212.99
351.354	209.82
351.737	218.86
352.119	241.24
352.502	237.17
352.884	260.67
353.267	272.42
353.65	273.33
354.032	282.59
354.414	281.24
354.797	278.07
355.179	281.69
355.562	314.23
355.944	307.45
356.326	315.13
356.709	320.78
357.091	308.35
357.473	324.62
357.855	330.5
358.238	325.98
358.62	329.6
359.002	321.46
359.384	320.56
359.766	302.03
360.148	297.73
360.53	306.09
360.912	306.09
361.294	321.01
361.676	306.32
362.057	308.13
362.439	318.3
362.821	287.11
363.203	296.6
363.584	304.51
363.966	303.16
364.348	280.56
364.729	298.64
365.111	304.74
365.493	299.09
365.874	304.96
366.256	281.24
366.637	279.2
367.019	280.11
367.4	276.94
367.781	289.6
368.163	270.61
368.544	292.53
368.925	273.33
369.306	295.47
369.688	285.3
370.069	289.82
370.45	282.14
370.831	285.08
371.212	288.92
371.593	293.44
371.974	271.74
372.355	282.59
372.736	297.51
373.117	293.21
373.498	294.34
373.879	293.21
374.26	288.69
374.641	285.98
375.021	307.68
375.402	309.94
375.783	280.33
376.163	307.22
376.544	305.42
376.925	323.27
377.305	304.96
377.686	295.47
378.066	315.36
378.447	295.7
378.827	299.31
379.208	299.31
379.588	299.09
379.968	305.42
380.349	304.74
380.729	320.78
381.109	311.29
381.489	306.09
381.87	312.65
382.25	318.75
382.63	308.58
383.01	329.14
383.39	319.43
383.77	316.71
384.15	314.68
384.53	310.39
384.91	326.21
385.29	339.77
385.67	326.21
386.049	298.18
386.429	323.72
386.809	329.14
387.189	323.72
387.568	331.86
387.948	328.24
388.328	330.05
388.707	332.53
389.087	341.12
389.466	331.63
389.846	349.71
390.225	340.67
390.605	326.88
390.984	352.65
391.363	343.15
391.743	328.24
392.122	353.32
392.501	354.23
392.881	362.36
393.26	337.05
393.639	342.7
394.018	348.35
394.397	354.23
394.776	350.39
395.155	354
395.534	355.36
395.913	350.16
396.292	360.1
396.671	347.9
397.05	333.21
397.429	350.39
397.808	360.78
398.186	365.98
398.565	356.49
398.944	344.06
399.323	376.15
399.701	370.27
400.08	342.93
400.458	356.26
400.837	361.69
401.215	371.18
401.594	361.01
401.972	359.43
402.351	361.46
402.729	367.33
403.107	375.92
403.486	399.65
403.864	365.3
404.242	376.15
404.62	381.57
404.999	380.67
405.377	386.09
405.755	403.72
406.133	378.86
406.511	396.03
406.889	401.91
407.267	393.1
407.645	376.15
408.023	397.39
408.401	386.54
408.779	398.97
409.156	406.2
409.534	393.77
409.912	363.95
410.29	408.46
410.667	402.81
411.045	393.55
411.422	407.79
411.8	440.78
412.178	434
412.555	399.65
412.933	420.67
413.31	430.16
413.687	406.2
414.065	416.15
414.442	419.76
414.819	398.52
415.197	424.73
415.574	425.41
415.951	430.61
416.328	447.33
416.705	443.94
417.082	437.62
417.46	452.08
417.837	424.73
418.214	422.25
418.591	450.04
418.967	452.3
419.344	441.68
419.721	426.32
420.098	456.37
420.475	464.28
420.852	455.47
421.228	456.6
421.605	447.11
421.982	476.03
422.358	450.04
422.735	467.22
423.111	488.46
423.488	469.03
423.864	471.06
424.241	480.78
424.617	500.66
424.994	492.08
425.37	485.98
425.746	468.35
426.123	462.02
426.499	507.9
426.875	498.63
427.251	530.04
427.627	510.16
428.003	500.89
428.379	496.15
428.756	512.87
429.132	513.09
429.507	522.13
429.883	523.72
430.259	551.96
430.635	537.5
431.011	564.17
431.387	535.24
431.763	550.83
432.138	534.34
432.514	544.51
432.89	561.68
433.265	556.03
433.641	578.63
434.016	571.4
434.392	583.15
434.767	583.6
435.143	577.95
435.518	553.77
435.894	602.81
436.269	602.81
436.644	633.99
437.02	628.57
437.395	627.22
437.77	626.99
438.145	623.6
438.52	627.22
438.895	609.59
439.271	638.74
439.646	652.53
440.021	636.48
440.395	638.51
440.77	650.94
441.145	657.95
441.52	676.93
441.895	669.93
442.27	704.73
442.645	658.4
443.019	681
443.394	695.69
443.769	679.64
444.143	697.5
444.518	709.02
444.892	704.28
445.267	708.57
445.641	719.87
446.016	698.4
446.39	740.66
446.764	711.73
447.139	728.68
447.513	731.85
447.887	746.53
448.262	746.31
448.636	757.61
449.01	763.03
449.384	730.49
449.758	782.69
450.132	782.24
450.506	795.57
450.88	793.54
451.254	790.15
451.628	799.41
452.002	793.99
452.376	798.74
452.75	800.09
453.123	809.13
453.497	826.76
453.871	829.7
454.244	831.5
454.618	838.28
454.992	828.79
455.365	842.8
455.739	847.55
456.112	843.25
456.486	859.07
456.859	859.98
457.232	887.77
457.606	853.2
457.979	871.5
458.352	885.51
458.725	897.49
459.099	897.94
459.472	887.32
459.845	895.91
460.218	880.32
460.591	928.22
460.964	920.31
461.337	928
461.71	901.11
462.083	915.8
462.456	921.22
462.829	949.24
463.201	967.55
463.574	949.01
463.947	967.32
464.32	977.49
464.692	992.86
465.065	989.47
465.438	993.53
465.81	994.21
466.183	1022.01
466.555	1037.15
466.928	1046.64
467.3	1047.32
467.672	1053.42
468.045	1050.93
468.417	1057.49
468.789	1060.42
469.161	1057.94
469.534	1077.15
469.906	1076.02
470.278	1110.82
470.65	1113.98
471.022	1110.14
471.394	1153.08
471.766	1133.64
472.138	1142.46
472.51	1154.21
472.882	1211.15
473.253	1177.71
473.625	1191.95
473.997	1221.1
474.369	1207.09
474.74	1216.35
475.112	1235.11
475.484	1282.57
475.855	1279.85
476.227	1284.6
476.598	1322.56
476.97	1316.69
477.341	1360.08
477.713	1352.85
478.084	1362.79
478.455	1414.09
478.827	1406.18
479.198	1422.45
479.569	1444.14
479.94	1459.96
480.311	1476.23
480.682	1524.59
481.053	1511.03
481.424	1550.58
481.795	1530.02
482.166	1575.89
482.537	1603.01
482.908	1631.93
483.279	1623.8
483.65	1646.4
484.021	1699.5
484.391	1703.57
484.762	1693.63
485.133	1756.45
485.503	1743.57
485.874	1790.12
486.244	1838.48
486.615	1850.46
486.985	1842.1
487.356	1875.54
487.726	1876.67
488.097	1918.93
488.467	1881.42
488.837	1937.46
489.207	1943.34
489.578	1996.9
489.948	2003.9
490.318	2062.43
490.688	2039.61
491.058	2081.87
491.428	2079.38
491.798	2113.73
492.168	2167.74
492.538	2132.49
492.908	2178.13
493.278	2192.82
493.648	2189.43
494.017	2254.52
494.387	2230.11
494.757	2268.53
495.126	2286.83
495.496	2300.84
495.866	2307.62
496.235	2343.78
496.605	2388.98
496.974	2428.98
497.344	2387.62
497.713	2405.93
498.082	2412.03
498.452	2467.39
498.821	2451.57
499.19	2476.88
499.559	2474.62
499.928	2551.23
500.298	2542.65
500.667	2564.11
501.036	2567.73
501.405	2604.34
501.774	2579.25
502.143	2602.3
502.512	2586.71
502.88	2647.05
503.249	2642.3
503.618	2662.19
503.987	2707.84
504.356	2728.85
504.724	2720.72
505.093	2756.65
505.462	2745.13
505.83	2759.81
506.199	2789.64
506.567	2815.86
506.936	2780.38
507.304	2829.42
507.672	2893.37
508.041	2885.46
508.409	2890.43
508.777	2915.06
509.145	2927.95
509.514	2933.82
509.882	2967.27
510.25	2993.48
510.618	2990.54
510.986	3023.08
511.354	3063.54
511.722	3035.74
512.09	3115.96
512.458	3098.79
512.826	3135.4
513.193	3159.13
513.561	3177.66
513.929	3221.27
514.297	3196.64
514.664	3256.07
515.032	3233.02
515.4	3249.97
515.767	3291.33
516.135	3319.35
516.502	3336.75
516.869	3335.84
517.237	3364.32
517.604	3348.5
517.972	3451.32
518.339	3475.5
518.706	3462.62
519.073	3480.25
519.44	3486.35
519.808	3535.61
520.175	3503.3
520.542	3555.95
520.909	3595.5
521.276	3616.74
521.643	3692.22
522.009	3677.98
522.376	3682.95
522.743	3702.61
523.11	3757.53
523.477	3817.19
523.843	3802.72
524.21	3806.34
524.577	3843.85
524.943	3866.23
525.31	3931.76
525.676	3930.63
526.043	3985.09
526.409	3977.64
526.776	4021.7
527.142	4022.38
527.508	4098.31
527.874	4069.16
528.241	4056.73
528.607	4143.96
528.973	4142.38
529.339	4186.9
529.705	4213.34
530.071	4276.61
530.437	4277.97
530.803	4312.54
531.169	4332.88
531.535	4296.72
531.901	4328.13
532.267	4335.59
532.632	4386.66
532.998	4410.39
533.364	4405.42
533.73	4473.89
534.095	4493.78
534.461	4543.27
534.826	4514.8
535.192	4542.82
535.557	4548.47
535.923	4557.51
536.288	4551.63
536.653	4614.91
537.019	4632.08
537.384	4618.07
537.749	4672.08
538.114	4677.73
538.479	4692.42
538.845	4687
539.21	4682.48
539.575	4752.53
539.94	4755.24
540.305	4778.97
540.67	4791.63
541.034	4795.69
541.399	4884.05
541.764	4879.76
542.129	4852.87
542.494	4844.51
542.858	4903.49
543.223	4868.23
543.587	4933.32
543.952	4903.49
544.316	4912.07
544.681	4948.91
545.045	4963.82
545.41	5011.73
545.774	5028.68
546.138	5034.33
546.503	5045.86
546.867	5016.25
547.231	5092.41
547.595	5128.79
547.959	5103.03
548.324	5143.93
548.688	5168.79
549.052	5184.16
549.416	5203.59
549.779	5186.19
550.143	5207.66
550.507	5280.43
550.871	5250.6
551.235	5278.39
551.599	5319.75
551.962	5300.99
552.326	5313.19
552.689	5365.85
553.053	5346.87
553.417	5434.09
553.78	5481.1
554.143	5434.77
554.507	5443.13
554.87	5469.35
555.234	5540.76
555.597	5499.18
555.96	5544.15
556.323	5615.11
556.686	5546.63
557.05	5617.59
557.413	5636.35
557.776	5661.43
558.139	5761.54
558.502	5709.57
558.865	5718.38
559.228	5796.12
559.59	5843.8
559.953	5796.12
560.316	5867.76
560.679	5875.44
561.041	5836.34
561.404	5947.08
561.767	5926.51
562.129	5951.59
562.492	6016.9
562.854	6050.8
563.217	6045.15
563.579	6018.71
563.941	6087.64
564.304	6137.8
564.666	6145.26
565.028	6155.43
565.39	6134.87
565.753	6182.32
566.115	6212.38
566.477	6236.56
566.839	6279.95
567.201	6358.36
567.563	6369.89
567.925	6342.32
568.287	6400.85
568.648	6397.91
569.01	6450.79
569.372	6428.87
569.734	6490.11
570.095	6585.02
570.457	6550
570.819	6543.44
571.18	6596.78
571.542	6626.15
571.903	6624.12
572.265	6587.28
572.626	6632.03
572.987	6635.19
573.349	6634.06
573.71	6748.64
574.071	6699.82
574.432	6759.94
574.794	6788.41
575.155	6732.37
575.516	6809.2
575.877	6793.83
576.238	6846.71
576.599	6853.94
576.96	6882.42
577.32	6858.92
577.681	6870.67
578.042	6896.88
578.403	6914.51
578.763	6878.35
579.124	6874.28
579.485	6954.96
579.845	6996.09
580.206	6931.68
580.566	6970.1
580.927	6954.05
581.287	6973.04
581.648	7012.58
582.008	7006.26
582.368	6986.6
582.728	7022.08
583.089	6922.64
583.449	6987.27
583.809	6983.66
584.169	7015.75
584.529	6987.27
584.889	7101.62
585.249	6994.96
585.609	6957.44
585.969	7037.44
586.329	6992.7
586.688	7034.28
587.048	7008.06
587.408	7022.3
587.768	7012.81
588.127	7022.98
588.487	6953.15
588.846	7012.58
589.206	6988.4
589.565	7058.23
589.925	7012.81
590.284	7026.14
590.643	7051
591.003	7056.42
591.362	7064.79
591.721	7036.09
592.08	7047.84
592.44	7052.36
592.799	7050.1
593.158	7081.73
593.517	7037.44
593.876	7069.53
594.235	7006.71
594.593	7075.41
594.952	7051
595.311	7074.73
595.67	7100.94
596.029	7054.16
596.387	7170.77
596.746	7136.2
597.104	7131.68
597.463	7049.42
597.822	7106.37
598.18	7080.6
598.538	7076.31
598.897	7156.53
599.255	7064.79
599.613	7160.38
599.972	7159.92
600.33	7117.67
600.688	7124.67
601.046	7178
601.404	7150.89
601.762	7152.69
602.12	7167.16
602.478	7212.8
602.836	7146.82
603.194	7170.55
603.552	7190.43
603.91	7100.72
604.268	7182.3
604.625	7189.3
604.983	7191.34
605.341	7161.05
605.698	7171.22
606.056	7232.69
606.413	7163.77
606.771	7167.61
607.128	7302.29
607.485	7239.02
607.843	7208.96
608.2	7283.76
608.557	7282.41
608.914	7242.18
609.272	7242.41
609.629	7243.54
609.986	7321.28
610.343	7258.45
610.7	7290.99
611.057	7332.8
611.414	7282.63
611.771	7275.63
612.127	7317.66
612.484	7319.24
612.841	7303.42
613.198	7304.1
613.554	7261.17
613.911	7281.28
614.267	7356.53
614.624	7347.49
614.98	7344.78
615.337	7346.81
615.693	7380.71
616.05	7396.3
616.406	7424.32
616.762	7349.98
617.118	7350.88
617.475	7345.23
617.831	7430.65
618.187	7425
618.543	7392.69
618.899	7423.19
619.255	7393.36
619.611	7427.49
619.967	7447.6
620.323	7478.11
620.678	7411.44
621.034	7395.85
621.39	7412.8
621.746	7390.43
622.101	7387.72
622.457	7408.51
622.812	7423.65
623.168	7494.61
623.523	7469.3
623.879	7433.36
624.234	7393.36
624.589	7442.86
624.945	7373.48
625.3	7467.71
625.655	7469.3
626.01	7414.83
626.365	7459.13
626.72	7434.95
627.075	7371.9
627.43	7330.32
627.785	7371.9
628.14	7469.75
628.495	7403.76
628.85	7408.28
629.205	7425
629.559	7383.42
629.914	7439.69
630.269	7370.77
630.623	7344.1
630.978	7277.66
631.332	7343.2
631.687	7370.31
632.041	7286.48
632.396	7315.63
632.75	7283.54
633.104	7302.52
633.459	7287.6
633.813	7252.8
634.167	7289.19
634.521	7244.89
634.875	7320.82
635.229	7315.85
635.583	7293.03
635.937	7232.01
636.291	7281.73
636.645	7207.61
636.999	7226.82
637.352	7192.01
637.706	7192.24
638.06	7131.9
638.413	7168.06
638.767	7104.11
639.121	7094.39
639.474	7150.43
639.828	7149.76
640.181	7138.68
640.534	7152.69
640.888	7180.04
641.241	7060.04
641.594	7112.02
641.947	7085.58
642.301	7125.35
642.654	7087.84
643.007	7038.8
643.36	7020.95
643.713	7051.23
644.066	6993.38
644.419	6972.81
644.771	6880.84
645.124	6854.62
645.477	6839.93
645.83	6813.27
646.182	6756.32
646.535	6699.82
646.888	6787.51
647.24	6768.97
647.593	6838.58
647.945	6803.78
648.298	6714.29
648.65	6707.51
649.002	6669.54
649.355	6652.37
649.707	6644.68
650.059	6668.86
650.411	6759.71
650.763	6812.59
651.115	6842.19
651.467	6825.47
651.819	6826.6
652.171	6824.79
652.523	6810.56
652.875	6842.19
653.227	6852.59
653.578	6842.42
653.93	6790.89
654.282	6791.12
654.633	6717.9
654.985	6721.97
655.337	6718.81
655.688	6749.54
656.039	6728.3
656.391	6684.91
656.742	6707.06
657.094	6674.06
657.445	6762.2
657.796	6694.63
658.147	6708.19
658.498	6656.21
658.849	6734.4
659.2	6724
659.551	6673.61
659.902	6717.22
660.253	6671.35
660.604	6646.27
660.955	6672.48
661.306	6675.64
661.656	6661.63
662.007	6654.18
662.358	6708.64
662.708	6677.45
663.059	6590
663.409	6579.6
663.76	6628.41
664.11	6609.43
664.461	6608.98
664.811	6593.16
665.161	6586.83
665.511	6636.77
665.862	6625.93
666.212	6629.09
666.562	6624.8
666.912	6606.27
667.262	6568.98
667.612	6548.42
667.962	6566.72
668.312	6512.48
668.662	6559.26
669.011	6589.32
669.361	6533.05
669.711	6531.01
670.06	6524.91
670.41	6518.59
670.76	6455.31
671.109	6552.71
671.459	6506.16
671.808	6555.19
672.157	6494.63
672.507	6486.95
672.856	6522.2
673.205	6513.84
673.554	6539.6
673.904	6451.92
674.253	6499.38
674.602	6513.39
674.951	6391.13
675.3	6368.99
675.649	6442.43
675.998	6415.54
676.346	6384.8
676.695	6430
677.044	6437.91
677.393	6445.14
677.741	6475.42
678.09	6451.69
678.438	6464.12
678.787	6455.54
679.135	6409.44
679.484	6478.36
679.832	6481.75
680.181	6457.34
680.529	6383
680.877	6431.13
681.225	6345.26
681.573	6387.29
681.922	6338.25
682.27	6284.92
682.618	6274.75
682.966	6304.58
683.314	6301.64
683.661	6231.59
684.009	6226.16
684.357	6233.62
684.705	6240.4
685.053	6234.07
685.4	6283.34
685.748	6238.14
686.095	6256.9
686.443	6205.37
686.79	6239.95
687.138	6199.27
687.485	6157.47
687.832	6119.05
688.18	6181.42
688.527	6098.26
688.874	6044.47
689.221	6027.98
689.568	6053.74
689.915	6027.07
690.262	5994.31
690.609	6005.83
690.956	5995.21
691.303	6016.68
691.65	5993.63
691.997	5987.3
692.344	5983.23
692.69	5970.58
693.037	6029.56
693.383	5975.32
693.73	6005.38
694.077	5934.87
694.423	5894.42
694.769	5919.05
695.116	5827.98
695.462	5846.74
695.808	5782.11
696.155	5803.58
696.501	5740.3
696.847	5743.24
697.193	5733.3
697.539	5747.76
697.885	5699.85
698.231	5679.29
698.577	5708.89
698.923	5693.07
699.269	5710.47
699.614	5713.41
699.96	5667.53
700.306	5672.51
700.651	5606.75
700.997	5617.59
701.342	5614.2
701.688	5555.67
702.033	5550.48
702.379	5551.83
702.724	5547.09
703.069	5517.26
703.415	5428.9
703.76	5438.39
704.105	5449.46
704.45	5404.94
704.795	5393.87
705.14	5439.52
705.485	5458.73
705.83	5439.52
706.175	5475.45
706.52	5459.63
706.865	5494.88
707.209	5402.23
707.554	5363.14
707.899	5399.07
708.243	5329.01
708.588	5326.53
708.932	5265.74
709.277	5251.27
709.621	5267.77
709.966	5218.28
710.31	5208.79
710.654	5136.25
710.998	5160.43
711.342	5208.11
711.687	5235.46
712.031	5185.29
712.375	5191.84
712.719	5188.9
713.063	5219.64
713.407	5212.86
713.75	5219.86
714.094	5208.79
714.438	5195
714.782	5179.86
715.125	5157.04
715.469	5104.84
715.812	5108
716.156	5051.51
716.499	5020.77
716.843	5028.91
717.186	5044.27
717.53	5035.23
717.873	5006.76
718.216	4985.07
718.559	4956.14
718.902	4959.08
719.246	4974.45
719.589	4984.16
719.932	4954.33
720.275	5001.79
720.617	4977.38
720.96	5004.73
721.303	4970.38
721.646	5021.68
721.989	4964.95
722.331	4957.27
722.674	4908.01
723.016	4971.28
723.359	4909.59
723.701	4884.05
724.044	4823.71
724.386	4803.38
724.729	4829.59
725.071	4809.25
725.413	4831.85
725.755	4817.84
726.097	4793.43
726.439	4787.33
726.782	4838.4
727.124	4875.24
727.465	4806.31
727.807	4812.64
728.149	4834.11
728.491	4809.48
728.833	4806.77
729.175	4790.27
729.516	4778.52
729.858	4789.82
730.199	4753.89
730.541	4755.02
730.882	4719.99
731.224	4743.27
731.565	4667.56
731.906	4637.51
732.248	4634.57
732.589	4669.14
732.93	4633.44
733.271	4646.09
733.612	4610.39
733.953	4668.92
734.294	4664.85
734.635	4670.05
734.976	4661.91
735.317	4640.22
735.658	4668.24
735.999	4679.54
736.339	4660.56
736.68	4692.19
737.021	4694.23
737.361	4643.61
737.702	4672.08
738.042	4599.99
738.383	4563.61
738.723	4572.2
739.063	4566.32
739.404	4530.16
739.744	4554.12
740.084	4525.64
740.424	4538.07
740.764	4505.76
741.104	4530.84
741.444	4519.77
741.784	4468.7
742.124	4499.66
742.464	4550.5
742.804	4552.76
743.143	4528.58
743.483	4541.24
743.823	4493.78
744.162	4501.01
744.502	4534.68
744.841	4521.12
745.181	4490.84
745.52	4456.04
745.86	4460.33
746.199	4398.42
746.538	4397.74
746.877	4423.73
747.216	4388.02
747.556	4382.14
747.895	4406.32
748.234	4350.51
748.573	4322.71
748.911	4349.38
749.25	4346.89
749.589	4358.19
749.928	4375.37
750.267	4392.09
750.605	4338.3
750.944	4346.21
751.283	4380.56
751.621	4408.81
751.96	4325.87
752.298	4342.6
752.636	4312.77
752.975	4295.37
753.313	4301.02
753.651	4266.22
753.989	4260.11
754.327	4250.62
754.666	4194.13
755.004	4204.75
755.342	4218.31
755.679	4168.82
756.017	4164.98
756.355	4155.71
756.693	4147.57
757.031	4143.73
757.368	4135.6
757.706	4145.31
758.044	4157.97
758.381	4162.26
758.719	4153.68
759.056	4160.23
759.394	4141.25
759.731	4115.03
760.068	4123.85
760.405	4113
760.743	4093.79
761.08	4100.12
761.417	4062.15
761.754	4061.48
762.091	4055.6
762.428	3996.39
762.765	3979.67
763.102	3973.12
763.438	3979.44
763.775	3928.15
764.112	3946.9
764.449	3985.77
764.785	3899.67
765.122	3853.35
765.458	3930.86
765.795	3883.17
766.131	3854.02
766.467	3859.22
766.804	3892.89
767.14	3897.41
767.476	3877.98
767.812	3864.42
768.148	3884.98
768.485	3847.7
768.821	3870.75
769.157	3843.63
769.492	3815.61
769.828	3844.53
770.164	3789.17
770.5	3733.35
770.836	3727.92
771.171	3749.84
771.507	3709.62
771.842	3680.69
