Data from foam1_polythene_foam_FLMS001491_00070.txt Node
Date: Wed Feb 08 10:55:14 GMT 2017
User: dcchb
Spectrometer: FLMS00149
Trigger mode: 0
Integration Time (sec): 2.000000E-2
Scans to average: 10
Electric dark correction enabled: true
Nonlinearity correction enabled: false
Boxcar width: 0
XAxis mode: Wavelengths
Number of Pixels in Spectrum: 2048
>>>>>Begin Spectral Data<<<<<
341.393	-1.69
341.776	-1.69
342.16	-1.69
342.543	-57.74
342.927	-63.39
343.31	-90.05
343.693	-74.69
344.077	-74.01
344.46	-72.65
344.843	-52.09
345.226	-52.32
345.61	-13.22
345.993	-3.95
346.376	11.19
346.759	10.96
347.142	41.02
347.525	43.5
347.908	67.91
348.291	54.12
348.674	92.77
349.057	111.52
349.44	111.07
349.823	136.61
350.206	173.22
350.588	165.31
350.971	185.87
351.354	197.85
351.737	209.37
352.119	236.72
352.502	215.02
352.884	249.82
353.267	279.88
353.65	268.58
354.032	275.13
354.414	294.12
354.797	277.85
355.179	296.83
355.562	287.79
355.944	296.38
356.326	311.07
356.709	296.15
357.091	310.61
357.473	329.37
357.855	286.66
358.238	298.41
358.62	312.2
359.002	302.03
359.384	325.98
359.766	345.64
360.148	327.11
360.53	316.26
360.912	317.84
361.294	306.77
361.676	304.06
362.057	303.16
362.439	301.12
362.821	322.14
363.203	330.27
363.584	305.19
363.966	326.43
364.348	299.31
364.729	302.7
365.111	294.57
365.493	299.09
365.874	303.16
366.256	297.51
366.637	283.5
367.019	268.58
367.4	286.21
367.781	327.79
368.163	304.29
368.544	290.05
368.925	297.28
369.306	295.02
369.688	299.31
370.069	280.33
370.45	290.95
370.831	284.17
371.212	304.74
371.593	277.62
371.974	297.96
372.355	296.38
372.736	290.5
373.117	287.79
373.498	294.57
373.879	285.98
374.26	280.78
374.641	285.98
375.021	271.97
375.402	298.18
375.783	307.45
376.163	302.48
376.544	302.03
376.925	298.64
377.305	300.9
377.686	303.61
378.066	284.63
378.447	299.09
378.827	280.78
379.208	314
379.588	282.59
379.968	305.87
380.349	304.06
380.729	294.57
381.109	299.99
381.489	331.18
381.87	293.89
382.25	313.78
382.63	311.29
383.01	288.02
383.39	321.91
383.77	304.51
384.15	305.42
384.53	333.44
384.91	316.26
385.29	319.88
385.67	309.94
386.049	323.04
386.429	315.13
386.809	324.17
387.189	290.5
387.568	317.39
387.948	332.53
388.328	302.7
388.707	334.12
389.087	316.26
389.466	318.75
389.846	310.61
390.225	305.42
390.605	344.28
390.984	328.24
391.363	330.95
391.743	302.48
392.122	324.17
392.501	323.04
392.881	324.4
393.26	350.84
393.639	323.72
394.018	329.6
394.397	343.61
394.776	338.41
395.155	324.85
395.534	316.49
395.913	317.84
396.292	329.37
396.671	332.31
397.05	319.65
397.429	343.15
397.808	339.77
398.186	323.72
398.565	354
398.944	350.16
399.323	340.44
399.701	332.99
400.08	328.92
400.458	342.25
400.837	356.04
401.215	363.27
401.594	342.25
401.972	360.1
402.351	353.78
402.729	361.23
403.107	352.42
403.486	322.59
403.864	349.48
404.242	379.09
404.62	377.96
404.999	376.6
405.377	381.12
405.755	356.04
406.133	387.67
406.511	362.59
406.889	347.22
407.267	365.75
407.645	351.74
408.023	367.79
408.401	375.24
408.779	361.23
409.156	361.69
409.534	385.64
409.912	365.75
410.29	359.43
410.667	374.34
411.045	371.18
411.422	371.18
411.8	382.48
412.178	389.26
412.555	387.9
412.933	359.65
413.31	381.57
413.687	387.22
414.065	374.57
414.442	390.84
414.819	419.54
415.197	378.18
415.574	393.55
415.951	409.59
416.328	399.88
416.705	400.55
417.082	408.69
417.46	405.75
417.837	397.84
418.214	416.37
418.591	401.46
418.967	406.88
419.344	423.15
419.721	397.39
420.098	417.73
420.475	387.45
420.852	424.06
421.228	416.6
421.605	409.59
421.982	400.33
422.358	410.5
422.735	447.33
423.111	414.79
423.488	422.25
423.864	415.47
424.241	431.29
424.617	419.54
424.994	446.88
425.37	404.62
425.746	417.73
426.123	429.48
426.499	442.59
426.875	455.92
427.251	449.82
427.627	443.94
428.003	429.93
428.379	436.71
428.756	461.12
429.132	430.38
429.507	457.28
429.883	451.17
430.259	451.85
430.635	484.39
431.011	455.02
431.387	450.72
431.763	465.64
432.138	488.01
432.514	476.26
432.89	493.21
433.265	494.34
433.641	467.9
434.016	474.68
434.392	483.94
434.767	494.56
435.143	499.31
435.518	502.7
435.894	508.57
436.269	511.96
436.644	513.55
437.02	487.78
437.395	509.93
437.77	520.55
438.145	541.57
438.52	519.2
438.895	528.01
439.271	528.23
439.646	534.11
440.021	530.95
440.395	542.47
440.77	524.62
441.145	546.99
441.52	571.85
441.895	565.75
442.27	568.23
442.645	568.69
443.019	565.97
443.394	588.8
443.769	579.76
444.143	557.39
444.518	594.45
444.892	594.9
445.267	590.38
445.641	603.71
446.016	589.25
446.39	589.93
446.764	604.62
447.139	605.97
447.513	629.02
447.887	626.54
448.262	636.25
448.636	644.84
449.01	641.45
449.384	610.04
449.758	627.89
450.132	664.95
450.506	641
450.88	673.54
451.254	663.37
451.628	650.27
452.002	666.99
452.376	660.89
452.75	659.3
453.123	670.6
453.497	667.21
453.871	689.13
454.244	695.91
454.618	674.45
454.992	697.04
455.365	697.04
455.739	686.87
456.112	695.01
456.486	702.92
456.859	705.18
457.232	695.24
457.606	703.37
457.979	716.7
458.352	708.34
458.725	722.13
459.099	709.7
459.472	716.7
459.845	703.6
460.218	713.09
460.591	723.03
460.964	711.96
461.337	716.48
461.71	733.65
462.083	701.56
462.456	727.33
462.829	713.77
463.201	761
463.574	738.85
463.947	739.3
464.32	758.74
464.692	734.1
465.065	770.49
465.438	783.14
465.81	764.39
466.183	737.95
466.555	765.29
466.928	782.69
467.3	779.53
467.672	789.02
468.045	784.27
468.417	815.68
468.789	819.98
469.161	814.78
469.534	832.41
469.906	839.64
470.278	832.63
470.65	817.72
471.022	839.41
471.394	871.73
471.766	843.71
472.138	842.8
472.51	863.82
472.882	857.72
473.253	872.86
473.625	879.19
473.997	907.21
474.369	895.46
474.74	909.24
475.112	914.21
475.484	945.62
475.855	907.89
476.227	944.95
476.598	958.73
476.97	964.38
477.341	972.97
477.713	977.26
478.084	978.39
478.455	1022.23
478.827	1023.14
479.198	1029.46
479.569	1019.52
479.94	1043.02
480.311	1049.35
480.682	1062.91
481.053	1073.98
481.424	1109.01
481.795	1104.26
482.166	1122.12
482.537	1101.55
482.908	1128.9
483.279	1155.56
483.65	1151.72
484.021	1192.85
484.391	1176.13
484.762	1188.78
485.133	1217.71
485.503	1208.67
485.874	1236.24
486.244	1230.82
486.615	1250.25
486.985	1283.02
487.356	1280.98
487.726	1280.53
488.097	1362.34
488.467	1315.78
488.837	1349.68
489.207	1351.26
489.578	1380.42
489.948	1370.7
490.318	1358.04
490.688	1399.17
491.058	1413.18
491.428	1416.57
491.798	1455.44
492.168	1457.93
492.538	1456.12
492.908	1464.93
493.278	1501.99
493.648	1489.34
494.017	1510.13
494.387	1520.52
494.757	1539.51
495.126	1563.69
495.496	1554.42
495.866	1561.65
496.235	1573.63
496.605	1589.68
496.974	1588.77
497.344	1603.46
497.713	1610.92
498.082	1640.07
498.452	1677.81
498.821	1635.55
499.19	1670.13
499.559	1664.02
499.928	1685.72
500.298	1691.37
500.667	1690.24
501.036	1710.35
501.405	1732.27
501.774	1727.75
502.143	1750.58
502.512	1754.19
502.88	1765.49
503.249	1789.22
503.618	1753.74
503.987	1815.66
504.356	1814.75
504.724	1818.82
505.093	1793.51
505.462	1840.06
505.83	1827.86
506.199	1844.81
506.567	1864.24
506.936	1855.66
507.304	1909.89
507.672	1884.58
508.041	1882.55
508.409	1923.68
508.777	1930.46
509.145	1959.61
509.514	1911.7
509.882	1926.39
510.25	1983.79
510.618	1964.13
510.986	1964.58
511.354	1978.14
511.722	2015.43
512.09	2007.29
512.458	2028.31
512.826	2040.29
513.193	2064.24
513.561	2060.17
513.929	2104.92
514.297	2100.62
514.664	2122.77
515.032	2099.72
515.4	2099.04
515.767	2123.9
516.135	2139.04
516.502	2165.71
516.869	2167.51
517.237	2202.31
517.604	2187.85
517.972	2206.61
518.339	2240.28
518.706	2226.5
519.073	2228.98
519.44	2270.56
519.808	2268.3
520.175	2260.17
520.542	2305.14
520.909	2316.89
521.276	2315.98
521.643	2338.36
522.009	2383.78
522.376	2383.1
522.743	2386.26
523.11	2402.99
523.477	2423.33
523.843	2455.42
524.21	2488.64
524.577	2475.3
524.943	2515.08
525.31	2518.46
525.676	2573.15
526.043	2514.17
526.409	2561.85
526.776	2581.06
527.142	2586.94
527.508	2573.15
527.874	2589.65
528.241	2560.95
528.607	2627.16
528.973	2689.08
529.339	2628.52
529.705	2693.15
530.071	2709.19
530.437	2712.58
530.803	2729.53
531.169	2726.59
531.535	2711.45
531.901	2709.65
532.267	2724.79
532.632	2725.92
532.998	2791.9
533.364	2773.83
533.73	2815.63
534.095	2829.87
534.461	2852.92
534.826	2842.3
535.192	2838
535.557	2872.35
535.923	2885.46
536.288	2933.14
536.653	2887.04
537.019	2882.75
537.384	2893.82
537.749	2950.09
538.114	2947.15
538.479	2925.69
538.845	2923.65
539.21	2973.37
539.575	2970.2
539.94	2994.84
540.305	2954.16
540.67	2985.8
541.034	2975.4
541.399	3003.65
541.764	2971.56
542.129	3026.47
542.494	3039.58
542.858	3068.51
543.223	3037.77
543.587	3052.69
543.952	3010.88
544.316	3026.25
544.681	3056.53
545.045	3074.38
545.41	3092.91
545.774	3106.7
546.138	3125.68
546.503	3150.99
546.867	3125.68
547.231	3159.8
547.595	3165
547.959	3193.02
548.324	3196.64
548.688	3207.03
549.052	3178.79
549.416	3183.98
549.779	3221.05
550.143	3229.41
550.507	3267.6
550.871	3276.64
551.235	3252.46
551.599	3238.9
551.962	3273.93
552.326	3252.68
552.689	3302.4
553.053	3282.96
553.417	3328.16
553.78	3365.9
554.143	3332.23
554.507	3323.19
554.87	3367.71
555.234	3374.26
555.597	3408.84
555.96	3412.45
556.323	3372.45
556.686	3380.36
557.05	3434.82
557.413	3428.72
557.776	3462.17
558.139	3465.78
558.502	3461.26
558.865	3489.74
559.228	3490.19
559.59	3555.05
559.953	3538.1
560.316	3560.92
560.679	3541.04
561.041	3581.49
561.404	3560.7
561.767	3628.27
562.129	3610.41
562.492	3683.18
562.854	3649.73
563.217	3643.86
563.579	3662.16
563.941	3664.2
564.304	3709.39
564.666	3686.8
565.028	3731.77
565.39	3759.79
565.753	3766.79
566.115	3773.35
566.477	3752.78
566.839	3798.43
567.201	3846.34
567.563	3858.32
567.925	3862.16
568.287	3893.12
568.648	3845.44
569.01	3876.17
569.372	3902.61
569.734	3899.22
570.095	3900.58
570.457	3919.11
570.819	3949.16
571.18	3920.91
571.542	3941.93
571.903	4008.14
572.265	3972.89
572.626	4016.05
572.987	4013.79
573.349	4024.64
573.71	4021.25
574.071	4041.14
574.432	4085.2
574.794	4075.94
575.155	4096.5
575.516	4059.44
575.877	4106.22
576.238	4102.38
576.599	4105.54
576.96	4069.16
577.32	4084.07
577.681	4119.33
578.042	4135.6
578.403	4145.31
578.763	4159.33
579.124	4189.38
579.485	4175.6
579.845	4172.43
580.206	4122.94
580.566	4148.7
580.927	4175.6
581.287	4186.9
581.648	4186.9
582.008	4157.07
582.368	4177.63
582.728	4163.17
583.089	4169.72
583.449	4169.04
583.809	4182.6
584.169	4169.95
584.529	4192.55
584.889	4218.31
585.249	4184.18
585.609	4178.76
585.969	4169.04
586.329	4192.77
586.688	4198.19
587.048	4188.48
587.408	4179.89
587.768	4213.79
588.127	4174.01
588.487	4206.78
588.846	4219.66
589.206	4199.1
589.565	4206.33
589.925	4220.12
590.284	4158.87
590.643	4195.48
591.003	4211.98
591.362	4220.57
591.721	4197.97
592.08	4195.03
592.44	4268.48
592.799	4175.82
593.158	4214.92
593.517	4216.73
593.876	4185.77
594.235	4179.44
594.593	4174.01
594.952	4160
595.311	4141.7
595.67	4185.54
596.029	4220.57
596.387	4206.33
596.746	4227.35
597.104	4169.72
597.463	4164.98
597.822	4218.76
598.18	4217.86
598.538	4188.48
598.897	4229.15
599.255	4187.8
599.613	4270.96
599.972	4204.97
600.33	4249.04
600.688	4171.75
601.046	4242.26
601.404	4233.45
601.762	4170.85
602.12	4209.49
602.478	4242.49
602.836	4218.31
603.194	4212.21
603.552	4225.31
603.91	4200.23
604.268	4194.8
604.625	4205.43
604.983	4237.97
605.341	4194.58
605.698	4207.01
606.056	4275.93
606.413	4268.02
606.771	4204.75
607.128	4246.56
607.485	4236.16
607.843	4210.85
608.2	4203.17
608.557	4224.41
608.914	4221.7
609.272	4261.92
609.629	4248.14
609.986	4258.76
610.343	4241.36
610.7	4252.66
611.057	4258.98
611.414	4259.89
611.771	4248.14
612.127	4295.37
612.484	4285.65
612.841	4250.17
613.198	4254.69
613.554	4241.58
613.911	4310.06
614.267	4256.05
614.624	4272.99
614.98	4248.59
615.337	4331.07
615.693	4285.88
616.05	4264.86
616.406	4283.39
616.762	4264.41
617.118	4273.45
617.475	4239.32
617.831	4243.62
618.187	4245.65
618.543	4283.84
618.899	4267.35
619.255	4285.65
619.611	4256.72
619.967	4319.77
620.323	4274.35
620.678	4231.19
621.034	4264.86
621.39	4226.22
621.746	4233.9
622.101	4262.15
622.457	4278.64
622.812	4252.66
623.168	4251.75
623.523	4242.49
623.879	4296.05
624.234	4242.04
624.589	4271.87
624.945	4253.56
625.3	4272.32
625.655	4240.45
626.01	4224.86
626.365	4270.51
626.72	4249.72
627.075	4242.49
627.43	4235.48
627.785	4241.36
628.14	4240.45
628.495	4235.26
628.85	4205.88
629.205	4192.77
629.559	4237.74
629.914	4239.55
630.269	4204.3
630.623	4189.16
630.978	4232.32
631.332	4173.11
631.687	4167.24
632.041	4211.75
632.396	4202.49
632.75	4155.48
633.104	4193.9
633.459	4102.83
633.813	4125.88
634.167	4183.96
634.521	4106.45
634.875	4142.83
635.229	4161.13
635.583	4078.42
635.937	4100.12
636.291	4045.88
636.645	4110.06
636.999	4063.96
637.352	4091.53
637.706	3996.62
638.06	4101.02
638.413	4024.64
638.767	3996.84
639.121	4045.66
639.474	4002.95
639.828	4029.61
640.181	4021.25
640.534	4042.04
640.888	4023.74
641.241	4016.5
641.594	4013.34
641.947	4009.95
642.301	3994.58
642.654	3941.03
643.007	3986.67
643.36	3959.33
643.713	3951.87
644.066	3987.35
644.419	3929.05
644.771	3936.28
645.124	3812.44
645.477	3869.39
645.83	3843.63
646.182	3826.45
646.535	3821.71
646.888	3853.35
647.24	3841.37
647.593	3859.22
647.945	3790.3
648.298	3810.86
648.65	3802.95
649.002	3803.63
649.355	3799.56
649.707	3774.7
650.059	3814.02
650.411	3771.31
650.763	3786
651.115	3870.75
651.467	3822.39
651.819	3834.81
652.171	3838.2
652.523	3818.54
652.875	3795.27
653.227	3821.93
653.578	3783.97
653.93	3797.53
654.282	3771.54
654.633	3779.22
654.985	3794.36
655.337	3727.47
655.688	3775.15
656.039	3805.89
656.391	3725.89
656.742	3741.26
657.094	3748.26
657.445	3767.02
657.796	3780.8
658.147	3732.22
658.498	3767.7
658.849	3748.94
659.2	3751.88
659.551	3694.93
659.902	3723.86
660.253	3699.68
660.604	3749.39
660.955	3687.25
661.306	3707.81
661.656	3688.15
662.007	3722.28
662.358	3680.69
662.708	3666.46
663.059	3689.73
663.409	3665.55
663.76	3656.29
664.11	3688.38
664.461	3680.02
664.811	3714.59
665.161	3685.89
665.511	3648.15
665.862	3681.15
666.212	3725.44
666.562	3658.1
666.912	3658.55
667.262	3672.78
667.612	3654.03
667.962	3658.1
668.312	3640.02
668.662	3628.49
669.011	3674.59
669.361	3656.29
669.711	3646.34
670.06	3640.24
670.41	3635.27
670.76	3584.2
671.109	3630.98
671.459	3616.52
671.808	3566.12
672.157	3640.24
672.507	3576.97
672.856	3592.11
673.205	3595.72
673.554	3597.76
673.904	3573.13
674.253	3585.1
674.602	3595.05
674.951	3511.21
675.3	3498.33
675.649	3559.34
675.998	3538.78
676.346	3574.48
676.695	3531.55
677.044	3551.66
677.393	3574.93
677.741	3557.53
678.09	3550.08
678.438	3554.6
678.787	3492.68
679.135	3537.87
679.484	3543.52
679.832	3535.61
680.181	3495.84
680.529	3544.65
680.877	3488.61
681.225	3529.96
681.573	3478.44
681.922	3480.47
682.27	3472.56
682.618	3468.5
682.966	3462.62
683.314	3487.93
683.661	3438.67
684.009	3447.03
684.357	3408.61
684.705	3447.03
685.053	3457.65
685.4	3391.89
685.748	3407.71
686.095	3421.49
686.443	3396.86
686.79	3356.41
687.138	3427.59
687.485	3407.93
687.832	3404.77
688.18	3359.8
688.527	3354.15
688.874	3315.96
689.221	3326.35
689.568	3317.54
689.915	3294.49
690.262	3287.26
690.609	3325.45
690.956	3283.64
691.303	3296.3
691.65	3265.79
691.997	3291.1
692.344	3261.72
692.69	3248.16
693.037	3251.55
693.383	3242.51
693.73	3236.19
694.077	3266.47
694.423	3259.01
694.769	3196.64
695.116	3217.88
695.462	3217.66
695.808	3208.16
696.155	3200.03
696.501	3180.82
696.847	3136.3
697.193	3135.85
697.539	3174.04
697.885	3155.96
698.231	3111.67
698.577	3173.36
698.923	3109.64
699.269	3110.09
699.614	3128.84
699.96	3113.03
700.306	3082.07
700.651	3107.6
700.997	3019.92
701.342	3024.89
701.688	3054.95
702.033	3020.82
702.379	3017.66
702.724	3043.42
703.069	3003.2
703.415	3026.25
703.76	3013.59
704.105	2979.24
704.45	2994.38
704.795	2957.32
705.14	2967.27
705.485	2984.22
705.83	2981.05
706.175	2917.78
706.52	2972.46
706.865	2957.55
707.209	2954.84
707.554	2943.99
707.899	2949.19
708.243	2938.79
708.588	2909.42
708.932	2889.75
709.277	2887.04
709.621	2866.03
709.966	2849.3
710.31	2882.07
710.654	2890.88
710.998	2850.66
711.342	2868.29
711.687	2888.17
712.031	2836.87
712.375	2818.8
712.719	2843.2
713.063	2829.19
713.407	2824.22
713.75	2827.38
714.094	2830.32
714.438	2795.07
714.782	2809.08
715.125	2758.91
715.469	2791.68
715.812	2762.3
716.156	2751.91
716.499	2771.79
716.843	2792.13
717.186	2746.26
717.53	2738.8
717.873	2781.51
718.216	2767.5
718.559	2742.64
718.902	2759.14
719.246	2728.18
719.589	2714.39
719.932	2710.32
720.275	2728.85
720.617	2699.7
720.96	2693.38
721.303	2714.17
721.646	2692.7
721.989	2710.32
722.331	2732.92
722.674	2659.93
723.016	2673.26
723.359	2668.74
723.701	2709.87
724.044	2662.64
724.386	2639.59
724.729	2634.39
725.071	2664.9
725.413	2615.41
725.755	2649.53
726.097	2652.92
726.439	2657.44
726.782	2592.59
727.124	2643.89
727.465	2587.62
727.807	2617.22
728.149	2580.61
728.491	2609.08
728.833	2646.6
729.175	2646.15
729.516	2602.3
729.858	2581.51
730.199	2589.65
730.541	2558.24
730.882	2552.36
731.224	2578.8
731.565	2563.89
731.906	2576.09
732.248	2539.71
732.589	2584
732.93	2551.68
733.271	2548.52
733.612	2572.47
733.953	2553.72
734.294	2504.45
734.635	2549.2
734.976	2524.11
735.317	2487.05
735.658	2503.55
735.999	2520.05
736.339	2511.23
736.68	2508.52
737.021	2492.7
737.361	2471.46
737.702	2496.77
738.042	2520.05
738.383	2499.26
738.723	2509.88
739.063	2501.97
739.404	2511.91
739.744	2490.67
740.084	2500.61
740.424	2480.05
740.764	2523.66
741.104	2453.61
741.444	2473.95
741.784	2456.77
742.124	2445.02
742.464	2466.71
742.804	2451.8
743.143	2451.57
743.483	2418.58
743.823	2469.43
744.162	2445.25
744.502	2410.22
744.841	2408.64
745.181	2440.73
745.52	2448.18
745.86	2415.64
746.199	2418.58
746.538	2428.07
746.877	2423.55
747.216	2396.21
747.556	2419.94
747.895	2398.47
748.234	2397.79
748.573	2366.6
748.911	2400.73
749.25	2410.45
749.589	2347.62
749.928	2406.38
750.267	2366.15
750.605	2374.06
750.944	2340.62
751.283	2332.26
751.621	2396.43
751.96	2340.62
752.298	2337.45
752.636	2331.35
752.975	2319.6
753.313	2327.06
753.651	2344.01
753.989	2365.02
754.327	2336.1
754.666	2319.83
755.004	2335.87
755.342	2337.45
755.679	2294.06
756.017	2275.31
756.355	2311.01
756.693	2268.08
757.031	2283.89
757.368	2284.57
757.706	2293.39
758.044	2312.14
758.381	2255.19
758.719	2273.5
759.056	2246.61
759.394	2258.13
759.731	2238.47
760.068	2225.14
760.405	2249.77
760.743	2256.78
761.08	2264.46
761.417	2215.87
761.754	2202.09
762.091	2186.5
762.428	2190.11
762.765	2184.01
763.102	2209.32
763.438	2188.98
763.775	2147.63
764.112	2163.45
764.449	2157.34
764.785	2153.5
765.122	2151.47
765.458	2135.88
765.795	2133.84
766.131	2110.34
766.467	2134.29
766.804	2158.02
767.14	2108.76
767.476	2115.09
767.812	2130.45
768.148	2096.56
768.485	2119.83
768.821	2079.61
769.157	2078.7
769.492	2094.3
769.828	2051.58
770.164	2024.47
770.5	2044.58
770.836	2044.13
771.171	2024.69
771.507	2016.56
771.842	2016.33
