Data from foam2_polystyrene_foam_FLMS001491_00004.txt Node
Date: Wed Feb 08 10:57:26 GMT 2017
User: dcchb
Spectrometer: FLMS00149
Trigger mode: 0
Integration Time (sec): 2.000000E-2
Scans to average: 10
Electric dark correction enabled: true
Nonlinearity correction enabled: false
Boxcar width: 0
XAxis mode: Wavelengths
Number of Pixels in Spectrum: 2048
>>>>>Begin Spectral Data<<<<<
341.393	-25.14
341.776	-25.14
342.16	-25.14
342.543	-51.81
342.927	-84.8
343.31	-58.59
343.693	-78.25
344.077	-55.87
344.46	-40.73
344.843	-35.31
345.226	-40.96
345.61	-53.39
345.993	-33.95
346.376	-19.72
346.759	8.08
347.142	18.93
347.525	45.59
347.908	68.87
348.291	77.68
348.674	89.43
349.057	108.19
349.44	105.93
349.823	142.76
350.206	161.3
350.588	199.26
350.971	211.01
351.354	219.82
351.737	239.49
352.119	255.53
352.502	268.41
352.884	266.83
353.267	292.82
353.65	298.24
354.032	309.54
354.414	320.39
354.797	304.12
355.179	315.42
355.562	322.65
355.944	336.88
356.326	316.55
356.709	337.11
357.091	351.57
357.473	342.53
357.855	353.15
358.238	369.2
358.62	351.8
359.002	344.57
359.384	364.68
359.766	338.69
360.148	356.09
360.53	349.99
360.912	361.74
361.294	348.18
361.676	359.48
362.057	341.18
362.439	322.87
362.821	347.5
363.203	347.05
363.584	343.89
363.966	350.67
364.348	339.6
364.729	338.24
365.111	326.26
365.493	331.91
365.874	330.56
366.256	325.58
366.637	324
367.019	346.38
367.4	324.91
367.781	334.4
368.163	352.48
368.544	347.73
368.925	334.62
369.306	345.7
369.688	335.98
370.069	354.28
370.45	335.08
370.831	355.19
371.212	342.76
371.593	345.7
371.974	347.73
372.355	351.12
372.736	365.36
373.117	359.93
373.498	344.34
373.879	365.58
374.26	352.93
374.641	340.95
375.021	351.35
375.402	348.41
375.783	359.93
376.163	386.83
376.544	376.66
376.925	374.4
377.305	374.85
377.686	363.32
378.066	367.84
378.447	383.44
378.827	347.73
379.208	365.81
379.588	390.22
379.968	398.8
380.349	383.44
380.729	386.15
381.109	381.63
381.489	407.16
381.87	427.05
382.25	392.93
382.63	412.81
383.01	416.43
383.39	415.53
383.77	409.88
384.15	410.78
384.53	408.75
384.91	404.68
385.29	439.71
385.67	421.85
386.049	451.23
386.429	444
386.809	451.01
387.189	442.19
387.568	450.33
387.948	430.21
388.328	436.54
388.707	473.15
389.087	446.49
389.466	451.01
389.846	479.25
390.225	481.06
390.605	473.6
390.984	486.48
391.363	475.64
391.743	509.31
392.122	486.94
392.501	479.7
392.881	495.75
393.26	479.25
393.639	501.63
394.018	505.24
394.397	498.46
394.776	501.85
395.155	512.7
395.534	520.61
395.913	508.4
396.292	544.56
396.671	547.05
397.05	560.15
397.429	558.57
397.808	544.56
398.186	533.49
398.565	557.89
398.944	536.43
399.323	567.16
399.701	582.98
400.08	580.72
400.458	571.23
400.837	586.59
401.215	585.24
401.594	595.63
401.972	574.17
402.351	596.09
402.729	600.83
403.107	604.9
403.486	612.13
403.864	620.49
404.242	628.85
404.62	628.4
404.999	637.89
405.377	637.89
405.755	631.34
406.133	644.67
406.511	654.84
406.889	681.28
407.267	677.44
407.645	688.96
408.023	689.42
408.401	698.23
408.779	680.15
409.156	705.46
409.534	705.46
409.912	743.43
410.29	751.79
410.667	732.58
411.045	758.12
411.422	779.58
411.8	754.05
412.178	774.39
412.555	790.88
412.933	785.01
413.31	792.47
413.687	797.21
414.065	811.45
414.442	815.74
414.819	814.16
415.197	843.09
415.574	860.26
415.951	865.23
416.328	893.93
416.705	869.07
417.082	895.06
417.46	872.01
417.837	905.68
418.214	894.38
418.591	889.64
418.967	919.69
419.344	912.24
419.721	940.71
420.098	946.59
420.475	953.59
420.852	978.9
421.228	978.67
421.605	988.84
421.982	948.17
422.358	1007.6
422.735	1034.72
423.111	989.07
423.488	1042.18
423.864	998.56
424.241	1061.61
424.617	1069.52
424.994	1089.86
425.37	1104.55
425.746	1090.31
426.123	1103.19
426.499	1099.8
426.875	1132.57
427.251	1153.36
427.627	1162.62
428.003	1182.74
428.379	1170.31
428.756	1178.9
429.132	1192.91
429.507	1253.7
429.883	1240.59
430.259	1244.66
430.635	1253.7
431.011	1278.78
431.387	1289.18
431.763	1312.68
432.138	1309.74
432.514	1327.14
432.89	1335.28
433.265	1352.68
433.641	1426.8
434.016	1432.67
434.392	1433.8
434.767	1462.28
435.143	1426.12
435.518	1460.24
435.894	1490.53
436.269	1474.26
436.644	1530.98
437.02	1542.5
437.395	1572.56
437.77	1572.56
438.145	1600.13
438.52	1601.94
438.895	1621.6
439.271	1610.07
439.646	1680.13
440.021	1686.9
440.395	1681.03
440.77	1671.76
441.145	1681.71
441.52	1720.12
441.895	1705.44
442.27	1763.74
442.645	1752.44
443.019	1772.78
443.394	1780.46
443.769	1773.68
444.143	1789.95
444.518	1832.44
444.892	1819.78
445.267	1836.73
445.641	1836.96
446.016	1857.52
446.39	1922.83
446.764	1939.78
447.139	1906.56
447.513	1938.88
447.887	1961.93
448.262	1942.27
448.636	1986.78
449.01	1981.59
449.384	2032.66
449.758	2048.03
450.132	2087.8
450.506	2044.41
450.88	2089.61
451.254	2093.9
451.628	2102.49
452.002	2179.32
452.376	2135.93
452.75	2203.28
453.123	2182.94
453.497	2240.11
453.871	2284.63
454.244	2327.34
454.618	2297.96
454.992	2325.08
455.365	2334.57
455.739	2389.26
456.112	2390.84
456.486	2451.86
456.859	2450.5
457.232	2524.85
457.606	2497.96
457.979	2531.63
458.352	2577.05
458.725	2593.32
459.099	2612.76
459.472	2670.83
459.845	2682.58
460.218	2692.98
460.591	2743.37
460.964	2754.22
461.337	2825.63
461.71	2869.25
462.083	2932.75
462.456	2870.15
462.829	2905.18
463.201	3008.45
463.574	2975.23
463.947	3008.23
464.32	3097.94
464.692	3130.03
465.065	3119.64
465.438	3180.65
465.81	3240.54
466.183	3264.72
466.555	3283.7
466.928	3327.77
467.3	3319.4
467.672	3410.7
468.045	3482.11
468.417	3509.23
468.789	3501.09
469.161	3563.01
469.534	3605.95
469.906	3644.37
470.278	3720.07
470.65	3750.13
471.022	3825.61
471.394	3895.66
471.766	3939.05
472.138	3946.96
472.51	4036
472.882	4050.23
473.253	4165.03
473.625	4172.49
473.997	4319.6
474.369	4294.52
474.74	4357.8
475.112	4471.24
475.484	4485.25
475.855	4576.55
476.227	4585.81
476.598	4724.79
476.97	4817.44
477.341	4925.92
477.713	4962.07
478.084	5036.65
478.455	5132.69
478.827	5162.29
479.198	5309.18
479.569	5370.42
479.94	5474.15
480.311	5536.3
480.682	5648.38
481.053	5777.42
481.424	5845.44
481.795	5902.61
482.166	5983.97
482.537	6084.08
482.908	6193.68
483.279	6279.78
483.65	6353.22
484.021	6534.91
484.391	6619.66
484.762	6633.44
485.133	6642.93
485.503	6811.74
485.874	6903.26
486.244	6998.63
486.615	7161.11
486.985	7178.51
487.356	7389.58
487.726	7464.15
488.097	7574.89
488.467	7666.41
488.837	7783.24
489.207	7854.65
489.578	7940.53
489.948	8051.48
490.318	8159.28
490.688	8155.66
491.058	8301.65
491.428	8418.48
491.798	8534.18
492.168	8720.62
492.538	8787.51
492.908	8787.06
493.278	9016.2
493.648	8949.76
494.017	9117.44
494.387	9169.87
494.757	9201.06
495.126	9302.3
495.496	9450.09
495.866	9444.44
496.235	9582.06
496.605	9675.85
496.974	9643.08
497.344	9826.13
497.713	9870.64
498.082	9932.11
498.452	10041.71
498.821	10086.91
499.19	10122.39
499.559	10281.93
499.928	10331.65
500.298	10453.91
500.667	10460.46
501.036	10493
501.405	10630.62
501.774	10648.25
502.143	10721.02
502.512	10754.46
502.88	10898.19
503.249	10802.82
503.618	11019.31
503.987	10998.3
504.356	11191.97
504.724	11199.42
505.093	11223.38
505.462	11365.52
505.83	11455.46
506.199	11536.14
506.567	11761.44
506.936	11682.12
507.304	11858.16
507.672	11884.6
508.041	11899.07
508.409	12022.9
508.777	12103.58
509.145	12245.95
509.514	12271.71
509.882	12374.53
510.25	12404.36
510.618	12526.62
510.986	12573.62
511.354	12692.49
511.722	12765.71
512.09	12963.9
512.458	12950.56
512.826	13040.28
513.193	13106.94
513.561	13164.34
513.929	13332.7
514.297	13406.6
514.664	13515.07
515.032	13580.83
515.4	13703.76
515.767	13800.48
516.135	13781.28
516.502	13903.53
516.869	14035.05
517.237	14037.31
517.604	14266.46
517.972	14297.65
518.339	14362.28
518.706	14465.55
519.073	14468.04
519.44	14640.69
519.808	14820.8
520.175	14815.15
520.542	15123.16
520.909	15136.95
521.276	15194.35
521.643	15377.62
522.009	15393.89
522.376	15561.12
522.743	15709.81
523.11	15816.93
523.477	16023.25
523.843	16128.11
524.21	16279.52
524.577	16427.99
524.943	16561.32
525.31	16581.88
525.676	16745.72
526.043	16798.15
526.409	16906.17
526.776	17243.56
527.142	17157.91
527.508	17317
527.874	17487.39
528.241	17518.13
528.607	17548.18
528.973	17849.19
529.339	17801.51
529.705	17975.52
530.071	18076.98
530.437	18251.89
530.803	18363.75
531.169	18478.1
531.535	18398.33
531.901	18467.03
532.267	18597.65
532.632	18763.52
532.998	18768.94
533.364	18929.62
533.73	19036.28
534.095	19288.48
534.461	19223.17
534.826	19319.44
535.192	19476.04
535.557	19589.48
535.923	19515.59
536.288	19631.97
536.653	19756.03
537.019	19679.65
537.384	19779.31
537.749	20043.03
538.114	20058.17
538.479	20037.16
538.845	20175.68
539.21	20081.45
539.575	20285.96
539.94	20438.95
540.305	20522.57
540.67	20504.72
541.034	20607.76
541.399	20675.33
541.764	20800.98
542.129	20817.7
542.494	20926.62
542.858	20954.19
543.223	21047.98
543.587	21068.54
543.952	21115.77
544.316	21229.22
544.681	21237.13
545.045	21360.74
545.41	21376.1
545.774	21466.5
546.138	21554.86
546.503	21577.46
546.867	21638.47
547.231	21856.32
547.595	21891.57
547.959	21942.64
548.324	22026.93
548.688	22078.01
549.052	22170.43
549.416	22241.62
549.779	22354.38
550.143	22311.45
550.507	22599.58
550.871	22631.21
551.235	22699.23
551.599	22788.5
551.962	22914.82
552.326	23006.8
552.689	23136.96
553.053	22996.85
553.417	23085.44
553.78	23360.46
554.143	23349.61
554.507	23557.97
554.87	23494.69
555.234	23768.81
555.597	23625.99
555.96	23849.26
556.323	23905.53
556.686	23977.39
557.05	24123.6
557.413	24187.33
557.776	24427.1
558.139	24469.36
558.502	24578.73
558.865	24614.66
559.228	24790.25
559.59	24835
559.953	24879.06
560.316	25206.74
560.679	25291.93
561.041	25295.78
561.404	25359.73
561.767	25608.54
562.129	25540.74
562.492	25857.57
562.854	25759.27
563.217	25930.34
563.579	25974.18
563.941	26127.39
564.304	26296.43
564.666	26552.69
565.028	26494.61
565.39	26625.91
565.753	26754.49
566.115	26938.44
566.477	27035.62
566.839	27030.65
567.201	27384.99
567.563	27289.62
567.925	27532.33
568.287	27540.24
568.648	27601.48
569.01	27758.76
569.372	27910.85
569.734	28049.15
570.095	28090.5
570.457	28124.63
570.819	28208.69
571.18	28196.26
571.542	28443.49
571.903	28515.13
572.265	28523.04
572.626	28542.47
572.987	28830.15
573.349	28858.85
573.71	28869.92
574.071	29038.28
574.432	29163.24
574.794	29208.22
575.155	29263.81
575.516	29216.35
575.877	29441.88
576.238	29361.21
576.599	29478.04
576.96	29455.44
577.32	29572.95
577.681	29725.04
578.042	29866.28
578.403	29791.7
578.763	29838.25
579.124	29894.75
579.485	29985.82
579.845	30029.89
580.206	30089.1
580.566	30060.17
580.927	29985.6
581.287	30174.07
581.648	30043.22
582.008	30215.42
582.368	30191.92
582.728	30263.78
583.089	30147.4
583.449	30222.65
583.809	30270.79
584.169	30367.28
584.529	30207.51
584.889	30550.55
585.249	30421.06
585.609	30285.02
585.969	30550.1
586.329	30485.02
586.688	30479.82
587.048	30505.36
587.408	30418.8
587.768	30427.17
588.127	30353.95
588.487	30415.64
588.846	30492.25
589.206	30157.79
589.565	30309.43
589.925	30566.6
590.284	30417
590.643	30472.81
591.003	30443.21
591.362	30534.73
591.721	30478.92
592.08	30451.8
592.44	30594.62
592.799	30532.02
593.158	30635.52
593.517	30500.16
593.876	30611.57
594.235	30609.53
594.593	30552.81
594.952	30703.32
595.311	30671
595.67	30713.94
596.029	30900.37
596.387	30866.93
596.746	30847.95
597.104	30770.66
597.463	30774.73
597.822	30957.1
598.18	30844.56
598.538	30744.67
598.897	31049.97
599.255	30674.62
599.613	31183.53
599.972	30899.47
600.33	30921.39
600.688	30833.26
601.046	30983.31
601.404	31056.3
601.762	31084.32
602.12	31217.43
602.478	31168.62
602.836	31200.48
603.194	31148.05
603.552	31183.08
603.91	31011.56
604.268	31159.12
604.625	31110.76
604.983	31278.22
605.341	31242.51
605.698	31296.97
606.056	31390.08
606.413	31216.98
606.771	31331.78
607.128	31284.54
607.485	31171.55
607.843	31220.82
608.2	31461.72
608.557	31479.79
608.914	31418.55
609.272	31557.31
609.629	31698.32
609.986	31882.5
610.343	31662.61
610.7	31885.66
611.057	31942.38
611.414	31815.15
611.771	31875.72
612.127	32029.61
612.484	31928.6
612.841	32067.35
613.198	31921.14
613.554	31965.66
613.911	32195.93
614.267	32076.16
614.624	32013.57
614.98	32061.25
615.337	32165.65
615.693	32204.07
616.05	32155.48
616.406	32365.65
616.762	32387.11
617.118	32324.74
617.475	32312.54
617.831	32392.99
618.187	32436.6
618.543	32330.62
618.899	32570.16
619.255	32665.07
619.611	32417.62
619.967	32482.25
620.323	32541.46
620.678	32470.95
621.034	32458.75
621.39	32325.87
621.746	32355.02
622.101	32725.41
622.457	32481.35
622.812	32578.52
623.168	32658.52
623.523	32586.43
623.879	32786.65
624.234	32589.6
624.589	32714.11
624.945	32690.84
625.3	32706.2
625.655	32630.5
626.01	32766.31
626.365	32755.69
626.72	32649.48
627.075	32716.6
627.43	32456.27
627.785	32516.38
628.14	32481.58
628.495	32605.19
628.85	32481.8
629.205	32359.77
629.559	32649.25
629.914	32389.15
630.269	32416.27
630.623	32463.04
630.978	32243.62
631.332	32420.11
631.687	32499.65
632.041	32355.48
632.396	32378.53
632.75	32118.87
633.104	32299.21
633.459	31941.7
633.813	32078.2
634.167	32083.85
634.521	31929.95
634.875	32143.28
635.229	31988.48
635.583	31820.35
635.937	32001.81
636.291	31783.29
636.645	31949.61
636.999	31782.38
637.352	31917.52
637.706	31684.99
638.06	31761.82
638.413	31705.32
638.767	31598.66
639.121	31696.51
639.474	31486.12
639.828	31555.05
640.181	31531.32
640.534	31506.23
640.888	31378.78
641.241	31236.86
641.594	31268.73
641.947	31408.61
642.301	31260.59
642.654	31309.4
643.007	31348.72
643.36	31228.27
643.713	31172.91
644.066	31216.3
644.419	31148.95
644.771	30819.7
645.124	30647.73
645.477	30486.15
645.83	30355.98
646.182	30245.25
646.535	30207.96
646.888	30121.86
647.24	30015.43
647.593	30197.79
647.945	30152.15
648.298	30056.78
648.65	29893.39
649.002	29883.68
649.355	29879.61
649.707	29929.55
650.059	30036.89
650.411	30506.26
650.763	30309.43
651.115	30659.25
651.467	30634.17
651.819	30524.79
652.171	30475.3
652.523	30477.11
652.875	30329.09
653.227	30289.09
653.578	30587.61
653.93	30360.5
654.282	30227.62
654.633	30116.67
654.985	30173.84
655.337	30228.53
655.688	30276.21
656.039	30390.33
656.391	29979.49
656.742	30169.09
657.094	30132.48
657.445	30231.92
657.796	30050.68
658.147	30092.94
658.498	30024.69
658.849	30077.8
659.2	30100.85
659.551	29992.6
659.902	30152.82
660.253	29901.3
660.604	29962.55
660.955	29930
661.306	29908.54
661.656	29965.48
662.007	29943.56
662.358	29817.01
662.708	29885.26
663.059	29821.98
663.409	29640.75
663.76	29874.41
664.11	29859.05
664.461	29899.27
664.811	29914.86
665.161	29805.94
665.511	29868.99
665.862	29769.33
666.212	29823.11
666.562	29722.1
666.912	29718.26
667.262	29761.87
667.612	29766.39
667.962	29670.35
668.312	29678.03
668.662	29768.2
669.011	29753.29
669.361	29703.34
669.711	29684.13
670.06	29630.58
670.41	29459.28
670.76	29597.81
671.109	29614.08
671.459	29470.81
671.808	29601.43
672.157	29502.9
672.507	29236.46
672.856	29345.84
673.205	29439.17
673.554	29458.15
673.904	29323.47
674.253	29427.87
674.602	29354.2
674.951	29032.63
675.3	28866.53
675.649	29262.9
675.998	29127.99
676.346	29241.21
676.695	29339.96
677.044	29172.96
677.393	29173.87
677.741	29210.7
678.09	29086.64
678.438	28981.78
678.787	29039.41
679.135	28924.61
679.484	28932.52
679.832	29032.4
680.181	28739.75
680.529	28877.15
680.877	28761.67
681.225	28728
681.573	29050.71
681.922	28719.19
682.27	28631.96
682.618	28653.88
682.966	28509.93
683.314	28459.76
683.661	28505.86
684.009	28243.27
684.357	28191.52
684.705	28177.51
685.053	28220.22
685.4	28200.33
685.748	28016.83
686.095	27966.21
686.443	27839.21
686.79	27820
687.138	27762.38
687.485	27768.93
687.832	27622.27
688.18	27710.63
688.527	27455.49
688.874	27500.69
689.221	27474.48
689.568	27365.55
689.915	27351.31
690.262	27309.96
690.609	27135.05
690.956	27176.18
691.303	27074.71
691.65	26960.14
691.997	27009.63
692.344	26794.49
692.69	26727.83
693.037	26855.51
693.383	26545.46
693.73	26824.55
694.077	26524.44
694.423	26522.86
694.769	26467.04
695.116	26412.58
695.462	26274.73
695.808	26201.06
696.155	26198.8
696.501	26094.62
696.847	26106.6
697.193	25848.3
697.539	26007.17
697.885	25757.91
698.231	25688.76
698.577	25692.6
698.923	25688.99
699.269	25517.01
699.614	25354.98
699.96	25318.15
700.306	25318.6
700.651	25191.15
700.997	25137.36
701.342	25052.84
701.688	25015.56
702.033	24983.24
702.379	24874.32
702.724	24771.95
703.069	24946.18
703.415	24546.42
703.76	24484.27
704.105	24621.89
704.45	24502.35
704.795	24447.44
705.14	24328.57
705.485	24250.83
705.83	24244.73
706.175	24256.48
706.52	24084.51
706.865	24079.76
707.209	24020.55
707.554	23882.03
707.899	23959.99
708.243	23910.95
708.588	23896.26
708.932	23658.53
709.277	23705.31
709.621	23658.53
709.966	23424.41
710.31	23552.32
710.654	23419.89
710.998	23422.38
711.342	23381.25
711.687	23319.78
712.031	23165.66
712.375	23152.56
712.719	23161.82
713.063	23134.48
713.407	23121.82
713.75	23015.61
714.094	22967.93
714.438	22858.55
714.782	22929.51
715.125	22860.36
715.469	22770.42
715.812	22710.53
716.156	22617.88
716.499	22577.43
716.843	22611.33
717.186	22367.72
717.53	22580.14
717.873	22544.66
718.216	22486.58
718.559	22374.27
718.902	22195.74
719.246	22256.31
719.589	22170.66
719.932	22065.8
720.275	22056.54
720.617	22085.69
720.96	22008.86
721.303	22050.66
721.646	22026.71
721.989	21821.06
722.331	21916.43
722.674	21810.9
723.016	21882.76
723.359	21709.43
723.701	21782.65
724.044	21574.52
724.386	21451.36
724.729	21652.48
725.071	21506.72
725.413	21482.54
725.755	21522.09
726.097	21521.86
726.439	21365.26
726.782	21308.08
727.124	21269.67
727.465	21213.62
727.807	21165.94
728.149	21146.51
728.491	21009.11
728.833	21122.1
729.175	20982.22
729.516	20929.34
729.858	20949.45
730.199	20972.27
730.541	20881.43
730.882	20723.01
731.224	20849.34
731.565	20791.26
731.906	20703.58
732.248	20702.22
732.589	20697.25
732.93	20557.6
733.271	20496.35
733.612	20671.72
733.953	20542.91
734.294	20528.9
734.635	20459.97
734.976	20496.35
735.317	20410.03
735.658	20447.09
735.999	20415.9
736.339	20306.3
736.68	20391.5
737.021	20348.56
737.361	20243.03
737.702	20328
738.042	20243.93
738.383	20250.26
738.723	20282.35
739.063	20047.1
739.404	20204.16
739.744	20094.1
740.084	20006.65
740.424	20017.04
740.764	19948.12
741.104	20028.12
741.444	19830.16
741.784	19818.18
742.124	19826.09
742.464	19758.52
742.804	19642.82
743.143	19671.97
743.483	19576.38
743.823	19518.3
744.162	19507.23
744.502	19552.42
744.841	19460.67
745.181	19403.95
745.52	19419.77
745.86	19501.8
746.199	19409.6
746.538	19415.7
746.877	19442.6
747.216	19369.15
747.556	19349.72
747.895	19244.18
748.234	19241.47
748.573	19187.91
748.911	19154.02
749.25	19088.93
749.589	19084.19
749.928	19103.4
750.267	19073.34
750.605	19064.3
750.944	19016.39
751.283	18855.27
751.621	18952.89
751.96	18915.6
752.298	18805.55
752.636	18786.57
752.975	18632.9
753.313	18586.12
753.651	18711.09
753.989	18570.75
754.327	18495.28
754.666	18477.88
