Data from foam_black_FLMS001491_00030.txt Node
Date: Wed Feb 08 10:43:40 GMT 2017
User: dcchb
Spectrometer: FLMS00149
Trigger mode: 0
Integration Time (sec): 2.000000E-2
Scans to average: 10
Electric dark correction enabled: true
Nonlinearity correction enabled: false
Boxcar width: 0
XAxis mode: Wavelengths
Number of Pixels in Spectrum: 2048
>>>>>Begin Spectral Data<<<<<
341.393	8.11
341.776	8.11
342.16	8.11
342.543	-50.87
342.927	-62.4
343.31	-86.35
343.693	-64.43
344.077	-46.81
344.46	-59.69
344.843	-43.19
345.226	-22.4
345.61	-32.57
345.993	-14.49
346.376	-19.69
346.759	-2.74
347.142	18.05
347.525	24.83
347.908	53.76
348.291	82.23
348.674	88.56
349.057	124.94
349.44	121.1
349.823	138.95
350.206	173.75
350.588	199.51
350.971	195.45
351.354	218.95
351.737	226.63
352.119	230.47
352.502	260.53
352.884	281.55
353.267	258.95
353.65	287.42
354.032	286.97
354.414	304.37
354.797	293.75
355.179	299.62
355.562	333.97
355.944	330.58
356.326	325.84
356.709	325.84
357.091	328.55
357.473	327.42
357.855	340.3
358.238	327.87
358.62	335.33
359.002	343.69
359.384	327.19
359.766	329.45
360.148	336.23
360.53	317.48
360.912	339.85
361.294	340.08
361.676	350.7
362.057	326.97
362.439	342.11
362.821	338.27
363.203	323.13
363.584	333.97
363.966	323.35
364.348	303.01
364.729	324.48
365.111	328.55
365.493	332.84
365.874	307.53
366.256	316.35
366.637	335.56
367.019	324.26
367.4	312.96
367.781	318.38
368.163	313.18
368.544	328.32
368.925	326.97
369.306	316.8
369.688	316.57
370.069	313.86
370.45	322.45
370.831	299.4
371.212	321.55
371.593	321.09
371.974	333.07
372.355	326.74
372.736	323.81
373.117	313.64
373.498	320.19
373.879	326.74
374.26	309.34
374.641	325.39
375.021	308.66
375.402	305.05
375.783	353.63
376.163	333.07
376.544	338.27
376.925	334.43
377.305	308.66
377.686	327.65
378.066	329.45
378.447	348.44
378.827	359.06
379.208	353.86
379.588	343.92
379.968	347.08
380.349	328.32
380.729	350.92
381.109	342.56
381.489	349.79
381.87	361.32
382.25	363.58
382.63	350.92
383.01	346.86
383.39	364.71
383.77	370.36
384.15	375.33
384.53	368.32
384.91	388.89
385.29	361.77
385.67	373.3
386.049	382.56
386.429	361.09
386.809	368.78
387.189	369.91
387.568	391.37
387.948	378.27
388.328	388.89
388.707	353.63
389.087	384.82
389.466	390.47
389.846	387.98
390.225	398.61
390.605	389.34
390.984	396.12
391.363	390.02
391.743	406.51
392.122	414.42
392.501	387.31
392.881	371.04
393.26	402.22
393.639	415.33
394.018	430.69
394.397	427.98
394.776	424.59
395.155	416.23
395.534	410.36
395.913	407.19
396.292	421.66
396.671	436.57
397.05	428.66
397.429	439.06
397.808	431.37
398.186	437.02
398.565	449.45
398.944	439.06
399.323	430.24
399.701	441.54
400.08	423.01
400.458	416.91
400.837	427.08
401.215	463.91
401.594	451.03
401.972	448.77
402.351	454.2
402.729	466.85
403.107	479.73
403.486	446.97
403.864	483.57
404.242	494.65
404.62	470.02
404.999	467.76
405.377	486.51
405.755	492.39
406.133	470.69
406.511	474.76
406.889	482.67
407.267	504.37
407.645	498.94
408.023	502.33
408.401	507.76
408.779	521.77
409.156	513.86
409.534	500.52
409.912	505.04
410.29	536
410.667	529.9
411.045	502.56
411.422	536.23
411.8	555.89
412.178	543.69
412.555	548.21
412.933	551.82
413.31	552.27
413.687	567.64
414.065	571.03
414.442	597.7
414.819	573.97
415.197	581.43
415.574	599.5
415.951	585.04
416.328	604.48
416.705	600.86
417.082	586.85
417.46	603.12
417.837	613.29
418.214	615.55
418.591	629.11
418.967	594.31
419.344	614.42
419.721	610.35
420.098	621.65
420.475	664.81
420.852	624.36
421.228	634.08
421.605	642.21
421.982	630.46
422.358	642.89
422.735	652.84
423.111	655.77
423.488	673.4
423.864	679.73
424.241	662.78
424.617	676.11
424.994	687.86
425.37	687.41
425.746	692.38
426.123	711.59
426.499	710.69
426.875	684.93
427.251	707.3
427.627	717.02
428.003	746.84
428.379	715.21
428.756	730.12
429.132	749.78
429.507	752.27
429.883	766.96
430.259	773.06
430.635	775.77
431.011	771.7
431.387	798.14
431.763	804.7
432.138	831.36
432.514	825.03
432.89	843.34
433.265	823.9
433.641	836.79
434.016	843.34
434.392	868.42
434.767	864.36
435.143	858.48
435.518	852.15
435.894	867.75
436.269	890.34
436.644	884.69
437.02	884.02
437.395	902.77
437.77	919.72
438.145	917.24
438.52	914.52
438.895	951.81
439.271	929.89
439.646	966.05
440.021	970.34
440.395	967.18
440.77	955.65
441.145	984.58
441.52	997.23
441.895	974.86
442.27	980.28
442.645	994.52
443.019	993.39
443.394	1018.02
443.769	1019.15
444.143	999.95
444.518	1044.24
444.892	1026.39
445.267	1047.18
445.641	1028.42
446.016	1055.99
446.39	1068.64
446.764	1062.54
447.139	1077.46
447.513	1077.46
447.887	1065.71
448.262	1072.49
448.636	1072.71
449.01	1087.85
449.384	1101.64
449.758	1071.81
450.132	1083.56
450.506	1082.66
450.88	1123.11
451.254	1160.62
451.628	1136.44
452.002	1122.88
452.376	1145.03
452.75	1160.17
453.123	1184.57
453.497	1181.64
453.871	1189.54
454.244	1203.33
454.618	1229.09
454.992	1225.93
455.365	1192.03
455.739	1261.18
456.112	1219.37
456.486	1272.71
456.859	1255.76
457.232	1282.65
457.606	1302.31
457.979	1305.25
458.352	1340.73
458.725	1342.76
459.099	1355.19
459.472	1401.29
459.845	1401.52
460.218	1420.73
460.591	1402.65
460.964	1412.59
461.337	1443.78
461.71	1454.4
462.083	1481.97
462.456	1478.58
462.829	1503.66
463.201	1521.51
463.574	1509.99
463.947	1541.17
464.32	1549.08
464.692	1601.96
465.065	1595.86
465.438	1606.71
465.81	1609.19
466.183	1632.7
466.555	1647.61
466.928	1689.64
467.3	1676.99
467.672	1707.05
468.045	1747.27
468.417	1730.55
468.789	1757.67
469.161	1772.35
469.534	1822.75
469.906	1828.4
470.278	1872.24
470.65	1886.02
471.022	1911.33
471.394	1919.24
471.766	1948.62
472.138	1938.45
472.51	1991.33
472.882	2021.84
473.253	2070.43
473.625	2044.44
473.997	2056.87
474.369	2100.48
474.74	2120.37
475.112	2161.27
475.484	2193.81
475.855	2224.32
476.227	2250.08
476.598	2297.54
476.97	2322.17
477.341	2371.66
477.713	2370.08
478.084	2440.36
478.455	2465.9
478.827	2528.72
479.198	2527.14
479.569	2566.68
479.94	2606.68
480.311	2626.34
480.682	2679.9
481.053	2755.15
481.424	2740.24
481.795	2808.26
482.166	2806
482.537	2851.65
482.908	2926.9
483.279	2972.55
483.65	2975.94
484.021	3014.58
484.391	3117.86
484.762	3126.9
485.133	3090.29
485.503	3210.28
485.874	3230.4
486.244	3257.51
486.615	3354.69
486.985	3344.97
487.356	3405.08
487.726	3428.13
488.097	3525.98
488.467	3532.76
488.837	3562.14
489.207	3582.02
489.578	3647.33
489.948	3713.77
490.318	3773.21
490.688	3758.74
491.058	3837.38
491.428	3835.13
491.798	3866.99
492.168	3948.79
492.538	3982.47
492.908	4009.81
493.278	4035.8
493.648	4017.27
494.017	4091.16
494.387	4144.5
494.757	4157.83
495.126	4240.09
495.496	4249.58
495.866	4255.91
496.235	4359.41
496.605	4322.8
496.974	4358.5
497.344	4439.63
497.713	4422.68
498.082	4491.38
498.452	4542.68
498.821	4558.27
499.19	4571.38
499.559	4599.17
499.928	4627.42
500.298	4631.49
500.667	4700.87
501.036	4672.39
501.405	4733.18
501.774	4690.02
502.143	4761.88
502.512	4800.52
502.88	4795.33
503.249	4812.27
503.618	4843.01
503.987	4938.15
504.356	4993.29
504.724	4987.86
505.093	5040.29
505.462	5037.35
505.83	5051.14
506.199	5067.86
506.567	5160.51
506.936	5184.02
507.304	5274.41
507.672	5207.07
508.041	5304.69
508.409	5344.92
508.777	5400.06
509.145	5441.86
509.514	5452.03
509.882	5487.29
510.25	5549.66
510.618	5551.46
510.986	5606.6
511.354	5571.12
511.722	5641.41
512.09	5700.61
512.458	5727.5
512.826	5713.49
513.193	5719.14
513.561	5780.84
513.929	5762.08
514.297	5856.09
514.664	5913.71
515.032	5932.47
515.4	5936.99
515.767	6009.31
516.135	6017.44
516.502	6047.27
516.869	6158.91
517.237	6180.83
517.604	6202.29
517.972	6297.66
518.339	6311.9
518.706	6400.26
519.073	6398
519.44	6479.12
519.808	6595.96
520.175	6561.16
520.542	6665.11
520.909	6708.72
521.276	6693.58
521.643	6711.66
522.009	6767.03
522.376	6839.57
522.743	6829.62
523.11	6957.08
523.477	6945.33
523.843	6940.13
524.21	7062.38
524.577	7054.7
524.943	7090.41
525.31	7110.07
525.676	7229.61
526.043	7301.93
526.409	7283.85
526.776	7420.34
527.142	7428.48
527.508	7467.35
527.874	7540.11
528.241	7592.99
528.607	7642.93
528.973	7732.42
529.339	7741.69
529.705	7898.52
530.071	7948.69
530.437	8037.73
530.803	8010.61
531.169	8115.24
531.535	8100.1
531.901	8125.18
532.267	8193.2
532.632	8264.61
532.998	8180.32
533.364	8291.96
533.73	8262.35
534.095	8344.61
534.461	8353.42
534.826	8448.56
535.192	8362.24
535.557	8436.36
535.923	8420.09
536.288	8445.4
536.653	8506.64
537.019	8486.3
537.384	8543.93
537.749	8643.13
538.114	8656.24
538.479	8730.14
538.845	8802
539.21	8766.52
539.575	8848.55
539.94	8878.61
540.305	8954.54
540.67	8938.95
541.034	8984.14
541.399	9063.01
541.764	9106.62
542.129	9158.83
542.494	9145.95
542.858	9234.08
543.223	9190.69
543.587	9242.44
543.952	9257.13
544.316	9307.3
544.681	9282.67
545.045	9315.21
545.41	9367.41
545.774	9382.32
546.138	9339.39
546.503	9376.45
546.867	9399.27
547.231	9509.33
547.595	9504.35
547.959	9564.69
548.324	9545.94
548.688	9586.16
549.052	9628.87
549.416	9640.85
549.779	9710
550.143	9738.25
550.507	9841.29
550.871	9902.08
551.235	10029.76
551.599	10009.43
551.962	10029.99
552.326	10060.27
552.689	10128.52
553.053	10162.19
553.417	10213.49
553.78	10295.97
554.143	10248.52
554.507	10335.97
554.87	10362.86
555.234	10475.63
555.597	10408.29
555.96	10477.89
556.323	10462.07
556.686	10514.5
557.05	10576.87
557.413	10577.32
557.776	10623.42
558.139	10692.12
558.502	10700.93
558.865	10740.48
559.228	10908.61
559.59	10918.55
559.953	10872.91
560.316	10960.36
560.679	11039.91
561.041	11112.22
561.404	11224.08
561.767	11324.19
562.129	11270.64
562.492	11455.49
562.854	11374.59
563.217	11446.68
563.579	11463.17
563.941	11572.32
564.304	11699.55
564.666	11661.13
565.028	11747.91
565.39	11763.73
565.753	11889.83
566.115	11916.95
566.477	11959.21
566.839	12118.07
567.201	12115.36
567.563	12042.82
567.925	12148.35
568.287	12175.7
568.648	12205.07
569.01	12267.45
569.372	12365.52
569.734	12359.42
570.095	12393.54
570.457	12476.93
570.819	12605.52
571.18	12478.51
571.542	12638.74
571.903	12645.29
572.265	12629.02
572.626	12720.54
572.987	12709.47
573.349	12782.46
573.71	12888.67
574.071	12884.6
574.432	12916.02
574.794	13007.09
575.155	13064.49
575.516	12985.84
575.877	13027.88
576.238	13108.55
576.599	13135.45
576.96	13179.51
577.32	13161.66
577.681	13250.92
578.042	13245.27
578.403	13273.97
578.763	13287.98
579.124	13271.94
579.485	13349.23
579.845	13407.08
580.206	13420.18
580.566	13353.29
580.927	13402.11
581.287	13541.99
581.648	13460.41
582.008	13539.28
582.368	13588.09
582.728	13557.58
583.089	13567.52
583.449	13591.25
583.809	13532.72
584.169	13690.23
584.529	13568.43
584.889	13656.34
585.249	13591.7
585.609	13576.34
585.969	13626.51
586.329	13571.82
586.688	13536.34
587.048	13596.45
587.408	13590.35
587.768	13521.2
588.127	13573.4
588.487	13548.09
588.846	13619.5
589.206	13501.31
589.565	13482.56
589.925	13599.39
590.284	13508.77
590.643	13535.89
591.003	13633.29
591.362	13643
591.721	13606.39
592.08	13618.82
592.44	13651.82
592.799	13684.36
593.158	13618.6
593.517	13784.69
593.876	13793.51
594.235	13776.78
594.593	13830.79
594.952	13884.13
595.311	13834.64
595.67	13952.83
596.029	13908.31
596.387	13908.53
596.746	13945.14
597.104	13927.52
597.463	13935.42
597.822	14038.25
598.18	13939.27
598.538	13973.84
598.897	13996.44
599.255	13920.96
599.613	14065.59
599.972	13953.05
600.33	13928.87
600.688	13970.45
601.046	13961.86
601.404	14067.4
601.762	13959.6
602.12	13965.25
602.478	13894.75
602.836	14001.19
603.194	13853.17
603.552	13876.22
603.91	13937.01
604.268	13967.74
604.625	13948.98
604.983	13992.15
605.341	13887.74
605.698	14090.45
606.056	14083.22
606.413	14011.35
606.771	14031.02
607.128	14092.03
607.485	14090.45
607.843	14066.95
608.2	14240.73
608.557	14177.45
608.914	14257.45
609.272	14302.19
609.629	14354.4
609.986	14510.55
610.343	14426.71
610.7	14551.45
611.057	14408.18
611.414	14447.95
611.771	14438.46
612.127	14593.71
612.484	14531.57
612.841	14579.02
613.198	14487.27
613.554	14508.52
613.911	14630.32
614.267	14566.14
614.624	14546.26
614.98	14501.06
615.337	14580.83
615.693	14584.22
616.05	14591.23
616.406	14668.29
616.762	14529.53
617.118	14466.48
617.475	14476.2
617.831	14505.81
618.187	14578.8
618.543	14622.86
618.899	14664.67
619.255	14674.84
619.611	14645.91
619.967	14677.78
620.323	14688.4
620.678	14679.81
621.034	14588.74
621.39	14712.35
621.746	14717.1
622.101	14975.17
622.457	14766.36
622.812	14889.07
623.168	14812.46
623.523	14875.96
623.879	14922.74
624.234	14908.28
624.589	14927.04
624.945	14966.36
625.3	14978.56
625.655	15032.12
626.01	14975.17
626.365	15047.49
626.72	15040.25
627.075	15041.61
627.43	15011.1
627.785	14923.42
628.14	15009.29
628.495	14991.67
628.85	14855.17
629.205	14785.12
629.559	15020.37
629.914	14795.51
630.269	14787.61
630.623	14696.76
630.978	14682.98
631.332	14702.18
631.687	14717.1
632.041	14594.84
632.396	14635.52
632.75	14591.45
633.104	14595.52
633.459	14585.12
633.813	14456.77
634.167	14538.12
634.521	14482.75
634.875	14426.26
635.229	14549.87
635.583	14433.72
635.937	14380.84
636.291	14387.84
636.645	14501.29
636.999	14401.85
637.352	14383.1
637.706	14326.37
638.06	14435.52
638.413	14458.8
638.767	14364.34
639.121	14389.65
639.474	14344.91
639.828	14353.94
640.181	14334.74
640.534	14386.03
640.888	14363.66
641.241	14327.96
641.594	14340.39
641.947	14386.03
642.301	14284.57
642.654	14442.76
643.007	14343.55
643.36	14317.56
643.713	14230.33
644.066	14373.15
644.419	14189.2
644.771	14054.97
645.124	13903.56
645.477	13946.27
645.83	13769.33
646.182	13886.39
646.535	13873.05
646.888	13992.6
647.24	13848.2
647.593	13944.46
647.945	13863.34
648.298	13831.02
648.65	13762.1
649.002	13711.25
649.355	13699.05
649.707	13609.33
650.059	13645.26
650.411	13780.17
650.763	13838.7
651.115	13957.57
651.467	13911.92
651.819	13969.55
652.171	13841.42
652.523	13859.49
652.875	13834.64
653.227	13751.25
653.578	13873.05
653.93	13915.99
654.282	13795.32
654.633	13766.84
654.985	13731.81
655.337	13767.75
655.688	13660.63
656.039	13742.89
656.391	13717.8
656.742	13685.71
657.094	13687.75
657.445	13825.6
657.796	13729.33
658.147	13723.68
658.498	13707.86
658.849	13733.4
659.2	13672.61
659.551	13651.36
659.902	13674.64
660.253	13720.74
660.604	13703.79
660.955	13693.85
661.306	13756.45
661.656	13691.36
662.007	13668.99
662.358	13685.04
662.708	13640.52
663.059	13691.82
663.409	13603.68
663.76	13700.63
664.11	13629.67
664.461	13814.98
664.811	13724.81
665.161	13720.97
665.511	13659.5
665.862	13699.72
666.212	13663.12
666.562	13717.58
666.912	13669.22
667.262	13704.92
667.612	13689.56
667.962	13601.2
668.312	13537.69
668.662	13693.85
669.011	13679.61
669.361	13552.38
669.711	13596.45
670.06	13495.66
670.41	13540.18
670.76	13469.67
671.109	13538.6
671.459	13540.41
671.808	13511.71
672.157	13519.84
672.507	13382.44
672.856	13407.98
673.205	13395.78
673.554	13469.67
673.904	13416.12
674.253	13429
674.602	13436.68
674.951	13162.34
675.3	13144.03
675.649	13285.72
675.998	13251.15
676.346	13267.65
676.695	13269.45
677.044	13238.72
677.393	13281.2
677.741	13292.28
678.09	13253.41
678.438	13262.22
678.787	13287.76
679.135	13325.5
679.484	13258.38
679.832	13246.86
680.181	13226.52
680.529	13221.09
680.877	13226.06
681.225	13200.08
681.573	13233.07
681.922	13246.86
682.27	13148.1
682.618	13160.53
682.966	13178.16
683.314	13182
683.661	13127.54
684.009	13148.78
684.357	13142.23
684.705	13115.33
685.053	13064.49
685.4	13060.19
685.748	12937.26
686.095	12979.97
686.443	12879.18
686.79	12824.27
687.138	12855.9
687.485	12919.63
687.832	12866.53
688.18	12792.18
688.527	12769.35
688.874	12672.41
689.221	12689.13
689.568	12596.25
689.915	12579.53
690.262	12585.18
690.609	12489.13
690.956	12496.82
691.303	12489.13
691.65	12420.44
691.997	12470.6
692.344	12267.22
692.69	12374.11
693.037	12324.85
693.383	12202.14
693.73	12331.4
694.077	12225.86
694.423	12280.78
694.769	12159.88
695.116	12204.17
695.462	12067.23
695.808	12104.06
696.155	12107.45
696.501	11973.67
696.847	11969.83
697.193	11918.3
697.539	11941.13
697.885	11844.63
698.231	11869.94
698.577	11825.65
698.923	11881.02
699.269	11790.4
699.614	11773.67
699.96	11759.21
700.306	11740
700.651	11635.15
700.997	11684.18
701.342	11656.39
701.688	11606.9
702.033	11608.71
702.379	11612.1
702.724	11651.64
703.069	11534.36
703.415	11380.69
703.76	11397.19
704.105	11438.32
704.45	11392.21
704.795	11235.16
705.14	11277.87
705.485	11310.86
705.83	11238.09
706.175	11210.75
706.52	11236.96
706.865	11130.98
707.209	11158.55
707.554	11151.09
707.899	11109.06
708.243	11086.91
708.588	11118.78
708.932	10899.57
709.277	10945.9
709.621	10953.81
709.966	10877.43
710.31	10904.54
710.654	10863.19
710.998	10839.91
711.342	10856.18
711.687	10883.98
712.031	10789.52
712.375	10712.23
712.719	10771.67
713.063	10698.9
713.407	10749.75
713.75	10780.03
714.094	10633.59
714.438	10589.07
714.782	10667.94
715.125	10690.76
715.469	10697.32
715.812	10641.73
716.156	10558.11
716.499	10598.79
716.843	10592.24
717.186	10477.89
717.53	10504.55
717.873	10565.34
718.216	10502.52
718.559	10491
718.902	10350.43
719.246	10418.68
719.589	10397.66
719.932	10315.86
720.275	10359.25
720.617	10420.71
720.96	10271.79
721.303	10385.01
721.646	10325.35
721.989	10252.13
722.331	10306.14
722.674	10233.15
723.016	10234.5
723.359	10143.43
723.701	10229.53
724.044	10091.01
724.386	10150.44
724.729	10210.1
725.071	10190.21
725.413	10098.92
725.755	10098.46
726.097	10068.86
726.439	9965.13
726.782	9952.03
727.124	10077.22
727.465	9912.71
727.807	9914.06
728.149	9920.61
728.491	9922.65
728.833	9950.44
729.175	9917
729.516	9894.17
729.858	9807.4
730.199	9859.15
730.541	9884.01
730.882	9855.08
731.224	9832.48
731.565	9769.43
731.906	9729.66
732.248	9766.04
732.589	9739.15
732.93	9726.27
733.271	9774.63
733.612	9711.58
733.953	9758.36
734.294	9651.7
734.635	9643.33
734.976	9671.13
735.317	9676.55
735.658	9616.67
735.999	9682.88
736.339	9638.81
736.68	9625.03
737.021	9577.12
737.361	9557.01
737.702	9662.99
738.042	9632.03
738.383	9532.15
738.723	9576.67
739.063	9558.82
739.404	9592.71
739.744	9475.88
740.084	9487.18
740.424	9513.17
740.764	9441.08
741.104	9507.07
741.444	9451.02
741.784	9420.29
742.124	9420.74
742.464	9419.39
742.804	9427.52
743.143	9399.5
743.483	9395.88
743.823	9309.33
744.162	9332.38
744.502	9423.45
744.841	9311.82
745.181	9304.59
745.52	9307.52
745.86	9334.87
746.199	9298.71
746.538	9221.88
746.877	9292.83
747.216	9252.61
747.556	9221.2
747.895	9191.14
748.234	9147.3
748.573	9197.02
748.911	9148.43
749.25	9095.33
749.589	9112.5
749.928	9131.94
750.267	9115.21
750.605	9021.66
750.944	9042.9
751.283	8997.93
751.621	9062.11
751.96	9003.58
752.298	8983.01
752.636	8958.61
752.975	8906.18
753.313	8943.47
753.651	8896.01
753.989	8883.58
754.327	8856.24
754.666	8816.46
755.004	8749.35
755.342	8737.82
755.679	8737.82
756.017	8697.82
756.355	8709.12
756.693	8657.37
757.031	8629.35
757.368	8674.77
757.706	8632.51
758.044	8570.14
758.381	8608.56
758.719	8507.54
759.056	8511.61
759.394	8508.22
759.731	8499.64
760.068	8483.36
