Data from foam1_polythene_foam_FLMS001491_00020.txt Node
Date: Wed Feb 08 10:54:28 GMT 2017
User: dcchb
Spectrometer: FLMS00149
Trigger mode: 0
Integration Time (sec): 2.000000E-2
Scans to average: 10
Electric dark correction enabled: true
Nonlinearity correction enabled: false
Boxcar width: 0
XAxis mode: Wavelengths
Number of Pixels in Spectrum: 2048
>>>>>Begin Spectral Data<<<<<
341.393	-2.05
341.776	-2.05
342.16	-2.05
342.543	-62.61
342.927	-75.72
343.31	-65.78
343.693	-59
344.077	-69.39
344.46	-61.48
344.843	-44.08
345.226	-38.66
345.61	-25.55
345.993	-18.77
346.376	8.8
346.759	3.38
347.142	28.91
347.525	46.99
347.908	31.62
348.291	58.52
348.674	90.38
349.057	114.11
349.44	143.03
349.823	138.06
350.206	167.89
350.588	177.38
350.971	190.49
351.354	228
351.737	234.33
352.119	230.71
352.502	263.26
352.884	248.11
353.267	277.27
353.65	277.27
354.032	275.23
354.414	295.8
354.797	308.45
355.179	312.52
355.562	299.19
355.944	310.03
356.326	331.28
356.709	342.58
357.091	318.85
357.473	321.79
357.855	319.75
358.238	309.13
358.62	319.3
359.002	322.92
359.384	336.47
359.766	333.31
360.148	298.51
360.53	329.69
360.912	319.75
361.294	346.64
361.676	312.97
362.057	314.78
362.439	320.2
362.821	331.05
363.203	305.29
363.584	321.33
363.966	326.76
364.348	329.92
364.729	309.58
365.111	312.52
365.493	315.46
365.874	298.96
366.256	304.16
366.637	299.19
367.019	315.46
367.4	316.14
367.781	282.01
368.163	272.3
368.544	299.41
368.925	294.44
369.306	308.45
369.688	308.68
370.069	287.66
370.45	288.57
370.831	319.07
371.212	313.42
371.593	310.26
371.974	310.49
372.355	307.77
372.736	300.09
373.117	314.33
373.498	318.62
373.879	317.04
374.26	312.29
374.641	291.96
375.021	297.61
375.402	319.07
375.783	304.16
376.163	306.64
376.544	314.55
376.925	297.15
377.305	315.91
377.686	314.78
378.066	329.92
378.447	333.76
378.827	311.16
379.208	320.66
379.588	324.72
379.968	328.34
380.349	322.92
380.729	319.98
381.109	310.03
381.489	336.7
381.87	347.32
382.25	327.66
382.63	325.4
383.01	324.72
383.39	340.09
383.77	338.73
384.15	339.64
384.53	332.41
384.91	331.5
385.29	346.19
385.67	313.2
386.049	352.97
386.429	333.08
386.809	342.58
387.189	331.5
387.568	344.38
387.948	330.15
388.328	350.94
388.707	341.45
389.087	325.85
389.466	347.1
389.846	343.93
390.225	365.63
390.605	338.28
390.984	343.25
391.363	350.03
391.743	357.94
392.122	340.77
392.501	360.43
392.881	368.56
393.26	353.2
393.639	358.39
394.018	338.51
394.397	348.45
394.776	366.76
395.155	375.8
395.534	385.51
395.913	373.99
396.292	361.56
396.671	387.09
397.05	358.85
397.429	376.93
397.808	379.18
398.186	384.61
398.565	382.12
398.944	361.11
399.323	393.65
399.701	364.72
400.08	369.24
400.458	371.05
400.837	394.33
401.215	357.49
401.594	393.65
401.972	395
402.351	389.58
402.729	402.69
403.107	387.77
403.486	410.82
403.864	398.39
404.242	373.54
404.62	395.46
404.999	400.88
405.377	408.11
405.755	382.12
406.133	376.02
406.511	394.78
406.889	413.08
407.267	418.73
407.645	417.38
408.023	419.41
408.401	429.58
408.779	410.14
409.156	414.44
409.534	431.84
409.912	416.47
410.29	422.57
410.667	422.35
411.045	416.92
411.422	437.26
411.8	445.85
412.178	428.9
412.555	425.29
412.933	421.9
413.31	442.91
413.687	447.88
414.065	432.97
414.442	445.85
414.819	432.06
415.197	436.58
415.574	464.15
415.951	447.21
416.328	466.19
416.705	454.89
417.082	458.96
417.46	458.96
417.837	461.67
418.214	486.98
418.591	456.7
418.967	485.62
419.344	470.26
419.721	473.65
420.098	466.19
420.475	472.29
420.852	491.72
421.228	470.26
421.605	500.54
421.982	476.58
422.358	521.55
422.735	505.28
423.111	523.59
423.488	509.58
423.864	492.63
424.241	499.41
424.617	510.71
424.994	516.13
425.37	507.32
425.746	525.4
426.123	513.19
426.499	529.92
426.875	515
427.251	523.14
427.627	516.36
428.003	537.82
428.379	530.82
428.756	547.77
429.132	549.8
429.507	565.62
429.883	529.69
430.259	552.29
430.635	559.07
431.011	574.43
431.387	573.76
431.763	571.72
432.138	575.56
432.514	574.89
432.89	578.95
433.265	567.43
433.641	594.77
434.016	600.2
434.392	606.98
434.767	599.07
435.143	620.31
435.518	643.36
435.894	637.94
436.269	615.11
436.644	625.28
437.02	620.99
437.395	619.18
437.77	637.94
438.145	651.49
438.52	611.04
438.895	640.42
439.271	647.88
439.646	673.87
440.021	675
440.395	686.52
440.77	662.57
441.145	689.01
441.52	684.49
441.895	688.1
442.27	703.02
442.645	683.81
443.019	694.2
443.394	723.13
443.769	703.7
444.143	707.09
444.518	721.32
444.892	723.36
445.267	725.39
445.641	741.44
446.016	740.08
446.39	743.92
446.764	754.54
447.139	747.08
447.513	745.95
447.887	760.87
448.262	755.22
448.636	774.2
449.01	767.2
449.384	788.44
449.758	762.9
450.132	783.24
450.506	794.77
450.88	804.94
451.254	785.05
451.628	824.37
452.002	809.68
452.376	830.25
452.75	842.68
453.123	821.21
453.497	839.74
453.871	832.96
454.244	888.32
454.618	855.33
454.992	874.31
455.365	859.17
455.739	861.43
456.112	880.64
456.486	887.42
456.859	873.18
457.232	867.08
457.606	868.66
457.979	870.7
458.352	918.83
458.725	904.14
459.099	904.14
459.472	931.26
459.845	923.35
460.218	919.74
460.591	902.79
460.964	928.32
461.337	939.62
461.71	959.73
462.083	926.97
462.456	921.09
462.829	945.95
463.201	940.07
463.574	963.58
463.947	943.24
464.32	964.25
464.692	984.82
465.065	1008.09
465.438	981.43
465.81	982.11
466.183	996.12
466.555	992.05
466.928	1022.33
467.3	1027.08
467.672	1032.73
468.045	1018.26
468.417	1058.49
468.789	1075.89
469.161	1054.65
469.534	1105.27
469.906	1103.91
470.278	1108.43
470.65	1089.9
471.022	1131.71
471.394	1135.55
471.766	1092.16
472.138	1139.62
472.51	1144.81
472.882	1141.88
473.253	1164.25
473.625	1199.28
473.997	1180.29
474.369	1188.2
474.74	1190.46
475.112	1229.11
475.484	1230.24
475.855	1254.87
476.227	1267.07
476.598	1287.64
476.97	1290.8
477.341	1312.95
477.713	1293.51
478.084	1336.67
478.455	1340.29
478.827	1358.37
479.198	1422.77
479.569	1362.44
479.94	1418.93
480.311	1424.58
480.682	1418.71
481.053	1470.46
481.424	1486.5
481.795	1509.55
482.166	1498.48
482.537	1523.79
482.908	1551.13
483.279	1552.71
483.65	1584.8
484.021	1604.01
484.391	1633.62
484.762	1653.05
485.133	1675.87
485.503	1707.96
485.874	1701.41
486.244	1699.38
486.615	1700.28
486.985	1739.6
487.356	1759.94
487.726	1787.74
488.097	1818.02
488.467	1810.33
488.837	1820.5
489.207	1869.54
489.578	1874.96
489.948	1902.08
490.318	1911.12
490.688	1943.89
491.058	1968.07
491.428	2007.39
491.798	1992.93
492.168	2060.72
492.538	1992.93
492.908	2025.02
493.278	2070.67
493.648	2051.01
494.017	2086.94
494.387	2138.91
494.757	2091.46
495.126	2135.97
495.496	2149.31
495.866	2172.58
496.235	2193.83
496.605	2205.58
496.974	2184.79
497.344	2245.12
497.713	2231.11
498.082	2235.86
498.452	2278.57
498.821	2303.65
499.19	2296.2
499.559	2312.92
499.928	2335.74
500.298	2378.45
500.667	2338.23
501.036	2379.36
501.405	2374.39
501.774	2392.24
502.143	2380.26
502.512	2443.99
502.88	2440.6
503.249	2433.37
503.618	2457.55
503.987	2493.48
504.356	2487.38
504.724	2498.9
505.093	2539.81
505.462	2540.48
505.83	2575.29
506.199	2601.73
506.567	2583.65
506.936	2596.98
507.304	2580.71
507.672	2638.33
508.041	2647.83
508.409	2633.36
508.777	2675.4
509.145	2726.69
509.514	2726.92
509.882	2700.48
510.25	2718.33
510.618	2718.33
510.986	2757.2
511.354	2740.25
511.722	2812.34
512.09	2809.18
512.458	2811.66
512.826	2843.75
513.193	2855.5
513.561	2871.77
513.929	2839.46
514.297	2925.78
514.664	2949.06
515.032	2955.61
515.4	2975.27
515.767	2966.91
516.135	2993.81
516.502	3002.39
516.869	3041.94
517.237	3081.49
517.604	3059.57
517.972	3106.8
518.339	3123.97
518.706	3112.45
519.073	3128.49
519.44	3173.69
519.808	3202.39
520.175	3162.61
520.542	3190.64
520.909	3220.69
521.276	3233.8
521.643	3305.44
522.009	3286.68
522.376	3339.56
522.743	3344.3
523.11	3331.65
523.477	3377.52
523.843	3431.76
524.21	3406.45
524.577	3464.98
524.943	3469.95
525.31	3513.34
525.676	3512.21
526.043	3599.44
526.409	3587.46
526.776	3602.83
527.142	3583.85
527.508	3615.94
527.874	3664.75
528.241	3686.22
528.607	3703.39
528.973	3723.73
529.339	3736.38
529.705	3774.58
530.071	3823.84
530.437	3810.73
530.803	3835.14
531.169	3827.68
531.535	3857.29
531.901	3838.08
532.267	3909.04
532.632	3925.31
532.998	3885.08
533.364	3922.14
533.73	3924.4
534.095	3982.71
534.461	3958.53
534.826	4044.63
535.192	4013.89
535.557	4092.76
535.923	4071.07
536.288	4053.66
536.653	4059.99
537.019	4093.89
537.384	4064.29
537.749	4120.56
538.114	4130.5
538.479	4131.4
538.845	4207.56
539.21	4188.35
539.575	4210.27
539.94	4202.36
540.305	4203.94
540.67	4224.51
541.034	4261.34
541.399	4269.93
541.764	4274.45
542.129	4338.63
542.494	4370.94
542.858	4374.79
543.223	4359.87
543.587	4392.41
543.952	4338.85
544.316	4376.14
544.681	4406.65
545.045	4385.86
545.41	4445.52
545.774	4458.85
546.138	4485.97
546.503	4502.92
546.867	4502.47
547.231	4554.67
547.595	4528.68
547.959	4568.91
548.324	4584.72
548.688	4588.79
549.052	4640.32
549.416	4599.41
549.779	4627.66
550.143	4649.13
550.507	4662.46
550.871	4719.64
551.235	4666.76
551.599	4698.62
551.962	4688.22
552.326	4674.89
552.689	4770.48
553.053	4794.21
553.417	4823.81
553.78	4909.69
554.143	4873.98
554.507	4862.91
554.87	4889.35
555.234	4895.45
555.597	4891.38
555.96	4911.27
556.323	4979.74
556.686	4946.97
557.05	4976.8
557.413	5024.94
557.776	5025.16
558.139	5076.01
558.502	5083.69
558.865	5099.51
559.228	5116.46
559.59	5116.46
559.953	5156.01
560.316	5165.73
560.679	5186.06
561.041	5299.73
561.404	5291.6
561.767	5329.34
562.129	5333.63
562.492	5377.02
562.854	5334.76
563.217	5326.4
563.579	5355.55
563.941	5424.48
564.304	5506.73
564.666	5504.7
565.028	5540.86
565.39	5575.21
565.753	5601.42
566.115	5624.24
566.477	5634.87
566.839	5653.17
567.201	5686.16
567.563	5703.79
567.925	5701.76
568.287	5681.87
568.648	5718.03
569.01	5762.32
569.372	5879.61
569.734	5756.44
570.095	5826.5
570.457	5866.27
570.819	5893.39
571.18	5886.16
571.542	5918.47
571.903	5894.52
572.265	5891.13
572.626	6029.43
572.987	5915.76
573.349	6008.42
573.71	6063.78
574.071	6054.52
574.432	6056.55
574.794	6098.81
575.155	6077.79
575.516	6090.22
575.877	6099.71
576.238	6082.09
576.599	6184.23
576.96	6132.03
577.32	6186.94
577.681	6186.72
578.042	6217.9
578.403	6210.9
578.763	6232.82
579.124	6201.63
579.485	6231.23
579.845	6219.48
580.206	6220.61
580.566	6205.92
580.927	6257.22
581.287	6340.61
581.648	6316.43
582.008	6342.64
582.368	6287.73
582.728	6304
583.089	6293.61
583.449	6259.71
583.809	6281.63
584.169	6317.56
584.529	6302.42
584.889	6327.96
585.249	6347.62
585.609	6291.8
585.969	6340.84
586.329	6320.5
586.688	6305.58
587.048	6314.17
587.408	6257.67
587.768	6288.63
588.127	6303.32
588.487	6264.45
588.846	6351.46
589.206	6298.58
589.565	6367.28
589.925	6364.34
590.284	6346.26
590.643	6382.19
591.003	6329.76
591.362	6340.38
591.721	6338.35
592.08	6363.43
592.44	6388.52
592.799	6382.19
593.158	6384.45
593.517	6384
593.876	6290.44
594.235	6326.37
594.593	6407.05
594.952	6435.3
595.311	6384.22
595.67	6389.42
596.029	6447.05
596.387	6431.23
596.746	6441.62
597.104	6399.82
597.463	6402.98
597.822	6401.17
598.18	6332.93
598.538	6441.62
598.897	6475.75
599.255	6383.77
599.613	6493.6
599.972	6441.85
600.33	6468.97
600.688	6438.91
601.046	6434.62
601.404	6458.35
601.762	6471.45
602.12	6455.86
602.478	6481.85
602.836	6464.45
603.194	6430.78
603.552	6458.35
603.91	6436.65
604.268	6488.18
604.625	6534.5
604.983	6499.25
605.341	6488.4
605.698	6511.91
606.056	6481.85
606.413	6530.44
606.771	6512.13
607.128	6521.4
607.485	6508.97
607.843	6540.15
608.2	6510.55
608.557	6573.15
608.914	6529.31
609.272	6557.55
609.629	6514.84
609.986	6568.17
610.343	6582.64
610.7	6573.82
611.057	6607.72
611.414	6611.11
611.771	6532.24
612.127	6593.94
612.484	6632.13
612.841	6645.69
613.198	6637.1
613.554	6589.42
613.911	6695.4
614.267	6690.21
614.624	6630.32
614.98	6613.15
615.337	6731.56
615.693	6684.78
616.05	6676.65
616.406	6696.08
616.762	6619.25
617.118	6665.8
617.475	6607.95
617.831	6664.44
618.187	6677.78
618.543	6678.68
618.899	6711.67
619.255	6697.44
619.611	6725.01
619.967	6678.68
620.323	6721.17
620.678	6681.62
621.034	6694.05
621.39	6639.81
621.746	6669.87
622.101	6723.42
622.457	6695.86
622.812	6721.39
623.168	6644.33
623.523	6743.76
623.879	6733.37
624.234	6661.51
624.589	6749.86
624.945	6693.37
625.3	6682.52
625.655	6671.67
626.01	6673.26
626.365	6698.57
626.72	6682.75
627.075	6658.34
627.43	6647.04
627.785	6682.52
628.14	6718
628.495	6689.3
628.85	6654.5
629.205	6598
629.559	6711
629.914	6587.16
630.269	6629.19
630.623	6623.77
630.978	6618.34
631.332	6628.29
631.687	6617.21
632.041	6627.38
632.396	6648.4
632.75	6578.8
633.104	6639.36
633.459	6575.41
633.813	6574.28
634.167	6538.57
634.521	6571.11
634.875	6531.57
635.229	6549.19
635.583	6448.63
635.937	6466.48
636.291	6464
636.645	6504.45
636.999	6489.31
637.352	6538.8
637.706	6447.95
638.06	6471
638.413	6440.72
638.767	6441.62
639.121	6424
639.474	6407.95
639.828	6401.4
640.181	6395.3
640.534	6440.27
640.888	6432.81
641.241	6338.8
641.594	6384.22
641.947	6342.64
642.301	6319.37
642.654	6340.16
643.007	6406.15
643.36	6414.96
643.713	6327.28
644.066	6383.55
644.419	6334.28
644.771	6285.47
645.124	6068.07
645.477	6059.26
645.83	6106.04
646.182	6085.93
646.535	6122.08
646.888	6144.68
647.24	6149.43
647.593	6160.05
647.945	6161.18
648.298	6132.25
648.65	6157.56
649.002	6120.28
649.355	6203.44
649.707	6053.16
650.059	6024.01
650.411	6149.43
650.763	6099.71
651.115	6157.56
651.467	6146.72
651.819	6158.69
652.171	6137.23
652.523	6146.26
652.875	6134.29
653.227	6135.87
653.578	6116.21
653.93	6113.27
654.282	6087.74
654.633	6047.74
654.985	6118.24
655.337	6098.58
655.688	6056.32
656.039	6086.83
656.391	6032.82
656.742	6040.05
657.094	6056.78
657.445	6010.9
657.796	6034.4
658.147	6041.86
658.498	6053.39
658.849	6065.36
659.2	6050.22
659.551	6015.19
659.902	6048.87
660.253	6010.45
660.604	6035.76
660.955	5984.24
661.306	6009.32
661.656	5982.2
662.007	6042.31
662.358	5968.64
662.708	6008.19
663.059	6005.48
663.409	5961.64
663.76	6031.01
664.11	6063.1
664.461	6024.46
664.811	6000.73
665.161	5975.42
665.511	5968.64
665.862	5960.73
666.212	6000.96
666.562	6003.44
666.912	5949.21
667.262	5886.38
667.612	5918.02
667.962	5944.46
668.312	5947.4
668.662	5918.25
669.011	5860.17
669.361	5910.34
669.711	5900.85
670.06	5864.01
670.41	5952.82
670.76	5924.8
671.109	5965.48
671.459	5939.72
671.808	5898.59
672.157	5902.43
672.507	5859.04
672.856	5869.89
673.205	5917.57
673.554	5838.48
673.904	5851.58
674.253	5895.65
674.602	5877.8
674.951	5766.61
675.3	5785.37
675.649	5825.37
675.998	5854.52
676.346	5863.79
676.695	5883.67
677.044	5812.49
677.393	5810.91
677.741	5856.1
678.09	5861.75
678.438	5833.73
678.787	5850.23
679.135	5821.98
679.484	5683.68
679.832	5812.26
680.181	5743.11
680.529	5767.07
680.877	5785.6
681.225	5731.36
681.573	5802.77
681.922	5761.19
682.27	5750.57
682.618	5756.9
682.966	5741.08
683.314	5722.55
683.661	5681.19
684.009	5662.21
684.357	5670.57
684.705	5661.53
685.053	5627.18
685.4	5623.57
685.748	5532.72
686.095	5605.71
686.443	5553.06
686.79	5596.45
687.138	5582.44
687.485	5560.74
687.832	5563.23
688.18	5615.66
688.527	5538.15
688.874	5606.84
689.221	5499.73
689.568	5547.18
689.915	5469.67
690.262	5508.54
690.609	5480.52
690.956	5431.48
691.303	5468.32
691.65	5383.35
691.997	5428.77
692.344	5360.3
692.69	5395.55
693.037	5412.95
693.383	5347.42
693.73	5334.53
694.077	5412.95
694.423	5379.05
694.769	5348.09
695.116	5305.38
695.462	5335.89
695.808	5258.6
696.155	5252.05
696.501	5237.81
696.847	5250.47
697.193	5229.9
697.539	5229.23
697.885	5207.98
698.231	5168.66
698.577	5128.89
698.923	5191.94
699.269	5133.18
699.614	5176.12
699.96	5121.43
700.306	5097.93
700.651	5124.6
700.997	5118.95
701.342	5048.21
701.688	5066.75
702.033	5042.79
702.379	5005.73
702.724	5045.5
703.069	4993.75
703.415	5016.13
703.76	4951.04
704.105	4951.95
704.45	4959.18
704.795	4945.17
705.14	4910.82
705.485	4943.81
705.83	4949.91
706.175	4965.96
706.52	4967.09
706.865	4892.51
707.209	4912.4
707.554	4889.57
707.899	4885.51
708.243	4874.21
708.588	4860.88
708.932	4787.43
709.277	4807.77
709.621	4793.53
709.966	4734.55
710.31	4754.44
710.654	4738.84
710.998	4764.38
711.342	4780.2
711.687	4731.61
712.031	4737.71
712.375	4735.45
712.719	4777.49
713.063	4748.11
713.407	4728.45
713.75	4730.48
714.094	4723.48
714.438	4645.97
714.782	4679.64
715.125	4623.14
715.469	4659.75
715.812	4633.08
716.156	4589.7
716.499	4650.94
716.843	4593.09
717.186	4598.06
717.53	4628.79
717.873	4615.23
718.216	4626.08
718.559	4543.82
718.902	4627.43
719.246	4588.57
719.589	4561.45
719.932	4557.83
720.275	4533.2
720.617	4573.65
720.96	4526.42
721.303	4523.48
721.646	4514.67
721.989	4446.42
722.331	4422.02
722.674	4496.36
723.016	4473.99
723.359	4454.78
723.701	4490.94
724.044	4462.69
724.386	4445.07
724.729	4460.43
725.071	4436.25
725.413	4426.31
725.755	4506.31
726.097	4389.25
726.439	4423.15
726.782	4386.99
727.124	4408.23
727.465	4390.15
727.807	4370.94
728.149	4366.2
728.491	4333.43
728.833	4345.63
729.175	4304.96
729.516	4332.3
729.858	4337.95
730.199	4377.72
730.541	4330.49
730.882	4311.74
731.224	4331.85
731.565	4287.56
731.906	4335.24
732.248	4323.04
732.589	4323.49
732.93	4305.41
733.271	4282.81
733.612	4278.07
733.953	4297.95
734.294	4226.99
734.635	4238.74
734.976	4258.18
735.317	4261.57
735.658	4250.04
735.999	4229.03
736.339	4220.67
736.68	4227.67
737.021	4183.38
737.361	4185.41
737.702	4254.11
738.042	4223.83
738.383	4203.04
738.723	4254.34
739.063	4185.86
739.404	4207.11
739.744	4199.65
740.084	4208.24
740.424	4217.05
740.764	4201.68
741.104	4169.37
741.444	4154.45
741.784	4174.79
742.124	4145.19
742.464	4120.33
742.804	4130.05
743.143	4059.31
743.483	4102.48
743.823	4061.35
744.162	4078.97
744.502	4120.78
744.841	4123.49
745.181	4126.88
745.52	4068.58
745.86	4081.91
746.199	4095.7
746.538	4083.27
746.877	4076.04
747.216	4053.89
747.556	4068.13
747.895	4072.42
748.234	4050.5
748.573	4041.69
748.911	4041.46
749.25	4017.51
749.589	3995.36
749.928	3960.56
750.267	3982.03
750.605	4000.11
750.944	3951.52
751.283	3928.24
751.621	3978.19
751.96	3965.08
752.298	3984.97
752.636	3954.91
752.975	3933.89
753.313	3936.38
753.651	3937.28
753.989	3929.37
754.327	3891.18
754.666	3859.32
755.004	3856.61
755.342	3883.05
755.679	3884.18
756.017	3879.21
756.355	3831.75
756.693	3816.16
757.031	3819.55
757.368	3811.19
757.706	3818.64
758.044	3835.37
758.381	3844.18
758.719	3812.54
759.056	3832.65
759.394	3800.79
759.731	3762.6
760.068	3777.51
760.405	3751.53
760.743	3742.26
761.08	3787.23
761.417	3747.91
761.754	3706.33
762.091	3747.23
762.428	3695.03
762.765	3645.31
763.102	3693.67
763.438	3685.99
763.775	3673.56
764.112	3645.09
764.449	3643.51
764.785	3617.52
765.122	3610.74
765.458	3606.44
765.795	3602.38
766.131	3620.23
766.467	3602.83
766.804	3585.2
767.14	3546.11
767.476	3569.38
767.812	3535.49
768.148	3545.43
768.485	3554.69
768.821	3501.14
769.157	3498.65
769.492	3486.45
769.828	3493
770.164	3469.5
770.5	3456.62
770.836	3473.57
771.171	3408.26
