Data from foam2_polystyrene_foam_FLMS001491_00026.txt Node
Date: Wed Feb 08 10:57:44 GMT 2017
User: dcchb
Spectrometer: FLMS00149
Trigger mode: 0
Integration Time (sec): 2.000000E-2
Scans to average: 10
Electric dark correction enabled: true
Nonlinearity correction enabled: false
Boxcar width: 0
XAxis mode: Wavelengths
Number of Pixels in Spectrum: 2048
>>>>>Begin Spectral Data<<<<<
341.393	7.13
341.776	7.13
342.16	7.13
342.543	-69.02
342.927	-67.67
343.31	-75.58
343.693	-63.83
344.077	-60.66
344.46	-69.02
344.843	-51.85
345.226	-41.91
345.61	-26.76
345.993	-13.66
346.376	-29.25
346.759	7.13
347.142	36.28
347.525	52.78
347.908	66.11
348.291	81.03
348.674	80.13
349.057	109.05
349.44	130.97
349.823	133.23
350.206	171.65
350.588	215.94
350.971	213
351.354	250.97
351.737	236.05
352.119	269.5
352.502	276.73
352.884	289.84
353.267	311.98
353.65	320.57
354.032	310.63
354.414	325.09
354.797	337.07
355.179	358.31
355.562	353.56
355.944	340.01
356.326	331.42
356.709	365.54
357.091	358.54
357.473	360.12
357.855	366.22
358.238	346.78
358.62	372.55
359.002	355.6
359.384	347.69
359.766	368.93
360.148	365.77
360.53	367.35
360.912	365.99
361.294	370.96
361.676	344.3
362.057	349.27
362.439	381.81
362.821	353.34
363.203	377.97
363.584	367.12
363.966	361.47
364.348	353.56
364.729	349.5
365.111	344.52
365.493	349.72
365.874	364.41
366.256	339.1
366.637	356.5
367.019	344.07
367.4	359.89
367.781	349.27
368.163	375.03
368.544	344.07
368.925	369.83
369.306	368.48
369.688	343.17
370.069	368.7
370.45	358.76
370.831	373.68
371.212	370.06
371.593	367.12
371.974	381.59
372.355	358.76
372.736	378.65
373.117	378.2
373.498	364.41
373.879	375.26
374.26	372.32
374.641	368.7
375.021	356.95
375.402	391.3
375.783	391.76
376.163	401.25
376.544	410.96
376.925	406.22
377.305	408.25
377.686	400.57
378.066	411.19
378.447	409.61
378.827	413.22
379.208	406.9
379.588	420.23
379.968	419.1
380.349	432.66
380.729	417.97
381.109	427.23
381.489	428.59
381.87	442.6
382.25	423.17
382.63	423.39
383.01	441.25
383.39	438.53
383.77	443.28
384.15	452.77
384.53	459.55
384.91	471.08
385.29	486.67
385.67	454.35
386.049	460.91
386.429	465.43
386.809	474.92
387.189	483.5
387.568	494.58
387.948	472.43
388.328	511.98
388.707	487.57
389.087	513.33
389.466	491.64
389.846	501.13
390.225	518.98
390.605	525.09
390.984	530.73
391.363	520.57
391.743	535.03
392.122	541.36
392.501	543.84
392.881	561.47
393.26	564.18
393.639	554.01
394.018	575.03
394.397	559.21
394.776	561.69
395.155	581.81
395.534	561.69
395.913	563.73
396.292	586.33
396.671	600.56
397.05	604.41
397.429	593.11
397.808	611.41
398.186	619.09
398.565	610.28
398.944	614.12
399.323	628.36
399.701	623.39
400.08	626.78
400.458	612.09
400.837	645.53
401.215	629.72
401.594	631.07
401.972	684.85
402.351	672.88
402.729	657.51
403.107	661.13
403.486	662.93
403.864	674.91
404.242	682.6
404.62	719.43
404.999	696.83
405.377	711.75
405.755	718.98
406.133	728.02
406.511	742.71
406.889	749.26
407.267	757.85
407.645	754.91
408.023	760.11
408.401	786.77
408.779	789.48
409.156	801.69
409.534	790.16
409.912	808.92
410.29	829.71
410.667	831.29
411.045	851.18
411.422	818.64
411.8	843.27
412.178	836.72
412.555	883.27
412.933	878.52
413.31	926.66
413.687	903.61
414.065	912.87
414.442	898.41
414.819	934.34
415.197	939.99
415.574	938.63
415.951	956.26
416.328	999.65
416.705	968.01
417.082	961.91
417.46	981.57
417.837	1009.82
418.214	1014.56
418.591	1031.29
418.967	1037.61
419.344	1042.36
419.721	1023.83
420.098	1055.01
420.475	1070.16
420.852	1097.27
421.228	1076.93
421.605	1106.76
421.982	1119.87
422.358	1110.83
422.735	1135.92
423.111	1127.1
423.488	1164.62
423.864	1164.62
424.241	1169.81
424.617	1204.39
424.994	1191.28
425.37	1218.63
425.746	1210.72
426.123	1239.87
426.499	1268.34
426.875	1237.38
427.251	1282.81
427.627	1294.56
428.003	1289.58
428.379	1360.09
428.756	1324.84
429.132	1351.96
429.507	1362.35
429.883	1411.84
430.259	1431.28
430.635	1424.5
431.011	1444.61
431.387	1484.61
431.763	1489.58
432.138	1474.44
432.514	1542.23
432.89	1534.32
433.265	1578.16
433.641	1589.01
434.016	1582.23
434.392	1607.32
434.767	1649.12
435.143	1613.42
435.518	1655.45
435.894	1678.05
436.269	1716.69
436.644	1718.73
437.02	1760.31
437.395	1765.73
437.77	1778.84
438.145	1783.13
438.52	1803.02
438.895	1824.26
439.271	1830.59
439.646	1836.24
440.021	1857.93
440.395	1909.46
440.77	1888.44
441.145	1927.08
441.52	1953.07
441.895	1958.04
442.27	1963.69
442.645	1969.79
443.019	1992.17
443.394	2027.42
443.769	2008.21
444.143	2009.79
444.518	2074.2
444.892	2042.79
445.267	2045.05
445.641	2092.28
446.016	2124.14
446.39	2157.81
446.764	2131.14
447.139	2122.11
447.513	2189.22
447.887	2175.44
448.262	2191.26
448.636	2260.41
449.01	2257.24
449.384	2257.92
449.758	2287.52
450.132	2310.35
450.506	2334.75
450.88	2362.78
451.254	2344.02
451.628	2371.82
452.002	2405.71
452.376	2403.91
452.75	2471.47
453.123	2446.62
453.497	2501.53
453.871	2503.79
454.244	2586.95
454.618	2626.5
454.992	2624.01
455.365	2621.08
455.739	2701.98
456.112	2708.08
456.486	2730.68
456.859	2762.09
457.232	2825.14
457.606	2794.18
457.979	2860.84
458.352	2897.68
458.725	2960.28
459.099	2914.85
459.472	3002.53
459.845	3023.55
460.218	3028.07
460.591	3067.17
460.964	3068.07
461.337	3157.56
461.71	3187.16
462.083	3254.28
462.456	3240.72
462.829	3255.63
463.201	3309.64
463.574	3322.53
463.947	3345.35
464.32	3419.47
464.692	3483.88
465.065	3497.66
465.438	3565.46
465.81	3599.58
466.183	3584.67
466.555	3686.81
466.928	3755.06
467.3	3709.41
467.672	3761.16
468.045	3873.25
468.417	3843.19
468.789	3881.38
469.161	3986.46
469.534	3992.79
469.906	4109.85
470.278	4141.26
470.65	4184.65
471.022	4301.03
471.394	4324.08
471.766	4383.06
472.138	4418.99
472.51	4528.6
472.882	4594.13
473.253	4632.1
473.625	4680
473.997	4792.09
474.369	4828.47
474.74	4863.28
475.112	4966.1
475.484	5051.97
475.855	5088.35
476.227	5148.01
476.598	5322.7
476.97	5371.51
477.341	5448.12
477.713	5549.13
478.084	5587.32
478.455	5760.43
478.827	5786.64
479.198	5922.46
479.569	5935.34
479.94	6140.3
480.311	6157.93
480.682	6336.23
481.053	6460.3
481.424	6564.47
481.795	6636.56
482.166	6662.32
482.537	6780.97
482.908	6939.15
483.279	6988.19
483.65	7120.39
484.021	7230.9
484.391	7395.64
484.762	7432.47
485.133	7529.42
485.503	7605.58
485.874	7760.6
486.244	7902.29
486.615	7992.01
486.985	8098.45
487.356	8199.69
487.726	8268.61
488.097	8466.8
488.467	8504.08
488.837	8683.06
489.207	8800.12
489.578	8917.86
489.948	9010.06
490.318	9091.64
490.688	9162.6
491.058	9289.83
491.428	9394.91
491.798	9488.01
492.168	9631.96
492.538	9736.82
492.908	9871.05
493.278	10037.38
493.648	10001.67
494.017	10194.89
494.387	10226.52
494.757	10347.2
495.126	10446.86
495.496	10468.33
495.866	10594.42
496.235	10693.41
496.605	10774.53
496.974	10867.86
497.344	10996.9
497.713	11024.02
498.082	11124.35
498.452	11241.19
498.821	11245.48
499.19	11365.03
499.559	11454.52
499.928	11578.35
500.298	11582.87
500.667	11718.69
501.036	11736.32
501.405	11770.89
501.774	11787.61
502.143	11876.43
502.512	12085.69
502.88	12139.47
503.249	12175.17
503.618	12301.95
503.987	12340.37
504.356	12478.9
504.724	12476.64
505.093	12648.61
505.462	12655.16
505.83	12750.75
506.199	12889.73
506.567	12990.97
506.936	13087.47
507.304	13181.7
507.672	13177.41
508.041	13269.38
508.409	13389.83
508.777	13434.8
509.145	13623.72
509.514	13603.61
509.882	13764.74
510.25	13820.55
510.618	13922.92
510.986	13974
511.354	14155.01
511.722	14348.68
512.09	14373.53
512.458	14455.57
512.826	14615.34
513.193	14656.24
513.561	14664.83
513.929	14848.1
514.297	14956.12
514.664	15121.76
515.032	15176
515.4	15332.83
515.767	15408.08
516.135	15495.31
516.502	15514.75
516.869	15752.03
517.237	15831.8
517.604	15767.17
517.972	16000.38
518.339	16126.26
518.706	16291.68
519.073	16388.17
519.44	16312.69
519.808	16584.78
520.175	16587.04
520.542	16814.37
520.909	16925.11
521.276	16914.48
521.643	17110.41
522.009	17278.54
522.376	17400.35
522.743	17554.69
523.11	17713.56
523.477	17793.56
523.843	18004.63
524.21	18161.01
524.577	18263.6
524.943	18392.64
525.31	18501.79
525.676	18673.53
526.043	18818.62
526.409	18946.07
526.776	19074.88
527.142	19153.75
527.508	19261.99
527.874	19392.16
528.241	19529.33
528.607	19619.27
528.973	19857.91
529.339	19781.3
529.705	19998.92
530.071	20231.23
530.437	20301.74
530.803	20442.75
531.169	20546.03
531.535	20586.48
531.901	20738.56
532.267	20769.98
532.632	20862.18
532.998	20941.05
533.364	21108.95
533.73	21189.85
534.095	21306.23
534.461	21324.99
534.826	21495.38
535.192	21690.4
535.557	21662.16
535.923	21822.6
536.288	21860.57
536.653	22089.49
537.019	21953.9
537.384	22016.27
537.749	22228.92
538.114	22152.99
538.479	22254.01
538.845	22473.89
539.21	22436.6
539.575	22594.56
539.94	22741.22
540.305	22943.7
540.67	22843.59
541.034	22966.08
541.399	23099.41
541.764	23181.21
542.129	23269.8
542.494	23368.33
542.858	23344.37
543.223	23540.07
543.587	23643.57
543.952	23642.67
544.316	23667.3
544.681	23632.95
545.045	23887.86
545.41	23976.45
545.774	24069.55
546.138	24070.45
546.503	24256.89
546.867	24299.38
547.231	24502.99
547.595	24503.44
547.959	24625.02
548.324	24655.98
548.688	24698.46
549.052	24889.87
549.416	24937.32
549.779	24993.14
550.143	25030.66
550.507	25219.58
550.871	25315.85
551.235	25272.91
551.599	25474.49
551.962	25500.7
552.326	25618.89
552.689	25734.59
553.053	25736.4
553.417	25772.33
553.78	26192.66
554.143	26006.45
554.507	26244.86
554.87	26367.8
555.234	26625.64
555.597	26520.56
555.96	26652.53
556.323	26662.02
556.686	26765.07
557.05	27040.09
557.413	27156.02
557.776	27202.35
558.139	27426.75
558.502	27454.77
558.865	27476.69
559.228	27831.03
559.59	27814.31
559.953	27868.55
560.316	28196
560.679	28153.96
561.041	28346.5
561.404	28483.9
561.767	28569.77
562.129	28518.7
562.492	28784.46
562.854	28826.49
563.217	28937.45
563.579	29049.53
563.941	29468.96
564.304	29397.32
564.666	29668.73
565.028	29692.91
565.39	29783.52
565.753	30026.46
566.115	30124.53
566.477	30185.77
566.839	30273.46
567.201	30503.73
567.563	30552.54
567.925	30806.32
568.287	30816.94
568.648	30811.07
569.01	30975.13
569.372	31195.47
569.734	31031.85
570.095	31332.86
570.457	31400.66
570.819	31529.47
571.18	31516.59
571.542	31649.46
571.903	31790.93
572.265	31929.23
572.626	31984.14
572.987	32140.3
573.349	32143.01
573.71	32206.74
574.071	32213.74
574.432	32451.93
574.794	32655.99
575.155	32685.6
575.516	32502.78
575.877	32644.92
576.238	32849.66
576.599	32882.65
576.96	33064.57
577.32	32847.63
577.681	33110.22
578.042	33172.14
578.403	33183.21
578.763	33171.91
579.124	33201.97
579.485	33347.5
579.845	33382.3
580.206	33274.05
580.566	33343.43
580.927	33371.68
581.287	33541.62
581.648	33511.11
582.008	33699.13
582.368	33569.41
582.728	33777.54
583.089	33528.51
583.449	33669.75
583.809	33710.88
584.169	33769.41
584.529	33671.56
584.889	33955.84
585.249	33758.79
585.609	33643.08
585.969	33975.96
586.329	33856.86
586.688	33938.22
587.048	33778.9
587.408	33740.71
587.768	33806.7
588.127	33780.03
588.487	33745.91
588.846	34078.78
589.206	33801.95
589.565	33850.31
589.925	33965.79
590.284	33894.38
590.643	33943.64
591.003	33915.62
591.362	34154.03
591.721	33937.31
592.08	33860.25
592.44	33985.45
592.799	34057.76
593.158	33875.85
593.517	33978.67
593.876	33979.35
594.235	34038.33
594.593	34073.58
594.952	34037.88
595.311	33921.72
595.67	34124.65
596.029	34286.23
596.387	34290.3
596.746	34342.05
597.104	34174.14
597.463	34114.26
597.822	34400.8
598.18	34266.8
598.538	34339.56
598.897	34397.19
599.255	34160.58
599.613	34615.04
599.972	34477.41
600.33	34508.82
600.688	34414.59
601.046	34497.3
601.404	34649.84
601.762	34468.37
602.12	34608.93
602.478	34712.21
602.836	34643.74
603.194	34393.57
603.552	34570.29
603.91	34451.65
604.268	34740
604.625	34623.17
604.983	34752.43
605.341	34543.4
605.698	34857.29
606.056	34918.76
606.413	34775.71
606.771	34935.03
607.128	34870.85
607.485	34851.64
607.843	34860.23
608.2	35067.68
608.557	35227.22
608.914	35044.4
609.272	35171.86
609.629	35238.3
609.986	35290.72
610.343	35165.98
610.7	35493.21
611.057	35239.88
611.414	35330.5
611.771	35307.45
612.127	35460.44
612.484	35570.94
612.841	35600.1
613.198	35417.73
613.554	35525.75
613.911	35778.4
614.267	35570.04
614.624	35554.67
614.98	35759.86
615.337	35909.92
615.693	35834.67
616.05	35713.99
616.406	35891.84
616.762	35798.96
617.118	35705.85
617.475	35906.53
617.831	35971.38
618.187	36006.19
618.543	35994.89
618.899	36250.02
619.255	36210.47
619.611	36145.39
619.967	36203.24
620.323	36410.24
620.678	36286.18
621.034	36043.93
621.39	36143.58
621.746	35995.56
622.101	36502.9
622.457	36238.5
622.812	36303.13
623.168	36370.02
623.523	36459.73
623.879	36478.26
624.234	36277.82
624.589	36433.75
624.945	36357.82
625.3	36375.22
625.655	36469.68
626.01	36434.88
626.365	36443.01
626.72	36398.72
627.075	36359.62
627.43	36298.61
627.785	36178.16
628.14	36381.77
628.495	36424.48
628.85	36287.53
629.205	36344.71
629.559	36464.48
629.914	36217.03
630.269	36329.79
630.623	36184.94
630.978	36169.8
631.332	36221.55
631.687	36185.39
632.041	36002.57
632.396	36134.77
632.75	35849.58
633.104	36042.12
633.459	35722.58
633.813	35761.9
634.167	35758.96
634.521	35810.03
634.875	35745.18
635.229	35723.48
635.583	35517.16
635.937	35618.85
636.291	35565.75
636.645	35686.19
636.999	35442.13
637.352	35636.7
637.706	35365.3
638.06	35456.14
638.413	35467.22
638.767	35386.32
639.121	35339.76
639.474	35152.42
639.828	35191.74
640.181	35089.6
640.534	35100.45
640.888	34952.43
641.241	34852.32
641.594	34853.22
641.947	35070.84
642.301	34860.68
642.654	34874.46
643.007	34811.87
643.36	34874.46
643.713	34721.93
644.066	34830.17
644.419	34582.49
644.771	34297.3
645.124	34020.25
645.477	33851.21
645.83	33721.95
646.182	33514.5
646.535	33610.54
646.888	33550.88
647.24	33458.23
647.593	33621.84
647.945	33549.53
648.298	33483.77
648.65	33391.34
649.002	33309.31
649.355	33331.91
649.707	33250.1
650.059	33374.62
650.411	33801.05
650.763	33819.12
651.115	34166.91
651.467	34027.26
651.819	34012.34
652.171	33916.3
652.523	33813.02
652.875	33831.78
653.227	33732.35
653.578	33797.88
653.93	33774.83
654.282	33529.19
654.633	33622.75
654.985	33676.08
655.337	33750.88
655.688	33699.35
656.039	33727.6
656.391	33425.46
656.742	33514.27
657.094	33507.72
657.445	33605.57
657.796	33498.46
658.147	33417.78
658.498	33334.62
658.849	33399.25
659.2	33453.26
659.551	33424.33
659.902	33452.81
660.253	33336.43
660.604	33425.69
660.955	33288.97
661.306	33348.85
661.656	33143.89
662.007	33168.07
662.358	33187.05
662.708	33193.38
663.059	33132.82
663.409	32940.28
663.76	33236.54
664.11	33142.53
664.461	33183.44
664.811	33069.99
665.161	33088.52
665.511	32906.15
665.862	32897.57
666.212	33033.38
666.562	33135.98
666.912	32983.21
667.262	32869.32
667.612	32837.68
667.962	32840.39
668.312	32794.52
668.662	33061.4
669.011	32919.94
669.361	32754.07
669.711	32725.59
670.06	32776.44
670.41	32842.65
670.76	32815.31
671.109	32911.58
671.459	32700.74
671.808	32562.89
672.157	32695.99
672.507	32479.27
672.856	32630.23
673.205	32612.6
673.554	32608.08
673.904	32426.62
674.253	32648.76
674.602	32446.73
674.951	31924.49
675.3	31805.62
675.649	32362.44
675.998	32154.76
676.346	32249
676.695	32409.44
677.044	32085.16
677.393	32033.41
677.741	32227.08
678.09	32075.44
678.438	32067.08
678.787	31985.05
679.135	32106.18
679.484	31888.55
679.832	31980.98
680.181	31787.99
680.529	31918.61
680.877	31846.07
681.225	31790.25
681.573	32007.87
681.922	31814.21
682.27	31646.98
682.618	31763.13
682.966	31678.39
683.314	31634.1
683.661	31690.14
684.009	31495.57
684.357	31429.13
684.705	31477.49
685.053	31459.41
685.4	31465.97
685.748	31219.19
686.095	31144.17
686.443	31089.93
686.79	31026.43
687.138	30890.39
687.485	31007
687.832	30836.15
688.18	30868.47
688.527	30725.19
688.874	30696.5
689.221	30674.12
689.568	30435.94
689.915	30427.12
690.262	30431.42
690.609	30356.39
690.956	30228.48
691.303	30167.02
691.65	30096.96
691.997	30087.92
692.344	29924.31
692.69	29811.55
693.037	29924.31
693.383	29651.32
693.73	29861.04
694.077	29558.45
694.423	29636.41
694.769	29544.66
695.116	29494.04
695.462	29430.09
695.808	29366.59
696.155	29440.71
696.501	29113.71
696.847	29245.23
697.193	28917.11
697.539	29111.45
697.885	28831.23
698.231	28759.82
698.577	28757.79
698.923	28644.57
699.269	28633.27
699.614	28460.17
699.96	28355.31
700.306	28465.82
700.651	28191.7
700.997	28150.57
701.342	28163.45
701.688	28103.34
702.033	27831.03
702.379	27964.82
702.724	27841.2
703.069	27833.52
703.415	27533.19
703.76	27571.15
704.105	27604.6
704.45	27357.6
704.795	27189.92
705.14	27248.45
705.485	27095.23
705.83	27076.7
706.175	27162.8
706.52	27061.34
706.865	26961.9
707.209	26878.06
707.554	26793.77
707.899	26946.76
708.243	26741.8
708.588	26644.62
708.932	26423.16
709.277	26399.43
709.621	26446.66
709.966	26393.11
710.31	26388.81
710.654	26175.71
710.998	26236.05
711.342	26253
711.687	26120.12
712.031	26024.3
712.375	25974.59
712.719	25998.77
713.063	25908.6
713.407	26019.33
713.75	25915.83
714.094	25756.51
714.438	25657.53
714.782	25733.46
715.125	25529.63
715.469	25537.99
715.812	25366.69
716.156	25168.96
716.499	25348.61
716.843	25411.44
717.186	25237.2
717.53	25241.5
717.873	25302.96
718.216	25222.51
718.559	25043.08
718.902	24992.46
719.246	24977.32
719.589	24877.67
719.932	24756.76
720.275	24751.57
720.617	24815.52
720.96	24784.79
721.303	24798.12
721.646	24704.11
721.989	24559.03
722.331	24597.45
722.674	24516.77
723.016	24635.41
723.359	24678.8
723.701	24567.39
724.044	24344.57
724.386	24224.35
724.729	24485.58
725.071	24388.41
725.413	24319.26
725.755	24323.1
726.097	24115.43
726.439	24120.4
726.782	24051.92
727.124	24328.3
727.465	23990.46
727.807	23957.92
728.149	23951.14
728.491	23907.07
728.833	23982.1
729.175	23793.4
729.516	23785.72
729.858	23735.77
730.199	23725.6
730.541	23689.67
730.882	23557.7
731.224	23711.37
731.565	23468.89
731.906	23480.19
732.248	23597.47
732.589	23485.84
732.93	23351.15
733.271	23319.74
733.612	23328.1
733.953	23446.06
734.294	23324.03
734.635	23261.21
734.976	23231.15
735.317	23028
735.658	23092.4
735.999	23111.38
736.339	22945.06
736.68	23048.33
737.021	23078.39
737.361	23028.45
737.702	23043.36
738.042	22925.63
738.383	22897.83
738.723	22896.7
739.063	22772.41
739.404	22954.1
739.744	22729.25
740.084	22718.17
740.424	22795.01
740.764	22663.49
741.104	22825.97
741.444	22602.7
741.784	22558.18
742.124	22562.92
742.464	22609.25
742.804	22449.03
743.143	22511.63
743.483	22543.94
743.823	22313.21
744.162	22329.03
744.502	22438.18
744.841	22349.82
745.181	22521.79
745.52	22253.78
745.86	22345.98
746.199	22295.59
746.538	22248.81
746.877	22153.22
747.216	22140.56
747.556	22126.32
747.895	22099.66
748.234	21949.83
748.573	21950.28
748.911	21986.89
749.25	21893.56
749.589	21634.59
749.928	21764.98
750.267	21782.61
750.605	21654.7
750.944	21638.43
751.283	21533.12
751.621	21531.99
751.96	21446.57
752.298	21494.93
752.636	21357.76
752.975	21273.47
753.313	21249.74
753.651	21379
753.989	21161.38
