Data from foam_black_FLMS001491_00093.txt Node
Date: Wed Feb 08 10:45:05 GMT 2017
User: dcchb
Spectrometer: FLMS00149
Trigger mode: 0
Integration Time (sec): 2.000000E-2
Scans to average: 10
Electric dark correction enabled: true
Nonlinearity correction enabled: false
Boxcar width: 0
XAxis mode: Wavelengths
Number of Pixels in Spectrum: 2048
>>>>>Begin Spectral Data<<<<<
341.393	-7.63
341.776	-7.63
342.16	-7.63
342.543	-60.51
342.927	-66.16
343.31	-49.66
343.693	-55.31
344.077	-63.9
344.46	-61.64
344.843	-36.1
345.226	-46.27
345.61	-33.61
345.993	-38.13
346.376	-17.57
346.759	-3.11
347.142	29.43
347.525	52.26
347.908	34.86
348.291	76.44
348.674	97.46
349.057	114.86
349.44	113.5
349.823	131.35
350.206	146.04
350.588	183.1
350.971	171.35
351.354	200.96
351.737	208.64
352.119	236.66
352.502	228.75
352.884	247.96
353.267	253.38
353.65	269.43
354.032	266.26
354.414	274.63
354.797	277.79
355.179	264.68
355.562	299.03
355.944	295.42
356.326	287.51
356.709	313.72
357.091	296.55
357.473	304.68
357.855	312.36
358.238	333.61
358.62	315.53
359.002	306.94
359.384	314.85
359.766	318.92
360.148	323.44
360.53	314.4
360.912	318.01
361.294	310.1
361.676	288.41
362.057	298.81
362.439	291.8
362.821	290.22
363.203	313.95
363.584	293.16
363.966	284.34
364.348	299.26
364.729	302.65
365.111	310.33
365.493	284.57
365.874	288.41
366.256	287.51
366.637	289.31
367.019	295.19
367.4	284.34
367.781	279.6
368.163	281.86
368.544	280.05
368.925	295.19
369.306	288.41
369.688	272.82
370.069	280.5
370.45	277.79
370.831	265.13
371.212	280.73
371.593	271.46
371.974	278.02
372.355	292.48
372.736	271.46
373.117	292.03
373.498	305.36
373.879	275.98
374.26	295.87
374.641	268.3
375.021	291.35
375.402	262.2
375.783	282.99
376.163	282.76
376.544	297.22
376.925	316.66
377.305	285.92
377.686	305.36
378.066	286.15
378.447	288.18
378.827	273.72
379.208	292.03
379.588	270.56
379.968	294.29
380.349	296.32
380.729	291.57
381.109	304.23
381.489	280.28
381.87	299.48
382.25	300.61
382.63	296.77
383.01	308.3
383.39	284.34
383.77	313.95
384.15	310.33
384.53	308.3
384.91	323.89
385.29	298.13
385.67	287.51
386.049	315.53
386.429	293.16
386.809	286.15
387.189	296.09
387.568	304.23
387.948	289.77
388.328	321.18
388.707	309.43
389.087	306.26
389.466	316.43
389.846	294.51
390.225	291.8
390.605	309.2
390.984	300.39
391.363	287.28
391.743	299.71
392.122	313.72
392.501	299.03
392.881	316.88
393.26	301.52
393.639	299.71
394.018	324.12
394.397	318.01
394.776	327.28
395.155	311.01
395.534	319.6
395.913	313.49
396.292	301.52
396.671	299.48
397.05	300.84
397.429	328.86
397.808	313.49
398.186	296.09
398.565	322.76
398.944	320.05
399.323	327.73
399.701	341.29
400.08	332.7
400.458	320.73
400.837	330.9
401.215	328.18
401.594	319.14
401.972	335.19
402.351	333.61
402.729	337.45
403.107	336.32
403.486	319.14
403.864	337
404.242	321.63
404.62	325.47
404.999	330.67
405.377	320.5
405.755	307.17
406.133	317.34
406.511	329.31
406.889	321.63
407.267	331.12
407.645	324.57
408.023	340.39
408.401	337.22
408.779	330.22
409.156	343.1
409.534	328.64
409.912	334.28
410.29	356.43
410.667	357.56
411.045	326.15
411.422	340.61
411.8	358.47
412.178	339.93
412.555	344.68
412.933	340.84
413.31	358.47
413.687	330.22
414.065	333.38
414.442	351.91
414.819	332.93
415.197	333.61
415.574	349.65
415.951	340.16
416.328	364.11
416.705	355.08
417.082	397.56
417.46	367.96
417.837	360.27
418.214	351.69
418.591	349.65
418.967	372.02
419.344	352.59
419.721	372.48
420.098	367.05
420.475	378.13
420.852	368.86
421.228	363.44
421.605	381.52
421.982	382.87
422.358	364.57
422.735	383.55
423.111	375.19
423.488	384.91
423.864	380.61
424.241	369.76
424.617	379.93
424.994	396.88
425.37	375.64
425.746	373.61
426.123	382.65
426.499	403.44
426.875	382.65
427.251	377
427.627	377
428.003	403.44
428.379	387.39
428.756	407.05
429.132	394.62
429.507	398.69
429.883	386.71
430.259	403.66
430.635	418.35
431.011	398.46
431.387	403.66
431.763	419.48
432.138	426.49
432.514	406.37
432.89	411.35
433.265	398.24
433.641	410.44
434.016	423.55
434.392	412.48
434.767	422.42
435.143	419.48
435.518	412.02
435.894	421.97
436.269	402.76
436.644	420.84
437.02	426.94
437.395	425.13
437.77	434.4
438.145	431.68
438.52	437.56
438.895	425.58
439.271	413.6
439.646	433.04
440.021	430.55
440.395	456.09
440.77	428.52
441.145	429.42
441.52	456.32
441.895	446.15
442.27	435.3
442.645	453.6
443.019	437.33
443.394	452.93
443.769	452.02
444.143	448.86
444.518	485.47
444.892	459.48
445.267	450.21
445.641	457.22
446.016	457.45
446.39	456.32
446.764	462.19
447.139	469.87
447.513	455.64
447.887	447.5
448.262	459.71
448.636	464.68
449.01	476.43
449.384	454.06
449.758	469.87
450.132	452.02
450.506	476.88
450.88	471.46
451.254	459.03
451.628	489.54
452.002	475.75
452.376	475.75
452.75	490.44
453.123	492.02
453.497	491.79
453.871	488.41
454.244	501.06
454.618	494.28
454.992	504.9
455.365	520.04
455.739	518.23
456.112	513.26
456.486	504.68
456.859	520.72
457.232	497.67
457.606	506.48
457.979	511.91
458.352	496.77
458.725	523.21
459.099	515.52
459.472	523.21
459.845	537.44
460.218	536.31
460.591	535.64
460.964	518.46
461.337	559.14
461.71	546.71
462.083	543.09
462.456	588.06
462.829	542.19
463.201	548.06
463.574	568.18
463.947	557.78
464.32	564.34
464.692	555.52
465.065	579.25
465.438	559.82
465.81	581.28
466.183	591
466.555	577.67
466.928	616.09
467.3	572.24
467.672	593.71
468.045	598.68
468.417	597.55
468.789	604.11
469.161	595.3
469.534	629.87
469.906	617.22
470.278	605.46
470.65	622.41
471.022	658.57
471.394	630.55
471.766	614.73
472.138	651.56
472.51	674.84
472.882	636.88
473.253	670.1
473.625	676.2
473.997	669.42
474.369	677.55
474.74	682.3
475.112	693.82
475.484	687.72
475.855	703.09
476.227	702.64
476.598	706.93
476.97	723.65
477.341	724.33
477.713	734.73
478.084	727.72
478.455	749.19
478.827	739.7
479.198	754.61
479.569	743.31
479.94	763.43
480.311	769.08
480.682	791.9
481.053	792.8
481.424	799.58
481.795	816.31
482.166	789.64
482.537	820.6
482.908	855.85
483.279	836.64
483.65	828.74
484.021	844.78
484.391	863.99
484.762	870.77
485.133	845.01
485.503	870.09
485.874	901.95
486.244	903.08
486.615	904.44
486.985	934.27
487.356	950.31
487.726	952.8
488.097	922.74
488.467	961.39
488.837	967.49
489.207	998.45
489.578	995.96
489.948	1000.26
490.318	1001.16
490.688	985.12
491.058	997.32
491.428	1029.63
491.798	1021.95
492.168	1031.67
492.538	1048.84
492.908	1060.37
493.278	1044.77
493.648	1056.07
494.017	1086.13
494.387	1063.76
494.757	1106.47
495.126	1095.39
495.496	1121.61
495.866	1117.32
496.235	1100.37
496.605	1131.55
496.974	1135.62
497.344	1124.32
497.713	1150.08
498.082	1132.46
498.452	1157.09
498.821	1149.4
499.19	1178.56
499.559	1145.79
499.928	1164.09
500.298	1195.51
500.667	1162.29
501.036	1198.22
501.405	1185.56
501.774	1165.68
502.143	1207.71
502.512	1197.77
502.88	1197.99
503.249	1226.46
503.618	1197.31
503.987	1224.43
504.356	1235.73
504.724	1213.13
505.093	1230.08
505.462	1208.61
505.83	1206.35
506.199	1279.12
506.567	1257.2
506.936	1289.29
507.304	1256.97
507.672	1286.8
508.041	1305.11
508.409	1294.71
508.777	1269.85
509.145	1301.94
509.514	1317.99
509.882	1290.64
510.25	1350.53
510.618	1342.39
510.986	1362.51
511.354	1372
511.722	1354.15
512.09	1344.88
512.458	1404.54
512.826	1356.41
513.193	1402.28
513.561	1393.47
513.929	1389.4
514.297	1398.66
514.664	1453.35
515.032	1448.83
515.4	1477.08
515.767	1478.21
516.135	1468.49
516.502	1470.07
516.869	1492.22
517.237	1491.54
517.604	1517.53
517.972	1510.53
518.339	1540.58
518.706	1510.53
519.073	1552.56
519.44	1564.54
519.808	1551.65
520.175	1551.2
520.542	1591.43
520.909	1570.18
521.276	1586
521.643	1559.11
522.009	1596.85
522.376	1627.58
522.743	1645.44
523.11	1629.17
523.477	1623.29
523.843	1647.47
524.21	1638.21
524.577	1642.73
524.943	1661.48
525.31	1672.78
525.676	1695.38
526.043	1686.11
526.409	1687.02
526.776	1684.31
527.142	1708.03
527.508	1683.18
527.874	1694.02
528.241	1730.18
528.607	1724.08
528.973	1724.3
529.339	1757.3
529.705	1748.94
530.071	1733.34
530.437	1737.41
530.803	1776.28
531.169	1749.84
531.535	1754.81
531.901	1780.12
532.267	1783.51
532.632	1806.56
532.998	1791.65
533.364	1851.08
533.73	1828.48
534.095	1824.87
534.461	1839.33
534.826	1863.28
535.192	1886.79
535.557	1877.75
535.923	1867.35
536.288	1898.76
536.653	1880.46
537.019	1895.15
537.384	1888.37
537.749	1944.86
538.114	1915.03
538.479	1957.07
538.845	1951.42
539.21	1942.83
539.575	1954.13
539.94	1970.4
540.305	1988.93
540.67	1999.78
541.034	1985.77
541.399	2011.98
541.764	1997.97
542.129	1986.22
542.494	2075.48
542.858	2045.65
543.223	2044.3
543.587	2077.29
543.952	2101.24
544.316	2100.57
544.681	2104.41
545.045	2113.22
545.41	2092.2
545.774	2129.04
546.138	2125.2
546.503	2105.31
546.867	2127.68
547.231	2145.76
547.595	2155.25
547.959	2168.14
548.324	2149.15
548.688	2157.74
549.052	2169.49
549.416	2168.14
549.779	2145.08
550.143	2192.09
550.507	2213.11
550.871	2200.45
551.235	2188.7
551.599	2206.55
551.962	2239.55
552.326	2202.26
552.689	2198.42
553.053	2218.98
553.417	2197.29
553.78	2243.84
554.143	2224.86
554.507	2209.26
554.87	2212.88
555.234	2246.1
555.597	2247
555.96	2252.88
556.323	2252.88
556.686	2241.58
557.05	2284.74
557.413	2252.65
557.776	2326.77
558.139	2306.89
558.502	2262.82
558.865	2277.74
559.228	2283.61
559.59	2289.94
559.953	2320.22
560.316	2356.15
560.679	2350.28
561.041	2372.65
561.404	2367.45
561.767	2378.07
562.129	2362.93
562.492	2369.03
562.854	2365.42
563.217	2385.53
563.579	2411.97
563.941	2417.85
564.304	2446.09
564.666	2424.85
565.028	2461.23
565.39	2456.72
565.753	2454
566.115	2467.79
566.477	2506.43
566.839	2548.01
567.201	2539.88
567.563	2548.24
567.925	2569.03
568.287	2563.83
568.648	2548.92
569.01	2578.97
569.372	2603.38
569.734	2601.8
570.095	2668.69
570.457	2683.15
570.819	2658.97
571.18	2670.72
571.542	2675.24
571.903	2689.7
572.265	2729.93
572.626	2697.16
572.987	2729.48
573.349	2709.82
573.71	2757.27
574.071	2723.37
574.432	2755.69
574.794	2816.71
575.155	2783.03
575.516	2773.09
575.877	2794.79
576.238	2807.21
576.599	2812.41
576.96	2786.42
577.32	2842.24
577.681	2845.18
578.042	2865.74
578.403	2864.39
578.763	2859.42
579.124	2873.88
579.485	2857.61
579.845	2833.88
580.206	2816.25
580.566	2898.74
580.927	2870.04
581.287	2865.29
581.648	2847.89
582.008	2869.36
582.368	2833.65
582.728	2860.77
583.089	2854.22
583.449	2882.92
583.809	2834.56
584.169	2869.36
584.529	2841.56
584.889	2827.78
585.249	2835.91
585.609	2798.85
585.969	2829.13
586.329	2839.3
586.688	2838.17
587.048	2859.64
587.408	2829.81
587.768	2839.98
588.127	2821.9
588.487	2797.27
588.846	2820.77
589.206	2806.54
589.565	2816.93
589.925	2806.99
590.284	2790.04
590.643	2830.04
591.003	2843.15
591.362	2806.31
591.721	2802.69
592.08	2813.77
592.44	2785.29
592.799	2790.04
593.158	2787.33
593.517	2792.53
593.876	2858.74
594.235	2802.92
594.593	2785.52
594.952	2845.86
595.311	2796.82
595.67	2812.19
596.029	2833.2
596.387	2840.66
596.746	2839.98
597.104	2813.99
597.463	2803.37
597.822	2809.25
598.18	2789.81
598.538	2837.5
598.897	2831.17
599.255	2865.97
599.613	2889.7
599.972	2852.41
600.33	2869.36
600.688	2862.35
601.046	2880.66
601.404	2877.72
601.762	2870.04
602.12	2919.08
602.478	2928.57
602.836	2894.67
603.194	2896.03
603.552	2913.88
603.91	2917.49
604.268	2905.74
604.625	2888.34
604.983	2929.02
605.341	2905.97
605.698	2936.02
606.056	2947.1
606.413	2953.43
606.771	2956.14
607.128	2942.13
607.485	2943.93
607.843	2965.4
608.2	2971.96
608.557	3020.32
608.914	2971.05
609.272	2970.6
609.629	3011.05
609.986	2994.78
610.343	2994.55
610.7	2986.87
611.057	3023.25
611.414	2976.02
611.771	3032.07
612.127	3068.68
612.484	3039.75
612.841	3053.31
613.198	3036.59
613.554	3044.27
613.911	3024.16
614.267	3072.52
614.624	3062.35
614.98	3046.3
615.337	3082.46
615.693	3085.4
616.05	3090.6
616.406	3070.71
616.762	3053.31
617.118	3063.03
617.475	3032.97
617.831	3075.46
618.187	3075.23
618.543	3072.74
618.899	3076.13
619.255	3073.42
619.611	3063.93
619.967	3036.59
620.323	3076.13
620.678	3071.61
621.034	3033.2
621.39	3049.47
621.746	3082.24
622.101	3073.2
622.457	3043.14
622.812	3015.12
623.168	3044.5
623.523	3015.57
623.879	3033.2
624.234	3050.37
624.589	3036.36
624.945	3029.13
625.3	3049.69
625.655	3040.88
626.01	3063.03
626.365	2997.94
626.72	2991.84
627.075	3011.5
627.43	3016.7
627.785	2985.51
628.14	3024.16
628.495	3015.12
628.85	3038.39
629.205	2984.84
629.559	3004.5
629.914	2961.56
630.269	2998.85
630.623	2970.6
630.978	2982.35
631.332	2977.15
631.687	2969.47
632.041	2951.39
632.396	2978.51
632.75	2955.91
633.104	2958.4
633.459	2950.94
633.813	2939.64
634.167	2928.57
634.521	2978.74
634.875	2957.27
635.229	2970.6
635.583	2974.44
635.937	2948.68
636.291	2955.68
636.645	2924.27
636.999	2954.56
637.352	2957.94
637.706	2936.02
638.06	2915.23
638.413	2907.1
638.767	2920.21
639.121	2905.74
639.474	2923.6
639.828	2938.96
640.181	2872.3
640.534	2919.3
640.888	2938.06
641.241	2917.04
641.594	2908
641.947	2956.81
642.301	2914.1
642.654	2936.02
643.007	2888.12
643.36	2938.96
643.713	2944.16
644.066	2913.43
644.419	2956.81
644.771	2901.68
645.124	2873.65
645.477	2866.42
645.83	2860.55
646.182	2809.25
646.535	2859.64
646.888	2862.81
647.24	2867.1
647.593	2861.22
647.945	2843.82
648.298	2844.5
648.65	2879.98
649.002	2829.81
649.355	2835.24
649.707	2853.09
650.059	2811.06
650.411	2883.14
650.763	2854.22
651.115	2898.51
651.467	2924.27
651.819	2938.74
652.171	2974.22
652.523	2897.61
652.875	2878.62
653.227	2916.59
653.578	2873.2
653.93	2907.32
654.282	2846.99
654.633	2879.98
654.985	2856.48
655.337	2895.12
655.688	2875.46
656.039	2890.83
656.391	2908.23
656.742	2888.12
657.094	2903.71
657.445	2868.91
657.796	2839.98
658.147	2868.23
658.498	2865.29
658.849	2886.08
659.2	2848.8
659.551	2872.75
659.902	2856.25
660.253	2838.4
660.604	2841.56
660.955	2821.9
661.306	2841.11
661.656	2835.46
662.007	2853.31
662.358	2848.34
662.708	2814.22
663.059	2832.3
663.409	2820.32
663.76	2826.65
664.11	2864.16
664.461	2846.54
664.811	2827.33
665.161	2815.8
665.511	2796.59
665.862	2801.56
666.212	2823.94
666.562	2789.59
666.912	2804.05
667.262	2772.19
667.612	2798.63
667.962	2784.16
668.312	2828.46
668.662	2777.84
669.011	2788.23
669.361	2788.01
669.711	2796.14
670.06	2785.07
670.41	2782.81
670.76	2741.91
671.109	2794.56
671.459	2751.4
671.808	2749.59
672.157	2771.96
672.507	2727.89
672.856	2738.97
673.205	2791.17
673.554	2763.83
673.904	2743.04
674.253	2755.01
674.602	2722.92
674.951	2715.69
675.3	2649.03
675.649	2708.69
675.998	2733.32
676.346	2729.48
676.695	2785.07
677.044	2739.65
677.393	2741
677.741	2769.25
678.09	2741.91
678.438	2694.22
678.787	2726.76
679.135	2715.69
679.484	2715.47
679.832	2742.13
680.181	2754.79
680.529	2696.71
680.877	2694
681.225	2695.8
681.573	2724.05
681.922	2698.74
682.27	2703.94
682.618	2673.66
682.966	2679.99
683.314	2698.52
683.661	2721.34
684.009	2684.73
684.357	2722.7
684.705	2692.87
685.053	2710.72
685.4	2703.71
685.748	2654
686.095	2655.58
686.443	2677.05
686.79	2632.3
687.138	2663.04
687.485	2633.66
687.832	2657.84
688.18	2619.42
688.527	2643.38
688.874	2643.83
689.221	2632.08
689.568	2640.67
689.915	2638.63
690.262	2619.87
690.609	2635.69
690.956	2583.49
691.303	2632.08
691.65	2564.73
691.997	2607.67
692.344	2600.21
692.69	2571.06
693.037	2573.55
693.383	2556.83
693.73	2573.1
694.077	2548.24
694.423	2541.46
694.769	2522.7
695.116	2533.32
695.462	2509.14
695.808	2534.45
696.155	2546.2
696.501	2527.45
696.847	2541.01
697.193	2494.45
697.539	2530.84
697.885	2454.68
698.231	2464.62
698.577	2507.56
698.923	2456.04
699.269	2478.18
699.614	2476.15
699.96	2502.36
700.306	2463.27
700.651	2472.08
700.997	2428.47
701.342	2442.25
701.688	2457.39
702.033	2438.86
702.379	2462.14
702.724	2433.44
703.069	2427.79
703.415	2410.84
703.76	2392.54
704.105	2431.4
704.45	2385.3
704.795	2388.02
705.14	2395.7
705.485	2381.91
705.83	2413.1
706.175	2377.17
706.52	2382.82
706.865	2371.07
707.209	2357.28
707.554	2351.86
707.899	2344.85
708.243	2372.88
708.588	2357.28
708.932	2346.44
709.277	2352.31
709.621	2337.17
709.966	2310.96
710.31	2309.15
710.654	2307.57
710.998	2305.31
711.342	2343.27
711.687	2301.92
712.031	2308.47
712.375	2286.1
712.719	2284.74
713.063	2268.7
713.407	2291.75
713.75	2285.65
714.094	2281.13
714.438	2279.32
714.782	2261.69
715.125	2275.48
715.469	2249.04
715.812	2212.65
716.156	2235.03
716.499	2225.76
716.843	2234.35
717.186	2217.17
717.53	2239.77
717.873	2247.46
718.216	2230.28
718.559	2200
718.902	2188.7
719.246	2171.98
719.589	2187.12
719.932	2228.92
720.275	2186.21
720.617	2187.57
720.96	2225.31
721.303	2187.57
721.646	2193.67
721.989	2182.82
722.331	2185.31
722.674	2162.49
723.016	2205.65
723.359	2181.92
723.701	2174.24
724.044	2145.31
724.386	2160
724.729	2167.46
725.071	2174.46
725.413	2183.5
725.755	2160
726.097	2146.89
726.439	2106.22
726.782	2155.03
727.124	2133.11
727.465	2136.5
727.807	2130.85
728.149	2143.73
728.491	2125.65
728.833	2126.55
729.175	2124.97
729.516	2108.02
729.858	2115.26
730.199	2098.53
730.541	2112.77
730.882	2105.09
731.224	2134.24
731.565	2076.61
731.906	2116.39
732.248	2095.37
732.589	2102.37
732.93	2068.25
733.271	2106.89
733.612	2116.61
733.953	2089.04
734.294	2068.7
734.635	2078.87
734.976	2069.61
735.317	2087.91
735.658	2077.06
735.999	2078.19
736.339	2075.71
736.68	2036.84
737.021	2040.68
737.361	2070.51
737.702	2053.11
738.042	2082.04
738.383	2036.39
738.723	2056.95
739.063	2061.92
739.404	2070.06
739.744	2051.53
740.084	2033
740.424	2048.14
740.764	2007.01
741.104	2066.67
741.444	2050.62
741.784	2036.39
742.124	2024.64
742.464	2033.45
742.804	2007.01
743.143	2053.34
743.483	2016.27
743.823	2012.21
744.162	2064.18
744.502	2022.6
744.841	1997.97
745.181	2007.69
745.52	1997.97
745.86	2014.24
746.199	2033.22
746.538	1997.07
746.877	2008.37
747.216	1981.02
747.556	1983.28
747.895	1968.59
748.234	2021.02
748.573	1986.67
748.911	1979.89
749.25	1983.28
749.589	1998.65
749.928	1967.01
750.267	1958.42
750.605	1961.36
750.944	1971.53
751.283	1945.99
751.621	1966.56
751.96	1943.96
752.298	1933.34
752.636	1910.97
752.975	1933.79
753.313	1906.45
753.651	1955.94
753.989	1928.59
754.327	1927.69
754.666	1905.77
755.004	1939.21
755.342	1944.41
755.679	1890.4
756.017	1913
756.355	1931.31
756.693	1899.89
757.031	1908.03
757.368	1876.84
757.706	1878.88
758.044	1902.15
758.381	1910.06
758.719	1886.33
759.056	1891.76
759.394	1901.48
759.731	1842.72
760.068	1857.18
760.405	1857.41
760.743	1846.56
761.08	1860.57
761.417	1822.61
761.754	1858.09
762.091	1835.49
762.428	1829.39
762.765	1790.29
763.102	1825.55
763.438	1837.75
763.775	1813.79
764.112	1788.94
764.449	1785.32
764.785	1784.19
765.122	1764.3
765.458	1771.31
765.795	1774.25
766.131	1781.03
766.467	1787.13
766.804	1764.08
767.14	1757.98
767.476	1771.99
767.812	1754.36
768.148	1759.33
768.485	1733.12
768.821	1736.06
769.157	1767.02
769.492	1729.95
769.828	1713.91
770.164	1717.98
770.5	1705.32
770.836	1720.46
771.171	1704.87
771.507	1715.27
771.842	1710.29
772.178	1692.89
772.513	1708.71
772.849	1702.61
773.184	1686.79
