Data from foam_black_FLMS001491_00036.txt Node
Date: Wed Feb 08 10:43:48 GMT 2017
User: dcchb
Spectrometer: FLMS00149
Trigger mode: 0
Integration Time (sec): 2.000000E-2
Scans to average: 10
Electric dark correction enabled: true
Nonlinearity correction enabled: false
Boxcar width: 0
XAxis mode: Wavelengths
Number of Pixels in Spectrum: 2048
>>>>>Begin Spectral Data<<<<<
341.393	-23.43
341.776	-23.43
342.16	-23.43
342.543	-42.19
342.927	-59.59
343.31	-70.89
343.693	-75.18
344.077	-74.73
344.46	-59.14
344.843	-45.58
345.226	-59.59
345.61	-22.3
345.993	-13.26
346.376	-11.91
346.759	28.32
347.142	26.74
347.525	32.16
347.908	69.22
348.291	66.51
348.674	91.14
349.057	118.49
349.44	144.7
349.823	139.05
350.206	176.11
350.588	178.82
350.971	189.22
351.354	203.68
351.737	233.06
352.119	239.16
352.502	253.4
352.884	278.03
353.267	260.18
353.65	281.87
354.032	275.09
354.414	291.81
354.797	290.46
355.179	311.02
355.562	303.11
355.944	319.84
356.326	316.22
356.709	313.28
357.091	327.52
357.473	320.97
357.855	330.91
358.238	325.94
358.62	327.07
359.002	341.08
359.384	358.93
359.766	307.41
360.148	315.09
360.53	317.58
360.912	318.71
361.294	336.11
361.676	309.44
362.057	313.28
362.439	297.24
362.821	313.73
363.203	317.8
363.584	317.12
363.966	308.76
364.348	318.71
364.729	302.66
365.111	283.23
365.493	297.92
365.874	308.09
366.256	330.46
366.637	311.7
367.019	308.54
367.4	269.22
367.781	306.96
368.163	313.96
368.544	299.5
368.925	298.14
369.306	321.87
369.688	300.85
370.069	296.11
370.45	316.45
370.831	317.8
371.212	312.6
371.593	309.22
371.974	302.89
372.355	315.99
372.736	296.56
373.117	312.38
373.498	278.26
373.879	319.16
374.26	300.63
374.641	290.91
375.021	299.95
375.402	303.79
375.783	312.15
376.163	314.41
376.544	304.7
376.925	309.22
377.305	324.81
377.686	296.33
378.066	299.72
378.447	305.37
378.827	310.12
379.208	309.89
379.588	300.4
379.968	320.97
380.349	305.6
380.729	304.02
381.109	315.99
381.489	320.97
381.87	328.88
382.25	321.42
382.63	325.49
383.01	328.65
383.39	315.77
383.77	325.03
384.15	331.36
384.53	330.01
384.91	329.55
385.29	328.88
385.67	314.19
386.049	318.93
386.429	342.66
386.809	317.8
387.189	341.08
387.568	333.85
387.948	332.72
388.328	308.31
388.707	317.12
389.087	346.28
389.466	358.03
389.846	318.71
390.225	340.85
390.605	336.78
390.984	319.16
391.363	370
391.743	345.15
392.122	353.06
392.501	327.29
392.881	336.56
393.26	355.77
393.639	350.57
394.018	340.4
394.397	359.61
394.776	340.17
395.155	345.37
395.534	349.44
395.913	365.94
396.292	355.77
396.671	349.67
397.05	344.47
397.429	345.37
397.808	344.02
398.186	360.97
398.565	348.08
398.944	357.58
399.323	362.55
399.701	373.62
400.08	372.72
400.458	368.87
400.837	351.47
401.215	387.86
401.594	378.37
401.972	357.35
402.351	375.43
402.729	369.55
403.107	357.58
403.486	376.11
403.864	388.53
404.242	392.83
404.62	387.41
404.999	396.67
405.377	398.03
405.755	395.09
406.133	370
406.511	373.62
406.889	394.18
407.267	376.56
407.645	398.48
408.023	387.18
408.401	382.66
408.779	390.57
409.156	417.23
409.534	417.46
409.912	414.97
410.29	402.77
410.667	421.53
411.045	419.72
411.422	405.26
411.8	414.75
412.178	405.48
412.555	402.77
412.933	423.56
413.31	419.95
413.687	440.06
414.065	415.43
414.442	410.46
414.819	431.7
415.197	443.45
415.574	435.99
415.951	447.52
416.328	443.67
416.705	442.32
417.082	448.65
417.46	465.82
417.837	460.17
418.214	454.3
418.591	438.03
418.967	446.61
419.344	453.17
419.721	465.82
420.098	439.83
420.475	450
420.852	435.09
421.228	469.44
421.605	466.5
421.982	474.41
422.358	474.63
422.735	489.1
423.111	479.83
423.488	491.36
423.864	492.49
424.241	468.31
424.617	492.04
424.994	488.65
425.37	506.95
425.746	498.59
426.123	503.33
426.499	496.55
426.875	505.59
427.251	497.23
427.627	527.29
428.003	525.93
428.379	520.28
428.756	507.63
429.132	520.73
429.507	515.99
429.883	518.7
430.259	536.55
430.635	540.85
431.011	537.91
431.387	533.39
431.763	536.55
432.138	559.83
432.514	561.64
432.89	565.25
433.265	545.37
433.641	548.53
434.016	575.65
434.392	576.55
434.767	556.44
435.143	577.91
435.518	586.95
435.894	580.39
436.269	584.91
436.644	568.64
437.02	581.07
437.395	566.61
437.77	581.52
438.145	604.57
438.52	607.96
438.895	595.31
439.271	605.48
439.646	627.85
440.021	603.22
440.395	631.69
440.77	616.33
441.145	601.41
441.52	608.87
441.895	602.54
442.27	635.08
442.645	631.01
443.019	623.56
443.394	618.81
443.769	625.14
444.143	640.51
444.518	643.44
444.892	644.35
445.267	649.77
445.641	670.11
446.016	680.05
446.39	649.09
446.764	645.7
447.139	680.05
447.513	644.57
447.887	671.69
448.262	666.95
448.636	663.1
449.01	694.06
449.384	681.18
449.758	670.56
450.132	702.65
450.506	678.7
450.88	683.89
451.254	675.99
451.628	694.74
452.002	705.14
452.376	699.94
452.75	721.63
453.123	694.52
453.497	718.47
453.871	727.28
454.244	741.75
454.618	732.93
454.992	733.16
455.365	739.49
455.739	741.29
456.112	798.02
456.486	744.46
456.859	777
457.232	777.23
457.606	768.19
457.979	774.97
458.352	764.34
458.725	794.85
459.099	798.02
459.472	798.69
459.845	785.81
460.218	833.95
460.591	810.9
460.964	826.04
461.337	848.64
461.71	847.05
462.083	852.7
462.456	864
462.829	850.67
463.201	851.12
463.574	853.83
463.947	884.34
464.32	883.44
464.692	904.45
465.065	882.31
465.438	913.94
465.81	928.63
466.183	935.41
466.555	943.1
466.928	941.97
467.3	932.48
467.672	973.6
468.045	966.37
468.417	970.67
468.789	968.18
469.161	973.6
469.534	994.17
469.906	1035.98
470.278	1037.78
470.65	1021.06
471.022	1044.56
471.394	1044.79
471.766	1064.68
472.138	1068.74
472.51	1100.38
472.882	1085.69
473.253	1088.18
473.625	1113.04
473.997	1117.1
474.369	1142.41
474.74	1135.63
475.112	1170.44
475.484	1169.08
475.855	1188.97
476.227	1197.78
476.598	1234.61
476.97	1232.13
477.341	1230.32
477.713	1271.45
478.084	1249.76
478.455	1302.18
478.827	1311
479.198	1341.05
479.569	1330.88
479.94	1355.29
480.311	1349.87
480.682	1374.05
481.053	1387.38
481.424	1409.3
481.795	1428.73
482.166	1456.08
482.537	1474.83
482.908	1472.12
483.279	1502.86
483.65	1493.82
484.021	1545.79
484.391	1564.1
484.762	1588.28
485.133	1577.2
485.503	1610.88
485.874	1642.74
486.244	1668.73
486.615	1682.74
486.985	1695.62
487.356	1706.24
487.726	1720.93
488.097	1736.97
488.467	1752.11
488.837	1782.4
489.207	1762.28
489.578	1835.28
489.948	1848.16
490.318	1844.09
490.688	1851.77
491.058	1849.51
491.428	1892.68
491.798	1919.12
492.168	1962.96
492.538	1949.17
492.908	1956.63
493.278	1996.63
493.648	1955.95
494.017	2013.35
494.387	2022.84
494.757	2037.53
495.126	2086.34
495.496	2071.88
495.866	2070.75
496.235	2115.95
496.605	2118.21
496.974	2147.81
497.344	2147.36
497.713	2164.53
498.082	2185.55
498.452	2201.59
498.821	2196.4
499.19	2193.46
499.559	2207.24
499.928	2233.68
500.298	2245.44
500.667	2252.21
501.036	2244.53
501.405	2262.84
501.774	2264.87
502.143	2317.52
502.512	2312.78
502.88	2307.13
503.249	2328.37
503.618	2327.92
503.987	2360.46
504.356	2383.96
504.724	2398.43
505.093	2423.28
505.462	2411.98
505.83	2428.26
506.199	2418.31
506.567	2467.8
506.936	2442.72
507.304	2511.42
507.672	2491.98
508.041	2531.3
508.409	2540.57
508.777	2559.33
509.145	2575.82
509.514	2570.62
509.882	2603.84
510.25	2597.29
510.618	2608.59
510.986	2665.54
511.354	2640
511.722	2647.01
512.09	2667.57
512.458	2668.93
512.826	2744.41
513.193	2729.04
513.561	2693.79
513.929	2792.77
514.297	2762.94
514.664	2742.82
515.032	2795.93
515.4	2825.76
515.767	2825.99
516.135	2833.44
516.502	2835.02
516.869	2913.44
517.237	2886.1
517.604	2914.57
517.972	2929.94
518.339	2935.36
518.706	2953.67
519.073	2950.28
519.44	2983.72
519.808	3037.28
520.175	3070.05
520.542	3034.12
520.909	3082.25
521.276	3082.48
521.643	3084.28
522.009	3101.91
522.376	3157.5
522.743	3195.69
523.11	3188.69
523.477	3226.65
523.843	3267.78
524.21	3275.92
524.577	3298.29
524.943	3333.09
525.31	3284.73
525.676	3393.43
526.043	3352.98
526.409	3393.43
526.776	3426.2
527.142	3435.91
527.508	3449.02
527.874	3444.95
528.241	3477.49
528.607	3425.74
528.973	3539.64
529.339	3523.37
529.705	3538.06
530.071	3563.14
530.437	3596.36
530.803	3620.99
531.169	3691.27
531.535	3664.16
531.901	3683.36
532.267	3673.65
532.632	3696.47
532.998	3733.53
533.364	3728.11
533.73	3774.21
534.095	3749.12
534.461	3831.61
534.826	3823.92
535.192	3827.54
535.557	3844.49
535.923	3805.39
536.288	3881.55
536.653	3894.88
537.019	3885.84
537.384	3912.96
537.749	3954.09
538.114	3909.57
538.479	3952.74
538.845	3998.84
539.21	3983.47
539.575	3987.76
539.94	4021.66
540.305	4016.69
540.67	4031.83
541.034	4034.31
541.399	4079.29
541.764	4059.17
542.129	4063.47
542.494	4099.85
542.858	4118.38
543.223	4114.99
543.587	4190.92
543.952	4150.92
544.316	4163.8
544.681	4182.79
545.045	4212.84
545.41	4190.02
545.774	4248.09
546.138	4194.54
546.503	4260.3
546.867	4239.06
547.231	4291.71
547.595	4267.76
547.959	4264.59
548.324	4317.92
548.688	4310.69
549.052	4327.19
549.416	4313.4
549.779	4393.4
550.143	4416.9
550.507	4379.39
550.871	4421.65
551.235	4454.64
551.599	4427.3
551.962	4521.99
552.326	4491.25
552.689	4517.01
553.053	4513.85
553.417	4559.05
553.78	4597.69
554.143	4596.79
554.507	4604.47
554.87	4600.18
555.234	4621.42
555.597	4667.74
555.96	4637.91
556.323	4657.12
556.686	4654.41
557.05	4712.04
557.413	4727.18
557.776	4695.99
558.139	4776.67
558.502	4816.22
558.865	4823.22
559.228	4834.97
559.59	4834.75
559.953	4879.94
560.316	4962.2
560.679	4949.32
561.041	4936.44
561.404	4944.57
561.767	4977.79
562.129	5022.54
562.492	5008.53
562.854	5046.04
563.217	5065.02
563.579	5078.36
563.941	5110.22
564.304	5128.98
564.666	5142.31
565.028	5152.03
565.39	5185.02
565.753	5231.12
566.115	5246.49
566.477	5271.34
566.839	5309.08
567.201	5332.81
567.563	5337.33
567.925	5352.02
568.287	5361.51
568.648	5403.09
569.01	5387.95
569.372	5444
569.734	5401.06
570.095	5457.78
570.457	5493.94
570.819	5518.57
571.18	5533.48
571.542	5606.02
571.903	5544.33
572.265	5567.16
572.626	5598.34
572.987	5630.88
573.349	5627.04
573.71	5594.73
574.071	5627.49
574.432	5736.42
574.794	5694.16
575.155	5738.22
575.516	5654.61
575.877	5706.14
576.238	5749.75
576.599	5775.96
576.96	5769.18
577.32	5817.54
577.681	5799.01
578.042	5824.78
578.403	5778.22
578.763	5784.78
579.124	5808.51
579.485	5846.7
579.845	5869.29
580.206	5895.73
580.566	5867.03
580.927	5832.91
581.287	5943.19
581.648	5880.59
582.008	5950.42
582.368	5909.52
582.728	5932.12
583.089	5918.56
583.449	5951.55
583.809	5980.7
584.169	5953.59
584.529	5919.69
584.889	5976.64
585.249	5905.45
585.609	5944.32
585.969	5986.81
586.329	5963.76
586.688	6006.92
587.048	5982.74
587.408	5981.61
587.768	5919.01
588.127	5955.62
588.487	5997.65
588.846	5954.04
589.206	5938.45
589.565	5944.32
589.925	5960.14
590.284	5962.17
590.643	5967.37
591.003	5919.24
591.362	5991.33
591.721	5923.3
592.08	5947.26
592.44	6006.47
592.799	5992.23
593.158	5986.13
593.517	5880.82
593.876	5974.83
594.235	5930.31
594.593	5957.65
594.952	5963.3
595.311	5913.36
595.67	5971.67
596.029	6019.8
596.387	5973.02
596.746	6036.3
597.104	6005.79
597.463	5959.24
597.822	6029.06
598.18	5975.28
598.538	5981.38
598.897	6071.1
599.255	6041.72
599.613	6080.59
599.972	6017.99
600.33	6051.21
600.688	6053.92
601.046	6051.89
601.404	6091.21
601.762	6062.96
602.12	6081.04
602.478	6136.86
602.836	6081.94
603.194	6110.42
603.552	6057.31
603.91	6086.69
604.268	6168.95
604.625	6092.57
604.983	6102.96
605.341	6059.8
605.698	6176.63
606.056	6095.5
606.413	6106.58
606.771	6163.52
607.128	6136.41
607.485	6086.01
607.843	6134.82
608.2	6150.87
608.557	6144.09
608.914	6062.74
609.272	6137.54
609.629	6141.38
609.986	6206.24
610.343	6169.4
610.7	6227.25
611.057	6203.3
611.414	6206.91
611.771	6153.36
612.127	6251.43
612.484	6266.57
612.841	6256.63
613.198	6267.7
613.554	6249.85
613.911	6343.18
614.267	6310.19
614.624	6340.24
614.98	6353.58
615.337	6409.17
615.693	6346.8
616.05	6360.13
616.406	6418.66
616.762	6382.95
617.118	6369.39
617.475	6454.14
617.831	6394.25
618.187	6401.03
618.543	6390.41
618.899	6482.39
619.255	6451.43
619.611	6454.82
619.967	6508.15
620.323	6468.6
620.678	6472.44
621.034	6411.2
621.39	6449.62
621.746	6411.88
622.101	6454.59
622.457	6383.63
622.812	6366.91
623.168	6345.67
623.523	6402.39
623.879	6419.56
624.234	6301.37
624.589	6348.38
624.945	6344.54
625.3	6327.36
625.655	6343.41
626.01	6276.97
626.365	6324.42
626.72	6277.42
627.075	6314.71
627.43	6329.17
627.785	6228.61
628.14	6285.1
628.495	6280.58
628.85	6272.67
629.205	6250.75
629.559	6263.86
629.914	6299.57
630.269	6255.27
630.623	6291.2
630.978	6228.61
631.332	6216.63
631.687	6306.12
632.041	6279.23
632.396	6299.79
632.75	6296.4
633.104	6273.58
633.459	6308.61
633.813	6296.18
634.167	6341.82
634.521	6330.3
634.875	6292.11
635.229	6309.28
635.583	6316.74
635.937	6373.91
636.291	6308.83
636.645	6337.76
636.999	6294.59
637.352	6397.64
637.706	6260.02
638.06	6341.15
638.413	6322.39
638.767	6324.88
639.121	6339.56
639.474	6268.83
639.828	6290.07
640.181	6306.35
640.534	6264.54
640.888	6226.57
641.241	6255.95
641.594	6235.16
641.947	6253.92
642.301	6262.5
642.654	6169.4
643.007	6158.55
643.36	6192.45
643.713	6244.43
644.066	6158.55
644.419	6115.39
644.771	6051.66
645.124	5968.5
645.477	5977.31
645.83	5909.52
646.182	5921.5
646.535	5931.89
646.888	5957.65
647.24	5894.83
647.593	5917.66
647.945	5937.77
648.298	5856.41
648.65	5873.59
649.002	5862.74
649.355	5896.41
649.707	5838.34
650.059	5901.61
650.411	5872.68
650.763	5928.05
651.115	6014.38
651.467	6008.5
651.819	5984.55
652.171	6000.59
652.523	5962.17
652.875	5941.84
653.227	5973.47
653.578	6016.41
653.93	6032.45
654.282	5945.9
654.633	6001.49
654.985	5999.46
655.337	5971.21
655.688	6005.79
656.039	6016.64
656.391	5950.42
656.742	5966.92
657.094	5946.81
657.445	5988.16
657.796	5949.74
658.147	5982.51
658.498	5946.35
658.849	5967.15
659.2	5891.22
659.551	5871.55
659.902	5951.33
660.253	5904.32
660.604	5871.78
660.955	5872.01
661.306	5856.64
661.656	5842.85
662.007	5840.37
662.358	5867.03
662.708	5924.89
663.059	5885.11
663.409	5819.35
663.76	5833.14
664.11	5880.14
664.461	5834.49
664.811	5858.22
665.161	5838.79
665.511	5781.61
665.862	5853.02
666.212	5863.19
666.562	5812.57
666.912	5811.44
667.262	5799.01
667.612	5775.74
667.962	5774.83
668.312	5783.2
668.662	5825.68
669.011	5818.9
669.361	5772.57
669.711	5803.31
670.06	5832.23
670.41	5817.54
670.76	5796.08
671.109	5805.79
671.459	5848.05
671.808	5819.13
672.157	5897.54
672.507	5803.99
672.856	5813.48
673.205	5860.26
673.554	5902.97
673.904	5874.27
674.253	5878.56
674.602	5874.27
674.951	5791.56
675.3	5827.04
675.649	5850.31
675.998	5860.26
676.346	5867.71
676.695	5888.5
677.044	5797.21
677.393	5865.91
677.741	5865.91
678.09	5888.05
678.438	5733.71
678.787	5801.27
679.135	5822.52
679.484	5833.14
679.832	5766.25
680.181	5746.13
680.529	5771.44
680.877	5721.28
681.225	5706.14
681.573	5694.16
681.922	5682.86
682.27	5669.75
682.618	5640.15
682.966	5664.55
683.314	5657.77
683.661	5564.22
684.009	5552.02
684.357	5560.38
684.705	5529.64
685.053	5552.47
685.4	5566.48
685.748	5486.03
686.095	5463.66
686.443	5452.13
686.79	5439.93
687.138	5453.94
687.485	5450.55
687.832	5463.43
688.18	5427.05
688.527	5377.78
688.874	5366.94
689.221	5397.89
689.568	5401.51
689.915	5385.01
690.262	5362.87
690.609	5392.25
690.956	5344.34
691.303	5338.69
691.65	5340.04
691.997	5282.42
692.344	5274.73
692.69	5301.17
693.037	5337.11
693.383	5327.16
693.73	5367.39
694.077	5280.84
694.423	5265.92
694.769	5328.07
695.116	5255.3
695.462	5273.15
695.808	5248.97
696.155	5257.33
696.501	5239.03
696.847	5284.68
697.193	5235.41
697.539	5252.81
697.885	5194.28
698.231	5159.48
698.577	5157
698.923	5150.44
699.269	5118.81
699.614	5157
699.96	5154.51
700.306	5119.48
700.651	5149.31
700.997	5093.27
701.342	5131.46
701.688	5059.15
702.033	5056.89
702.379	5077.9
702.724	5039.26
703.069	5019.15
703.415	4984.8
703.76	5005.81
704.105	4971.92
704.45	5030.9
704.795	4954.29
705.14	4938.02
705.485	4912.48
705.83	4867.74
706.175	4894.41
706.52	4858.25
706.865	4842.43
707.209	4804.01
707.554	4844.24
707.899	4787.52
708.243	4808.98
708.588	4799.72
708.932	4803.33
709.277	4761.75
709.621	4787.97
709.966	4776.22
710.31	4768.31
710.654	4707.07
710.998	4686.95
711.342	4701.87
711.687	4637.91
712.031	4658.48
712.375	4641.76
712.719	4659.84
713.063	4646.28
713.407	4687.18
713.75	4653.28
714.094	4710.91
714.438	4620.06
714.782	4634.98
715.125	4668.42
715.469	4634.3
715.812	4636.33
716.156	4553.85
716.499	4604.7
716.843	4627.52
717.186	4597.01
717.53	4588.88
717.873	4587.75
718.216	4577.13
718.559	4563.34
718.902	4576.22
719.246	4586.62
719.589	4526.96
719.932	4543.68
720.275	4538.48
720.617	4523.79
720.96	4530.35
721.303	4557.46
721.646	4519.73
721.989	4496.9
722.331	4462.55
722.674	4487.64
723.016	4486.05
723.359	4488.99
723.701	4446.73
724.044	4495.09
724.386	4466.62
724.729	4429.11
725.071	4449.67
725.413	4483.12
725.755	4383.68
726.097	4402.44
726.439	4370.8
726.782	4388.66
727.124	4429.56
727.465	4352.95
727.807	4384.81
728.149	4408.99
728.491	4327.41
728.833	4342.1
729.175	4346.17
729.516	4371.03
729.858	4287.87
730.199	4286.06
730.541	4258.49
730.882	4298.04
731.224	4298.49
731.565	4286.96
731.906	4271.37
732.248	4296
732.589	4251.03
732.93	4216.68
733.271	4241.09
733.612	4284.03
733.953	4266.4
734.294	4243.57
734.635	4169.45
734.976	4190.02
735.317	4183.69
735.658	4173.29
735.999	4204.93
736.339	4202.22
736.68	4187.53
737.021	4179.17
737.361	4089.91
737.702	4187.53
738.042	4156.8
738.383	4158.83
738.723	4143.92
739.063	4175.78
739.404	4151.83
739.744	4131.26
740.084	4075.67
740.424	4152.28
740.764	4115.89
741.104	4107.99
741.444	4114.76
741.784	4069.34
742.124	4109.57
742.464	4082.22
742.804	4106.4
743.143	4070.25
743.483	4086.29
743.823	4061.43
744.162	4058.49
744.502	4065.95
744.841	4051.72
745.181	4087.19
745.52	4050.36
745.86	4054.88
746.199	4061.66
746.538	4040.64
746.877	4075.22
747.216	4045.16
747.556	4035.44
747.895	4041.55
748.234	4014.43
748.573	4019.17
748.911	4039.29
749.25	3996.8
749.589	4000.19
749.928	3982.79
750.267	4030.7
750.605	4014.88
750.944	4003.13
751.283	3994.77
751.621	4008.1
751.96	3954.77
752.298	3954.54
752.636	3926.97
752.975	3926.52
753.313	3948.89
753.651	3934.2
753.989	3919.29
754.327	3913.64
754.666	3883.58
755.004	3905.73
755.342	3869.57
755.679	3870.25
756.017	3876.58
756.355	3854.88
756.693	3819.18
757.031	3847.65
757.368	3802.46
757.706	3844.49
758.044	3821.67
758.381	3833.64
758.719	3791.84
759.056	3815.11
759.394	3811.95
759.731	3765.4
760.068	3778.28
760.405	3763.36
760.743	3739.86
761.08	3727.43
761.417	3708.9
761.754	3709.8
762.091	3733.76
762.428	3680.43
762.765	3682.91
763.102	3696.02
763.438	3674.78
763.775	3637.72
764.112	3655.57
764.449	3635.68
764.785	3655.12
765.122	3594.1
765.458	3611.95
765.795	3564.27
766.131	3600.2
766.467	3522.92
766.804	3542.58
767.14	3540.09
767.476	3547.77
767.812	3530.15
768.148	3521.11
768.485	3480.43
768.821	3464.61
769.157	3453.77
769.492	3453.99
769.828	3476.59
770.164	3378.29
770.5	3448.79
770.836	3451.05
771.171	3388.91
