Data from foam_black_FLMS001491_00089.txt Node
Date: Wed Feb 08 10:44:51 GMT 2017
User: dcchb
Spectrometer: FLMS00149
Trigger mode: 0
Integration Time (sec): 2.000000E-2
Scans to average: 10
Electric dark correction enabled: true
Nonlinearity correction enabled: false
Boxcar width: 0
XAxis mode: Wavelengths
Number of Pixels in Spectrum: 2048
>>>>>Begin Spectral Data<<<<<
341.393	-9.11
341.776	-9.11
342.16	-9.11
342.543	-71.03
342.927	-65.38
343.31	-74.19
343.693	-61.31
344.077	-66.06
344.46	-58.6
344.843	-57.24
345.226	-34.19
345.61	-49.11
345.993	-21.09
346.376	-0.97
346.759	7.84
347.142	35.18
347.525	51.91
347.908	67.72
348.291	70.66
348.674	77.44
349.057	112.02
349.44	91
349.823	122.64
350.206	175.29
350.588	167.61
350.971	216.87
351.354	220.04
351.737	227.72
352.119	260.94
352.502	251.9
352.884	248.74
353.267	260.71
353.65	294.84
354.032	291.45
354.414	319.02
354.797	311.11
355.179	315.4
355.562	298
355.944	328.51
356.326	321.5
356.709	327.38
357.091	312.92
357.473	352.46
357.855	334.38
358.238	330.32
358.62	319.02
359.002	323.31
359.384	335.06
359.766	328.96
360.148	318.11
360.53	310.2
360.912	341.84
361.294	320.6
361.676	321.95
362.057	324.44
362.439	323.31
362.821	343.42
363.203	329.86
363.584	342.07
363.966	318.34
364.348	330.99
364.729	316.08
365.111	341.16
365.493	327.38
365.874	311.56
366.256	321.5
366.637	312.01
367.019	309.07
367.4	321.95
367.781	327.83
368.163	316.31
368.544	297.55
368.925	329.86
369.306	315.18
369.688	295.74
370.069	315.4
370.45	313.37
370.831	308.17
371.212	316.08
371.593	310.88
371.974	324.67
372.355	346.81
372.736	315.18
373.117	332.35
373.498	296.64
373.879	313.14
374.26	312.69
374.641	307.49
375.021	337.1
375.402	330.09
375.783	345.23
376.163	336.64
376.544	305.91
376.925	319.47
377.305	330.09
377.686	337.32
378.066	330.32
378.447	362.41
378.827	363.76
379.208	335.06
379.588	332.8
379.968	344.55
380.349	344.55
380.729	347.49
381.109	349.07
381.489	328.06
381.87	329.86
382.25	350.43
382.63	368.96
383.01	366.47
383.39	362.86
383.77	361.28
384.15	347.26
384.53	359.24
384.91	375.74
385.29	373.7
385.67	349.07
386.049	394.27
386.429	355.63
386.809	398.34
387.189	390.2
387.568	361.73
387.948	377.09
388.328	384.78
388.707	381.84
389.087	392.91
389.466	404.44
389.846	378
390.225	379.58
390.605	383.2
390.984	403.31
391.363	396.3
391.743	387.04
392.122	417.09
392.501	419.13
392.881	412.12
393.26	429.3
393.639	399.69
394.018	402.4
394.397	418.9
394.776	419.35
395.155	427.94
395.534	426.13
395.913	409.18
396.292	434.72
396.671	442.4
397.05	454.38
397.429	435.17
397.808	456.19
398.186	445.79
398.565	460.71
398.944	449.18
399.323	456.87
399.701	442.4
400.08	460.71
400.458	467.04
400.837	437.21
401.215	460.26
401.594	474.04
401.972	456.41
402.351	462.97
402.729	463.19
403.107	477.43
403.486	462.52
403.864	493.02
404.242	466.13
404.62	502.97
404.999	484.44
405.377	489.86
405.755	506.58
406.133	515.85
406.511	503.42
406.889	513.59
407.267	519.01
407.645	516.3
408.023	523.98
408.401	521.27
408.779	529.41
409.156	528.96
409.534	516.98
409.912	542.06
410.29	557.43
410.667	530.08
411.045	528.28
411.422	565.56
411.8	548.16
412.178	565.34
412.555	575.28
412.933	581.38
413.31	573.02
413.687	596.75
414.065	582.96
414.442	613.47
414.819	594.26
415.197	599.01
415.574	593.81
415.951	611.66
416.328	616.86
416.705	614.15
417.082	603.3
417.46	622.29
417.837	605.79
418.214	631.33
418.591	625
418.967	620.03
419.344	626.58
419.721	653.02
420.098	634.94
420.475	664.32
420.852	651.89
421.228	665
421.605	663.41
421.982	680.82
422.358	666.8
422.735	693.92
423.111	695.73
423.488	693.47
423.864	707.93
424.241	679.91
424.617	713.81
424.994	716.29
425.37	709.74
425.746	733.02
426.123	731.89
426.499	751.55
426.875	731.66
427.251	740.93
427.627	774.82
428.003	774.6
428.379	767.37
428.756	782.06
429.132	764.88
429.507	792
429.883	796.29
430.259	824.77
430.635	826.57
431.011	806.91
431.387	820.7
431.763	838.78
432.138	848.72
432.514	889.85
432.89	863.64
433.265	844.43
433.641	888.95
434.016	877.87
434.392	887.36
434.767	937.08
435.143	942.73
435.518	916.97
435.894	938.89
436.269	922.39
436.644	957.87
437.02	949.51
437.395	956.97
437.77	967.81
438.145	1004.42
438.52	977.76
438.895	966.01
439.271	1001.71
439.646	998.32
440.021	1019.11
440.395	1016.63
440.77	1022.73
441.145	1036.74
441.52	1011.65
441.895	1047.13
442.27	1058.66
442.645	1040.35
443.019	1086.23
443.394	1067.25
443.769	1072.67
444.143	1080.58
444.518	1097.75
444.892	1093.46
445.267	1107.92
445.641	1108.83
446.016	1110.41
446.39	1107.02
446.764	1129.84
447.139	1112.67
447.513	1135.27
447.887	1156.28
448.262	1174.81
448.636	1166
449.01	1178.2
449.384	1170.07
449.758	1185.43
450.132	1196.73
450.506	1196.51
450.88	1197.41
451.254	1186.11
451.628	1223.85
452.002	1240.35
452.376	1267.92
452.75	1265.66
453.123	1250.97
453.497	1256.17
453.871	1292.32
454.244	1293.68
454.618	1333.68
454.992	1329.39
455.365	1323.28
455.739	1355.6
456.112	1373.68
456.486	1389.5
456.859	1391.53
457.232	1396.28
457.606	1424.75
457.979	1424.98
458.352	1444.86
458.725	1463.62
459.099	1476.27
459.472	1479.44
459.845	1545.88
460.218	1536.16
460.591	1564.63
460.964	1558.08
461.337	1584.75
461.71	1593.56
462.083	1612.99
462.456	1615.93
462.829	1612.32
463.201	1634.24
463.574	1655.71
463.947	1672.88
464.32	1698.87
464.692	1712.65
465.065	1746.55
465.438	1757.17
465.81	1771.63
466.183	1777.06
466.555	1809.83
466.928	1829.49
467.3	1803.95
467.672	1866.77
468.045	1892.76
468.417	1887.56
468.789	1903.38
469.161	1939.31
469.534	1988.8
469.906	2022.93
470.278	2027.67
470.65	2053.21
471.022	2081
471.394	2106.99
471.766	2105.64
472.138	2140.89
472.51	2177.5
472.882	2175.24
473.253	2252.98
473.625	2257.05
473.997	2274.9
474.369	2311.96
474.74	2351.28
475.112	2391.28
475.484	2410.04
475.855	2447.77
476.227	2487.55
476.598	2530.03
476.97	2564.83
477.341	2589.24
477.713	2637.15
478.084	2645.06
478.455	2727.32
478.827	2725.51
479.198	2787.88
479.569	2780.65
479.94	2884.83
480.311	2911.72
480.682	2948.55
481.053	3053.41
481.424	3078.72
481.795	3120.75
482.166	3103.35
482.537	3165.27
482.908	3234.87
483.279	3256.11
483.65	3294.76
484.021	3354.19
484.391	3398.26
484.762	3414.3
485.133	3453.85
485.503	3457.47
485.874	3586.73
486.244	3643
486.615	3644.35
486.985	3665.14
487.356	3727.74
487.726	3758.93
488.097	3844.12
488.467	3831.24
488.837	3930.9
489.207	3974.06
489.578	4020.84
489.948	4052.7
490.318	4096.32
490.688	4127.5
491.058	4155.07
491.428	4199.14
491.798	4262.19
492.168	4349.19
492.538	4370.21
492.908	4429.87
493.278	4409.98
493.648	4417.89
494.017	4504.44
494.387	4555.06
494.757	4528.85
495.126	4624.67
495.496	4626.47
495.866	4667.15
496.235	4743.31
496.605	4755.06
496.974	4772.46
497.344	4768.39
497.713	4859.69
498.082	4894.94
498.452	4897.2
498.821	4928.61
499.19	5032.34
499.559	5005.67
499.928	5048.38
500.298	5115.05
500.667	5089.74
501.036	5079.57
501.405	5180.58
501.774	5176.06
502.143	5241.83
502.512	5302.39
502.88	5292.67
503.249	5301.48
503.618	5327.25
503.987	5343.52
504.356	5369.05
504.724	5446.34
505.093	5446.11
505.462	5466.23
505.83	5548.94
506.199	5579.9
506.567	5613.79
506.936	5583.29
507.304	5716.39
507.672	5748.03
508.041	5721.81
508.409	5751.19
508.777	5798.2
509.145	5884.52
509.514	5858.76
509.882	5925.65
510.25	5956.38
510.618	6004.52
510.986	6087
511.354	6065.31
511.722	6133.55
512.09	6172.2
512.458	6206.09
512.826	6269.82
513.193	6262.82
513.561	6306.2
513.929	6277.73
514.297	6389.37
514.664	6450.61
515.032	6466.65
515.4	6510.04
515.767	6527.22
516.135	6657.61
516.502	6590.04
516.869	6734.67
517.237	6717.49
517.604	6763.59
517.972	6798.39
518.339	6844.5
518.706	6876.81
519.073	6890.14
519.44	6937.6
519.808	7050.37
520.175	7069.8
520.542	7161.55
520.909	7180.98
521.276	7199.06
521.643	7285.39
522.009	7304.82
522.376	7387.31
522.743	7422.79
523.11	7478.15
523.477	7564.93
523.843	7600.41
524.21	7690.8
524.577	7782.78
524.943	7761.08
525.31	7844.92
525.676	7935.99
526.043	7948.19
526.409	7998.82
526.776	8110.22
527.142	8099.6
527.508	8137.57
527.874	8256.89
528.241	8256.21
528.607	8354.74
528.973	8379.82
529.339	8454.85
529.705	8515.41
530.071	8484.68
530.437	8570.78
530.803	8644.22
531.169	8719.47
531.535	8670.44
531.901	8698.91
532.267	8769.64
532.632	8876.53
532.998	8928.28
533.364	8955.63
533.73	8979.13
534.095	9010.31
534.461	9081.5
534.826	9152.91
535.192	9144.1
535.557	9229.52
535.923	9221.61
536.288	9292.11
536.653	9316.07
537.019	9255.28
537.384	9344.09
537.749	9439
538.114	9430.19
538.479	9484.65
538.845	9578.89
539.21	9511.77
539.575	9579.11
539.94	9627.7
540.305	9681.48
540.67	9676.06
541.034	9719.22
541.399	9833.57
541.764	9793.12
542.129	9814.13
542.494	9836.73
542.858	9877.41
543.223	9930.97
543.587	10030.17
543.952	9895.71
544.316	10035.15
544.681	10125.99
545.045	10118.31
545.41	10168.7
545.774	10193.11
546.138	10223.39
546.503	10203.5
546.867	10216.38
547.231	10310.39
547.595	10316.95
547.959	10365.31
548.324	10445.53
548.688	10483.5
549.052	10457.73
549.416	10465.42
549.779	10616.15
550.143	10542.03
550.507	10659.54
550.871	10705.41
551.235	10737.5
551.599	10802.81
551.962	10828.35
552.326	10871.73
552.689	10924.39
553.053	10915.12
553.417	10972.52
553.78	11089.58
554.143	11094.55
554.507	11143.59
554.87	11216.13
555.234	11303.81
555.597	11246.64
555.96	11367.54
556.323	11455.9
556.686	11469.23
557.05	11531.15
557.413	11611.38
557.776	11697.02
558.139	11741.32
558.502	11730.92
558.865	11830.35
559.228	11902.22
559.59	11957.13
559.953	12056.56
560.316	12047.52
560.679	12161.87
561.041	12236.9
561.404	12288.42
561.767	12349.66
562.129	12306.05
562.492	12467.17
562.854	12498.13
563.217	12499.04
563.579	12563.21
563.941	12688.86
564.304	12789.88
564.666	12816.54
565.028	12902.19
565.39	12874.17
565.753	13047.27
566.115	13067.16
566.477	13094.05
566.839	13183.76
567.201	13238.45
567.563	13271.67
567.925	13276.19
568.287	13345.79
568.648	13460.82
569.01	13480.25
569.372	13572.91
569.734	13506.69
570.095	13624.88
570.457	13775.61
570.819	13788.72
571.18	13790.75
571.542	13879.56
571.903	13923.63
572.265	14024.19
572.626	14010.18
572.987	14060.58
573.349	14084.76
573.71	14166.11
574.071	14166.34
574.432	14236.17
574.794	14263.51
575.155	14381.47
575.516	14245.88
575.877	14368.14
576.238	14439.55
576.599	14525.42
576.96	14517.74
577.32	14475.25
577.681	14607.23
578.042	14565.42
578.403	14693.55
578.763	14714.57
579.124	14771.07
579.485	14734.91
579.845	14780.78
580.206	14713.44
580.566	14711.86
580.927	14873.21
581.287	14852.87
581.648	14930.61
582.008	14919.76
582.368	14869.14
582.728	14996.37
583.089	14868.24
583.449	14933.1
583.809	14976.03
584.169	14934
584.529	14929.03
584.889	14985.3
585.249	14912.53
585.609	14958.63
585.969	15009.48
586.329	15017.84
586.688	15120.66
587.048	15058.97
587.408	15075.01
587.768	14974.68
588.127	15061
588.487	15052.19
588.846	15167.21
589.206	15047.44
589.565	15035.92
589.925	15095.58
590.284	15056.71
590.643	15197.04
591.003	15148.01
591.362	15200.21
591.721	15138.51
592.08	15154.56
592.44	15192.75
592.799	15239.08
593.158	15179.87
593.517	15236.82
593.876	15166.76
594.235	15292.63
594.593	15259.87
594.952	15225.07
595.311	15258.06
595.67	15233.43
596.029	15353.42
596.387	15352.07
596.746	15423.7
597.104	15268.68
597.463	15296.25
597.822	15358.85
598.18	15403.59
598.538	15301
598.897	15432.29
599.255	15210.15
599.613	15429.81
599.972	15415.8
600.33	15505.28
600.688	15491.73
601.046	15406.98
601.404	15537.37
601.762	15526.75
602.12	15616.02
602.478	15470.26
602.836	15581.89
603.194	15466.42
603.552	15502.57
603.91	15406.98
604.268	15662.34
604.625	15519.97
604.983	15693.3
605.341	15572.63
605.698	15649.01
606.056	15760.64
606.413	15617.82
606.771	15620.54
607.128	15748.22
607.485	15711.15
607.843	15620.99
608.2	15754.54
608.557	15868.89
608.914	15715.9
609.272	15759.06
609.629	15929.68
609.986	15987.53
610.343	15830.7
610.7	15991.83
611.057	15953.41
611.414	15899.4
611.771	15933.97
612.127	16015.1
612.484	16000.19
612.841	15947.31
613.198	15898.49
613.554	15988.89
613.911	16102.1
614.267	15987.31
614.624	15990.02
614.98	16015.55
615.337	16096.91
615.693	16117.02
616.05	16077.7
616.406	16199.73
616.762	16232.27
617.118	16161.31
617.475	16262.78
617.831	16197.47
618.187	16237.47
618.543	16286.73
618.899	16266.39
619.255	16203.8
619.611	16184.81
619.967	16260.52
620.323	16280.63
620.678	16167.41
621.034	16196.11
621.39	16242.21
621.746	16185.04
622.101	16382.55
622.457	16219.39
622.812	16332.38
623.168	16286.73
623.523	16338.03
623.879	16331.03
624.234	16201.31
624.589	16239.05
624.945	16286.51
625.3	16293.51
625.655	16305.04
626.01	16306.17
626.365	16316.79
626.72	16309.78
627.075	16314.75
627.43	16289.9
627.785	16295.55
628.14	16302.33
628.495	16302.1
628.85	16284.02
629.205	16290.12
629.559	16281.99
629.914	16244.7
630.269	16237.02
630.623	16190.24
630.978	16198.83
631.332	16208.54
631.687	16295.09
632.041	16126.96
632.396	16167.64
632.75	16121.77
633.104	16208.32
633.459	16118.83
633.813	16024.14
634.167	16061.65
634.521	16081.99
634.875	16120.18
635.229	16057.13
635.583	15992.5
635.937	15950.47
636.291	16031.15
636.645	16048.09
636.999	15954.31
637.352	16023.24
637.706	15893.3
638.06	15933.3
638.413	15872.05
638.767	15911.15
639.121	15900.98
639.474	15930.36
639.828	15825.5
640.181	15815.33
640.534	15948.66
640.888	15805.16
641.241	15739.18
641.594	15724.26
641.947	15707.76
642.301	15697.37
642.654	15738.05
643.007	15619.86
643.36	15631.16
643.713	15691.04
644.066	15799.06
644.419	15502.35
644.771	15425.74
645.124	15254.44
645.477	15276.14
645.83	15123.83
646.182	15223.26
646.535	15203.82
646.888	15191.17
647.24	15048.12
647.593	15216.48
647.945	15211.05
648.298	15047.9
648.65	15041.34
649.002	15033.43
649.355	14960.67
649.707	14866.66
650.059	14983.72
650.411	15135.58
650.763	15098.52
651.115	15328.57
651.467	15264.61
651.819	15194.78
652.171	15198.63
652.523	15172.86
652.875	15105.52
653.227	15056.48
653.578	15213.54
653.93	15100.1
654.282	15158.4
654.633	15090.61
654.985	15101.23
655.337	15134.9
655.688	15097.39
656.039	15096.71
656.391	14996.37
656.742	15137.61
657.094	15069.36
657.445	15145.52
657.796	15055.8
658.147	15104.17
658.498	14989.37
658.849	15047.67
659.2	15085.41
659.551	15029.14
659.902	15053.77
660.253	14947.33
660.604	14962.47
660.955	14942.14
661.306	14986.65
661.656	14923.83
662.007	14953.43
662.358	15002.02
662.708	14879.31
663.059	14949.59
663.409	14820.78
663.76	14865.53
664.11	14854
664.461	14847.45
664.811	14849.48
665.161	14925.64
665.511	14879.54
665.862	14954.56
666.212	14904.62
666.562	14909.82
666.912	14887.9
667.262	14824.4
667.612	14888.35
667.962	14844.06
668.312	14867.56
668.662	14887.22
669.011	14797.28
669.361	14745.08
669.711	14815.36
670.06	14743.5
670.41	14808.35
670.76	14730.16
671.109	14814
671.459	14808.81
671.808	14727.45
672.157	14834.34
672.507	14691.29
672.856	14691.75
673.205	14753.89
673.554	14739.65
673.904	14764.96
674.253	14865.53
674.602	14621.24
674.951	14518.19
675.3	14388.93
675.649	14661.69
675.998	14635.25
676.346	14592.31
676.695	14699.88
677.044	14555.03
677.393	14581.69
677.741	14665.31
678.09	14523.84
678.438	14548.02
678.787	14598.42
679.135	14534.24
679.484	14450.17
679.832	14510.28
680.181	14385.99
680.529	14419.44
680.877	14386.44
681.225	14362.04
681.573	14433
681.922	14296.95
682.27	14245.88
682.618	14294.69
682.966	14247.46
683.314	14422.38
683.661	14260.35
684.009	14079.56
684.357	14128.15
684.705	14151.65
685.053	14104.19
685.4	14064.42
685.748	14070.97
686.095	13998.88
686.443	14043.85
686.79	13976.96
687.138	13932.44
687.485	13973.8
687.832	13933.57
688.18	14054.7
688.527	13861.26
688.874	13783.07
689.221	13810.64
689.568	13732
689.915	13670.53
690.262	13761.83
690.609	13781.04
690.956	13681.15
691.303	13629.85
691.65	13502.17
691.997	13505.11
692.344	13442.51
692.69	13452.01
693.037	13513.7
693.383	13286.59
693.73	13369.52
694.077	13279.35
694.423	13289.98
694.769	13191.9
695.116	13194.16
695.462	13111
695.808	13105.35
696.155	13118.23
696.501	13026.03
696.847	12955.07
697.193	12956.88
697.539	12994.84
697.885	12802.76
698.231	12787.62
698.577	12775.41
698.923	12777.45
699.269	12722.76
699.614	12591.01
699.96	12640.73
700.306	12593.04
700.651	12686.6
700.997	12488.64
701.342	12483.89
701.688	12464.91
702.033	12465.36
702.379	12401.86
702.724	12420.17
703.069	12389.21
703.415	12289.55
703.76	12180.85
704.105	12255.43
704.45	12229.44
704.795	12143.34
705.14	12091.36
705.485	12128.42
705.83	12040.52
706.175	12086.17
706.52	12038.48
706.865	12028.31
707.209	11887.98
707.554	11919.84
707.899	11947.64
708.243	11855.21
708.588	11846.62
708.932	11686.18
709.277	11698.38
709.621	11686.63
709.966	11656.8
710.31	11708.55
710.654	11580.87
710.998	11571.38
711.342	11565.95
711.687	11551.72
712.031	11479.85
712.375	11419.74
712.719	11494.77
713.063	11414.54
713.407	11447.54
713.75	11424.49
714.094	11360.99
714.438	11309.01
714.782	11322.34
715.125	11228.79
715.469	11267.2
715.812	11247.77
716.156	11104.72
716.499	11134.33
716.843	11079.41
717.186	11072.63
717.53	11134.55
717.873	11140.2
718.216	11099.75
718.559	11049.58
718.902	10939.08
719.246	10986.53
719.589	10981.11
719.932	10914.67
720.275	10886.42
720.617	10932.75
720.96	10902.47
721.303	10947.21
721.646	10900.66
721.989	10791.74
722.331	10838.06
722.674	10756.48
723.016	10764.62
723.359	10796.48
723.701	10833.77
724.044	10736.37
724.386	10590.16
724.729	10625.19
725.071	10611.4
725.413	10633.1
725.755	10685.75
726.097	10537.05
726.439	10615.7
726.782	10596.94
727.124	10588.8
727.465	10523.49
727.807	10486.21
728.149	10537.96
728.491	10449.37
728.833	10493.89
729.175	10424.97
729.516	10406.44
729.858	10441.91
730.199	10355.36
730.541	10405.98
730.882	10463.38
731.224	10375.7
731.565	10345.65
731.906	10267
732.248	10296.38
732.589	10229.94
732.93	10233.78
733.271	10216.16
733.612	10245.76
733.953	10197.85
734.294	10188.81
734.635	10218.64
734.976	10190.85
735.317	10160.11
735.658	10229.04
735.999	10168.25
736.339	10101.36
736.68	10103.17
737.021	9996.95
737.361	10001.93
737.702	10015.49
738.042	9979.33
738.383	9955.6
738.723	9991.53
739.063	10025.2
739.404	9895.94
739.744	9933.45
740.084	9848.71
740.424	9882.83
740.764	9860.69
741.104	9900.69
741.444	9860.24
741.784	9773.46
742.124	9837.86
742.464	9795.6
742.804	9794.25
743.143	9783.63
743.483	9788.6
743.823	9677.42
744.162	9697.98
744.502	9685.1
744.841	9646.68
745.181	9706.34
745.52	9656.17
745.86	9639.22
746.199	9616.4
746.538	9579.56
746.877	9579.79
747.216	9560.13
747.556	9563.75
747.895	9535.5
748.234	9583.41
748.573	9496.18
748.911	9439.68
749.25	9512
749.589	9488.95
749.928	9516.97
750.267	9526.91
750.605	9394.48
750.944	9400.59
751.283	9358.55
751.621	9367.14
751.96	9315.84
752.298	9370.53
752.636	9289.85
752.975	9290.98
753.313	9274.49
753.651	9213.25
753.989	9219.35
754.327	9192.68
754.666	9189.52
755.004	9094.83
755.342	9171.21
755.679	9158.33
756.017	9108.62
756.355	9143.64
756.693	9021.61
757.031	9091.67
757.368	9013.03
757.706	9060.48
758.044	8985.91
758.381	8964.44
758.719	8937.32
759.056	8931.9
759.394	8863.2
759.731	8823.43
