Data from foam1_polythene_foam_FLMS001491_00091.txt Node
Date: Wed Feb 08 10:55:39 GMT 2017
User: dcchb
Spectrometer: FLMS00149
Trigger mode: 0
Integration Time (sec): 2.000000E-2
Scans to average: 10
Electric dark correction enabled: true
Nonlinearity correction enabled: false
Boxcar width: 0
XAxis mode: Wavelengths
Number of Pixels in Spectrum: 2048
>>>>>Begin Spectral Data<<<<<
341.393	-16.19
341.776	-16.19
342.16	-16.19
342.543	-60.93
342.927	-67.71
343.31	-67.94
343.693	-66.13
344.077	-72
344.46	-70.2
344.843	-33.13
345.226	-58.22
345.61	-27.26
345.993	-25.9
346.376	16.81
346.759	5.73
347.142	24.49
347.525	37.37
347.908	61.78
348.291	78.5
348.674	83.47
349.057	112.62
349.44	128.22
349.823	146.07
350.206	142
350.588	204.37
350.971	193.3
351.354	169.57
351.737	217.25
352.119	217.03
352.502	229.68
352.884	251.6
353.267	256.58
353.65	267.65
354.032	273.75
354.414	284.6
354.797	296.35
355.179	282.79
355.562	288.89
355.944	307.42
356.326	304.94
356.709	354.88
357.091	316.69
357.473	322.79
357.855	327.08
358.238	330.47
358.62	309.91
359.002	311.49
359.384	330.92
359.766	311.26
360.148	331.38
360.53	334.54
360.912	312.17
361.294	330.25
361.676	313.3
362.057	314.43
362.439	345.16
362.821	313.07
363.203	313.3
363.584	299.96
363.966	312.39
364.348	287.99
364.729	311.71
365.111	314.43
365.493	311.49
365.874	305.16
366.256	288.44
366.637	297.03
367.019	289.34
367.4	280.3
367.781	289.12
368.163	286.4
368.544	300.42
368.925	303.13
369.306	292.28
369.688	301.09
370.069	293.18
370.45	298.16
370.831	289.12
371.212	301.09
371.593	275.78
371.974	295.44
372.355	297.93
372.736	291.38
373.117	303.13
373.498	314.2
373.879	328.44
374.26	321.88
374.641	290.25
375.021	290.47
375.402	302.68
375.783	325.73
376.163	327.31
376.544	307.87
376.925	321.43
377.305	327.53
377.686	321.21
378.066	312.84
378.447	319.85
378.827	292.73
379.208	315.56
379.588	313.3
379.968	339.51
380.349	319.85
380.729	317.59
381.109	333.64
381.489	327.99
381.87	328.89
382.25	314.88
382.63	307.42
383.01	327.53
383.39	351.49
383.77	328.66
384.15	316.46
384.53	331.38
384.91	324.6
385.29	334.54
385.67	329.12
386.049	344.03
386.429	335.67
386.809	317.59
387.189	341.09
387.568	342.45
387.948	342.22
388.328	333.64
388.707	358.04
389.087	338.15
389.466	353.3
389.846	337.48
390.225	343.8
390.605	351.71
390.984	363.92
391.363	360.53
391.743	362.79
392.122	386.74
392.501	370.24
392.881	362.11
393.26	344.71
393.639	367.31
394.018	353.75
394.397	375.44
394.776	370.24
395.155	354.88
395.534	368.44
395.913	357.36
396.292	359.85
396.671	394.2
397.05	386.06
397.429	365.05
397.808	376.57
398.186	382.9
398.565	369.34
398.944	375.67
399.323	395.55
399.701	375.89
400.08	388.32
400.458	385.61
400.837	413.18
401.215	386.06
401.594	395.78
401.972	405.95
402.351	412.28
402.729	366.4
403.107	396.91
403.486	409.11
403.864	396.46
404.242	415.89
404.62	422.45
404.999	412.96
405.377	416.34
405.755	398.27
406.133	438.72
406.511	411.15
406.889	421.32
407.267	432.39
407.645	430.58
408.023	419.96
408.401	429.23
408.779	454.99
409.156	447.98
409.534	429.68
409.912	448.89
410.29	454.99
410.667	459.06
411.045	428.32
411.422	448.21
411.8	467.64
412.178	443.01
412.555	450.02
412.933	468.77
413.31	462.45
413.687	479.85
414.065	465.16
414.442	467.19
414.819	477.36
415.197	487.98
415.574	481.2
415.951	495.66
416.328	491.15
416.705	475.78
417.082	502.44
417.46	505.61
417.837	508.77
418.214	491.82
418.591	474.65
418.967	501.09
419.344	534.31
419.721	534.08
420.098	511.48
420.475	514.87
420.852	535.89
421.228	533.86
421.605	526.85
421.982	521.88
422.358	544.03
422.735	540.18
423.111	530.24
423.488	551.48
423.864	563.91
424.241	541.09
424.617	567.08
424.994	582.89
425.37	567.53
425.746	572.05
426.123	582.44
426.499	593.97
426.875	580.86
427.251	597.36
427.627	595.1
428.003	614.76
428.379	591.93
428.756	616.34
429.132	624.48
429.507	629.22
429.883	613.85
430.259	629.45
430.635	643.68
431.011	624.25
431.387	647.75
431.763	651.82
432.138	665.83
432.514	675.55
432.89	660.86
433.265	678.26
433.641	709.22
434.016	678.71
434.392	671.48
434.767	704.7
435.143	729.11
435.518	706.73
435.894	718.26
436.269	716.22
436.644	732.49
437.02	757.35
437.395	763.45
437.77	772.04
438.145	765.71
438.52	760.52
438.895	767.75
439.271	759.16
439.646	772.95
440.021	769.56
440.395	815.66
440.77	804.58
441.145	800.74
441.52	824.47
441.895	813.17
442.27	820.85
442.645	823.34
443.019	833.74
443.394	835.77
443.769	846.84
444.143	842.77
444.518	860.18
444.892	867.63
445.267	875.54
445.641	879.61
446.016	881.42
446.39	910.8
446.764	903.56
447.139	886.39
447.513	915.77
447.887	918.93
448.262	911.47
448.636	922.77
449.01	937.69
449.384	957.12
449.758	944.24
450.132	966.16
450.506	952.83
450.88	980.4
451.254	964.58
451.628	993.28
452.002	1006.84
452.376	1003.67
452.75	997.35
453.123	1004.58
453.497	1068.53
453.871	1043
454.244	1063.56
454.618	1039.83
454.992	1077.34
455.365	1078.7
455.739	1084.58
456.112	1083.67
456.486	1086.61
456.859	1086.16
457.232	1114.18
457.606	1119.38
457.979	1136.33
458.352	1130.22
458.725	1148.53
459.099	1151.92
459.472	1165.7
459.845	1181.07
460.218	1186.95
460.591	1198.25
460.964	1181.75
461.337	1203.44
461.71	1200.05
462.083	1248.19
462.456	1230.79
462.829	1207.74
463.201	1253.16
463.574	1255.19
463.947	1282.99
464.32	1298.81
464.692	1317.11
465.065	1324.34
465.438	1295.87
465.81	1345.13
466.183	1355.3
466.555	1375.42
466.928	1351.91
467.3	1383.55
467.672	1393.49
468.045	1436.21
468.417	1442.31
468.789	1441.18
469.161	1457.22
469.534	1473.49
469.906	1516.2
470.278	1467.84
470.65	1504.68
471.022	1536.99
471.394	1537.45
471.766	1573.15
472.138	1599.59
472.51	1604.79
472.882	1608.86
473.253	1630.32
473.625	1647.05
473.997	1694.28
474.369	1685.92
474.74	1701.96
475.112	1717.78
475.484	1769.08
475.855	1782.41
476.227	1800.72
476.598	1830.32
476.97	1847.27
477.341	1877.1
477.713	1902.63
478.084	1907.61
478.455	1957.55
478.827	1976.76
479.198	2040.03
479.569	2030.09
479.94	2080.48
480.311	2084.55
480.682	2148.95
481.053	2176.52
481.424	2193.25
481.795	2232.79
482.166	2251.55
482.537	2251.1
482.908	2297.88
483.279	2310.76
483.65	2366.8
484.021	2410.19
484.391	2442.96
484.762	2463.3
485.133	2479.57
485.503	2502.84
485.874	2586.01
486.244	2605.67
486.615	2604.99
486.985	2671.43
487.356	2678.66
487.726	2729.96
488.097	2766.11
488.467	2785.1
488.837	2822.38
489.207	2850.63
489.578	2915.26
489.948	2912.1
490.318	2976.5
490.688	3015.37
491.058	3039.78
491.428	3104.41
491.798	3092.66
492.168	3155.26
492.538	3157.97
492.908	3165.2
493.278	3243.84
493.648	3247.46
494.017	3269.6
494.387	3300.11
494.757	3333.56
495.126	3385.53
495.496	3425.08
495.866	3442.71
496.235	3472.08
496.605	3477.51
496.974	3484.29
497.344	3516.6
497.713	3569.03
498.082	3580.1
498.452	3632.98
498.821	3629.82
499.19	3661.91
499.559	3728.12
499.928	3717.73
500.298	3758.18
500.667	3776.71
501.036	3788.01
501.405	3860.55
501.774	3815.8
502.143	3873.2
502.512	3858.51
502.88	3942.58
503.249	3942.58
503.618	3944.39
503.987	3990.04
504.356	4008.57
504.724	4028.68
505.093	4043.14
505.462	4042.46
505.83	4115.68
506.199	4166.98
506.567	4129.69
506.936	4168.11
507.304	4227.09
507.672	4248.11
508.041	4285.62
508.409	4293.08
508.777	4364.72
509.145	4418.95
509.514	4433.41
509.882	4451.49
510.25	4465.05
510.618	4448.33
510.986	4457.82
511.354	4503.02
511.722	4620.75
512.09	4627.53
512.458	4627.99
512.826	4684.26
513.193	4752.05
513.561	4726.06
513.929	4771.48
514.297	4837.25
514.664	4825.49
515.032	4827.75
515.4	4845.83
515.767	4953.85
516.135	4975.55
516.502	4974.19
516.869	4985.94
517.237	5050.57
517.604	5045.38
517.972	5140.97
518.339	5143.68
518.706	5189.78
519.073	5164.47
519.44	5268.42
519.808	5325.59
520.175	5309.32
520.542	5361.3
520.909	5369.89
521.276	5400.17
521.643	5451.01
522.009	5526.49
522.376	5543.89
522.743	5604.23
523.11	5563.78
523.477	5652.14
523.843	5718.58
524.21	5780.5
524.577	5832.47
524.943	5879.03
525.31	5891.68
525.676	5923.09
526.043	5975.29
526.409	6006.48
526.776	6032.92
527.142	6048.97
527.508	6154.27
527.874	6188.85
528.241	6220.49
528.607	6233.14
528.973	6302.97
529.339	6289.41
529.705	6385
530.071	6402.63
530.437	6418.22
530.803	6476.52
531.169	6575.73
531.535	6542.74
531.901	6538.9
532.267	6538.22
532.632	6624.32
532.998	6688.95
533.364	6706.58
533.73	6725.33
534.095	6806.46
534.461	6797.87
534.826	6784.31
535.192	6835.39
535.557	6862.96
535.923	6946.12
536.288	6963.52
536.653	6943.18
537.019	6953.12
537.384	7020.01
537.749	7044.19
538.114	7084.64
538.479	7085.77
538.845	7114.47
539.21	7127.81
539.575	7182.72
539.94	7219.56
540.305	7242.61
540.67	7235.15
541.034	7270.18
541.399	7328.25
541.764	7303.4
542.129	7414.81
542.494	7380.91
542.858	7485.09
543.223	7452.77
543.587	7505.2
543.952	7452.77
544.316	7462.94
544.681	7508.59
545.045	7591.3
545.41	7665.65
545.774	7630.17
546.138	7572.09
546.503	7651.86
546.867	7664.52
547.231	7770.28
547.595	7799.2
547.959	7759.88
548.324	7877.62
548.688	7816.6
549.052	7851.86
549.416	7923.04
549.779	7901.57
550.143	7870.84
550.507	7929.37
550.871	8021.34
551.235	8048.01
551.599	8072.87
551.962	8097.95
552.326	8082.13
552.689	8138.18
553.053	8141.79
553.417	8176.14
553.78	8313.31
554.143	8325.29
554.507	8300.43
554.87	8322.8
555.234	8428.79
555.597	8376.59
555.96	8399.64
556.323	8439.18
556.686	8439.18
557.05	8505.17
557.413	8633.98
557.776	8637.82
558.139	8628.33
558.502	8650.48
558.865	8671.72
559.228	8739.97
559.59	8757.37
559.953	8791.27
560.316	8946.29
560.679	8992.84
561.041	8903.58
561.404	8971.37
561.767	9024.48
562.129	9041.88
562.492	9088.89
562.854	9090.24
563.217	9182.89
563.579	9222.44
563.941	9230.35
564.304	9347.86
564.666	9323.23
565.028	9316.9
565.39	9370.01
565.753	9429.89
566.115	9493.62
566.477	9561.87
566.839	9590.12
567.201	9605.93
567.563	9633.73
567.925	9650.45
568.287	9652.71
568.648	9694.07
569.01	9763.44
569.372	9800.51
569.734	9838.24
570.095	9908.75
570.457	9967.51
570.819	9951.01
571.18	9955.76
571.542	9958.24
571.903	9975.64
572.265	10084.11
572.626	10046.15
572.987	10133.15
573.349	10112.59
573.71	10185.81
574.071	10268.06
574.432	10160.72
574.794	10298.12
575.155	10267.84
575.516	10184.45
575.877	10293.15
576.238	10346.93
576.599	10386.7
576.96	10399.13
577.32	10412.24
577.681	10429.42
578.042	10512.8
578.403	10486.14
578.763	10326.59
579.124	10471
579.485	10420.6
579.845	10553.03
580.206	10573.14
580.566	10519.13
580.927	10567.49
581.287	10649.97
581.648	10577.66
582.008	10612.24
582.368	10562.97
582.728	10642.97
583.089	10576.08
583.449	10649.3
583.809	10693.36
584.169	10721.84
584.529	10628.96
584.889	10663.76
585.249	10607.26
585.609	10589.64
585.969	10672.35
586.329	10628.51
586.688	10715.28
587.048	10637.09
587.408	10708.73
587.768	10680.71
588.127	10682.97
588.487	10643.65
588.846	10658.56
589.206	10683.42
589.565	10662.4
589.925	10687.49
590.284	10702.63
590.643	10718.9
591.003	10787.82
591.362	10834.83
591.721	10749.18
592.08	10706.24
592.44	10712.8
592.799	10723.42
593.158	10746.47
593.517	10706.02
593.876	10748.05
594.235	10707.83
594.593	10800.93
594.952	10773.36
595.311	10756.41
595.67	10780.37
596.029	10752.34
596.387	10810.42
596.746	10785.56
597.104	10786.47
597.463	10775.85
597.822	10719.58
598.18	10764.1
598.538	10828.95
598.897	10878.22
599.255	10728.39
599.613	10889.06
599.972	10812.91
600.33	10825.34
600.688	10812.23
601.046	10774.26
601.404	10896.75
601.762	10892.45
602.12	10932.23
602.478	10944.66
602.836	10934.71
603.194	10788.5
603.552	10831.89
603.91	10798.44
604.268	10897.88
604.625	10820.14
604.983	10901.04
605.341	10883.41
605.698	11030.53
606.056	10984.65
606.413	10994.6
606.771	10941.94
607.128	11033.24
607.485	10955.95
607.843	11019
608.2	11077.76
608.557	11071.66
608.914	11001.83
609.272	11126.35
609.629	11109.85
609.986	11144.65
610.343	11034.6
610.7	11094.48
611.057	11120.92
611.414	11076.86
611.771	11168.15
612.127	11152.11
612.484	11098.32
612.841	11231.65
613.198	11123.63
613.554	11148.27
613.911	11278.21
614.267	11207.25
614.624	11220.35
614.98	11235.04
615.337	11312.78
615.693	11213.35
616.05	11258.55
616.406	11268.72
616.762	11244.76
617.118	11234.59
617.475	11318.21
617.831	11209.96
618.187	11320.24
618.543	11263.74
618.899	11327.24
619.255	11275.27
619.611	11257.42
619.967	11319.34
620.323	11433
620.678	11386.9
621.034	11330.63
621.39	11382.38
621.746	11275.49
622.101	11393.46
622.457	11322.72
622.812	11405.43
623.168	11354.81
623.523	11417.64
623.879	11374.02
624.234	11316.85
624.589	11357.98
624.945	11402.04
625.3	11418.54
625.655	11382.61
626.01	11417.64
626.365	11423.97
626.72	11341.71
627.075	11319.56
627.43	11243.86
627.785	11254.93
628.14	11371.76
628.495	11345.32
628.85	11268.26
629.205	11264.2
629.559	11341.26
629.914	11266
630.269	11316.62
630.623	11183.07
630.978	11205.21
631.332	11216.74
631.687	11231.88
632.041	11266
632.396	11196.85
632.75	11133.58
633.104	11237.98
633.459	11273.91
633.813	11119.34
634.167	11077.08
634.521	11024.43
634.875	11073.47
635.229	11054.26
635.583	11051.32
635.937	11039.79
636.291	11069.17
636.645	11113.92
636.999	11060.36
637.352	11030.98
637.706	11033.69
638.06	11038.21
638.413	11016.52
638.767	10921.38
639.121	10831.21
639.474	10960.02
639.828	10915.05
640.181	10926.58
640.534	10819.24
640.888	10916.18
641.241	10840.48
641.594	10866.24
641.947	10933.81
642.301	10772
642.654	10774.94
643.007	10800.25
643.36	10720.71
643.713	10709.41
644.066	10828.5
644.419	10700.82
644.771	10687.71
645.124	10647.04
645.477	10581.5
645.83	10553.71
646.182	10471
646.535	10388.51
646.888	10439.81
647.24	10295.18
647.593	10325.46
647.945	10342.64
648.298	10243.43
648.65	10302.64
649.002	10230.78
649.355	10344.45
649.707	10337.67
650.059	10348.74
650.411	10474.16
650.763	10474.39
651.115	10514.61
651.467	10524.78
651.819	10488.4
652.171	10507.15
652.523	10428.96
652.875	10420.6
653.227	10419.02
653.578	10435.97
653.93	10468.06
654.282	10376.99
654.633	10378.34
654.985	10354.84
655.337	10402.98
655.688	10391
656.039	10338.8
656.391	10233.04
656.742	10309.87
657.094	10306.25
657.445	10371.34
657.796	10317.33
658.147	10299.25
658.498	10338.34
658.849	10324.56
659.2	10332.69
659.551	10249.08
659.902	10279.59
660.253	10291.57
660.604	10174.05
660.955	10219.7
661.306	10305.8
661.656	10210.66
662.007	10280.72
662.358	10172.92
662.708	10221.74
663.059	10195.52
663.409	10137.45
663.76	10283.66
664.11	10210.21
664.461	10174.28
664.811	10199.36
665.161	10128.86
665.511	10144
665.862	10105.13
666.212	10179.93
666.562	10216.09
666.912	10142.42
667.262	10135.41
667.612	10240.27
667.962	10107.62
668.312	10099.48
668.662	10177.44
669.011	10093.38
669.361	10102.64
669.711	10113.04
670.06	10079.14
670.41	10028.75
670.76	10018.8
671.109	10145.81
671.459	10077.79
671.808	10060.39
672.157	10084.34
672.507	10045.47
672.856	10030.78
673.205	10024.45
673.554	9973.16
673.904	10041.18
674.253	10025.58
674.602	10020.16
674.951	9838.02
675.3	9769.32
675.649	9939.48
675.998	9914.4
676.346	9934.51
676.695	10018.8
677.044	9865.36
677.393	9996.21
677.741	9937.45
678.09	9904.01
678.438	9912.59
678.787	9851.13
679.135	9931.58
679.484	9825.59
679.832	9854.06
680.181	9813.61
680.529	9841.63
680.877	9778.81
681.225	9775.87
681.573	9839.6
681.922	9803.67
682.27	9820.62
682.618	9762.54
682.966	9719.83
683.314	9728.19
683.661	9720.28
684.009	9661.3
684.357	9678.02
684.705	9582.66
685.053	9639.61
685.4	9609.55
685.748	9565.93
686.095	9572.94
686.443	9515.54
686.79	9585.14
687.138	9597.57
687.485	9582.66
687.832	9565.71
688.18	9541.08
688.527	9376.56
688.874	9389.22
689.221	9378.82
689.568	9337.92
689.915	9334.75
690.262	9317.35
690.609	9329.1
690.956	9305.15
691.303	9285.72
691.65	9252.27
691.997	9308.09
692.344	9187.19
692.69	9287.3
693.037	9196.68
693.383	9122.33
693.73	9167.75
694.077	9034.2
694.423	9019.51
694.769	9013.63
695.116	8963.92
695.462	9045.04
695.808	8993.52
696.155	9043.24
696.501	8982
696.847	8958.72
697.193	8933.64
697.539	8958.49
697.885	8802.34
698.231	8829.23
698.577	8809.8
698.923	8743.58
699.269	8716.92
699.614	8681.89
699.96	8707.88
700.306	8667.88
700.651	8611.84
700.997	8657.03
701.342	8641.21
701.688	8603.25
702.033	8586.53
702.379	8516.7
702.724	8547.2
703.069	8557.6
703.415	8445.96
703.76	8389.92
704.105	8405.74
704.45	8472.4
704.795	8356.48
705.14	8371.16
705.485	8389.69
705.83	8289.36
706.175	8363.93
706.52	8291.17
706.865	8354.22
707.209	8273.54
707.554	8184.05
707.899	8269.7
708.243	8136.14
708.588	8221.79
708.932	8138.4
709.277	8150.6
709.621	8125.75
709.966	8091.17
710.31	8052.53
710.654	8031.74
710.998	8017.05
711.342	8049.82
711.687	8011.85
712.031	7997.61
712.375	7952.19
712.719	8088.01
713.063	7950.38
713.407	7956.03
713.75	7871.29
714.094	7883.95
714.438	7878.3
714.782	7798.98
715.125	7832.42
715.469	7864.51
715.812	7820.22
716.156	7730.05
716.499	7817.73
716.843	7821.12
717.186	7786.55
717.53	7850.27
717.873	7819.31
718.216	7782.7
718.559	7671.97
718.902	7705.42
719.246	7669.26
719.589	7667
719.932	7627.68
720.275	7620.22
720.617	7598.08
720.96	7600.79
721.303	7639.21
721.646	7603.73
721.989	7530.51
722.331	7592.43
722.674	7497.97
723.016	7543.84
723.359	7553.56
723.701	7522.6
724.044	7483.28
724.386	7455.93
724.729	7526.44
725.071	7460
725.413	7423.84
725.755	7450.74
726.097	7393.34
726.439	7355.15
726.782	7378.2
727.124	7455.03
727.465	7348.82
727.807	7334.58
728.149	7360.34
728.491	7343.62
728.833	7311.76
729.175	7262.72
729.516	7294.36
729.858	7246
730.199	7243.06
730.541	7250.52
730.882	7218.65
731.224	7227.01
731.565	7183.85
731.906	7228.14
732.248	7213.91
732.589	7132.1
732.93	7204.64
733.271	7173.68
733.612	7170.07
733.953	7168.03
734.294	7151.08
734.635	7111.31
734.976	7135.04
735.317	7080.58
735.658	7070.18
735.999	7104.53
736.339	7053.91
736.68	7108.82
737.021	7026.57
737.361	7024.53
737.702	7100.01
738.042	7057.3
738.383	7015.95
738.723	6989.28
739.063	7008.71
739.404	7006.23
739.744	6969.17
740.084	6987.92
740.424	6978.21
740.764	6951.09
741.104	6912.67
741.444	6937.98
741.784	6908.6
742.124	6875.16
742.464	6856.18
742.804	6880.13
743.143	6824.09
743.483	6826.12
743.823	6810.98
744.162	6813.01
744.502	6799
744.841	6782.05
745.181	6809.4
745.52	6779.79
745.86	6824.99
746.199	6788.38
746.538	6828.83
746.877	6788.15
747.216	6730.76
747.556	6715.61
747.895	6746.35
748.234	6744.99
748.573	6671.1
748.911	6669.97
749.25	6725.56
749.589	6611.66
749.928	6685.78
750.267	6599.01
750.605	6555.17
750.944	6579.8
751.283	6597.2
751.621	6641.27
751.96	6577.31
752.298	6560.14
752.636	6589.52
752.975	6552.23
753.313	6516.75
753.651	6519.69
753.989	6463.64
754.327	6455.06
754.666	6484.43
755.004	6447.82
755.342	6456.41
755.679	6377.32
756.017	6326.7
756.355	6404.66
756.693	6404.66
757.031	6401.27
757.368	6316.53
757.706	6340.93
758.044	6323.31
758.381	6366.02
758.719	6297.09
759.056	6321.27
759.394	6230.88
759.731	6204.44
760.068	6154.95
760.405	6140.04
760.743	6207.61
761.08	6127.38
761.417	6108.17
761.754	6109.75
762.091	6095.07
762.428	6073.82
762.765	6059.81
763.102	6107.72
763.438	6045.35
763.775	6025.69
764.112	6084.44
764.449	6059.81
764.785	6069.76
765.122	5980.72
