Data from foam_black_FLMS001491_00003.txt Node
Date: Wed Feb 08 10:43:25 GMT 2017
User: dcchb
Spectrometer: FLMS00149
Trigger mode: 0
Integration Time (sec): 2.000000E-2
Scans to average: 10
Electric dark correction enabled: true
Nonlinearity correction enabled: false
Boxcar width: 0
XAxis mode: Wavelengths
Number of Pixels in Spectrum: 2048
>>>>>Begin Spectral Data<<<<<
341.393	-26.84
341.776	-26.84
342.16	-26.84
342.543	-42.65
342.927	-61.64
343.31	-76.33
343.693	-68.64
344.077	-67.96
344.46	-48.53
344.843	-56.44
345.226	-41.07
345.61	-31.81
345.993	-3.33
346.376	-26.84
346.759	11.81
347.142	33.73
347.525	43.9
347.908	55.42
348.291	51.13
348.674	105.36
349.057	119.6
349.44	117.57
349.823	131.58
350.206	155.08
350.588	192.59
350.971	212.03
351.354	229.65
351.737	233.27
352.119	254.74
352.502	252.25
352.884	277.34
353.267	286.15
353.65	301.29
354.032	314.17
354.414	322.99
354.797	312.59
355.179	336.54
355.562	311.91
355.944	327.96
356.326	325.25
356.709	346.04
357.091	338.13
357.473	339.93
357.855	332.7
358.238	348.07
358.62	347.39
359.002	333.16
359.384	327.73
359.766	327.73
360.148	340.39
360.53	340.61
360.912	362.98
361.294	333.38
361.676	340.61
362.057	351.46
362.439	349.65
362.821	337
363.203	346.71
363.584	342.87
363.966	317.56
364.348	358.92
364.729	329.54
365.111	311.23
365.493	333.83
365.874	327.51
366.256	338.8
366.637	338.58
367.019	319.37
367.4	320.05
367.781	324.57
368.163	351.01
368.544	318.69
368.925	327.96
369.306	355.3
369.688	334.74
370.069	350.78
370.45	320.73
370.831	339.03
371.212	354.4
371.593	320.27
371.974	320.5
372.355	344.45
372.736	350.33
373.117	339.26
373.498	324.57
373.879	332.93
374.26	343.32
374.641	349.88
375.021	345.13
375.402	317.34
375.783	354.17
376.163	381.06
376.544	352.14
376.925	364.79
377.305	355.08
377.686	361.4
378.066	346.04
378.447	360.95
378.827	367.73
379.208	359.14
379.588	380.16
379.968	364.34
380.349	370.67
380.729	360.27
381.109	380.39
381.489	392.59
381.87	381.97
382.25	381.29
382.63	380.16
383.01	386.04
383.39	386.94
383.77	395.75
384.15	390.78
384.53	382.65
384.91	401.85
385.29	395.3
385.67	412.02
386.049	409.76
386.429	413.38
386.809	404.11
387.189	409.54
387.568	409.54
387.948	429.65
388.328	428.75
388.707	436.43
389.087	418.12
389.466	413.83
389.846	413.38
390.225	410.89
390.605	428.52
390.984	416.54
391.363	436.66
391.743	437.33
392.122	450.89
392.501	470.33
392.881	466.26
393.26	454.96
393.639	453.38
394.018	463.77
394.397	454.06
394.776	452.02
395.155	451.34
395.534	463.55
395.913	458.58
396.292	471.68
396.671	467.61
397.05	478.46
397.429	492.02
397.808	473.72
398.186	473.26
398.565	497.67
398.944	482.53
399.323	510.33
399.701	497.22
400.08	511.91
400.458	508.97
400.837	523.66
401.215	511.23
401.594	546.93
401.972	535.41
402.351	507.39
402.729	536.54
403.107	546.93
403.486	541.29
403.864	536.99
404.242	550.32
404.62	531.12
404.999	558.69
405.377	548.29
405.755	539.25
406.133	557.56
406.511	584.67
406.889	576.99
407.267	591.45
407.645	590.32
408.023	615.63
408.401	571.34
408.779	598.46
409.156	586.48
409.534	614.96
409.912	615.63
410.29	627.84
410.667	619.48
411.045	647.27
411.422	638.01
411.8	632.81
412.178	634.62
412.555	648.85
412.933	640.72
413.31	664.9
413.687	688.63
414.065	671.23
414.442	703.99
414.819	709.87
415.197	687.27
415.574	717.78
415.951	689.08
416.328	700.83
416.705	709.87
417.082	721.85
417.46	735.63
417.837	717.55
418.214	748.96
418.591	742.41
418.967	758.91
419.344	743.09
419.721	768.62
420.098	769.53
420.475	780.6
420.852	779.25
421.228	795.29
421.605	789.64
421.982	797.32
422.358	820.6
422.735	816.08
423.111	826.25
423.488	833.71
423.864	818.79
424.241	834.84
424.617	836.19
424.994	838.68
425.37	853.59
425.746	842.52
426.123	862.86
426.499	877.32
426.875	903.08
427.251	914.61
427.627	902.63
428.003	907.6
428.379	914.16
428.756	905.34
429.132	931.33
429.507	930.2
429.883	936.08
430.259	989.86
430.635	1001.61
431.011	954.83
431.387	982.18
431.763	1004.78
432.138	1006.58
432.514	1043.64
432.89	1031.22
433.265	1049.52
433.641	1041.16
434.016	1080.71
434.392	1066.47
434.767	1086.36
435.143	1098.33
435.518	1120.7
435.894	1102.85
436.269	1110.54
436.644	1137.2
437.02	1158.9
437.395	1132.46
437.77	1194.83
438.145	1196.86
438.52	1205.22
438.895	1187.37
439.271	1201.61
439.646	1230.31
440.021	1223.53
440.395	1240.93
440.77	1241.15
441.145	1273.02
441.52	1268.27
441.895	1253.58
442.27	1248.16
442.645	1276.18
443.019	1313.92
443.394	1284.99
443.769	1324.77
444.143	1306.46
444.518	1310.3
444.892	1326.35
445.267	1339.68
445.641	1343.98
446.016	1339.46
446.39	1341.49
446.764	1357.31
447.139	1345.33
447.513	1389.62
447.887	1364.77
448.262	1401.15
448.636	1420.13
449.01	1435.5
449.384	1437.98
449.758	1457.87
450.132	1434.82
450.506	1447.7
450.88	1428.49
451.254	1479.57
451.628	1456.06
452.002	1493.12
452.376	1537.87
452.75	1522.73
453.123	1547.81
453.497	1552.33
453.871	1574.03
454.244	1615.83
454.618	1628.94
454.992	1652.22
455.365	1615.38
455.739	1669.84
456.112	1682.05
456.486	1666.23
456.859	1732.67
457.232	1721.82
457.606	1704.64
457.979	1754.81
458.352	1786.45
458.725	1801.82
459.099	1822.83
459.472	1875.26
459.845	1870.52
460.218	1882.49
460.591	1876.17
460.964	1916.16
461.337	1939.89
461.71	1982.38
462.083	1979.44
462.456	2004.3
462.829	2016.05
463.201	2011.3
463.574	2027.57
463.947	2061.7
464.32	2089.04
464.692	2101.02
465.065	2130.17
465.438	2157.74
465.81	2195.7
466.183	2212.88
466.555	2248.13
466.928	2269.38
467.3	2290.84
467.672	2291.3
468.045	2270.73
468.417	2367
468.789	2381.91
469.161	2401.8
469.534	2450.16
469.906	2465.98
470.278	2524.28
470.65	2532.19
471.022	2588.24
471.394	2613.55
471.766	2629.82
472.138	2658.07
472.51	2723.15
472.882	2739.19
473.253	2786.2
473.625	2804.95
473.997	2891.05
474.369	2864.16
474.74	2920.66
475.112	2986.19
475.484	3045.17
475.855	3074.55
476.227	3090.6
476.598	3155.45
476.97	3210.59
477.341	3269.58
477.713	3321.1
478.084	3319.29
478.455	3431.83
478.827	3431.15
479.198	3526.52
479.569	3536.01
479.94	3629.34
480.311	3639.96
480.682	3701.88
481.053	3782.1
481.424	3864.59
481.795	3891.48
482.166	3962.44
482.537	4008.31
482.908	4036.56
483.279	4090.57
483.65	4166.05
484.021	4263.22
484.391	4331.69
484.762	4337.12
485.133	4390.9
485.503	4430.22
485.874	4533.04
486.244	4533.95
486.615	4613.72
486.985	4750.89
487.356	4745.02
487.726	4770.78
488.097	4913.15
488.467	4896.2
488.837	4981.17
489.207	5036.76
489.578	5110.88
489.948	5164.89
490.318	5198.11
490.688	5254.61
491.058	5307.49
491.428	5335.74
491.798	5421.38
492.168	5543.64
492.538	5599.68
492.908	5632.22
493.278	5646.69
493.648	5657.76
494.017	5819.34
494.387	5817.53
494.757	5882.84
495.126	5894.59
495.496	5939.79
495.866	5980.24
496.235	6020.24
496.605	6118.99
496.974	6135.71
497.344	6188.14
497.713	6254.81
498.082	6248.71
498.452	6316.73
498.821	6334.81
499.19	6333.22
499.559	6467.01
499.928	6501.58
500.298	6552.43
500.667	6582.03
501.036	6563.27
501.405	6704.51
501.774	6692.08
502.143	6764.17
502.512	6832.87
502.88	6822.48
503.249	6847.11
503.618	6912.64
503.987	6948.8
504.356	6999.19
504.724	7080.32
505.093	7079.64
505.462	7069.93
505.83	7172.98
506.199	7234.22
506.567	7305.4
506.936	7294.78
507.304	7439.41
507.672	7394.44
508.041	7409.58
508.409	7526.19
508.777	7615.45
509.145	7640.76
509.514	7614.55
509.882	7710.81
510.25	7693.19
510.618	7756.69
510.986	7893.41
511.354	7871.26
511.722	7978.38
512.09	8059.28
512.458	8039.39
512.826	8099.28
513.193	8164.59
513.561	8224.25
513.929	8297.69
514.297	8290.91
514.664	8382.21
515.032	8444.35
515.4	8506.05
515.767	8494.3
516.135	8612.71
516.502	8567.51
516.869	8720.73
517.237	8788.75
517.604	8762.09
517.972	8874.4
518.339	8908.75
518.706	9002.08
519.073	9070.1
519.44	9122.08
519.808	9162.08
520.175	9165.01
520.542	9364.78
520.909	9418.79
521.276	9324.56
521.643	9421.73
522.009	9564.55
522.376	9606.81
522.743	9743.3
523.11	9765.45
523.477	9848.84
523.843	9920.25
524.21	10069.62
524.577	10091.54
524.943	10174.7
525.31	10192.1
525.676	10303.74
526.043	10354.13
526.409	10392.33
526.776	10529.5
527.142	10581.93
527.508	10630.29
527.874	10711.64
528.241	10771.75
528.607	10771.3
528.973	10983.27
529.339	10937.62
529.705	11090.84
530.071	11089.71
530.437	11203.15
530.803	11216.26
531.169	11310.27
531.535	11361.79
531.901	11381.68
532.267	11439.3
532.632	11602.01
532.998	11523.82
533.364	11696.02
533.73	11745.96
534.095	11712.74
534.461	11836.58
534.826	11777.6
535.192	11950.93
535.557	11965.17
535.923	11979.85
536.288	12075.67
536.653	12113.18
537.019	12104.6
537.384	12193.18
537.749	12234.31
538.114	12323.57
538.479	12307.76
538.845	12446.06
539.21	12386.62
539.575	12486.06
539.94	12574.64
540.305	12561.76
540.67	12617.8
541.034	12709.1
541.399	12714.75
541.764	12690.12
542.129	12801.98
542.494	12847.18
542.858	12936.67
543.223	12995.42
543.587	12973.05
543.952	13073.39
544.316	13086.72
544.681	13038.13
545.045	13255.75
545.41	13224.12
545.774	13239.48
546.138	13238.8
546.503	13349.54
546.867	13411
547.231	13497.78
547.595	13542.07
547.959	13597.21
548.324	13563.32
548.688	13559.7
549.052	13665.46
549.416	13745.91
549.779	13749.75
550.143	13785.23
550.507	13969.41
550.871	13907.26
551.235	13918.33
551.599	14127.82
551.962	14067.71
552.326	14111.32
552.689	14241.04
553.053	14185.22
553.417	14286.23
553.78	14433.35
554.143	14342.5
554.507	14360.58
554.87	14599.22
555.234	14647.35
555.597	14571.42
555.96	14650.52
556.323	14730.97
556.686	14833.56
557.05	14914.92
557.413	14961.92
557.776	14997.4
558.139	15097.06
558.502	15151.52
558.865	15155.14
559.228	15324.17
559.59	15349.03
559.953	15367.79
560.316	15492.08
560.679	15524.85
561.041	15639.42
561.404	15732.52
561.767	15941.11
562.129	15808.91
562.492	15961.9
562.854	16017.26
563.217	15911.73
563.579	16115.56
563.941	16195.56
564.304	16192.63
564.666	16337.25
565.028	16367.54
565.39	16359.85
565.753	16574.31
566.115	16656.34
566.477	16732.95
566.839	16735.44
567.201	16928.2
567.563	16879.61
567.925	16958.48
568.287	17041.19
568.648	17005.26
569.01	17151.7
569.372	17261.07
569.734	17182.43
570.095	17348.75
570.457	17377.45
570.819	17400.05
571.18	17505.36
571.542	17650.67
571.903	17606.15
572.265	17736.31
572.626	17627.39
572.987	17871.9
573.349	17795.75
573.71	17894.95
574.071	17858.12
574.432	17909.87
574.794	18078.45
575.155	18067.15
575.516	18041.39
575.877	18194.15
576.238	18109.86
576.599	18256.3
576.96	18247.94
577.32	18303.08
577.681	18226.47
578.042	18477.31
578.403	18416.07
578.763	18362.74
579.124	18502.39
579.485	18459.46
579.845	18538.33
580.206	18588.49
580.566	18545.33
580.927	18579.91
581.287	18617.19
581.648	18635.5
582.008	18650.64
582.368	18637.98
582.728	18678.89
583.089	18639.79
583.449	18560.47
583.809	18637.31
584.169	18661.03
584.529	18626.23
584.889	18853.8
585.249	18771.31
585.609	18642.28
585.969	18794.82
586.329	18757.08
586.688	18845.89
587.048	18703.07
587.408	18661.71
587.768	18748.72
588.127	18709.4
588.487	18776.06
588.846	18918.43
589.206	18834.14
589.565	18812.9
589.925	18900.12
590.284	18852.44
590.643	18893.12
591.003	19021.03
591.362	19042.49
591.721	19006.56
592.08	18983.06
592.44	19033.91
592.799	19063.51
593.158	19008.82
593.517	19080.01
593.876	19067.35
594.235	19112.1
594.593	19155.49
594.952	19110.97
595.311	19121.81
595.67	19132.21
596.029	19133.56
596.387	19431.86
596.746	19254.01
597.104	19169.27
597.463	19236.84
597.822	19417.17
598.18	19276.16
598.538	19289.72
598.897	19518.41
599.255	19337.18
599.613	19545.76
599.972	19394.8
600.33	19398.87
600.688	19396.61
601.046	19517.28
601.404	19526.77
601.762	19541.01
602.12	19667.56
602.478	19689.93
602.836	19582.14
603.194	19424.86
603.552	19512.99
603.91	19481.58
604.268	19673.21
604.625	19517.51
604.983	19621.69
605.341	19561.35
605.698	19704.4
606.056	19620.11
606.413	19704.85
606.771	19748.24
607.128	19776.71
607.485	19594.34
607.843	19653.55
608.2	19810.38
608.557	19779.88
608.914	19779.88
609.272	19841.79
609.629	19871.85
609.986	19916.59
610.343	19846.31
610.7	19978.29
611.057	19864.39
611.414	19891.74
611.771	19916.14
612.127	20029.13
612.484	19941.68
612.841	20008.57
613.198	19874.56
613.554	19921.11
613.911	20017.38
614.267	19947.78
614.624	20006.31
614.98	20078.85
615.337	20046.76
615.693	19993.43
616.05	20082.01
616.406	20145.29
616.762	20163.37
617.118	20085.18
617.475	20028.68
617.831	20156.59
618.187	20179.86
618.543	20190.03
618.899	20326.53
619.255	20230.71
619.611	20228.45
619.967	20340.99
620.323	20351.84
620.678	20256.92
621.034	20121.56
621.39	20222.12
621.746	20116.36
622.101	20389.12
622.457	20199.53
622.812	20220.54
623.168	20236.81
623.523	20242.46
623.879	20250.37
624.234	20136.48
624.589	20174.89
624.945	20182.58
625.3	20327.66
625.655	20195.23
626.01	20237.94
626.365	20159.07
626.72	20175.8
627.075	20149.81
627.43	20149.13
627.785	20166.76
628.14	20220.54
628.495	20202.01
628.85	20130.83
629.205	20120.66
629.559	20170.83
629.914	20147.32
630.269	20127.89
630.623	20069.81
630.978	19921.79
631.332	20199.3
631.687	20185.29
632.041	19938.52
632.396	20066.2
632.75	19969.7
633.104	19924.5
633.459	19841.34
633.813	19869.59
634.167	19857.16
634.521	19821
634.875	19871.17
635.229	19818.29
635.583	19702.59
635.937	19808.12
636.291	19770.84
636.645	19715.02
636.999	19699.88
637.352	19791.63
637.706	19678.41
638.06	19667.79
638.413	19717.28
638.767	19558.41
639.121	19550.28
639.474	19533.78
639.828	19581.01
640.181	19660.78
640.534	19609.03
640.888	19454.91
641.241	19402.71
641.594	19424.4
641.947	19592.76
642.301	19532.2
642.654	19459.21
643.007	19476.15
643.36	19501.01
643.713	19546.89
644.066	19609.48
644.419	19450.62
644.771	19323.16
645.124	19119.55
645.477	19051.76
645.83	18999.78
646.182	18894.25
646.535	18900.58
646.888	19009.73
647.24	18782.39
647.593	18936.06
647.945	19006.79
648.298	18791.2
648.65	18887.24
649.002	18773.35
649.355	18835.95
649.707	18821.26
650.059	18758.21
650.411	19069.84
650.763	19133.56
651.115	19269.15
651.467	19184.18
651.819	19238.87
652.171	19168.14
652.523	19079.33
652.875	19056.28
653.227	18979.22
653.578	19216.5
653.93	19162.26
654.282	19059.67
654.633	18983.96
654.985	18994.59
655.337	19000.91
655.688	18939.9
656.039	19110.29
656.391	18851.54
656.742	18909.62
657.094	18959.56
657.445	18996.62
657.796	18907.36
658.147	18889.73
658.498	18897.64
658.849	18859
659.2	18814.48
659.551	18875.94
659.902	18970.63
660.253	18800.01
660.604	18851.09
660.955	18809.96
661.306	18806.12
661.656	18665.55
662.007	18715.04
662.358	18658.77
662.708	18719.56
663.059	18797.75
663.409	18634.82
663.76	18801.82
664.11	18821.93
664.461	18648.61
664.811	18808.38
665.161	18693.35
665.511	18588.04
665.862	18666.01
666.212	18650.41
666.562	18697.87
666.912	18670.07
667.262	18569.96
667.612	18518.89
667.962	18505.33
668.312	18457.42
668.662	18612.67
669.011	18559.34
669.361	18503.3
669.711	18499.01
670.06	18467.37
670.41	18338.78
670.76	18294.26
671.109	18380.59
671.459	18384.66
671.808	18355.96
672.157	18330.2
672.507	18232.12
672.856	18301.27
673.205	18263.98
673.554	18332.68
673.904	18211.56
674.253	18262.63
674.602	18202.06
674.951	17917.78
675.3	17841.4
675.649	18082.97
675.998	18054.27
676.346	18051.79
676.695	18131.33
677.044	17919.81
677.393	17974.95
677.741	17955.06
678.09	17945.35
678.438	17879.36
678.787	17932.24
679.135	17895.41
679.484	17788.74
679.832	17892.24
680.181	17829.42
680.529	17772.24
680.877	17746.71
681.225	17762.53
681.573	17726.82
681.922	17629.42
682.27	17635.75
682.618	17624
682.966	17517.79
683.314	17629.65
683.661	17573.83
684.009	17523.89
684.357	17423.78
684.705	17381.07
685.053	17424.23
685.4	17345.59
685.748	17384.68
686.095	17373.38
686.443	17237.34
686.79	17239.15
687.138	17258.59
687.485	17194.86
687.832	17196.89
688.18	17224.24
688.527	17128.65
688.874	17085.71
689.221	17090
689.568	16962.1
689.915	16906.5
690.262	16998.25
690.609	17040.96
690.956	16897.01
691.303	16877.35
691.65	16825.15
691.997	16856.79
692.344	16683.69
692.69	16741.99
693.037	16659.51
693.383	16549.23
693.73	16630.81
694.077	16626.29
694.423	16424.94
694.769	16472.39
695.116	16427.2
695.462	16459.06
695.808	16404.6
696.155	16473.07
696.501	16285.73
696.847	16257.71
697.193	16257.03
697.539	16276.46
697.885	16115.34
698.231	16086.19
698.577	16164.6
698.923	16125.96
699.269	16057.71
699.614	16010.93
699.96	15986.75
700.306	15969.35
700.651	15781.11
700.997	15802.35
701.342	15764.61
701.688	15794.22
702.033	15841.9
702.379	15730.04
702.724	15689.36
703.069	15656.82
703.415	15456.83
703.76	15550.16
704.105	15539.76
704.45	15437.39
704.795	15477.16
705.14	15443.94
705.485	15441.01
705.83	15300.45
706.175	15297.96
706.52	15297.96
706.865	15234.01
707.209	15271.07
707.554	15152.65
707.899	15218.41
708.243	15116.72
708.588	15105.65
708.932	15037.85
709.277	14965.54
709.621	14988.36
709.966	14907.01
710.31	14891.87
710.654	14774.13
710.998	14861.36
711.342	14777.52
711.687	14808.25
712.031	14725.55
712.375	14693.23
712.719	14626.11
713.063	14689.39
713.407	14746.79
713.75	14606.68
714.094	14626.79
714.438	14510.41
714.782	14606.9
715.125	14521.48
715.469	14425.67
715.812	14380.02
716.156	14344.09
716.499	14322.62
716.843	14306.8
717.186	14286.46
717.53	14301.38
717.873	14260.92
718.216	14294.82
718.559	14213.92
718.902	14113.13
719.246	14009.86
719.589	14055.96
719.932	14041.95
720.275	14044.88
720.617	13965.34
720.96	13993.59
721.303	13965.79
721.646	13975.06
721.989	13905.68
722.331	13921.72
722.674	13871.78
723.016	13918.11
723.359	13839.24
723.701	13808.28
724.044	13734.84
724.386	13714.95
724.729	13744.55
725.071	13667.49
725.413	13707.04
725.755	13580.94
726.097	13581.85
726.439	13528.74
726.782	13562.86
727.124	13573.26
727.465	13484.67
727.807	13469.76
728.149	13441.74
728.491	13417.56
728.833	13404.45
729.175	13385.24
729.516	13345.92
729.858	13384.79
730.199	13386.15
730.541	13307.05
730.882	13327.84
731.224	13218.47
731.565	13278.13
731.906	13296.43
732.248	13242.19
732.589	13120.62
732.93	13169.2
733.271	13142.76
733.612	13111.8
733.953	13072.03
734.294	13051.01
734.635	13044.69
734.976	13009.21
735.317	13008.98
735.658	12951.13
735.999	12933.73
736.339	12946.38
736.68	12961.98
737.021	12826.61
737.361	12776.44
737.702	12833.62
738.042	12761.3
738.383	12733.28
738.723	12755.88
739.063	12776.67
739.404	12758.37
739.744	12710.91
740.084	12625.04
740.424	12667.52
740.764	12603.57
741.104	12634.07
741.444	12552.95
741.784	12552.95
742.124	12592.04
742.464	12526.73
742.804	12437.24
743.143	12439.96
743.483	12487.86
743.823	12340.75
744.162	12334.65
744.502	12327.87
744.841	12275.89
745.181	12377.58
745.52	12312.28
745.86	12250.36
746.199	12293.07
746.538	12268.66
746.877	12221.88
747.216	12289.68
747.556	12214.65
747.895	12186.85
748.234	12119.74
748.573	12212.16
748.911	12076.8
749.25	12137.59
749.589	12045.84
749.928	12024.6
750.267	12053.52
750.605	11937.6
750.944	11975.79
751.283	11909.12
751.621	11948.22
751.96	11859.18
752.298	11789.35
752.636	11898.05
752.975	11787.54
753.313	11798.84
753.651	11840.2
753.989	11776.24
754.327	11735.79
754.666	11605.85
755.004	11628.45
755.342	11651.95
755.679	11652.18
756.017	11554.78
