Data from foam_black_FLMS001491_00013.txt Node
Date: Wed Feb 08 10:43:35 GMT 2017
User: dcchb
Spectrometer: FLMS00149
Trigger mode: 0
Integration Time (sec): 2.000000E-2
Scans to average: 10
Electric dark correction enabled: true
Nonlinearity correction enabled: false
Boxcar width: 0
XAxis mode: Wavelengths
Number of Pixels in Spectrum: 2048
>>>>>Begin Spectral Data<<<<<
341.393	-33.7
341.776	-33.7
342.16	-33.7
342.543	-49.07
342.927	-72.79
343.31	-77.54
343.693	-72.57
344.077	-63.98
344.46	-56.75
344.843	-41.16
345.226	-58.33
345.61	-39.35
345.993	0.2
346.376	-20.14
346.759	6.07
347.142	39.52
347.525	62.12
347.908	39.97
348.291	84.94
348.674	87.65
349.057	109.35
349.44	114.09
349.823	156.8
350.206	151.15
350.588	181.89
350.971	185.96
351.354	196.58
351.737	222.56
352.119	236.12
352.502	250.81
352.884	248.78
353.267	277.48
353.65	272.96
354.032	260.3
354.414	289.23
354.797	296.01
355.179	288.33
355.562	303.92
355.944	309.34
356.326	294.43
356.709	332.17
357.091	308.66
357.473	314.99
357.855	320.42
358.238	313.86
358.62	333.52
359.002	335.1
359.384	327.65
359.766	314.54
360.148	318.83
360.53	317.93
360.912	329.23
361.294	318.38
361.676	324.48
362.057	308.89
362.439	308.21
362.821	317.48
363.203	332.84
363.584	315.67
363.966	314.09
364.348	320.42
364.729	308.21
365.111	307.31
365.493	299.17
365.874	302.34
366.256	313.86
366.637	285.16
367.019	287.2
367.4	308.21
367.781	310.92
368.163	308.44
368.544	294.88
368.925	284.26
369.306	314.09
369.688	312.05
370.069	313.64
370.45	310.25
370.831	287.87
371.212	293.3
371.593	317.93
371.974	307.76
372.355	294.2
372.736	306.86
373.117	297.82
373.498	311.15
373.879	310.7
374.26	299.4
374.641	296.01
375.021	299.85
375.402	296.91
375.783	305.95
376.163	302.56
376.544	299.4
376.925	319.06
377.305	301.21
377.686	321.32
378.066	316.12
378.447	325.16
378.827	312.28
379.208	326.74
379.588	303.92
379.968	340.98
380.349	288.55
380.729	332.39
381.109	334.43
381.489	327.42
381.87	323.58
382.25	331.26
382.63	308.66
383.01	315.9
383.39	337.36
383.77	334.88
384.15	341.43
384.53	318.38
384.91	341.66
385.29	339.17
385.67	341.43
386.049	332.62
386.429	341.21
386.809	352.73
387.189	329.23
387.568	330.81
387.948	371.26
388.328	349.34
388.707	345.27
389.087	341.43
389.466	336.23
389.846	322.9
390.225	363.8
390.605	359.96
390.984	332.17
391.363	346.86
391.743	360.19
392.122	345.95
392.501	343.47
392.881	365.84
393.26	369
393.639	374.43
394.018	350.92
394.397	352.73
394.776	369.68
395.155	373.52
395.534	393.63
395.913	374.43
396.292	395.67
396.671	363.8
397.05	373.52
397.429	383.92
397.808	364.03
398.186	379.17
398.565	375.56
398.944	385.05
399.323	378.27
399.701	388.21
400.08	404.03
400.458	393.18
400.837	370.58
401.215	384.59
401.594	403.8
401.972	389.57
402.351	392.96
402.729	401.09
403.107	420.3
403.486	391.6
403.864	391.37
404.242	408.1
404.62	421.43
404.999	421.43
405.377	429.11
405.755	420.53
406.133	428.44
406.511	406.74
406.889	420.3
407.267	420.75
407.645	439.06
408.023	413.75
408.401	420.53
408.779	419.62
409.156	437.25
409.534	446.29
409.912	455.55
410.29	454.42
410.667	441.54
411.045	428.66
411.422	453.97
411.8	453.07
412.178	484.03
412.555	465.27
412.933	464.82
413.31	453.75
413.687	474.99
414.065	467.08
414.442	480.41
414.819	458.26
415.197	475.89
415.574	491.94
415.951	500.75
416.328	506.17
416.705	493.07
417.082	496.46
417.46	469.34
417.837	487.42
418.214	504.37
418.591	482.9
418.967	506.17
419.344	521.54
419.721	518.15
420.098	501.65
420.475	507.53
420.852	541.65
421.228	507.3
421.605	546.62
421.982	542.78
422.358	544.36
422.735	540.3
423.111	536.68
423.488	538.71
423.864	521.99
424.241	551.14
424.617	550.69
424.994	526.51
425.37	543.23
425.746	539.17
426.123	570.35
426.499	554.99
426.875	578.26
427.251	582.1
427.627	580.52
428.003	564.7
428.379	576.91
428.756	590.01
429.132	582.33
429.507	595.21
429.883	611.93
430.259	604.7
430.635	622.1
431.011	613.06
431.387	632.27
431.763	623.23
432.138	622.33
432.514	649.22
432.89	647.64
433.265	662.78
433.641	638.15
434.016	652.16
434.392	667.75
434.767	670.01
435.143	658.03
435.518	660.97
435.894	688.77
436.269	687.64
436.644	695.55
437.02	700.74
437.395	711.59
437.77	705.49
438.145	706.39
438.52	710.46
438.895	733.06
439.271	741.65
439.646	703.91
440.021	737.13
440.395	750.69
440.77	732.61
441.145	753.62
441.52	744.36
441.895	753.4
442.27	763.57
442.645	747.75
443.019	766.05
443.394	762.21
443.769	771.25
444.143	770.12
444.518	765.6
444.892	766.05
445.267	776.45
445.641	774.41
446.016	771.7
446.39	795.43
446.764	800.4
447.139	813.28
447.513	811.48
447.887	788.2
448.262	811.48
448.636	828.65
449.01	823
449.384	846.05
449.758	833.17
450.132	842.66
450.506	854.41
450.88	828.42
451.254	849.89
451.628	884.69
452.002	865.26
452.376	875.65
452.75	875.88
453.123	879.04
453.497	894.64
453.871	908.87
454.244	913.85
454.618	907.74
454.992	909.78
455.365	928.08
455.739	957.69
456.112	939.38
456.486	947.07
456.859	958.36
457.232	992.26
457.606	954.52
457.979	987.29
458.352	995.2
458.725	1030.45
459.099	1008.76
459.472	1030.68
459.845	1032.49
460.218	1061.19
460.591	1063.22
460.964	1057.57
461.337	1083.33
461.71	1097.12
462.083	1100.28
462.456	1096.21
462.829	1085.37
463.201	1112.48
463.574	1121.75
463.947	1163.78
464.32	1159.72
464.692	1153.61
465.065	1160.17
465.438	1167.62
465.81	1223.44
466.183	1191.58
466.555	1226.15
466.928	1225.02
467.3	1243.78
467.672	1245.59
468.045	1266.83
468.417	1259.37
468.789	1277
469.161	1269.99
469.534	1309.54
469.906	1350.67
470.278	1354.96
470.65	1371.69
471.022	1376.88
471.394	1411.23
471.766	1387.96
472.138	1429.54
472.51	1445.36
472.882	1451.68
473.253	1484.45
473.625	1525.81
473.997	1500.05
474.369	1509.54
474.74	1568.29
475.112	1558.8
475.484	1600.38
475.855	1597.9
476.227	1609.87
476.598	1651.45
476.97	1675.41
477.341	1686.48
477.713	1688.29
478.084	1734.84
478.455	1782.3
478.827	1785.24
479.198	1810.77
479.569	1844.44
479.94	1900.71
480.311	1890.54
480.682	1896.42
481.053	1973.48
481.424	1986.81
481.795	2013.7
482.166	2048.05
482.537	2046.02
482.908	2081.05
483.279	2133.47
483.65	2123.08
484.021	2160.82
484.391	2226.58
484.762	2209.86
485.133	2249.86
485.503	2266.13
485.874	2278.33
486.244	2316.75
486.615	2386.12
486.985	2396.74
487.356	2404.2
487.726	2418.44
488.097	2453.24
488.467	2445.11
488.837	2536.63
489.207	2548.83
489.578	2567.36
489.948	2627.7
490.318	2620.24
490.688	2667.25
491.058	2676.29
491.428	2744.53
491.798	2737.98
492.168	2771.42
492.538	2813.23
492.908	2845.32
493.278	2865.21
493.648	2867.69
494.017	2868.6
494.387	2959.22
494.757	2966.67
495.126	2985.43
495.496	2979.78
495.866	3006.45
496.235	3038.31
496.605	3048.03
496.974	3074.24
497.344	3070.17
497.713	3142.94
498.082	3122.6
498.452	3193.33
498.821	3183.84
499.19	3207.12
499.559	3237.17
499.928	3235.59
500.298	3291.64
500.667	3273.33
501.036	3336.83
501.405	3366.66
501.774	3340.45
502.143	3372.54
502.512	3405.31
502.88	3419.32
503.249	3389.26
503.618	3462.48
503.987	3473.55
504.356	3505.64
504.724	3497.51
505.093	3514.23
505.462	3593.55
505.83	3599.65
506.199	3593.78
506.567	3639.65
506.936	3616.6
507.304	3676.94
507.672	3713.09
508.041	3696.6
508.409	3753.77
508.777	3822.92
509.145	3838.29
509.514	3828.35
509.882	3862.47
510.25	3854.56
510.618	3861.57
510.986	3924.39
511.354	3946.31
511.722	3965.97
512.09	4003.71
512.458	3988.12
512.826	3989.47
513.193	4027.21
513.561	4077.6
513.929	4133.87
514.297	4118.96
514.664	4183.59
515.032	4215
515.4	4254.1
515.767	4233.98
516.135	4298.39
516.502	4269.46
516.869	4325.96
517.237	4330.71
517.604	4319.18
517.972	4381.78
518.339	4405.51
518.706	4470.81
519.073	4480.98
519.44	4507.65
519.808	4521.66
520.175	4557.14
520.542	4631.71
520.909	4653.63
521.276	4631.94
521.643	4721.43
522.009	4680.98
522.376	4757.13
522.743	4841.88
523.11	4853.18
523.477	4870.13
523.843	4880.3
524.21	4941.31
524.577	4943.34
524.943	5013.17
525.31	5048.88
525.676	5072.15
526.043	5091.36
526.409	5146.5
526.776	5216.56
527.142	5228.76
527.508	5233.51
527.874	5283.9
528.241	5297.46
528.607	5312.37
528.973	5331.58
529.339	5405.03
529.705	5436.66
530.071	5434.41
530.437	5494.29
530.803	5542.42
531.169	5535.87
531.535	5535.87
531.901	5572.93
532.267	5594.17
532.632	5664.23
532.998	5704
533.364	5702.65
533.73	5701.74
534.095	5786.26
534.461	5745.13
534.826	5788.29
535.192	5847.73
535.557	5904.45
535.923	5882.98
536.288	5929.53
536.653	5928.86
537.019	5917.1
537.384	5970.21
537.749	6025.35
538.114	6041.85
538.479	6044.11
538.845	6139.7
539.21	6092.01
539.575	6157.78
539.94	6177.44
540.305	6200.26
540.67	6169.98
541.034	6184.44
541.399	6317.77
541.764	6249.52
542.129	6256.3
542.494	6281.61
542.858	6301.73
543.223	6334.04
543.587	6379.92
543.952	6420.59
544.316	6401.39
544.681	6426.7
545.045	6415.17
545.41	6494.04
545.774	6510.99
546.138	6478.22
546.503	6523.19
546.867	6536.07
547.231	6640.02
547.595	6553.47
547.959	6621.27
548.324	6637.09
548.688	6619.68
549.052	6694.94
549.416	6746.24
549.779	6725.9
550.143	6719.57
550.507	6795.05
550.871	6814.26
551.235	6771.09
551.599	6921.82
551.962	6837.08
552.326	6905.78
552.689	6967.47
553.053	6927.93
553.417	7000.24
553.78	7034.82
554.143	7047.02
554.507	7055.15
554.87	7097.64
555.234	7204.08
555.597	7163.4
555.96	7168.14
556.323	7186.68
556.686	7230.97
557.05	7284.53
557.413	7270.29
557.776	7347.8
558.139	7385.09
558.502	7323.85
558.865	7391.42
559.228	7488.81
559.59	7496.27
559.953	7502.6
560.316	7557.06
560.679	7622.14
561.041	7681.35
561.404	7742.37
561.767	7715.7
562.129	7688.36
562.492	7809.48
562.854	7768.13
563.217	7823.95
563.579	7853.78
563.941	7913.66
564.304	7997.5
564.666	7969.03
565.028	7955.92
565.39	8029.37
565.753	8027.78
566.115	8100.55
566.477	8169.7
566.839	8221.68
567.201	8197.72
567.563	8236.14
567.925	8253.54
568.287	8328.57
568.648	8364.5
569.01	8383.03
569.372	8443.37
569.734	8394.55
570.095	8444.5
570.457	8489.69
570.819	8456.47
571.18	8529.24
571.542	8553.19
571.903	8580.76
572.265	8654.43
572.626	8631.84
572.987	8694.88
573.349	8702.57
573.71	8762
574.071	8717.71
574.432	8792.06
574.794	8876.8
575.155	8865.95
575.516	8793.64
575.877	8850.36
576.238	8845.39
576.599	8970.36
576.96	9017.59
577.32	8986.18
577.681	9019.4
578.042	9054.42
578.403	8981.88
578.763	9086.06
579.124	9066.4
579.485	9062.33
579.845	9139.39
580.206	9101.43
580.566	9097.81
580.927	9081.77
581.287	9171.26
581.648	9155.66
582.008	9153.63
582.368	9183.69
582.728	9214.87
583.089	9185.94
583.449	9129.22
583.809	9192.05
584.169	9144.14
584.529	9221.65
584.889	9225.27
585.249	9209.22
585.609	9215.1
585.969	9183.91
586.329	9204.25
586.688	9231.82
587.048	9200.63
587.408	9160.18
587.768	9263.23
588.127	9162.67
588.487	9176.68
588.846	9308.65
589.206	9224.59
589.565	9238.82
589.925	9287.19
590.284	9190.24
590.643	9243.8
591.003	9226.85
591.362	9232.27
591.721	9253.97
592.08	9257.58
592.44	9325.38
592.799	9287.41
593.158	9267.3
593.517	9219.62
593.876	9287.86
594.235	9325.6
594.593	9314.3
594.952	9331.48
595.311	9306.39
595.67	9314.53
596.029	9410.12
596.387	9333.06
596.746	9380.52
597.104	9379.84
597.463	9385.49
597.822	9418.03
598.18	9304.36
598.538	9384.81
598.897	9402.66
599.255	9407.41
599.613	9507.52
599.972	9436.79
600.33	9435.88
600.688	9411.93
601.046	9483.56
601.404	9467.97
601.762	9477.91
602.12	9465.71
602.478	9494.41
602.836	9540.96
603.194	9529.66
603.552	9452.38
603.91	9519.04
604.268	9514.07
604.625	9561.53
604.983	9524.02
605.341	9472.49
605.698	9526.73
606.056	9563.34
606.413	9542.32
606.771	9562.43
607.128	9632.49
607.485	9557.69
607.843	9503
608.2	9676.33
608.557	9721.3
608.914	9591.13
609.272	9686.27
609.629	9703.45
609.986	9702.32
610.343	9749.77
610.7	9760.17
611.057	9700.96
611.414	9741.41
611.771	9703.67
612.127	9756.1
612.484	9765.14
612.841	9873.84
613.198	9740.05
613.554	9802.43
613.911	9829.09
614.267	9835.65
614.624	9839.94
614.98	9829.54
615.337	9831.35
615.693	9864.12
616.05	9820.05
616.406	9953.83
616.762	9905.47
617.118	9796.1
617.475	9838.36
617.831	10002.65
618.187	9915.64
618.543	9938.69
618.899	9949.77
619.255	9925.13
619.611	9952.93
619.967	10029.31
620.323	10023.21
620.678	10020.05
621.034	9945.47
621.39	9999.71
621.746	9972.82
622.101	9994.29
622.457	9959.26
622.812	10012.14
623.168	10094.62
623.523	9987.51
623.879	10041.97
624.234	10011.23
624.589	10065.7
624.945	10056.88
625.3	10005.58
625.655	10027.96
626.01	10040.84
626.365	10049.2
626.72	9996.77
627.075	9999.93
627.43	9981.18
627.785	10033.83
628.14	10022.53
628.495	9979.82
628.85	10046.26
629.205	10045.58
629.559	10077.9
629.914	9951.12
630.269	9987.51
630.623	9960.61
630.978	9901.41
631.332	9960.39
631.687	10023.44
632.041	9956.32
632.396	9995.42
632.75	9886.49
633.104	9918.81
633.459	9883.1
633.813	9855.98
634.167	9853.72
634.521	9858.02
634.875	9848.3
635.229	9903.44
635.583	9811.92
635.937	9895.98
636.291	9819.15
636.645	9784.57
636.999	9791.13
637.352	9831.8
637.706	9770.56
638.06	9826.15
638.413	9784.57
638.767	9794.74
639.121	9688.08
639.474	9662.77
639.828	9703.22
640.181	9737.57
640.534	9699.83
640.888	9730.11
641.241	9618.25
641.594	9689.66
641.947	9659.6
642.301	9621.41
642.654	9708.87
643.007	9700.73
643.36	9653.73
643.713	9610.11
644.066	9642.66
644.419	9580.74
644.771	9483.79
645.124	9387.52
645.477	9357.24
645.83	9319.95
646.182	9353.85
646.535	9239.95
646.888	9268.88
647.24	9290.57
647.593	9287.86
647.945	9269.78
648.298	9234.31
648.65	9292.38
649.002	9201.31
649.355	9221.42
649.707	9194.98
650.059	9252.38
650.411	9361.08
650.763	9331.48
651.115	9437.46
651.467	9404.02
651.819	9466.84
652.171	9390.01
652.523	9376.9
652.875	9402.21
653.227	9335.32
653.578	9288.32
653.93	9399.5
654.282	9312.27
654.633	9284.02
654.985	9365.83
655.337	9340.07
655.688	9347.3
656.039	9328.54
656.391	9259.16
656.742	9220.07
657.094	9317.69
657.445	9310.91
657.796	9270.91
658.147	9313.4
658.498	9250.58
658.849	9252.16
659.2	9288.99
659.551	9243.57
659.902	9241.99
660.253	9234.31
660.604	9298.94
660.955	9190.92
661.306	9271.82
661.656	9169.67
662.007	9266.85
662.358	9173.06
662.708	9165.38
663.059	9133.74
663.409	9161.54
663.76	9197.02
664.11	9219.84
664.461	9258.94
664.811	9214.42
665.161	9178.04
665.511	9185.27
665.862	9281.54
666.212	9195.21
666.562	9226.4
666.912	9158.38
667.262	9214.64
667.612	9159.05
667.962	9139.39
668.312	9139.62
668.662	9201.76
669.011	9152.5
669.361	9143.46
669.711	9115.44
670.06	9123.8
670.41	9117.02
670.76	9140.52
671.109	9124.7
671.459	9145.27
671.808	9106.17
672.157	9160.86
672.507	9048.77
672.856	9107.98
673.205	9105.5
673.554	9127.42
673.904	9055.33
674.253	9162.44
674.602	9042.9
674.951	8959.96
675.3	9005.61
675.649	9086.06
675.998	9049.9
676.346	9044.71
676.695	8983.01
677.044	9011.71
677.393	9035.44
677.741	8931.71
678.09	8961.54
678.438	8965.61
678.787	8948.66
679.135	8911.38
679.484	8946.86
679.832	8944.6
680.181	8898.72
680.529	8939.62
680.877	8875.67
681.225	8897.14
681.573	8926.29
681.922	8850.13
682.27	8822.56
682.618	8827.99
682.966	8833.86
683.314	8863.92
683.661	8818.5
684.009	8750.48
684.357	8780.08
684.705	8731.95
685.053	8737.37
685.4	8715.67
685.748	8646.3
686.095	8592.29
686.443	8658.73
686.79	8638.61
687.138	8614.43
687.485	8656.69
687.832	8649.91
688.18	8643.59
688.527	8629.35
688.874	8619.86
689.221	8594.1
689.568	8505.06
689.915	8502.57
690.262	8478.84
690.609	8526.98
690.956	8444.04
691.303	8427.09
691.65	8366.76
691.997	8368.57
692.344	8360.88
692.69	8345.74
693.037	8410.15
693.383	8337.38
693.73	8301.45
694.077	8274.78
694.423	8272.97
694.769	8200.21
695.116	8236.59
695.462	8186.2
695.808	8171.06
696.155	8186.42
696.501	8134.9
696.847	8132.19
697.193	8063.26
697.539	8108.23
697.885	8021.68
698.231	8030.5
698.577	8000.67
698.923	7992.08
699.269	7924.74
699.614	7968.35
699.96	7885.87
700.306	7967.67
700.651	7853.1
700.997	7880.22
701.342	7882.48
701.688	7869.14
702.033	7753.89
702.379	7842.7
702.724	7785.08
703.069	7796.15
703.415	7703.27
703.76	7676.83
704.105	7658.08
704.45	7687.23
704.795	7670.28
705.14	7636.16
705.485	7640.45
705.83	7608.81
706.175	7589.15
706.52	7564.52
706.865	7530.85
707.209	7550.51
707.554	7487.01
707.899	7524.97
708.243	7572.88
708.588	7465.09
708.932	7465.54
709.277	7397.74
709.621	7402.71
709.966	7352.32
710.31	7390.29
710.654	7343.51
710.998	7312.32
711.342	7392.32
711.687	7358.87
712.031	7282.04
712.375	7241.36
712.719	7285.2
713.063	7315.03
713.407	7233
713.75	7285.43
714.094	7214.47
714.438	7208.82
714.782	7247.69
715.125	7147.81
715.469	7194.58
715.812	7129.28
716.156	7112.1
716.499	7161.37
716.843	7117.07
717.186	7130.41
717.53	7149.16
717.873	7128.82
718.216	7160.69
718.559	7095.83
718.902	7036.17
719.246	7003.4
719.589	7004.31
719.932	7021.48
720.275	6988.94
720.617	7028.26
720.96	6978.77
721.303	7019.45
721.646	6985.1
721.989	6941.26
722.331	6958.88
722.674	6911.43
723.016	6888.38
723.359	6904.87
723.701	6927.02
724.044	6875.27
724.386	6872.33
724.729	6874.37
725.071	6878.21
725.413	6832.56
725.755	6808.61
726.097	6847.48
726.439	6792.34
726.782	6792.79
727.124	6812.9
727.465	6788.04
727.807	6686.12
728.149	6771.55
728.491	6748.72
728.833	6719.8
729.175	6680.47
729.516	6678.44
729.858	6702.85
730.199	6682.51
730.541	6649.97
730.882	6666.92
731.224	6629.85
731.565	6615.17
731.906	6673.02
732.248	6652
732.589	6666.46
732.93	6566.8
733.271	6549.86
733.612	6590.76
733.953	6544.66
734.294	6577.65
734.635	6520.48
734.976	6539.46
735.317	6513.02
735.658	6533.13
735.999	6514.38
736.339	6504.66
736.68	6475.73
737.021	6509.18
737.361	6464.89
737.702	6530.42
738.042	6513.47
738.383	6449.07
738.723	6468.5
739.063	6411.33
739.404	6450.42
739.744	6446.13
740.084	6418.33
740.424	6420.37
740.764	6355.28
741.104	6392.57
741.444	6359.8
741.784	6387.6
742.124	6367.26
742.464	6374.49
742.804	6330.43
743.143	6303.76
743.483	6270.09
743.823	6266.02
744.162	6245.46
744.502	6360.93
744.841	6280.71
745.181	6286.59
745.52	6255.17
745.86	6265.34
746.199	6226.02
746.538	6197.1
746.877	6226.47
747.216	6257.43
747.556	6246.14
747.895	6202.75
748.234	6166.36
748.573	6171.33
748.911	6151.9
749.25	6184.22
749.589	6156.87
749.928	6159.36
750.267	6167.95
750.605	6119.58
750.944	6101.28
751.283	6107.83
751.621	6091.34
751.96	6099.02
752.298	6024.22
752.636	6036.65
752.975	5996.42
753.313	6021.73
753.651	6042.52
753.989	6001.17
754.327	6025.35
754.666	6012.02
755.004	6008.85
755.342	5969.08
755.679	5933.38
756.017	5963.66
756.355	5962.75
756.693	5904.9
757.031	5935.86
757.368	5874.17
757.706	5871.23
758.044	5856.09
758.381	5852.47
758.719	5859.03
759.056	5811.34
759.394	5792.59
759.731	5751.91
760.068	5800.72
760.405	5748.75
760.743	5762.53
761.08	5741.97
761.417	5739.48
761.754	5679.14
762.091	5689.77
762.428	5701.29
762.765	5661.29
763.102	5657
763.438	5640.28
763.775	5621.74
764.112	5630.33
764.449	5574.51
764.785	5570.22
765.122	5494.52
765.458	5537.45
765.795	5528.64
766.131	5537.23
766.467	5487.06
766.804	5499.04
767.14	5458.13
767.476	5440.73
767.812	5451.81
768.148	5456.55
768.485	5387.63
768.821	5350.79
769.157	5368.42
769.492	5348.98
769.828	5348.53
770.164	5255.88
770.5	5280.28
770.836	5259.27
