Data from foam1_polythene_foam_FLMS001491_00007.txt Node
Date: Wed Feb 08 10:54:18 GMT 2017
User: dcchb
Spectrometer: FLMS00149
Trigger mode: 0
Integration Time (sec): 2.000000E-2
Scans to average: 10
Electric dark correction enabled: true
Nonlinearity correction enabled: false
Boxcar width: 0
XAxis mode: Wavelengths
Number of Pixels in Spectrum: 2048
>>>>>Begin Spectral Data<<<<<
341.393	-37.2
341.776	-37.2
342.16	-37.2
342.543	-75.62
342.927	-97.31
343.31	-81.5
343.693	-45.56
344.077	-84.43
344.46	-76.3
344.843	-42.63
345.226	-22.97
345.61	-36.3
345.993	-13.93
346.376	1.89
346.759	-12.12
347.142	26.98
347.525	56.35
347.908	52.51
348.291	90.93
348.674	83.7
349.057	103.36
349.44	132.28
349.823	147.2
350.206	152.62
350.588	173.87
350.971	190.36
351.354	220.64
351.737	203.02
352.119	237.59
352.502	237.59
352.884	270.13
353.267	264.71
353.65	283.47
354.032	287.76
354.414	284.15
354.797	294.31
355.179	305.39
355.562	308.1
355.944	301.77
356.326	307.42
356.709	316.23
357.091	324.37
357.473	303.13
357.855	309.46
358.238	323.92
358.62	347.65
359.002	320.53
359.384	304.48
359.766	304.94
360.148	319.85
360.53	303.13
360.912	338.38
361.294	320.3
361.676	298.83
362.057	303.13
362.439	287.53
362.821	298.38
363.203	316.46
363.584	304.71
363.966	302
364.348	319.4
364.729	294.99
365.111	310.13
365.493	292.96
365.874	301.32
366.256	289.34
366.637	286.18
367.019	276.91
367.4	288.66
367.781	301.55
368.163	291.83
368.544	293.18
368.925	288.44
369.306	292.96
369.688	289.79
370.069	295.9
370.45	305.16
370.831	315.78
371.212	275.33
371.593	293.18
371.974	281.21
372.355	284.37
372.736	286.4
373.117	280.98
373.498	284.37
373.879	293.64
374.26	287.08
374.641	296.57
375.021	282.11
375.402	268.1
375.783	297.7
376.163	299.29
376.544	303.35
376.925	290.25
377.305	275.33
377.686	284.6
378.066	293.64
378.447	287.76
378.827	306.97
379.208	309.46
379.588	285.5
379.968	299.51
380.349	305.84
380.729	319.17
381.109	314.2
381.489	315.78
381.87	306.97
382.25	323.69
382.63	313.52
383.01	306.07
383.39	326.63
383.77	310.59
384.15	302.68
384.53	290.7
384.91	315.1
385.29	318.95
385.67	307.87
386.049	320.3
386.429	340.19
386.809	318.49
387.189	337.48
387.568	335.44
387.948	323.24
388.328	318.04
388.707	311.94
389.087	319.4
389.466	325.27
389.846	327.31
390.225	333.64
390.605	342.22
390.984	320.08
391.363	321.88
391.743	338.38
392.122	346.06
392.501	330.7
392.881	327.08
393.26	348.55
393.639	364.82
394.018	346.29
394.397	341.54
394.776	329.12
395.155	338.38
395.534	358.04
395.913	343.8
396.292	365.5
396.671	325.95
397.05	333.18
397.429	380.41
397.808	343.13
398.186	344.93
398.565	345.61
398.944	353.3
399.323	360.75
399.701	361.21
400.08	361.88
400.458	370.47
400.837	362.34
401.215	396.91
401.594	366.4
401.972	362.34
402.351	370.92
402.729	373.63
403.107	367.53
403.486	368.66
403.864	351.94
404.242	371.83
404.62	383.35
404.999	345.39
405.377	369.11
405.755	381.09
406.133	393.75
406.511	389.68
406.889	385.61
407.267	375.44
407.645	378.83
408.023	398.49
408.401	416.8
408.779	387.65
409.156	375.89
409.534	393.97
409.912	411.37
410.29	405.5
410.667	406.18
411.045	396.91
411.422	405.27
411.8	420.41
412.178	419.06
412.555	407.53
412.933	417.02
413.31	441.43
413.687	413.63
414.065	417.7
414.442	419.06
414.819	429.23
415.197	419.96
415.574	437.81
415.951	440.3
416.328	422.9
416.705	432.84
417.082	457.25
417.46	430.81
417.837	449.11
418.214	460.86
418.591	447.3
418.967	453.86
419.344	463.8
419.721	435.1
420.098	451.37
420.475	439.85
420.852	470.58
421.228	458.6
421.605	443.69
421.982	460.86
422.358	472.61
422.735	472.61
423.111	469.45
423.488	468.32
423.864	453.63
424.241	488.89
424.617	483.91
424.994	492.73
425.37	495.21
425.746	471.71
426.123	499.51
426.499	493.18
426.875	506.96
427.251	504.7
427.627	500.64
428.003	500.86
428.379	504.7
428.756	509.9
429.132	502.9
429.507	522.1
429.883	538.6
430.259	512.84
430.635	529.34
431.011	522.1
431.387	530.69
431.763	550.35
432.138	541.54
432.514	555.1
432.89	561.2
433.265	562.1
433.641	567.75
434.016	578.15
434.392	587.64
434.767	574.76
435.143	588.09
435.518	581.54
435.894	562.56
436.269	597.81
436.644	611.59
437.02	608.2
437.395	599.17
437.77	600.07
438.145	624.48
438.52	626.51
438.895	637.81
439.271	649.33
439.646	648.43
440.021	645.27
440.395	628.77
440.77	633.29
441.145	638.71
441.52	678.26
441.895	649.56
442.27	661.99
442.645	684.59
443.019	693.17
443.394	699.28
443.769	699.5
444.143	675.77
444.518	709.9
444.892	728.43
445.267	708.77
445.641	709.67
446.016	710.35
446.39	730.91
446.764	757.35
447.139	714.87
447.513	743.12
447.887	748.77
448.262	753.29
448.636	755.09
449.01	741.99
449.384	780.86
449.758	777.24
450.132	765.71
450.506	813.4
450.88	777.01
451.254	796.67
451.628	809.33
452.002	802.78
452.376	803.45
452.75	802.1
453.123	805.94
453.497	815.43
453.871	830.57
454.244	818.59
454.618	828.54
454.992	861.76
455.365	853.4
455.739	868.31
456.112	845.26
456.486	837.58
456.859	868.08
457.232	869.21
457.606	876.9
457.979	881.87
458.352	883
458.725	897.24
459.099	896.11
459.472	892.04
459.845	879.61
460.218	899.5
460.591	918.48
460.964	899.5
461.337	941.98
461.71	913.73
462.083	937.91
462.456	961.87
462.829	973.17
463.201	929.78
463.574	941.08
463.947	955.54
464.32	997.8
464.692	963.22
465.065	988.31
465.438	988.53
465.81	981.75
466.183	1001.87
466.555	1029.89
466.928	1025.14
467.3	1025.37
467.672	1013.39
468.045	1043.67
468.417	1060.62
468.789	1043.9
469.161	1035.09
469.534	1094.29
469.906	1088.64
470.278	1092.94
470.65	1090.23
471.022	1120.28
471.394	1129.09
471.766	1151.69
472.138	1131.81
472.51	1160.96
472.882	1143.11
473.253	1202.99
473.625	1206.61
473.997	1221.3
474.369	1205.93
474.74	1230.11
475.112	1255.64
475.484	1254.29
475.855	1270.79
476.227	1286.83
476.598	1332.03
476.97	1331.8
477.341	1351.46
477.713	1346.72
478.084	1337.45
478.455	1375.87
478.827	1406.15
479.198	1436.43
479.569	1417.45
479.94	1445.02
480.311	1474.17
480.682	1496.32
481.053	1508.75
481.424	1542.42
481.795	1553.49
482.166	1553.04
482.537	1569.99
482.908	1605.92
483.279	1625.8
483.65	1657.44
484.021	1658.8
484.391	1680.04
484.762	1711.23
485.133	1744.22
485.503	1746.48
485.874	1798.68
486.244	1778.34
486.615	1818.79
486.985	1823.54
487.356	1845.46
487.726	1866.7
488.097	1904.67
488.467	1911.22
488.837	1936.53
489.207	1969.75
489.578	1978.79
489.948	1996.19
490.318	2028.05
490.688	2042.97
491.058	2078.67
491.428	2091.78
491.798	2097.88
492.168	2138.33
492.538	2129.75
492.908	2183.08
493.278	2227.82
493.648	2198.9
494.017	2240.7
494.387	2202.74
494.757	2280.7
495.126	2293.36
495.496	2299.46
495.866	2348.5
496.235	2355.05
496.605	2346.92
496.974	2375.39
497.344	2387.82
497.713	2428.27
498.082	2404.09
498.452	2428.04
498.821	2426.69
499.19	2476.63
499.559	2522.5
499.928	2502.39
500.298	2502.62
500.667	2568.6
501.036	2561.15
501.405	2547.81
501.774	2595.27
502.143	2598.66
502.512	2617.19
502.88	2647.7
503.249	2666
503.618	2690.64
503.987	2693.8
504.356	2709.84
504.724	2701.03
505.093	2680.01
505.462	2756.4
505.83	2740.8
506.199	2790.75
506.567	2837.07
506.936	2869.39
507.304	2822.84
507.672	2854.25
508.041	2891.53
508.409	2914.13
508.777	2907.13
509.145	2901.7
509.514	2946.9
509.882	2966.33
510.25	2994.36
510.618	3015.37
510.986	2976.73
511.354	3063.51
511.722	3059.21
512.09	3115.03
512.458	3074.35
512.826	3083.39
513.193	3179.89
513.561	3160.68
513.929	3160.68
514.297	3180.11
514.664	3287.46
515.032	3230.96
515.4	3276.38
515.767	3260.11
516.135	3335.14
516.502	3308.92
516.869	3375.82
517.237	3364.74
517.604	3355.7
517.972	3434.57
518.339	3428.24
518.706	3452.42
519.073	3470.73
519.44	3497.39
519.808	3558.86
520.175	3512.76
520.542	3569.71
520.909	3545.98
521.276	3595.7
521.643	3626.66
522.009	3627.11
522.376	3706.88
522.743	3702.36
523.11	3752.08
523.477	3767.67
523.843	3804.5
524.21	3812.19
524.577	3859.87
524.943	3882.47
525.31	3897.16
525.676	3945.97
526.043	3961.56
526.409	4015.12
526.776	4037.94
527.142	4056.48
527.508	4067.32
527.874	4107.77
528.241	4095.8
528.607	4173.08
528.973	4184.16
529.339	4173.31
529.705	4230.03
530.071	4260.99
530.437	4268
530.803	4283.14
531.169	4324.72
531.535	4306.64
531.901	4325.85
532.267	4309.12
532.632	4364.26
532.998	4369.91
533.364	4430.25
533.73	4470.7
534.095	4482.68
534.461	4498.05
534.826	4516.35
535.192	4485.39
535.557	4536.69
535.923	4521.77
536.288	4578.04
536.653	4540.98
537.019	4605.16
537.384	4642.45
537.749	4691.49
538.114	4672.96
538.479	4670.47
538.845	4717.93
539.21	4661.21
539.575	4716.12
539.94	4685.39
540.305	4731.03
540.67	4780.3
541.034	4810.13
541.399	4832.05
541.764	4856.23
542.129	4860.75
542.494	4843.35
542.858	4848.77
543.223	4927.41
543.587	4938.94
543.952	4910.69
544.316	4933.74
544.681	4894.65
545.045	4969.22
545.41	5014.87
545.774	5037.24
546.138	5061.65
546.503	5042.21
546.867	5045.6
547.231	5102.78
547.595	5096.9
547.959	5084.24
548.324	5128.31
548.688	5152.94
549.052	5174.19
549.416	5180.29
549.779	5190
550.143	5206.73
550.507	5220.74
550.871	5248.99
551.235	5291.02
551.599	5305.03
551.962	5305.26
552.326	5279.49
552.689	5382.99
553.053	5329.44
553.417	5361.53
553.78	5450.11
554.143	5412.15
554.507	5494.86
554.87	5466.83
555.234	5581.86
555.597	5505.93
555.96	5566.72
556.323	5557.68
556.686	5570.11
557.05	5614.85
557.413	5634.74
557.776	5632.03
558.139	5677.68
558.502	5709.99
558.865	5708.64
559.228	5774.62
559.59	5790.44
559.953	5777.79
560.316	5867.28
560.679	5813.04
561.041	5906.6
561.404	5893.04
561.767	5961.74
562.129	5928.52
562.492	5988.18
562.854	5973.26
563.217	6001.06
563.579	6026.37
563.941	6084.44
564.304	6062.52
564.666	6110.66
565.028	6208.96
565.39	6159.24
565.753	6240.82
566.115	6221.84
566.477	6279.02
566.839	6302.52
567.201	6314.27
567.563	6299.58
567.925	6384.55
568.287	6424.77
568.648	6443.76
569.01	6428.39
569.372	6488.5
569.734	6434.72
570.095	6519.91
570.457	6550.2
570.819	6546.13
571.18	6529.86
571.542	6559.23
571.903	6571.21
572.265	6628.16
572.626	6594.04
572.987	6646.92
573.349	6723.52
573.71	6660.25
574.071	6688.04
574.432	6710.42
574.794	6777.53
575.155	6772.56
575.516	6737.31
575.877	6848.94
576.238	6851.66
576.599	6848.27
576.96	6829.74
577.32	6840.13
577.681	6906.57
578.042	6834.03
578.403	6870.19
578.763	6851.2
579.124	6881.71
579.485	6939.56
579.845	6978.66
580.206	6936.17
580.566	6883.97
580.927	6961.03
581.287	6970.3
581.648	6922.16
582.008	7005.55
582.368	6950.86
582.728	7011.65
583.089	6992.44
583.449	7000.8
583.809	6947.25
584.169	6981.6
584.529	6976.85
584.889	7063.63
585.249	7016.62
585.609	6983.86
585.969	7041.93
586.329	7000.35
586.688	7065.44
587.048	6996.74
587.408	7008.94
587.768	6984.76
588.127	7000.35
588.487	6988.83
588.846	7038.09
589.206	6974.14
589.565	6999.45
589.925	7046.45
590.284	7031.76
590.643	7043.06
591.003	7121.25
591.362	7025.66
591.721	7042.39
592.08	7050.29
592.44	7079.22
592.799	7078.54
593.158	7091.2
593.517	7070.41
593.876	7071.54
594.235	7040.8
594.593	7055.49
594.952	7091.88
595.311	7050.29
595.67	7110.63
596.029	7166
596.387	7099.79
596.746	7171.42
597.104	7130.29
597.463	7099.79
597.822	7046
598.18	7091.65
598.538	7098.88
598.897	7068.6
599.255	7101.14
599.613	7196.05
599.972	7165.55
600.33	7055.94
600.688	7127.13
601.046	7105.21
601.404	7136.85
601.762	7136.85
602.12	7187.92
602.478	7165.09
602.836	7153.34
603.194	7098.66
603.552	7124.87
603.91	7082.84
604.268	7174.36
604.625	7154.47
604.983	7228.37
605.341	7099.56
605.698	7198.77
606.056	7187.01
606.413	7170.07
606.771	7234.7
607.128	7210.29
607.485	7149.73
607.843	7191.53
608.2	7289.84
608.557	7280.57
608.914	7215.49
609.272	7275.37
609.629	7253
609.986	7302.49
610.343	7254.81
610.7	7323.96
611.057	7228.6
611.414	7263.62
611.771	7281.25
612.127	7359.21
612.484	7288.71
612.841	7354.02
613.198	7300.01
613.554	7305.66
613.911	7326.67
614.267	7302.94
614.624	7340.23
614.98	7379.55
615.337	7348.14
615.693	7394.92
616.05	7351.3
616.406	7374.13
616.762	7332.77
617.118	7377.52
617.475	7347.24
617.831	7356.05
618.187	7444.18
618.543	7420.91
618.899	7375.48
619.255	7383.62
619.611	7413.9
619.967	7434.47
620.323	7428.82
620.678	7398.31
621.034	7445.31
621.39	7335.26
621.746	7380.91
622.101	7474.46
622.457	7424.75
622.812	7452.54
623.168	7476.95
623.523	7458.87
623.879	7511.07
624.234	7450.06
624.589	7407.57
624.945	7471.53
625.3	7431.53
625.655	7392.21
626.01	7419.32
626.365	7408.7
626.72	7351.76
627.075	7363.51
627.43	7385.88
627.785	7379.55
628.14	7423.17
628.495	7466.33
628.85	7401.92
629.205	7358.08
629.559	7388.59
629.914	7359.21
630.269	7321.93
630.623	7324.41
630.978	7319.89
631.332	7371.42
631.687	7343.39
632.041	7300.91
632.396	7349.27
632.75	7303.17
633.104	7293
633.459	7287.58
633.813	7292.77
634.167	7267.92
634.521	7310.4
634.875	7234.47
635.229	7255.26
635.583	7255.71
635.937	7223.85
636.291	7233.79
636.645	7235.37
636.999	7208.48
637.352	7204.42
637.706	7148.6
638.06	7127.13
638.413	7071.09
638.767	7122.61
639.121	7142.72
639.474	7095.04
639.828	7090.52
640.181	7090.52
640.534	7160.12
640.888	7151.76
641.241	7053.68
641.594	7104.98
641.947	7077.19
642.301	7054.59
642.654	7034.93
643.007	7038.54
643.36	7004.19
643.713	7018.88
644.066	6966
644.419	7010.97
644.771	6911.54
645.124	6932.33
645.477	6845.1
645.83	6770.08
646.182	6789.06
646.535	6741.83
646.888	6769.4
647.24	6805.33
647.593	6791.77
647.945	6775.27
648.298	6737.53
648.65	6743.64
649.002	6625.22
649.355	6700.93
649.707	6686.01
650.059	6700.47
650.411	6764.65
650.763	6711.55
651.115	6864.31
651.467	6873.35
651.819	6888.27
652.171	6895.27
652.523	6798.78
652.875	6849.85
653.227	6762.84
653.578	6851.43
653.93	6831.54
654.282	6752.22
654.633	6738.66
654.985	6707.25
655.337	6725.11
655.688	6732.11
656.039	6765.56
656.391	6637.88
656.742	6685.11
657.094	6645.33
657.445	6718.78
657.796	6675.84
658.147	6707.7
658.498	6713.35
658.849	6712.9
659.2	6683.98
659.551	6698.67
659.902	6702.51
660.253	6722.62
660.604	6653.02
660.955	6580.7
661.306	6655.95
661.656	6627.93
662.007	6644.2
662.358	6589.52
662.708	6609.63
663.059	6612.79
663.409	6630.19
663.76	6622.28
664.11	6620.02
664.461	6583.87
664.811	6575.73
665.161	6579.35
665.511	6582.74
665.862	6567.6
666.212	6607.37
666.562	6637.2
666.912	6559.69
667.262	6555.17
667.612	6622.74
667.962	6560.14
668.312	6505.22
668.662	6577.76
669.011	6593.58
669.361	6573.7
669.711	6535.28
670.06	6510.2
670.41	6488.28
670.76	6472.91
671.109	6530.99
671.459	6548.16
671.808	6499.35
672.157	6531.66
672.507	6509.29
672.856	6488.05
673.205	6531.66
673.554	6523.3
673.904	6517.88
674.253	6505.9
674.602	6434.94
674.951	6373.02
675.3	6362.4
675.649	6413.48
675.998	6443.08
676.346	6399.69
676.695	6438.79
677.044	6360.82
677.393	6416.64
677.741	6444.89
678.09	6435.17
678.438	6438.33
678.787	6413.93
679.135	6459.8
679.484	6426.36
679.832	6443.53
680.181	6406.24
680.529	6494.83
680.877	6332.57
681.225	6343.87
681.573	6382.29
681.922	6284.67
682.27	6267.72
682.618	6309.3
682.966	6252.8
683.314	6350.88
683.661	6274.72
684.009	6224.78
684.357	6246.25
684.705	6255.74
685.053	6231.11
685.4	6269.98
685.748	6259.13
686.095	6207.83
686.443	6244.21
686.79	6171
687.138	6193.59
687.485	6160.6
687.832	6166.02
688.18	6180.49
688.527	6118.57
688.874	6079.47
689.221	5996.31
689.568	6054.61
689.915	6033.15
690.262	6065.69
690.609	6007.84
690.956	5999.48
691.303	6023.66
691.65	5986.37
691.997	6020.49
692.344	6001.73
692.69	5971.91
693.037	6002.86
693.383	5952.7
693.73	6014.16
694.077	5947.05
694.423	5924
694.769	5872.25
695.116	5854.39
695.462	5829.54
695.808	5797.9
696.155	5816.88
696.501	5784.11
696.847	5738.46
697.193	5731.69
697.539	5756.54
697.885	5686.49
698.231	5718.13
698.577	5741.63
698.923	5701.63
699.269	5666.15
699.614	5709.54
699.96	5695.53
700.306	5728.3
700.651	5643.33
700.997	5611.01
701.342	5597.9
701.688	5627.28
702.033	5531.92
702.379	5607.62
702.724	5502.76
703.069	5542.09
703.415	5470.9
703.76	5436.78
704.105	5381.41
704.45	5427.51
704.795	5429.77
705.14	5401.52
705.485	5461.18
705.83	5423.67
706.175	5458.02
706.52	5417.57
706.865	5455.31
707.209	5411.47
707.554	5325.82
707.899	5358.36
708.243	5409.43
708.588	5346.38
708.932	5290.12
709.277	5304.13
709.621	5260.06
709.966	5255.77
710.31	5200.17
710.654	5177.12
710.998	5192.49
711.342	5179.61
711.687	5178.03
712.031	5168.31
712.375	5159.05
712.719	5166.73
713.063	5196.56
713.407	5219.16
713.75	5166.05
714.094	5194.3
714.438	5147.07
714.782	5129.44
715.125	5117.24
715.469	5125.15
715.812	5056
716.156	5056.9
716.499	5050.35
716.843	5025.04
717.186	4972.61
717.53	5027.3
717.873	5015.09
718.216	4985.94
718.559	5000.18
718.902	4973.74
719.246	4960.86
719.589	4969.67
719.932	4967.41
720.275	5007.86
720.617	4984.59
720.96	4977.58
721.303	4994.53
721.646	4984.81
721.989	4929.45
722.331	4968.54
722.674	4947.98
723.016	4910.46
723.359	4877.47
723.701	4878.83
724.044	4876.11
724.386	4819.62
724.729	4838.6
725.071	4814.87
725.413	4794.08
725.755	4776.23
726.097	4763.8
726.439	4750.02
726.782	4809.22
727.124	4792.95
727.465	4819.85
727.807	4866.4
728.149	4821.2
728.491	4781.65
728.833	4831.82
729.175	4846.74
729.516	4832.73
729.858	4771.26
730.199	4751.82
730.541	4756.57
730.882	4667.76
731.224	4722.22
731.565	4664.82
731.906	4619.17
732.248	4667.53
732.589	4607.2
732.93	4619.85
733.271	4618.27
733.612	4668.89
733.953	4637.02
734.294	4644.03
734.635	4674.54
734.976	4648.32
735.317	4677.7
735.658	4647.87
735.999	4693.52
736.339	4696.23
736.68	4665.95
737.021	4653.97
737.361	4602
737.702	4659.4
738.042	4609.91
738.383	4555.9
738.723	4569.23
739.063	4539.17
739.404	4559.29
739.744	4540.98
740.084	4493.75
740.424	4498.27
740.764	4512.96
741.104	4504.15
741.444	4504.83
741.784	4508.89
742.124	4535.78
742.464	4518.38
742.804	4558.83
743.143	4509.8
743.483	4524.26
743.823	4476.8
744.162	4512.96
744.502	4514.09
744.841	4490.14
745.181	4499.63
745.52	4419.63
745.86	4468.67
746.199	4453.53
746.538	4387.99
746.877	4392.96
747.216	4403.81
747.556	4335.56
747.895	4340.76
748.234	4332.63
748.573	4301.44
748.911	4343.25
749.25	4332.17
749.589	4334.43
749.928	4370.59
750.267	4356.35
750.605	4339.18
750.944	4399.07
751.283	4337.37
751.621	4317.26
751.96	4322.46
752.298	4322.46
752.636	4315.23
752.975	4312.74
753.313	4305.28
753.651	4248.56
753.989	4241.78
754.327	4229.35
754.666	4236.36
755.004	4189.81
755.342	4193.65
755.679	4213.99
756.017	4123.14
756.355	4111.84
756.693	4133.76
757.031	4118.39
757.368	4125.85
757.706	4152.07
758.044	4141.67
758.381	4170.37
758.719	4139.18
759.056	4172.4
759.394	4133.54
759.731	4092.63
760.068	4111.84
760.405	4103.25
760.743	4112.07
761.08	4115.46
761.417	4032.52
761.754	4060.99
762.091	4056.48
762.428	4034.78
762.765	4007.21
763.102	3982.13
763.438	3942.81
763.775	3901.45
764.112	3916.59
764.449	3928.34
764.785	3938.51
765.122	3861.45
765.458	3890.38
765.795	3848.8
766.131	3912.52
766.467	3878.85
766.804	3880.89
767.14	3865.75
767.476	3877.5
767.812	3825.07
768.148	3893.32
768.485	3818.74
768.821	3838.85
769.157	3825.07
769.492	3825.75
769.828	3818.29
770.164	3774.9
770.5	3733.55
770.836	3711.85
771.171	3702.59
771.507	3704.85
771.842	3662.36
