Data from foam2_polystyrene_foam_FLMS001491_00056.txt Node
Date: Wed Feb 08 10:58:10 GMT 2017
User: dcchb
Spectrometer: FLMS00149
Trigger mode: 0
Integration Time (sec): 2.000000E-2
Scans to average: 10
Electric dark correction enabled: true
Nonlinearity correction enabled: false
Boxcar width: 0
XAxis mode: Wavelengths
Number of Pixels in Spectrum: 2048
>>>>>Begin Spectral Data<<<<<
341.393	-7.17
341.776	-7.17
342.16	-7.17
342.543	-51.02
342.927	-73.84
343.31	-76.78
343.693	-68.64
344.077	-59.83
344.46	-56.67
344.843	-63.9
345.226	-55.31
345.61	-20.06
345.993	3.9
346.376	-28.64
346.759	6.61
347.142	26.5
347.525	45.48
347.908	47.51
348.291	80.51
348.674	102.43
349.057	116.89
349.44	141.75
349.823	149.21
350.206	177.9
350.588	205.02
350.971	223.55
351.354	227.85
351.737	248.86
352.119	257.45
352.502	252.93
352.884	275.3
353.267	278.47
353.65	292.25
354.032	306.72
354.414	320.27
354.797	324.79
355.179	310.33
355.562	344.23
355.944	325.7
356.326	326.38
356.709	345.36
357.091	352.36
357.473	361.18
357.855	351.23
358.238	359.37
358.62	364.11
359.002	342.87
359.384	343.1
359.766	379.26
360.148	365.47
360.53	327.05
360.912	347.62
361.294	352.14
361.676	348.07
362.057	352.36
362.439	339.48
362.821	335.41
363.203	340.16
363.584	344.23
363.966	360.05
364.348	355.08
364.729	343.55
365.111	348.97
365.493	335.64
365.874	332.48
366.256	340.61
366.637	322.76
367.019	331.8
367.4	355.75
367.781	348.3
368.163	351.23
368.544	337.9
368.925	353.49
369.306	352.82
369.688	361.63
370.069	337.67
370.45	344
370.831	339.71
371.212	346.94
371.593	351.01
371.974	361.63
372.355	343.55
372.736	374.96
373.117	344.91
373.498	358.47
373.879	376.77
374.26	363.44
374.641	361.18
375.021	352.59
375.402	378.8
375.783	365.7
376.163	359.37
376.544	374.51
376.925	374.74
377.305	366.6
377.686	379.26
378.066	384.23
378.447	397.56
378.827	388.29
379.208	398.24
379.588	379.26
379.968	384.23
380.349	394.17
380.729	420.38
381.109	381.29
381.489	392.59
381.87	412.02
382.25	402.53
382.63	384.45
383.01	412.02
383.39	405.92
383.77	414.28
384.15	402.98
384.53	417.9
384.91	432.59
385.29	424.23
385.67	435.07
386.049	432.59
386.429	434.17
386.809	419.03
387.189	440.5
387.568	439.59
387.948	452.02
388.328	462.64
388.707	463.1
389.087	476.2
389.466	465.58
389.846	444.34
390.225	458.8
390.605	451.34
390.984	473.94
391.363	473.94
391.743	469.2
392.122	474.85
392.501	487.05
392.881	476.88
393.26	485.92
393.639	482.08
394.018	496.09
394.397	504.68
394.776	510.55
395.155	520.27
395.534	533.38
395.913	522.3
396.292	516.88
396.671	545.35
397.05	534.51
397.429	531.12
397.808	536.99
398.186	531.57
398.565	546.48
398.944	555.97
399.323	551
399.701	560.95
400.08	548.74
400.458	540.38
400.837	562.98
401.215	572.02
401.594	588.97
401.972	575.63
402.351	554.17
402.729	587.61
403.107	590.1
403.486	606.14
403.864	604.33
404.242	605.01
404.62	613.83
404.999	604.79
405.377	645.69
405.755	614.73
406.133	639.14
406.511	658.57
406.889	641.17
407.267	638.01
407.645	659.25
408.023	680.49
408.401	635.75
408.779	670.32
409.156	679.36
409.534	671.68
409.912	701.51
410.29	705.8
410.667	729.53
411.045	724.33
411.422	718.46
411.8	726.59
412.178	731.11
412.555	751.45
412.933	753.26
413.31	760.94
413.687	793.93
414.065	793.03
414.442	784.89
414.819	774.27
415.197	824.89
415.574	830.77
415.951	823.99
416.328	823.31
416.705	841.39
417.082	852.92
417.46	857.44
417.837	850.2
418.214	868.06
418.591	861.95
418.967	885.23
419.344	847.94
419.721	879.81
420.098	903.08
420.475	893.37
420.852	900.6
421.228	912.35
421.605	912.35
421.982	928.62
422.358	967.04
422.735	933.14
423.111	970.43
423.488	976.75
423.864	974.49
424.241	993.25
424.617	1002.97
424.994	1009.75
425.37	1019.92
425.746	1008.84
426.123	1029.18
426.499	1025.57
426.875	1086.81
427.251	1084.32
427.627	1063.98
428.003	1092.46
428.379	1104.66
428.756	1112.34
429.132	1118.45
429.507	1134.49
429.883	1134.72
430.259	1175.39
430.635	1160.48
431.011	1213.36
431.387	1211.32
431.763	1230.31
432.138	1228.95
432.514	1242.51
432.89	1262.62
433.265	1268.5
433.641	1279.8
434.016	1294.71
434.392	1338.1
434.767	1376.29
435.143	1342.39
435.518	1375.16
435.894	1356.63
436.269	1405.67
436.644	1426.23
437.02	1423.07
437.395	1427.36
437.77	1472.33
438.145	1458.1
438.52	1480.02
438.895	1510.98
439.271	1508.49
439.646	1557.08
440.021	1550.3
440.395	1558.43
440.77	1553.69
441.145	1555.27
441.52	1616.74
441.895	1585.1
442.27	1635.49
442.645	1627.36
443.019	1652.44
443.394	1639.34
443.769	1693.8
444.143	1643.86
444.518	1708.26
444.892	1686.57
445.267	1754.81
445.641	1737.64
446.016	1769.73
446.39	1774.02
446.764	1774.93
447.139	1760.46
447.513	1790.74
447.887	1786.68
448.262	1819.44
448.636	1859.89
449.01	1856.28
449.384	1853.34
449.758	1894.47
450.132	1899.67
450.506	1912.32
450.88	1941.7
451.254	1945.09
451.628	1950.74
452.002	1990.29
452.376	2000.68
452.75	2022.15
453.123	2034.58
453.497	2046.1
453.871	2052.66
454.244	2111.87
454.618	2112.09
454.992	2183.5
455.365	2165.42
455.739	2211.3
456.112	2215.82
456.486	2249.94
456.859	2266.89
457.232	2314.8
457.606	2288.13
457.979	2341.24
458.352	2313.44
458.725	2425.76
459.099	2419.43
459.472	2430.28
459.845	2469.82
460.218	2516.15
460.591	2477.51
460.964	2489.71
461.337	2549.37
461.71	2614.23
462.083	2626.43
462.456	2597.73
462.829	2642.92
463.201	2682.47
463.574	2687.44
463.947	2756.59
464.32	2796.82
464.692	2807.44
465.065	2832.3
465.438	2847.21
465.81	2884.5
466.183	2926.08
466.555	2979.19
466.928	2999.3
467.3	3031.62
467.672	3072.07
468.045	3100.99
468.417	3128.79
468.789	3169.69
469.161	3202.46
469.534	3242.01
469.906	3300.76
470.278	3351.38
470.65	3349.8
471.022	3385.73
471.394	3452.4
471.766	3520.42
472.138	3556.57
472.51	3622.79
472.882	3679.96
473.253	3696.68
473.625	3742.78
473.997	3821.88
474.369	3852.61
474.74	3896.23
475.112	3948.2
475.484	4034.75
475.855	4109.33
476.227	4098.25
476.598	4225.26
476.97	4273.62
477.341	4354.74
477.713	4407.17
478.084	4436.78
478.455	4518.36
478.827	4622.31
479.198	4731.91
479.569	4657.56
479.94	4889.42
480.311	4878.8
480.682	5021.62
481.053	5106.14
481.424	5207.83
481.795	5252.35
482.166	5280.6
482.537	5352.46
482.908	5524.88
483.279	5552.45
483.65	5686.46
484.021	5771.66
484.391	5774.59
484.762	5873.35
485.133	5902.73
485.503	6046.45
485.874	6088.03
486.244	6206.22
486.615	6278.99
486.985	6341.81
487.356	6514.91
487.726	6486.44
488.097	6698.41
488.467	6727.79
488.837	6863.15
489.207	6919.2
489.578	6955.13
489.948	7026.76
490.318	7137.27
490.688	7211.84
491.058	7287.32
491.428	7395.12
491.798	7500.2
492.168	7629.01
492.538	7657.71
492.908	7734.99
493.278	7853.18
493.648	7942.45
494.017	8040.3
494.387	8099.73
494.757	8124.14
495.126	8245.72
495.496	8237.35
495.866	8382.89
496.235	8380.18
496.605	8488.19
496.974	8528.65
497.344	8628.98
497.713	8699.26
498.082	8749.43
498.452	8861.29
498.821	8837.56
499.19	8937.22
499.559	9009.54
499.928	9015.64
500.298	9114.17
500.667	9209.53
501.036	9188.97
501.405	9341.05
501.774	9330.21
502.143	9516.19
502.512	9611.56
502.88	9618.11
503.249	9629.63
503.618	9687.03
503.987	9796.86
504.356	9776.97
504.724	9882.96
505.093	10006.57
505.462	9995.73
505.83	10097.64
506.199	10112.33
506.567	10294.7
506.936	10279.33
507.304	10345.55
507.672	10407.69
508.041	10499.44
508.409	10557.52
508.777	10684.97
509.145	10659.21
509.514	10752.09
509.882	10902.14
510.25	10849.26
510.618	10995.47
510.986	10954.57
511.354	11100.1
511.722	11261
512.09	11326.76
512.458	11303.49
512.826	11397.27
513.193	11496.93
513.561	11578.74
513.929	11682.69
514.297	11807.88
514.664	11886.3
515.032	12009.01
515.4	12006.75
515.767	12019.4
516.135	12133.75
516.502	12126.07
516.869	12353.18
517.237	12410.58
517.604	12343.69
517.972	12520.86
518.339	12635.2
518.706	12601.76
519.073	12808.99
519.44	12882.66
519.808	13049.2
520.175	13038.36
520.542	13204
520.909	13251.23
521.276	13287.84
521.643	13432.25
522.009	13544.56
522.376	13593.15
522.743	13752.01
523.11	13919.46
523.477	14082.17
523.843	14072.91
524.21	14196.97
524.577	14370.53
524.943	14347.7
525.31	14481.03
525.676	14686.68
526.043	14766
526.409	14848.25
526.776	15027.23
527.142	14985.88
527.508	15220
527.874	15284.85
528.241	15371.86
528.607	15342.7
528.973	15572.3
529.339	15559.2
529.705	15761.68
530.071	15841.67
530.437	15904.72
530.803	15989.69
531.169	16050.26
531.535	16069.01
531.901	16216.81
532.267	16268.78
532.632	16378.61
532.998	16469.45
533.364	16539.28
533.73	16546.06
534.095	16774.3
534.461	16783.8
534.826	16933.85
535.192	16913.06
535.557	17128.19
535.923	17126.16
536.288	17150.57
536.653	17270.11
537.019	17262.65
537.384	17284.57
537.749	17499.03
538.114	17532.02
538.479	17581.06
538.845	17706.71
539.21	17621.29
539.575	17711.23
539.94	17890.66
540.305	17953.48
540.67	17912.13
541.034	18009.3
541.399	18147.83
541.764	18059.24
542.129	18202.97
542.494	18273.7
542.858	18290.42
543.223	18213.14
543.587	18514.15
543.952	18482.28
544.316	18535.61
544.681	18536.74
545.045	18648.83
545.41	18759.34
545.774	18794.59
546.138	18797.53
546.503	18975.15
546.867	18950.52
547.231	19151.64
547.595	19159.1
547.959	19201.13
548.324	19230.96
548.688	19275.93
549.052	19396.61
549.416	19449.26
549.779	19380.79
550.143	19523.16
550.507	19714.34
550.871	19781.68
551.235	19816.03
551.599	20027.78
551.962	20077.72
552.326	19992.3
552.689	20184.16
553.053	20085.4
553.417	20132.63
553.78	20434.32
554.143	20298.05
554.507	20509.35
554.87	20500.53
555.234	20754.31
555.597	20585.5
555.96	20814.42
556.323	20843.35
556.686	20889
557.05	21017.81
557.413	21158.14
557.776	21122.89
558.139	21295.99
558.502	21227.97
558.865	21461.41
559.228	21559.04
559.59	21667.28
559.953	21713.16
560.316	21957.22
560.679	21892.59
561.041	22093.71
561.404	22123.77
561.767	22281.05
562.129	22295.06
562.492	22469.07
562.854	22417.55
563.217	22494.38
563.579	22582.97
563.941	22744.32
564.304	22936.18
564.666	23082.39
565.028	22970.07
565.39	23059.79
565.753	23230.63
566.115	23390.18
566.477	23524.41
566.839	23513.34
567.201	23601.02
567.563	23863.61
567.925	23889.82
568.287	23869.49
568.648	24042.36
569.01	24193.09
569.372	24295.01
569.734	24139.08
570.095	24413.88
570.457	24496.36
570.819	24604.38
571.18	24614.32
571.542	24697.03
571.903	24722.34
572.265	24718.95
572.626	24895.9
572.987	24862.68
573.349	24930.47
573.71	25012.05
574.071	25014.09
574.432	25134.54
574.794	25331.37
575.155	25317.81
575.516	25197.59
575.877	25440.97
576.238	25408.43
576.599	25580.4
576.96	25605.94
577.32	25612.04
577.681	25727.97
578.042	25748.98
578.403	25639.61
578.763	25805.48
579.124	25904.91
579.485	25934.52
579.845	26024
580.206	25886.83
580.566	26082.31
580.927	26067.17
581.287	26179.03
581.648	26029.88
582.008	26117.56
582.368	25981.75
582.728	26080.73
583.089	26183.55
583.449	26240.72
583.809	26129.09
584.169	26111.46
584.529	26038.92
584.889	26224.68
585.249	26146.71
585.609	25968.19
585.969	26249.31
586.329	26182.64
586.688	26187.39
587.048	26160.95
587.408	26149.88
587.768	26106.94
588.127	26086.38
588.487	26079.14
588.846	26295.86
589.206	26174.28
589.565	26130.22
589.925	26228.52
590.284	26155.3
590.643	26200.95
591.003	26355.75
591.362	26399.59
591.721	26413.6
592.08	26304
592.44	26336.54
592.799	26396.65
593.158	26301.51
593.517	26205.92
593.876	26447.27
594.235	26321.62
594.593	26356.2
594.952	26516.87
595.311	26313.49
595.67	26369.31
596.029	26607.49
596.387	26527.72
596.746	26630.99
597.104	26355.97
597.463	26410.44
597.822	26520.26
598.18	26436.2
598.538	26412.47
598.897	26609.98
599.255	26473.48
599.613	26824.66
599.972	26659.69
600.33	26704.44
600.688	26578.79
601.046	26590.54
601.404	26960.03
601.762	26831.67
602.12	26872.12
602.478	26977.43
602.836	26982.62
603.194	26808.17
603.552	26966.35
603.91	26813.81
604.268	27010.65
604.625	26953.25
604.983	26948.5
605.341	26831.89
605.698	27040.48
606.056	27100.81
606.413	26977.43
606.771	27150.53
607.128	27183.07
607.485	27010.65
607.843	27068.05
608.2	27222.62
608.557	27271.43
608.914	27195.95
609.272	27253.58
609.629	27305.1
609.986	27507.36
610.343	27284.76
610.7	27477.07
611.057	27419.45
611.414	27433.46
611.771	27456.06
612.127	27576.05
612.484	27558.43
612.841	27622.61
613.198	27551.42
613.554	27582.38
613.911	27682.72
614.267	27685.88
614.624	27625.54
614.98	27646.56
615.337	27736.28
615.693	27851.53
616.05	27867.8
616.406	28079.09
616.762	27767.69
617.118	27805.88
617.475	27909.83
617.831	27963.84
618.187	27985.99
618.543	27969.94
618.899	28176.94
619.255	28100.79
619.611	28089.71
619.967	28112.31
620.323	28059.43
620.678	28104.18
621.034	27973.56
621.39	28004.52
621.746	28027.12
622.101	28339.65
622.457	28022.82
622.812	28060.11
623.168	28105.53
623.523	28147.79
623.879	28231.18
624.234	28070.73
624.589	28027.79
624.945	28077.74
625.3	28136.72
625.655	27997.74
626.01	28097.4
626.365	28121.12
626.72	28006.55
627.075	28082.26
627.43	28070.5
627.785	28067.34
628.14	28023.73
628.495	28007.23
628.85	28024.86
629.205	28000.68
629.559	28118.64
629.914	27903.73
630.269	27983.5
630.623	27909.61
630.978	27824.18
631.332	27905.76
631.687	27953.22
632.041	27921.81
632.396	27794.58
632.75	27794.58
633.104	27745.09
633.459	27716.39
633.813	27676.16
634.167	27607.01
634.521	27597.97
634.875	27637.3
635.229	27675.04
635.583	27368.38
635.937	27371.99
636.291	27487.02
636.645	27346
636.999	27296.74
637.352	27389.17
637.706	27149.4
638.06	27380.35
638.413	27240.02
638.767	27165.22
639.121	27112.79
639.474	27103.52
639.828	27067.59
640.181	27080.7
640.534	27062.17
640.888	26981.72
641.241	26877.77
641.594	26841.61
641.947	26982.85
642.301	26775.17
642.654	26853.36
643.007	26845.9
643.36	26814.49
643.713	26748.05
644.066	26725
644.419	26506.48
644.771	26384
645.124	26191.01
645.477	26167.73
645.83	25915.53
646.182	25850
646.535	25807.06
646.888	25872.6
647.24	25663.34
647.593	25777.23
647.945	25719.83
648.298	25678.48
648.65	25517.8
649.002	25407.98
649.355	25614.07
649.707	25607.97
650.059	25657.01
650.411	25906.04
650.763	25943.1
651.115	26184.45
651.467	26091.35
651.819	26179.26
652.171	26094.74
652.523	25932.48
652.875	26002.54
653.227	25901.75
653.578	26039.6
653.93	25934.29
654.282	25788.53
654.633	25778.59
654.985	25856.33
655.337	25866.72
655.688	25968.41
656.039	26054.96
656.391	25679.16
656.742	25762.77
657.094	25688.87
657.445	25858.81
657.796	25751.92
658.147	25661.98
658.498	25687.06
658.849	25692.26
659.2	25654.75
659.551	25522.1
659.902	25602.1
660.253	25603
660.604	25576.56
660.955	25388.09
661.306	25623.11
661.656	25499.27
662.007	25536.11
662.358	25400.52
662.708	25388.32
663.059	25431.93
663.409	25310.35
663.76	25488.65
664.11	25482.1
664.461	25504.24
664.811	25481.19
665.161	25461.08
665.511	25377.69
665.862	25424.47
666.212	25485.26
666.562	25338.83
666.912	25377.69
667.262	25466.28
667.612	25304.7
667.962	25392.38
668.312	25263.57
668.662	25351.71
669.011	25336.79
669.361	25357.36
669.711	25227.42
670.06	25281.2
670.41	25147.87
670.76	25118.04
671.109	25257.25
671.459	25214.08
671.808	25206.4
672.157	25200.52
672.507	25057.02
672.856	25029.91
673.205	25138.15
673.554	25229.22
673.904	25047.08
674.253	25052.73
674.602	24982.9
674.951	24649.13
675.3	24483.48
675.649	24985.61
675.998	24942.68
676.346	24948.78
676.695	24997.14
677.044	24730.71
677.393	24847.09
677.741	24928.89
678.09	24897.03
678.438	24882.79
678.787	24847.09
679.135	24805.73
679.484	24673.31
679.832	24858.61
680.181	24626.3
680.529	24817.48
680.877	24650.48
681.225	24634.21
681.573	24752.63
681.922	24559.18
682.27	24492.75
682.618	24421.11
682.966	24374.56
683.314	24466.08
683.661	24403.93
684.009	24257.05
684.357	24205.97
684.705	24165.52
685.053	24306.99
685.4	24207.1
685.748	24017.28
686.095	24115.81
686.443	23987.45
686.79	23991.06
687.138	23855.25
687.485	23992.65
687.832	23775.93
688.18	23772.76
688.527	23703.84
688.874	23627.46
689.221	23533
689.568	23621.36
689.915	23521.02
690.262	23502.26
690.609	23378.88
690.956	23414.36
691.303	23453.23
691.65	23385.88
691.997	23325.09
692.344	23043.97
692.69	23037.19
693.037	23039.45
693.383	23020.24
693.73	22919.91
694.077	22824.99
694.423	22812.34
694.769	22844.65
695.116	22711.78
695.462	22657.31
695.808	22604.21
696.155	22600.82
696.501	22369.19
696.847	22396.3
697.193	22256.65
697.539	22371.9
697.885	22153.82
698.231	22075.41
698.577	22025.92
698.923	22075.86
699.269	21973.72
699.614	21872.48
699.96	21858.92
700.306	21745.93
700.651	21614.18
700.997	21590.45
701.342	21651.92
701.688	21560.17
702.033	21508.42
702.379	21579.15
702.724	21477.91
703.069	21461.87
703.415	21159.05
703.76	21202.21
704.105	21166.05
704.45	21054.19
704.795	21016.45
705.14	21021.2
705.485	20953.18
705.83	20933.07
706.175	20921.09
706.52	20812.62
706.865	20766.74
707.209	20689.23
707.554	20650.13
707.899	20744.14
708.243	20495.79
708.588	20543.02
708.932	20383.02
709.277	20353.87
709.621	20368.79
709.966	20192.75
710.31	20323.36
710.654	20116.82
710.998	20081.34
711.342	20095.57
711.687	20098.96
712.031	19974.9
712.375	19880.44
712.719	19864.84
713.063	19825.98
713.407	19916.37
713.75	19777.62
714.094	19692.87
714.438	19687.9
714.782	19683.83
715.125	19667.34
715.469	19648.58
715.812	19616.94
716.156	19393.22
716.499	19355.25
716.843	19333.56
717.186	19266.89
717.53	19409.04
717.873	19349.6
718.216	19362.71
718.559	19327.91
718.902	19208.82
719.246	19174.24
719.589	19092.44
719.932	18951.65
720.275	19067.35
720.617	19009.27
720.96	19047.69
721.303	18970.63
721.646	18960.46
721.989	18761.6
722.331	18807.7
722.674	18803.18
723.016	18763.18
723.359	18799.34
723.701	18801.82
724.044	18593.24
724.386	18547.14
724.729	18654.48
725.071	18651.09
725.413	18618.78
725.755	18527.7
726.097	18507.14
726.439	18384.21
726.782	18363.19
727.124	18452.68
727.465	18342.4
727.807	18330.42
728.149	18279.12
728.491	18274.83
728.833	18240.71
729.175	18074.84
729.516	18134.04
729.858	17967.04
730.199	18025.12
730.541	18054.72
730.882	17964.33
731.224	18043.65
731.565	17930.66
731.906	17922.07
732.248	17894.5
732.589	17724.56
732.93	17863.09
733.271	17769.08
733.612	17826.93
733.953	17763.43
734.294	17671.23
734.635	17677.78
734.976	17718.91
735.317	17639.37
735.658	17526.15
735.999	17627.16
736.339	17674.62
736.68	17609.76
737.021	17461.29
737.361	17443.21
737.702	17536.54
738.042	17556.66
738.383	17438.02
738.723	17404.12
739.063	17445.47
739.404	17471.69
739.744	17323.22
740.084	17360.28
740.424	17258.36
740.764	17180.17
741.104	17270.56
741.444	17177.01
741.784	17080.29
742.124	17165.48
742.464	17092.04
742.804	17091.13
743.143	16937.01
743.483	17001.42
743.823	16843.23
744.162	16839.61
744.502	16947.63
744.841	16860.86
745.181	16951.25
745.52	16775.43
745.86	16719.62
746.199	16808.88
746.538	16721.2
746.877	16778.37
747.216	16721.65
747.556	16666.28
747.895	16680.97
748.234	16585.38
748.573	16599.39
748.911	16521.88
749.25	16534.09
749.589	16450.25
749.928	16407.99
750.267	16362.79
750.605	16311.94
750.944	16325.05
751.283	16399.17
751.621	16226.97
751.96	16224.94
752.298	16250.7
752.636	16219.07
752.975	16149.46
753.313	15986.98
753.651	16106.98
753.989	16015.68
754.327	16022.91
754.666	15830.83
755.004	15964.38
755.342	15909.69
