Data from foam_black_FLMS001491_00062.txt Node
Date: Wed Feb 08 10:44:24 GMT 2017
User: dcchb
Spectrometer: FLMS00149
Trigger mode: 0
Integration Time (sec): 2.000000E-2
Scans to average: 10
Electric dark correction enabled: true
Nonlinearity correction enabled: false
Boxcar width: 0
XAxis mode: Wavelengths
Number of Pixels in Spectrum: 2048
>>>>>Begin Spectral Data<<<<<
341.393	6.96
341.776	6.96
342.16	6.96
342.543	-64.45
342.927	-63.09
343.31	-71.9
343.693	-68.29
344.077	-56.54
344.46	-38.23
344.843	-44.56
345.226	-66.26
345.61	-15.41
345.993	-28.52
346.376	-22.87
346.759	10.13
347.142	10.58
347.525	41.09
347.908	60.97
348.291	77.24
348.674	113.4
349.057	99.16
349.44	125.6
349.823	138.49
350.206	165.15
350.588	172.83
350.971	201.31
351.354	208.99
351.737	231.82
352.119	223.23
352.502	243.57
352.884	268.43
353.267	251.25
353.65	277.01
354.032	256.67
354.414	303.23
354.797	301.19
355.179	280.18
355.562	295.09
355.944	314.98
356.326	300.51
356.709	309.55
357.091	298.93
357.473	324.92
357.855	337.8
358.238	310.91
358.62	325.6
359.002	323.11
359.384	308.42
359.766	311.14
360.148	321.76
360.53	325.37
360.912	308.65
361.294	301.19
361.676	328.31
362.057	312.94
362.439	320.18
362.821	303.9
363.203	316.79
363.584	303.9
363.966	312.04
364.348	315.43
364.729	276.33
365.111	318.82
365.493	287.86
365.874	308.88
366.256	328.08
366.637	287.86
367.019	294.19
367.4	290.57
367.781	316.33
368.163	313.4
368.544	299.84
368.925	322.66
369.306	305.03
369.688	304.58
370.069	295.54
370.45	292.38
370.831	303.9
371.212	290.8
371.593	292.38
371.974	298.48
372.355	304.36
372.736	295.32
373.117	300.29
373.498	287.63
373.879	300.29
374.26	295.77
374.641	306.84
375.021	291.25
375.402	289.67
375.783	293.96
376.163	307.52
376.544	323.56
376.925	323.56
377.305	306.16
377.686	294.19
378.066	303.68
378.447	323.79
378.827	304.36
379.208	307.29
379.588	318.59
379.968	330.57
380.349	325.6
380.729	317.01
381.109	315.88
381.489	326.05
381.87	326.95
382.25	307.07
382.63	316.11
383.01	319.5
383.39	324.24
383.77	328.54
384.15	333.51
384.53	324.69
384.91	320.18
385.29	330.34
385.67	325.6
386.049	322.44
386.429	320.18
386.809	323.79
387.189	331.25
387.568	331.02
387.948	329.44
388.328	320.18
388.707	313.62
389.087	344.81
389.466	328.99
389.846	345.49
390.225	361.3
390.605	347.52
390.984	346.39
391.363	322.66
391.743	311.59
392.122	353.39
392.501	361.3
392.881	328.76
393.26	350.23
393.639	355.43
394.018	337.8
394.397	349.1
394.776	347.97
395.155	344.58
395.534	348.42
395.913	349.1
396.292	360.63
396.671	350.23
397.05	342.55
397.429	348.2
397.808	373.28
398.186	382.77
398.565	375.09
398.944	358.59
399.323	364.02
399.701	379.16
400.08	358.37
400.458	379.61
400.837	375.09
401.215	366.73
401.594	372.6
401.972	359.04
402.351	346.84
402.729	361.53
403.107	372.38
403.486	371.7
403.864	389.1
404.242	364.24
404.62	391.36
404.999	380.74
405.377	373.28
405.755	383.22
406.133	393.85
406.511	364.47
406.889	387.29
407.267	391.81
407.645	385.03
408.023	399.27
408.401	404.01
408.779	428.42
409.156	407.86
409.534	384.58
409.912	399.04
410.29	432.49
410.667	392.04
411.045	417.57
411.422	420.29
411.8	398.82
412.178	409.66
412.555	446.27
412.933	411.25
413.31	429.32
413.687	418.7
414.065	429.55
414.442	419.61
414.819	429.78
415.197	432.71
415.574	466.84
415.951	442.43
416.328	442.43
416.705	456.67
417.082	437.23
417.46	439.04
417.837	456.67
418.214	443.56
418.591	436.1
418.967	455.54
419.344	436.33
419.721	461.64
420.098	469.32
420.475	452.38
420.852	469.1
421.228	481.75
421.605	465.93
421.982	460.28
422.358	470
422.735	450.12
423.111	475.88
423.488	477.46
423.864	466.84
424.241	500.51
424.617	479.04
424.994	485.37
425.37	492.15
425.746	483.56
426.123	488.76
426.499	492.83
426.875	508.87
427.251	512.49
427.627	501.41
428.003	499.38
428.379	529.21
428.756	524.69
429.132	526.95
429.507	527.85
429.883	538.47
430.259	531.92
430.635	531.7
431.011	524.92
431.387	541.86
431.763	556.33
432.138	539.38
432.514	544.12
432.89	548.19
433.265	538.93
433.641	575.76
434.016	555.65
434.392	558.59
434.767	569.89
435.143	552.49
435.518	584.8
435.894	576.44
436.269	561.98
436.644	588.64
437.02	595.2
437.395	580.06
437.77	588.19
438.145	595.65
438.52	596.33
438.895	606.04
439.271	630.22
439.646	609.43
440.021	583.9
440.395	602.2
440.77	601.3
441.145	607.17
441.52	641.52
441.895	617.12
442.27	627.29
442.645	623.22
443.019	655.53
443.394	640.62
443.769	635.2
444.143	615.53
444.518	659.15
444.892	655.76
445.267	650.79
445.641	657.79
446.016	654.63
446.39	644.23
446.764	644.69
447.139	635.87
447.513	659.83
447.887	680.39
448.262	660.96
448.636	671.8
449.01	686.72
449.384	700.05
449.758	699.37
450.132	667.28
450.506	699.15
450.88	710.9
451.254	680.84
451.628	691.92
452.002	693.27
452.376	706.38
452.75	713.39
453.123	729.88
453.497	729.2
453.871	714.74
454.244	732.14
454.618	719.03
454.992	743.21
455.365	750.67
455.739	732.14
456.112	728.75
456.486	761.97
456.859	779.15
457.232	759.49
457.606	767.85
457.979	776.21
458.352	794.29
458.725	820.5
459.099	795.42
459.472	815.53
459.845	837.22
460.218	828.64
460.591	813.95
460.964	820.73
461.337	828.64
461.71	855.08
462.083	857.11
462.456	857.56
462.829	840.61
463.201	878.8
463.574	857.56
463.947	856.21
464.32	895.53
464.692	907.73
465.065	931.23
465.438	921.74
465.81	923.55
466.183	919.71
466.555	941.18
466.928	968.07
467.3	937.33
467.672	962.87
468.045	970.1
468.417	957.22
468.789	975.75
469.161	978.46
469.534	1027.5
469.906	1008.52
470.278	1023.66
470.65	1030.21
471.022	1041.06
471.394	1077.67
471.766	1072.25
472.138	1072.47
472.51	1120.61
472.882	1121.96
473.253	1111.11
473.625	1128.29
473.997	1148.18
474.369	1131.23
474.74	1145.92
475.112	1143.88
475.484	1162.19
475.855	1201.51
476.227	1234.28
476.598	1240.83
476.97	1227.95
477.341	1258.68
477.713	1279.02
478.084	1288.96
478.455	1320.37
478.827	1300.04
479.198	1359.24
479.569	1338.68
479.94	1378.23
480.311	1363.54
480.682	1398.11
481.053	1433.37
481.424	1445.34
481.795	1441.95
482.166	1459.58
482.537	1497.32
482.908	1503.87
483.279	1523.99
483.65	1566.92
484.021	1551.33
484.391	1566.7
484.762	1605.57
485.133	1599.46
485.503	1620.48
485.874	1655.51
486.244	1639.46
486.615	1686.24
486.985	1699.35
487.356	1711.55
487.726	1706.13
488.097	1771.89
488.467	1770.76
488.837	1801.94
489.207	1791.32
489.578	1843.75
489.948	1880.36
490.318	1840.59
490.688	1879
491.058	1905.67
491.428	1912.22
491.798	1967.14
492.168	1977.08
492.538	1978.66
492.908	1961.49
493.278	2021.6
493.648	2001.49
494.017	2023.41
494.387	2057.3
494.757	2027.47
495.126	2087.36
495.496	2115.61
495.866	2103.63
496.235	2124.2
496.605	2170.97
496.974	2141.6
497.344	2163.29
497.713	2166.68
498.082	2171.65
498.452	2235.15
498.821	2236.06
499.19	2235.61
499.559	2234.93
499.928	2244.19
500.298	2265.43
500.667	2293.46
501.036	2267.92
501.405	2292.33
501.774	2281.93
502.143	2339.56
502.512	2343.17
502.88	2364.64
503.249	2364.19
503.618	2383.85
503.987	2401.7
504.356	2422.94
504.724	2425.2
505.093	2420.01
505.462	2470.4
505.83	2478.54
506.199	2476.73
506.567	2487.35
506.936	2513.34
507.304	2518.31
507.672	2540.46
508.041	2551.98
508.409	2579.55
508.777	2567.57
509.145	2611.41
509.514	2582.94
509.882	2649.83
510.25	2608.25
510.618	2636.27
510.986	2651.41
511.354	2680.11
511.722	2687.57
512.09	2720.56
512.458	2712.88
512.826	2749.26
513.193	2757.85
513.561	2766.21
513.929	2781.13
514.297	2792.2
514.664	2840.56
515.032	2865.64
515.4	2817.74
515.767	2862.71
516.135	2889.37
516.502	2923.27
516.869	2951.07
517.237	2931.41
517.604	2944.06
517.972	3002.14
518.339	3007.11
518.706	2969.15
519.073	3009.14
519.44	3055.02
519.808	3042.59
520.175	3081.68
520.542	3096.37
520.909	3121.23
521.276	3115.36
521.643	3168.01
522.009	3118.97
522.376	3179.76
522.743	3207.56
523.11	3265.63
523.477	3234.67
523.843	3294.56
524.21	3359.87
524.577	3350.38
524.943	3384.28
525.31	3394.44
525.676	3423.37
526.043	3417.95
526.409	3455.23
526.776	3478.74
527.142	3479.19
527.508	3540.43
527.874	3545.18
528.241	3531.62
528.607	3580.43
528.973	3648.45
529.339	3597.15
529.705	3619.3
530.071	3638.96
530.437	3667.66
530.803	3671.27
531.169	3645.51
531.535	3715.11
531.901	3717.83
532.267	3726.41
532.632	3721.22
532.998	3754.89
533.364	3755.79
533.73	3777.49
534.095	3840.31
534.461	3800.08
534.826	3888.67
535.192	3874.66
535.557	3871.95
535.923	3882.12
536.288	3925.96
536.653	3941.55
537.019	3966.86
537.384	3924.6
537.749	3955.79
538.114	3989.68
538.479	4011.83
538.845	4049.79
539.21	4046.86
539.575	4046.18
539.94	4067.87
540.305	4094.54
540.67	4050.92
541.034	4110.81
541.399	4110.36
541.764	4135.44
542.129	4150.13
542.494	4146.06
542.858	4163.69
543.223	4131.6
543.587	4172.73
543.952	4187.42
544.316	4169.34
544.681	4180.86
545.045	4227.64
545.41	4232.39
545.774	4268.77
546.138	4252.95
546.503	4271.26
546.867	4278.04
547.231	4291.37
547.595	4330.01
547.959	4336.34
548.324	4382.22
548.688	4365.94
549.052	4398.26
549.416	4395.55
549.779	4430.35
550.143	4441.2
550.507	4447.07
550.871	4499.27
551.235	4504.92
551.599	4520.29
551.962	4516.9
552.326	4548.99
552.689	4576.79
553.053	4556
553.417	4611.36
553.78	4644.36
554.143	4629.21
554.507	4665.82
554.87	4644.81
555.234	4723.22
555.597	4704.69
555.96	4707.4
556.323	4721.42
556.686	4777.23
557.05	4774.3
557.413	4725.26
557.776	4773.17
558.139	4806.38
558.502	4772.04
558.865	4820.62
559.228	4845.25
559.59	4849.32
559.953	4863.33
560.316	4907.4
560.679	4916.21
561.041	4960.73
561.404	5020.16
561.767	4982.88
562.129	5008.87
562.492	5037.11
562.854	5096.55
563.217	5087.96
563.579	5135.42
563.941	5115.76
564.304	5150.33
564.666	5161.86
565.028	5182.42
565.39	5229.2
565.753	5303.55
566.115	5274.62
566.477	5284.34
566.839	5315.75
567.201	5381.74
567.563	5394.39
567.925	5409.53
568.287	5436.2
568.648	5392.13
569.01	5452.02
569.372	5470.1
569.734	5514.39
570.095	5518
570.457	5536.54
570.819	5541.96
571.18	5579.7
571.542	5594.84
571.903	5640.49
572.265	5596.87
572.626	5617.89
572.987	5619.7
573.349	5627.83
573.71	5659.92
574.071	5624.44
574.432	5665.12
574.794	5750.09
575.155	5680.94
575.516	5666.25
575.877	5737.21
576.238	5792.35
576.599	5716.64
576.96	5761.84
577.32	5780.37
577.681	5788.28
578.042	5841.84
578.403	5802.97
578.763	5811.56
579.124	5866.47
579.485	5874.38
579.845	5895.62
580.206	5846.81
580.566	5876.19
580.927	5907.37
581.287	5856.53
581.648	5902.85
582.008	5964.09
582.368	5950.54
582.728	5959.12
583.089	5924.1
583.449	5978.56
583.809	5941.04
584.169	5981.27
584.529	5992.12
584.889	6018.33
585.249	5996.18
585.609	5950.99
585.969	5999.12
586.329	5951.21
586.688	5970.87
587.048	5940.59
587.408	5999.57
587.768	5976.52
588.127	5927.03
588.487	5905.11
588.846	5997.31
589.206	5948.73
589.565	5920.93
589.925	5916.19
590.284	5915.96
590.643	5934.72
591.003	5941.5
591.362	5943.53
591.721	5934.04
592.08	5954.6
592.44	5945.34
592.799	5935.39
593.158	5980.14
593.517	5921.38
593.876	5936.98
594.235	5936.07
594.593	5937.2
594.952	5942.4
595.311	5956.19
595.67	5976.3
596.029	5990.53
596.387	6009.07
596.746	6023.98
597.104	5977.43
597.463	6034.38
597.822	6011.1
598.18	5991.66
598.538	6008.39
598.897	6074.15
599.255	6024.43
599.613	6073.02
599.972	6045.67
600.33	6056.97
600.688	6012.23
601.046	6008.84
601.404	6080.93
601.762	6066.24
602.12	6074.37
602.478	6096.75
602.836	6130.19
603.194	6073.47
603.552	6028.27
603.91	6039.12
604.268	6097.2
604.625	6013.36
604.983	6045.22
605.341	6063.3
605.698	6088.39
606.056	6090.64
606.413	6082.96
606.771	6094.26
607.128	6119.57
607.485	6054.71
607.843	6047.93
608.2	6089.06
608.557	6122.73
608.914	6076.18
609.272	6114.83
609.629	6111.89
609.986	6129.29
610.343	6108.5
610.7	6134.03
611.057	6174.48
611.414	6168.83
611.771	6217.65
612.127	6222.17
612.484	6179.91
612.841	6222.17
613.198	6195.73
613.554	6212
613.911	6261.49
614.267	6303.07
614.624	6232.34
614.98	6216.07
615.337	6295.84
615.693	6226.23
616.05	6239.34
616.406	6301.71
616.762	6308.49
617.118	6273.46
617.475	6242.73
617.831	6315.27
618.187	6330.41
618.543	6307.36
618.899	6338.1
619.255	6349.62
619.611	6240.02
619.967	6319.34
620.323	6397.98
620.678	6336.29
621.034	6300.81
621.39	6343.97
621.746	6295.61
622.101	6350.53
622.457	6340.81
622.812	6331.54
623.168	6345.33
623.523	6299.45
623.879	6348.72
624.234	6306.91
624.589	6315.95
624.945	6294.03
625.3	6309.85
625.655	6354.37
626.01	6320.47
626.365	6362.5
626.72	6322.5
627.075	6403.41
627.43	6308.27
627.785	6299
628.14	6371.09
628.495	6324.99
628.85	6296.97
629.205	6317.98
629.559	6403.18
629.914	6296.97
630.269	6300.58
630.623	6323.86
630.978	6307.14
631.332	6358.21
631.687	6308.72
632.041	6319.11
632.396	6369.96
632.75	6298.78
633.104	6307.59
633.459	6315.95
633.813	6252.9
634.167	6263.75
634.521	6308.94
634.875	6261.94
635.229	6255.39
635.583	6225.1
635.937	6228.95
636.291	6234.6
636.645	6147.59
636.999	6181.94
637.352	6239.12
637.706	6144.2
638.06	6167.48
638.413	6178.78
638.767	6176.07
639.121	6152.56
639.474	6101.04
639.828	6139.46
640.181	6079.12
640.534	6122.96
640.888	6106.01
641.241	6053.13
641.594	6059.01
641.947	6057.88
642.301	6023.3
642.654	6042.51
643.007	6065.33
643.36	6056.3
643.713	6028.05
644.066	6018.56
644.419	5962.74
644.771	5956.64
645.124	5845.45
645.477	5909.86
645.83	5873.48
646.182	5864.66
646.535	5853.36
646.888	5898.79
647.24	5821.05
647.593	5833.7
647.945	5806.36
648.298	5863.76
648.65	5796.19
649.002	5820.82
649.355	5814.04
649.707	5779.24
650.059	5803.87
650.411	5856.53
650.763	5821.27
651.115	5968.39
651.467	5968.39
651.819	5920.25
652.171	5944.89
652.523	5887.03
652.875	5898.33
653.227	5863.98
653.578	5950.76
653.93	5873.25
654.282	5878.9
654.633	5908.73
654.985	5863.31
655.337	5831.67
655.688	5880.93
656.039	5857.88
656.391	5807.04
656.742	5806.13
657.094	5799.35
657.445	5805
657.796	5819.01
658.147	5803.87
658.498	5784.89
658.849	5817.43
659.2	5765.23
659.551	5789.41
659.902	5826.92
660.253	5761.39
660.604	5777.43
660.955	5770.88
661.306	5772.69
661.656	5753.48
662.007	5770.88
662.358	5770.88
662.708	5791.67
663.059	5739.02
663.409	5698.79
663.76	5730.2
664.11	5788.73
664.461	5717.32
664.811	5753.03
665.161	5781.5
665.511	5725.91
665.862	5764.1
666.212	5796.42
666.562	5786.92
666.912	5751.67
667.262	5756.42
667.612	5748.73
667.962	5765.68
668.312	5753.03
668.662	5817.43
669.011	5730.65
669.361	5733.82
669.711	5790.77
670.06	5767.26
670.41	5778.34
670.76	5757.55
671.109	5710.54
671.459	5775.85
671.808	5731.56
672.157	5766.36
672.507	5670.32
672.856	5678.68
673.205	5718.9
673.554	5675.29
673.904	5671.9
674.253	5713.03
674.602	5695.18
674.951	5617.44
675.3	5583.99
675.649	5658.79
675.998	5626.48
676.346	5629.41
676.695	5659.47
677.044	5579.92
677.393	5633.48
677.741	5605.01
678.09	5528.4
678.438	5548.74
678.787	5573.14
679.135	5551.45
679.484	5499.93
679.832	5578.57
680.181	5556.87
680.529	5566.14
680.877	5573.37
681.225	5556.2
681.573	5570.66
681.922	5503.32
682.27	5533.15
682.618	5513.94
682.966	5501.73
683.314	5515.29
683.661	5515.52
684.009	5469.64
684.357	5469.64
684.705	5462.19
685.053	5527.72
685.4	5483.66
685.748	5425.13
686.095	5414.96
686.443	5434.39
686.79	5473.94
687.138	5440.94
687.485	5439.59
687.832	5419.7
688.18	5416.76
688.527	5379.7
688.874	5411.79
689.221	5410.66
689.568	5388.06
689.915	5390.32
690.262	5344.45
690.609	5316.43
690.956	5316.43
691.303	5320.04
691.65	5321.63
691.997	5322.98
692.344	5295.41
692.69	5290.21
693.037	5217.67
693.383	5210.89
693.73	5208.41
694.077	5194.17
694.423	5170.22
694.769	5134.74
695.116	5112.14
695.462	5150.33
695.808	5134.29
696.155	5133.83
696.501	5097.22
696.847	5030.33
697.193	5013.16
697.539	5058.81
697.885	4971.58
698.231	4970.67
698.577	4926.38
698.923	4991.24
699.269	4938.13
699.614	4892.94
699.96	4933.61
700.306	4933.61
700.651	4928.42
700.997	4890.45
701.342	4888.64
701.688	4835.76
702.033	4820.4
702.379	4842.09
702.724	4831.47
703.069	4845.25
703.415	4779.27
703.76	4800.96
704.105	4789.89
704.45	4774.75
704.795	4743.56
705.14	4765.26
705.485	4782.88
705.83	4735.43
706.175	4788.76
706.52	4751.92
706.865	4701.08
707.209	4727.29
707.554	4747.86
707.899	4727.29
708.243	4687.29
708.588	4685.03
708.932	4644.36
709.277	4650
709.621	4639.16
709.966	4596.67
710.31	4659.72
710.654	4625.6
710.998	4627.41
711.342	4619.5
711.687	4624.02
712.031	4582.21
712.375	4593.96
712.719	4591.02
713.063	4551.93
713.407	4569.55
713.75	4576.79
714.094	4553.96
714.438	4531.14
714.782	4543.79
715.125	4471.93
715.469	4487.75
715.812	4496.11
716.156	4461.54
716.499	4473.96
716.843	4445.94
717.186	4421.99
717.53	4433.74
717.873	4426.96
718.216	4398.71
718.559	4401.42
718.902	4333.18
719.246	4379.5
719.589	4380.63
719.932	4365.49
720.275	4362.1
720.617	4310.13
720.96	4314.65
721.303	4357.36
721.646	4321.65
721.989	4286.17
722.331	4281.65
722.674	4274.2
723.016	4295.66
723.359	4234.42
723.701	4256.79
724.044	4223.58
724.386	4274.42
724.729	4219.96
725.071	4237.36
725.413	4242.78
725.755	4253.86
726.097	4208.21
726.439	4163.01
726.782	4200.53
727.124	4201.66
727.465	4193.75
727.807	4185.61
728.149	4214.31
728.491	4149.45
728.833	4174.31
729.175	4196.91
729.516	4168.21
729.858	4155.33
730.199	4131.15
730.541	4151.49
730.882	4157.14
731.224	4134.54
731.565	4144.93
731.906	4129.11
732.248	4191.03
732.589	4130.02
732.93	4103.58
733.271	4119.85
733.612	4122.79
733.953	4162.11
734.294	4081.43
734.635	4089.79
734.976	4115.78
735.317	4088.21
735.658	4082.79
735.999	4085.95
736.339	4092.28
736.68	4075.33
737.021	4102.45
737.361	4055.22
737.702	4083.47
738.042	4035.33
738.383	4066.97
738.723	4094.31
739.063	4062.22
739.404	4019.51
739.744	4059.74
740.084	4053.41
740.424	4061.77
740.764	4015.22
741.104	4051.6
741.444	3966.86
741.784	4013.19
742.124	4024.03
742.464	3968.21
742.804	4000.53
743.143	3984.49
743.483	4000.53
743.823	3948.1
744.162	3922.57
744.502	3958.72
744.841	3926.86
745.181	3941.32
745.52	3903.58
745.86	3926.41
746.199	3880.31
746.538	3878.73
746.877	3877.14
747.216	3883.7
747.556	3864.26
747.895	3881.44
748.234	3860.65
748.573	3823.36
748.911	3783.13
749.25	3795.11
749.589	3807.54
749.928	3793.98
750.267	3813.87
750.605	3851.16
750.944	3778.84
751.283	3768.22
751.621	3775.9
751.96	3726.87
752.298	3726.64
752.636	3717.83
752.975	3740.65
753.313	3773.64
753.651	3750.14
753.989	3695
754.327	3726.19
754.666	3693.42
755.004	3720.76
755.342	3675.34
755.679	3689.13
756.017	3672.63
756.355	3666.3
756.693	3692.74
757.031	3731.61
757.368	3666.53
757.706	3687.54
758.044	3673.99
758.381	3648.68
758.719	3653.87
759.056	3626.08
759.394	3635.34
759.731	3604.16
760.068	3646.87
760.405	3627.88
760.743	3643.93
761.08	3631.05
761.417	3661.56
761.754	3624.04
762.091	3612.52
762.428	3604.16
762.765	3577.72
763.102	3604.83
763.438	3584.95
763.775	3523.71
764.112	3588.34
764.449	3608
764.785	3537.04
765.122	3503.14
765.458	3482.35
765.795	3478.74
766.131	3474.22
766.467	3473.99
766.804	3460.21
767.14	3402.13
767.476	3435.57
767.812	3439.42
768.148	3430.6
768.485	3375.91
768.821	3329.14
769.157	3370.94
769.492	3343.82
769.828	3347.44
770.164	3321
770.5	3299.53
770.836	3295.69
771.171	3286.65
771.507	3277.16
