Data from foam2_polystyrene_foam_FLMS001491_00020.txt Node
Date: Wed Feb 08 10:57:36 GMT 2017
User: dcchb
Spectrometer: FLMS00149
Trigger mode: 0
Integration Time (sec): 2.000000E-2
Scans to average: 10
Electric dark correction enabled: true
Nonlinearity correction enabled: false
Boxcar width: 0
XAxis mode: Wavelengths
Number of Pixels in Spectrum: 2048
>>>>>Begin Spectral Data<<<<<
341.393	-11.2
341.776	-11.2
342.16	-11.2
342.543	-58.88
342.927	-57.98
343.31	-79
343.693	-64.31
344.077	-52.1
344.46	-58.43
344.843	-32.67
345.226	-53.23
345.61	-29.5
345.993	-27.25
346.376	-8.94
346.759	3.26
347.142	19.08
347.525	48.69
347.908	57.72
348.291	72.64
348.674	102.7
349.057	101.34
349.44	124.39
349.823	136.37
350.206	205.29
350.588	206.42
350.971	232.18
351.354	235.57
351.737	250.04
352.119	264.05
352.502	264.05
352.884	287.77
353.267	307.89
353.65	301.33
354.032	331.84
354.414	300.66
354.797	329.58
355.179	342.01
355.562	343.37
355.944	339.75
356.326	341.56
356.709	362.35
357.091	345.17
357.473	344.72
357.855	371.84
358.238	357.83
358.62	372.07
359.002	370.48
359.384	350.82
359.766	354.89
360.148	359.64
360.53	357.83
360.912	340.43
361.294	364.61
361.676	342.69
362.057	351.5
362.439	348.79
362.821	350.82
363.203	364.61
363.584	364.16
363.966	353.31
364.348	351.05
364.729	370.71
365.111	355.34
365.493	349.47
365.874	353.08
366.256	351.28
366.637	362.12
367.019	345.17
367.4	349.92
367.781	360.54
368.163	361.22
368.544	335.01
368.925	360.54
369.306	366.64
369.688	362.12
370.069	357.38
370.45	352.86
370.831	360.32
371.212	360.77
371.593	344.5
371.974	364.84
372.355	360.99
372.736	367.55
373.117	355.12
373.498	360.99
373.879	383.14
374.26	358.51
374.641	351.28
375.021	353.08
375.402	371.84
375.783	400.54
376.163	402.57
376.544	393.53
376.925	388.79
377.305	397.38
377.686	368.9
378.066	381.11
378.447	411.84
378.827	388.56
379.208	380.65
379.588	425.17
379.968	414.78
380.349	404.16
380.729	414.78
381.109	414.1
381.489	415.23
381.87	414.1
382.25	438.73
382.63	413.87
383.01	423.82
383.39	440.09
383.77	464.95
384.15	446.64
384.53	459.52
384.91	452.06
385.29	467.43
385.67	469.47
386.049	480.31
386.429	474.21
386.809	476.02
387.189	450.48
387.568	472.4
387.948	459.97
388.328	464.72
388.707	493.65
389.087	483.25
389.466	478.96
389.846	507.88
390.225	491.16
390.605	497.03
390.984	494.1
391.363	514.21
391.743	493.65
392.122	512.63
392.501	511.5
392.881	515.79
393.26	529.12
393.639	546.07
394.018	537.49
394.397	540.42
394.776	552.85
395.155	546.3
395.534	548.33
395.913	565.06
396.292	553.98
396.671	569.8
397.05	554.66
397.429	574.32
397.808	572.06
398.186	575.68
398.565	590.14
398.944	593.08
399.323	593.76
399.701	595.34
400.08	609.12
400.458	622.91
400.837	625.62
401.215	621.55
401.594	642.12
401.972	627.2
402.351	640.53
402.729	631.95
403.107	664.04
403.486	661.1
403.864	646.64
404.242	683.47
404.62	688.89
404.999	677.37
405.377	697.48
405.755	691.15
406.133	701.1
406.511	707.2
406.889	711.49
407.267	697.71
407.645	749.91
408.023	739.29
408.401	734.77
408.779	746.97
409.156	767.54
409.534	777.25
409.912	797.14
410.29	798.04
410.667	799.63
411.045	802.11
411.422	822.9
411.8	833.75
412.178	844.6
412.555	867.87
412.933	839.17
413.31	862.9
413.687	889.12
414.065	865.61
414.442	884.82
414.819	878.95
415.197	899.51
415.574	928.21
415.951	934.09
416.328	961.66
416.705	951.49
417.082	926.85
417.46	953.52
417.837	955.1
418.214	955.55
418.591	985.16
418.967	983.8
419.344	1001.2
419.721	1039.62
420.098	996.91
420.475	1058.15
420.852	1044.82
421.228	1052.73
421.605	1064.25
421.982	1095.21
422.358	1088.66
422.735	1114.42
423.111	1124.82
423.488	1140.86
423.864	1130.01
424.241	1153.51
424.617	1165.94
424.994	1162.78
425.37	1175.21
425.746	1157.58
426.123	1233.96
426.499	1193.06
426.875	1249.78
427.251	1251.82
427.627	1247.98
428.003	1272.61
428.379	1251.14
428.756	1304.02
429.132	1339.95
429.507	1313.74
429.883	1384.7
430.259	1378.37
430.635	1352.15
431.011	1397.12
431.387	1420.85
431.763	1447.52
432.138	1458.82
432.514	1494.97
432.89	1492.26
433.265	1518.03
433.641	1525.93
434.016	1581.3
434.392	1580.4
434.767	1623.78
435.143	1601.41
435.518	1640.06
435.894	1653.16
436.269	1679.38
436.644	1682.99
437.02	1712.14
437.395	1721.64
437.77	1720.51
438.145	1746.72
438.52	1801.63
438.895	1801.63
439.271	1808.19
439.646	1863.1
440.021	1818.36
440.395	1852.48
440.77	1850.9
441.145	1893.83
441.52	1915.98
441.895	1900.39
442.27	1948.97
442.645	1941.29
443.019	1955.98
443.394	1975.87
443.769	1964.34
444.143	1975.64
444.518	2028.29
444.892	2048.41
445.267	2020.61
445.641	2074.85
446.016	2082.3
446.39	2123.66
446.764	2133.38
447.139	2121.4
447.513	2160.04
447.887	2158.23
448.262	2150.55
448.636	2195.75
449.01	2241.85
449.384	2233.26
449.758	2285.01
450.132	2293.6
450.506	2322.75
450.88	2360.26
451.254	2330.43
451.628	2365.46
452.002	2386.48
452.376	2398.91
452.75	2410.88
453.123	2453.37
453.497	2545.79
453.871	2501.73
454.244	2574.49
454.618	2545.12
454.992	2608.62
455.365	2607.26
455.739	2732.91
456.112	2707.37
456.486	2743.76
456.859	2733.13
457.232	2790.99
457.606	2767.94
457.979	2833.7
458.352	2896.07
458.725	2918.44
459.099	2927.25
459.472	3006.8
459.845	3058.78
460.218	3045.44
460.591	3082.28
460.964	3055.16
461.337	3133.12
461.71	3200.92
462.083	3235.27
462.456	3261.03
462.829	3274.82
463.201	3353.01
463.574	3339.45
463.947	3386.45
464.32	3478.2
464.692	3457.64
465.065	3497.63
465.438	3541.25
465.81	3615.15
466.183	3631.87
466.555	3733.56
466.928	3711.19
467.3	3743.73
467.672	3819.66
468.045	3904.85
468.417	3907.11
468.789	3952.99
469.161	4014.91
469.534	4081.35
469.906	4157.05
470.278	4173.77
470.65	4204.28
471.022	4315.24
471.394	4356.82
471.766	4403.37
472.138	4436.14
472.51	4550.94
472.882	4616.25
473.253	4628.23
473.625	4754.1
473.997	4828.67
474.369	4869.12
474.74	4894.66
475.112	5018.5
475.484	5146.86
475.855	5167.19
476.227	5258.04
476.598	5387.75
476.97	5378.49
477.341	5475.89
477.713	5603.79
478.084	5666.62
478.455	5808.99
478.827	5852.6
479.198	5991.35
479.569	5986.83
479.94	6217.56
480.311	6182.31
480.682	6420.5
481.053	6526.48
481.424	6632.69
481.795	6697.1
482.166	6759.7
482.537	6865.91
482.908	7033.59
483.279	7136.18
483.65	7234.48
484.021	7423.63
484.391	7425.89
484.762	7509.96
485.133	7554.93
485.503	7708.82
485.874	7816.39
486.244	7987.46
486.615	8153.1
486.985	8198.98
487.356	8325.53
487.726	8430.39
488.097	8600.32
488.467	8655.01
488.837	8829.02
489.207	8879.64
489.578	9054.1
489.948	9118.96
490.318	9218.39
490.688	9289.8
491.058	9365.5
491.428	9562.33
491.798	9651.6
492.168	9880.52
492.538	9964.13
492.908	9975.2
493.278	10124.35
493.648	10179.27
494.017	10329.77
494.387	10393.05
494.757	10556.21
495.126	10599.82
495.496	10637.56
495.866	10715.07
496.235	10872.13
496.605	10996.42
496.974	11067.83
497.344	11137.43
497.713	11113.48
498.082	11346.47
498.452	11375.39
498.821	11402.51
499.19	11550.3
499.559	11696.51
499.928	11719.79
500.298	11829.62
500.667	11974.93
501.036	11933.8
501.405	12166.33
501.774	12162.94
502.143	12236.39
502.512	12334.01
502.88	12443.16
503.249	12518.41
503.618	12528.58
503.987	12645.42
504.356	12772.42
504.724	12839.54
505.093	12870.04
505.462	12960.21
505.83	13065.52
506.199	13194.55
506.567	13387.09
506.936	13409.24
507.304	13488.56
507.672	13608.55
508.041	13631.83
508.409	13771.49
508.777	13857.36
509.145	13942.56
509.514	14072.95
509.882	14150.24
510.25	14184.81
510.618	14345.03
510.986	14411.92
511.354	14566.95
511.722	14652.59
512.09	14824.79
512.458	14795.64
512.826	14833.61
513.193	15026.14
513.561	15157.89
513.929	15227.27
514.297	15407.15
514.664	15460.71
515.032	15497.77
515.4	15683.53
515.767	15826.12
516.135	15945.67
516.502	15846.01
516.869	16166.23
517.237	16226.79
517.604	16147.92
517.972	16418.2
518.339	16457.97
518.706	16522.6
519.073	16740.9
519.44	16838.75
519.808	17010.95
520.175	17108.12
520.542	17307.67
520.909	17383.82
521.276	17328.23
521.643	17614.32
522.009	17666.53
522.376	17837.82
522.743	17971.15
523.11	18125.5
523.477	18270.13
523.843	18483.91
524.21	18572.27
524.577	18798.47
524.943	18908.3
525.31	19039.15
525.676	19135.87
526.043	19249.99
526.409	19325.47
526.776	19495.63
527.142	19576.53
527.508	19803.65
527.874	19913.02
528.241	20092
528.607	20251.09
528.973	20381.48
529.339	20375.61
529.705	20593.23
530.071	20715.71
530.437	20880.68
530.803	20946.67
531.169	21078.64
531.535	21102.14
531.901	21260.78
532.267	21376.03
532.632	21543.94
532.998	21617.16
533.364	21775.35
533.73	21839.3
534.095	21938.96
534.461	22051.72
534.826	22213.3
535.192	22311.6
535.557	22438.83
535.923	22518.15
536.288	22543.91
536.653	22626.85
537.019	22599.05
537.384	22659.16
537.749	23028.19
538.114	22897.35
538.479	22941.64
538.845	23210.34
539.21	23152.94
539.575	23288.07
539.94	23423.21
540.305	23520.38
540.67	23592.92
541.034	23639.93
541.399	23729.87
541.764	23878.12
542.129	23935.74
542.494	24036.3
542.858	24106.81
543.223	24045.34
543.587	24426.8
543.952	24270.87
544.316	24447.37
544.681	24469.96
545.045	24645.33
545.41	24815.72
545.774	24855.49
546.138	24842.38
546.503	24793.57
546.867	24832.44
547.231	25158.53
547.595	25160.34
547.959	25448.47
548.324	25369.38
548.688	25445.53
549.052	25587.45
549.416	25724.85
549.779	25751.74
550.143	25835.13
550.507	26050.04
550.871	26146.76
551.235	26129.81
551.599	26267.88
551.962	26420.2
552.326	26434.88
552.689	26603.92
553.053	26554.65
553.417	26700.41
553.78	26991.48
554.143	26826.06
554.507	27049.33
554.87	27153.28
555.234	27478.47
555.597	27250.23
555.96	27374.75
556.323	27579.71
556.686	27548.3
557.05	27811.57
557.413	27791.68
557.776	27980.61
558.139	28075.29
558.502	28261.28
558.865	28346.47
559.228	28556.18
559.59	28589.18
559.953	28692.68
560.316	28978.77
560.679	28973.57
561.041	29215.83
561.404	29353.68
561.767	29482.94
562.129	29454.92
562.492	29702.37
562.854	29691.07
563.217	29760.9
563.579	29917.73
563.941	30175.12
564.304	30183.26
564.666	30540.54
565.028	30593.42
565.39	30744.15
565.753	30903.47
566.115	30837.48
566.477	31004.48
566.839	31178.71
567.201	31397.69
567.563	31205.83
567.925	31568.53
568.287	31467.75
568.648	31627.52
569.01	31814.63
569.372	32018.01
569.734	31945.02
570.095	32083.32
570.457	32381.85
570.819	32478.57
571.18	32430.88
571.542	32509.75
571.903	32632.01
572.265	32785.45
572.626	32801.5
572.987	32970.76
573.349	32927.59
573.71	33240.81
574.071	33226.34
574.432	33225.44
574.794	33458.2
575.155	33490.52
575.516	33428.6
575.877	33631.53
576.238	33695.03
576.599	33768.7
576.96	33787.46
577.32	33800.11
577.681	34036.49
578.042	33994.01
578.403	33969.38
578.763	34023.84
579.124	34132.99
579.485	34409.59
579.845	34478.51
580.206	34405.75
580.566	34445.07
580.927	34397.61
581.287	34490.27
581.648	34490.04
582.008	34600.55
582.368	34501.34
582.728	34653.65
583.089	34642.58
583.449	34599.64
583.809	34662.01
584.169	34617.27
584.529	34567.1
584.889	34998.05
585.249	34651.17
585.609	34615.01
585.969	34900.42
586.329	34699.53
586.688	34752.18
587.048	34707.66
587.408	34793.31
587.768	34784.72
588.127	34663.37
588.487	34755.57
588.846	34908.56
589.206	34721.45
589.565	34878.96
589.925	35040.53
590.284	34958.5
590.643	34915.79
591.003	35187.42
591.362	35107.65
591.721	35074.2
592.08	35046.41
592.44	35065.39
592.799	35109.01
593.158	35016.13
593.517	34886.41
593.876	35124.6
594.235	35071.27
594.593	35049.35
594.952	35110.81
595.311	35087.76
595.67	35065.84
596.029	35476.23
596.387	35371.6
596.746	35488.88
597.104	35298.83
597.463	35248.44
597.822	35490.24
598.18	35201.66
598.538	35357.59
598.897	35540.41
599.255	35164.82
599.613	35760.74
599.972	35511.03
600.33	35516.23
600.688	35601.42
601.046	35566.17
601.404	35785.82
601.762	35694.75
602.12	35894.75
602.478	36000.28
602.836	35945.59
603.194	35732.27
603.552	35899.49
603.91	35748.54
604.268	35911.92
604.625	35722.1
604.983	36081.64
605.341	35799.16
605.698	35969.32
606.056	36095.42
606.413	35945.14
606.771	36102.2
607.128	36078.02
607.485	36015.88
607.843	36021.3
608.2	36231.69
608.557	36348.75
608.914	36136.1
609.272	36455.86
609.629	36553.04
609.986	36530.21
610.343	36316.21
610.7	36599.81
611.057	36652.47
611.414	36522.08
611.771	36535.18
612.127	36721.17
612.484	36697.67
612.841	36837.55
613.198	36760.49
613.554	36706.48
613.911	36959.35
614.267	36887.26
614.624	36983.08
614.98	36786.25
615.337	36996.41
615.693	37057.66
616.05	36878.68
616.406	37282.06
616.762	37184.66
617.118	37095.17
617.475	37195.05
617.831	37187.37
618.187	37289.06
618.543	37300.59
618.899	37436.63
619.255	37383.75
619.611	37306.69
619.967	37445.89
620.323	37501.71
620.678	37376.29
621.034	37366.35
621.39	37369.29
621.746	37222.85
622.101	37643.63
622.457	37381.71
622.812	37411.54
623.168	37532.45
623.523	37506.46
623.879	37641.82
624.234	37370.87
624.589	37435.95
624.945	37428.72
625.3	37541.03
625.655	37420.13
626.01	37535.38
626.365	37436.63
626.72	37430.75
627.075	37435.72
627.43	37419.91
627.785	37361.6
628.14	37426.01
628.495	37324.32
628.85	37355.05
629.205	37323.41
629.559	37425.33
629.914	37223.3
630.269	37258.55
630.623	37060.14
630.978	37068.05
631.332	37243.87
631.687	37169.52
632.041	37001.84
632.396	37262.4
632.75	36880.71
633.104	36921.84
633.459	36655.41
633.813	36787.83
634.167	36692.02
634.521	36743.31
634.875	36637.1
635.229	36536.09
635.583	36512.59
635.937	36561.17
636.291	36435.53
636.645	36310.78
636.999	36341.74
637.352	36424.68
637.706	36174.74
638.06	36316.66
638.413	36268.07
638.767	36113.73
639.121	36218.58
639.474	35929.1
639.828	35960.51
640.181	36006.38
640.534	35743.34
640.888	35747.86
641.241	35609.56
641.594	35710.57
641.947	35782.43
642.301	35507.19
642.654	35672.61
643.007	35513.29
643.36	35372.95
643.713	35453.63
644.066	35507.19
644.419	35202.56
644.771	35051.15
645.124	34738.62
645.477	34814.55
645.83	34481.23
646.182	34322.59
646.535	34198.97
646.888	34181.8
647.24	33984.74
647.593	34122.14
647.945	33977.74
648.298	33925.08
648.65	33770.74
649.002	33647.58
649.355	33951.07
649.707	33815.93
650.059	34020.67
650.411	34338.63
650.763	34369.14
651.115	34713.76
651.467	34520.55
651.819	34419.31
652.171	34343.6
652.523	34363.72
652.875	34357.39
653.227	34182.93
653.578	34439.42
653.93	34189.71
654.282	34046.21
654.633	34105.19
654.985	34255.24
655.337	33965.76
655.688	34040.56
656.039	34102.25
656.391	33895.03
656.742	33869.26
657.094	33833.11
657.445	34010.5
657.796	33837.18
658.147	33766.22
658.498	33751.53
658.849	33817.74
659.2	33770.74
659.551	33549.5
659.902	33724.86
660.253	33635.37
660.604	33616.84
660.955	33454.81
661.306	33591.31
661.656	33453.23
662.007	33429.95
662.358	33492.33
662.708	33478.99
663.059	33432.89
663.409	33349.73
663.76	33375.72
664.11	33374.81
664.461	33404.42
664.811	33509.95
665.161	33392.89
665.511	33304.08
665.862	33315.38
666.212	33303.63
666.562	33337.08
666.912	33139.11
667.262	33120.58
667.612	33266.34
667.962	33280.81
668.312	33092.11
668.662	33247.81
669.011	33237.87
669.361	33110.19
669.711	32999.46
670.06	32922.17
670.41	32994.94
670.76	32971.21
671.109	33003.3
671.459	32803.98
671.808	32862.74
672.157	32863.87
672.507	32701.16
672.856	32626.59
673.205	32698
673.554	32967.59
673.904	32734.83
674.253	32941.61
674.602	32716.53
674.951	32261.85
675.3	32224.56
675.649	32640.37
675.998	32635.17
676.346	32561.05
676.695	32596.76
677.044	32224.79
677.393	32374.61
677.741	32519.24
678.09	32331
678.438	32338.46
678.787	32377.78
679.135	32345.24
679.484	31990.22
679.832	32313.15
680.181	32141.85
680.529	32242.64
680.877	32036.77
681.225	31951.12
681.573	32116.54
681.922	31873.16
682.27	31797.91
682.618	31781.64
682.966	31863.89
683.314	31938.02
683.661	31738.47
684.009	31544.81
684.357	31454.87
684.705	31468.2
685.053	31425.49
685.4	31411.02
685.748	31221.42
686.095	31098.04
686.443	31006.29
686.79	31013.29
687.138	30952.28
687.485	30999.96
687.832	30823.7
688.18	30859.63
688.527	30621.44
688.874	30590.93
689.221	30524.04
689.568	30424.16
689.915	30383.03
690.262	30455.8
690.609	30333.54
690.956	30169.25
691.303	30094.9
691.65	29985.75
691.997	29961.8
692.344	29842.48
692.69	29809.48
693.037	29732.65
693.383	29660.34
693.73	29698.53
694.077	29388.93
694.423	29592.32
694.769	29413.79
695.116	29423.05
695.462	29333.34
695.808	29119.33
696.155	29293.11
696.501	28953.91
696.847	29105.55
697.193	28692.45
697.539	28900.13
697.885	28651.55
698.231	28644.09
698.577	28583.75
698.923	28576.3
699.269	28409.07
699.614	28279.58
699.96	28194.84
700.306	28365.45
700.651	28110.55
700.997	28118.23
701.342	28020.83
701.688	27983.77
702.033	27906.03
702.379	27843.43
702.724	27792.14
703.069	27781.97
703.415	27542.2
703.76	27473.05
704.105	27410.68
704.45	27499.26
704.795	27268.53
705.14	27330
705.485	27211.36
705.83	27065.15
706.175	27275.77
706.52	27083
706.865	27001.42
707.209	26874.42
707.554	26859.05
707.899	26920.29
708.243	26805.27
708.588	26648.66
708.932	26574.54
709.277	26434.43
709.621	26348.11
709.966	26375.68
710.31	26472.17
710.654	26135.23
710.998	26185.4
711.342	26346.98
711.687	26080.09
712.031	26004.39
712.375	26041.22
712.719	25996.93
713.063	25904.05
713.407	25958.74
713.75	25830.83
714.094	25764.85
714.438	25754.45
714.782	25664.06
715.125	25589.26
715.469	25604.17
715.812	25410.5
716.156	25402.14
716.499	25342.71
716.843	25489.82
717.186	25194.46
717.53	25208.48
717.873	25233.56
718.216	25250.06
718.559	25067.91
718.902	24932.32
719.246	25103.17
719.589	24986.79
719.932	24786.11
720.275	24997.41
720.617	24841.93
720.96	24706.57
721.303	24806
721.646	24782.72
721.989	24680.58
722.331	24679.22
722.674	24574.14
723.016	24565.55
723.359	24518.32
723.701	24558.55
724.044	24337.31
724.386	24242.4
724.729	24441.72
725.071	24387.25
725.413	24231.78
725.755	24273.36
726.097	24195.17
726.439	24059.81
726.782	24022.97
727.124	24205.34
727.465	24133.93
727.807	23956.98
728.149	23863.65
728.491	23926.25
728.833	23932.8
729.175	23743.2
729.516	23749.76
729.858	23831.56
730.199	23794.95
730.541	23798.57
730.882	23616.65
731.224	23798.57
731.565	23573.72
731.906	23601.06
732.248	23545.02
732.589	23391.35
732.93	23422.99
733.271	23424.34
733.612	23427.28
733.953	23445.58
734.294	23350.45
734.635	23314.97
734.976	23355.42
735.317	23256.44
735.658	23247.4
735.999	23122.43
736.339	23074.52
736.68	23161.3
737.021	23031.58
737.361	22998.36
737.702	23045.14
738.042	22900.74
738.383	22891.02
738.723	22890.8
739.063	22812.83
739.404	22860.29
739.744	22696.45
740.084	22753.17
740.424	22715.43
740.764	22667.07
741.104	22791.14
741.444	22578.04
741.784	22534.87
742.124	22578.26
742.464	22552.95
742.804	22451.49
743.143	22421.88
743.483	22469.34
743.823	22259.63
744.162	22224.83
744.502	22324.03
744.841	22202.23
745.181	22264.37
745.52	22252.4
745.86	22124.04
746.199	22185.5
746.538	22169.23
746.877	22185.28
747.216	22143.25
747.556	21952.97
747.895	21941.44
748.234	21905.06
748.573	21883.37
748.911	21741.45
749.25	21830.26
749.589	21715.23
749.928	21627.78
750.267	21629.13
750.605	21642.47
750.944	21578.29
751.283	21461.91
751.621	21563.83
751.96	21503.94
752.298	21421
752.636	21371.06
752.975	21298.3
753.313	21142.14
753.651	21277.51
753.989	21066.66
