Data from foam_black_FLMS001491_00082.txt Node
Date: Wed Feb 08 10:44:50 GMT 2017
User: dcchb
Spectrometer: FLMS00149
Trigger mode: 0
Integration Time (sec): 2.000000E-2
Scans to average: 10
Electric dark correction enabled: true
Nonlinearity correction enabled: false
Boxcar width: 0
XAxis mode: Wavelengths
Number of Pixels in Spectrum: 2048
>>>>>Begin Spectral Data<<<<<
341.393	-21.61
341.776	-21.61
342.16	-21.61
342.543	-70.42
342.927	-53.93
343.31	-54.83
343.693	-71.78
344.077	-60.48
344.46	-65.22
344.843	-50.54
345.226	-43.08
345.61	-32
345.993	-16.19
346.376	4.83
346.759	22.46
347.142	21.55
347.525	55.9
347.908	51.16
348.291	53.19
348.674	79.4
349.057	105.62
349.44	129.57
349.823	156.46
350.206	136.58
350.588	181.32
350.971	192.4
351.354	223.81
351.737	222.68
352.119	235.33
352.502	272.17
352.884	277.82
353.267	277.82
353.65	291.6
354.032	306.97
354.414	293.18
354.797	339.74
355.179	302.9
355.562	297.93
355.944	338.38
356.326	360.75
356.709	342.9
357.091	352.39
357.473	349.45
357.855	357.82
358.238	364.37
358.62	326.4
359.002	345.84
359.384	326.4
359.766	346.52
360.148	344.03
360.53	351.49
360.912	332.05
361.294	317.14
361.676	323.47
362.057	321.66
362.439	327.31
362.821	327.99
363.203	333.64
363.584	332.96
363.966	329.57
364.348	316.69
364.729	308.1
365.111	322.34
365.493	305.39
365.874	302.68
366.256	303.58
366.637	301.09
367.019	330.25
367.4	316.91
367.781	327.08
368.163	339.51
368.544	308.55
368.925	326.4
369.306	312.17
369.688	316.01
370.069	323.01
370.45	313.52
370.831	297.48
371.212	322.11
371.593	332.73
371.974	332.73
372.355	325.05
372.736	330.47
373.117	338.83
373.498	306.29
373.879	310.36
374.26	339.74
374.641	319.62
375.021	323.69
375.402	356.01
375.783	351.26
376.163	354.88
376.544	347.19
376.925	325.95
377.305	331.38
377.686	332.28
378.066	337.7
378.447	346.74
378.827	360.53
379.208	348.78
379.588	366.4
379.968	348.1
380.349	357.36
380.729	353.07
381.109	336.57
381.489	357.59
381.87	366.63
382.25	370.24
382.63	364.14
383.01	356.69
383.39	367.98
383.77	352.84
384.15	372.73
384.53	367.76
384.91	364.82
385.29	385.84
385.67	366.4
386.049	378.61
386.429	378.61
386.809	381.77
387.189	383.35
387.568	372.96
387.948	381.54
388.328	393.75
388.707	377.7
389.087	405.5
389.466	369.79
389.846	400.53
390.225	417.47
390.605	405.05
390.984	411.83
391.363	390.36
391.743	426.51
392.122	418.83
392.501	409.11
392.881	415.89
393.26	431.71
393.639	413.41
394.018	428.77
394.397	427.64
394.776	440.98
395.155	421.09
395.534	439.4
395.913	438.04
396.292	443.46
396.671	433.29
397.05	437.14
397.429	436.46
397.808	461.32
398.186	442.56
398.565	449.79
398.944	457.25
399.323	447.3
399.701	446.85
400.08	457.47
400.458	452.05
400.837	461.54
401.215	461.99
401.594	483.69
401.972	466.97
402.351	485.04
402.729	471.71
403.107	489.34
403.486	491.15
403.864	475.33
404.242	487.76
404.62	489.11
404.999	501.77
405.377	520.07
405.755	506.74
406.133	497.02
406.511	506.96
406.889	513.52
407.267	527.3
407.645	509.45
408.023	509.9
408.401	534.31
408.779	525.27
409.156	536.12
409.534	507.87
409.912	552.16
410.29	565.27
410.667	537.7
411.045	556.91
411.422	550.13
411.8	556.91
412.178	567.53
412.555	568.66
412.933	584.02
413.31	570.92
413.687	595.78
414.065	583.35
414.442	618.37
414.819	586.51
415.197	595.1
415.574	623.57
415.951	622.89
416.328	613.63
416.705	594.42
417.082	620.41
417.46	609.11
417.837	636.9
418.214	631.48
418.591	661.76
418.967	646.17
419.344	635.55
419.721	644.59
420.098	648.2
420.475	658.15
420.852	690.46
421.228	671.48
421.605	676.68
421.982	664.7
422.358	682.1
422.735	715.32
423.111	711.03
423.488	713.51
423.864	698.37
424.241	704.25
424.617	727.07
424.994	720.52
425.37	732.27
425.746	726.17
426.123	717.58
426.499	725.04
426.875	751.25
427.251	739.5
427.627	734.75
428.003	770.01
428.379	803.68
428.756	791.25
429.132	784.24
429.507	796.9
429.883	808.88
430.259	822.89
430.635	811.36
431.011	820.85
431.387	838.48
431.763	835.32
432.138	866.5
432.514	869.89
432.89	876.22
433.265	879.84
433.641	900.17
434.016	890.23
434.392	908.08
434.767	937.24
435.143	919.38
435.518	962.32
435.894	928.87
436.269	939.72
436.644	939.5
437.02	953.96
437.395	994.86
437.77	982.88
438.145	1001.87
438.52	996.22
438.895	980.62
439.271	1006.16
439.646	1030.11
440.021	1006.84
440.395	1037.12
440.77	1041.87
441.145	1034.18
441.52	1054.97
441.895	1058.36
442.27	1076.44
442.645	1048.64
443.019	1071.02
443.394	1071.69
443.769	1096.33
444.143	1071.69
444.518	1094.07
444.892	1081.19
445.267	1096.1
445.641	1135.65
446.016	1110.34
446.39	1113.95
446.764	1132.94
447.139	1116.21
447.513	1131.81
447.887	1153.27
448.262	1136.1
448.636	1155.76
449.01	1183.56
449.384	1197.79
449.758	1187.4
450.132	1218.13
450.506	1208.64
450.88	1203.89
451.254	1219.71
451.628	1232.59
452.002	1250.67
452.376	1248.41
452.75	1300.39
453.123	1262.42
453.497	1292.03
453.871	1263.55
454.244	1325.25
454.618	1326.6
454.992	1350.33
455.365	1336.77
455.739	1360.5
456.112	1389.65
456.486	1406.38
456.859	1404.57
457.232	1434.4
457.606	1404.34
457.979	1428.52
458.352	1466.71
458.725	1496.32
459.099	1494.73
459.472	1513.27
459.845	1510.78
460.218	1517.33
460.591	1525.02
460.964	1571.34
461.337	1605.69
461.71	1595.07
462.083	1637.1
462.456	1640.04
462.829	1640.72
463.201	1666.26
463.574	1669.19
463.947	1682.98
464.32	1719.14
464.692	1715.97
465.065	1711.68
465.438	1778.34
465.81	1758.23
466.183	1807.72
466.555	1839.13
466.928	1821.96
467.3	1846.82
467.672	1854.27
468.045	1917.1
468.417	1923.88
468.789	1916.64
469.161	1956.87
469.534	1968.85
469.906	2020.6
470.278	2054.72
470.65	2054.95
471.022	2116.41
471.394	2104.44
471.766	2124.32
472.138	2171.33
472.51	2181.95
472.882	2250.87
473.253	2236.41
473.625	2261.49
473.997	2307.82
474.369	2309.18
474.74	2319.57
475.112	2394.82
475.484	2433.02
475.855	2477.31
476.227	2517.98
476.598	2560.92
476.97	2587.81
477.341	2614.48
477.713	2644.08
478.084	2665.1
478.455	2724.53
478.827	2712.33
479.198	2829.16
479.569	2816.06
479.94	2882.27
480.311	2919.33
480.682	2971.31
481.053	3096.73
481.424	3092.66
481.795	3069.16
482.166	3136.5
482.537	3203.39
482.908	3285.42
483.279	3280
483.65	3321.81
484.021	3393.22
484.391	3417.85
484.762	3441.58
485.133	3484.29
485.503	3499.2
485.874	3617.39
486.244	3652.64
486.615	3683.15
486.985	3677.95
487.356	3748.91
487.726	3798.85
488.097	3874.56
488.467	3862.13
488.837	3975.12
489.207	4006.76
489.578	4063.25
489.948	4101.67
490.318	4176.92
490.688	4152.97
491.058	4169.01
491.428	4250.37
491.798	4246.98
492.168	4331.27
492.538	4362.23
492.908	4421.89
493.278	4502.57
493.648	4482
494.017	4529.46
494.387	4577.14
494.757	4620.3
495.126	4649.68
495.496	4669.57
495.866	4679.06
496.235	4773.97
496.605	4794.53
496.974	4778.49
497.344	4882.22
497.713	4854.87
498.082	4921.76
498.452	4999.28
498.821	4964.93
499.19	4987.3
499.559	5043.12
499.928	5073.17
500.298	5096.67
500.667	5106.84
501.036	5167.63
501.405	5190.68
501.774	5257.12
502.143	5265.26
502.512	5271.58
502.88	5347.06
503.249	5361.53
503.618	5394.75
503.987	5427.96
504.356	5455.08
504.724	5476.55
505.093	5517
505.462	5572.37
505.83	5559.71
506.199	5539.15
506.567	5681.97
506.936	5634.74
507.304	5717.22
507.672	5771.91
508.041	5799.71
508.409	5795.86
508.777	5903.88
509.145	5869.53
509.514	5916.54
509.882	5954.73
510.25	5977.55
510.618	6076.08
510.986	6013.26
511.354	6153.37
511.722	6148.17
512.09	6187.27
512.458	6230.66
512.826	6302.52
513.193	6275.85
513.561	6348.84
513.929	6385.23
514.297	6441.27
514.664	6466.36
515.032	6515.39
515.4	6581.83
515.767	6634.71
516.135	6643.75
516.502	6628.84
516.869	6694.82
517.237	6767.82
517.604	6763.52
517.972	6758.78
518.339	6917.19
518.706	6862.05
519.073	6968.49
519.44	7004.42
519.808	7092.33
520.175	7126.45
520.542	7219.56
520.909	7179.56
521.276	7181.59
521.643	7318.31
522.009	7390.4
522.376	7410.74
522.743	7430.17
523.11	7538.19
523.477	7675.59
523.843	7655.02
524.21	7757.85
524.577	7796.72
524.943	7845.98
525.31	7906.77
525.676	7980.21
526.043	8007.11
526.409	8071.74
526.776	8179.08
527.142	8114
527.508	8193.54
527.874	8191.96
528.241	8231.28
528.607	8392.86
528.973	8410.49
529.339	8466.98
529.705	8534.55
530.071	8608.67
530.437	8692.06
530.803	8709.46
531.169	8766.63
531.535	8757.14
531.901	8773.19
532.267	8863.35
532.632	8907.65
532.998	8887.08
533.364	8985.61
533.73	8952.39
534.095	9124.36
534.461	9097.92
534.826	9186.96
535.192	9209.79
535.557	9323.68
535.923	9269.9
536.288	9300.63
536.653	9371.82
537.019	9327.3
537.384	9434.86
537.749	9459.72
538.114	9520.29
538.479	9517.35
538.845	9544.47
539.21	9557.35
539.575	9597.8
539.94	9604.13
540.305	9711.69
540.67	9752.82
541.034	9788.98
541.399	9801.86
541.764	9834.18
542.129	9921.41
542.494	9978.13
542.858	9959.37
543.223	9919.15
543.587	10078.01
543.952	10017.45
544.316	10064.68
544.681	10146.26
545.045	10130.21
545.41	10177.22
545.774	10257.89
546.138	10261.74
546.503	10355.07
546.867	10314.39
547.231	10484.1
547.595	10461.05
547.959	10424.44
548.324	10550.77
548.688	10471.9
549.052	10580.37
549.416	10596.42
549.779	10655.85
550.143	10654.04
550.507	10725.45
550.871	10688.39
551.235	10825.34
551.599	10814.04
551.962	10850.42
552.326	10995.28
552.689	11004.77
553.053	10976.07
553.417	11085.22
553.78	11229.39
554.143	11180.58
554.507	11228.72
554.87	11152.11
555.234	11409.73
555.597	11273.46
555.96	11484.98
556.323	11470.52
556.686	11545.32
557.05	11593.68
557.413	11651.98
557.776	11688.14
558.139	11765.88
558.502	11818.08
558.865	11870.73
559.228	12025.31
559.59	12067.79
559.953	11991.63
560.316	12194.79
560.679	12143.27
561.041	12266.65
561.404	12340.33
561.767	12407.67
562.129	12328.35
562.492	12524.05
562.854	12487.21
563.217	12554.1
563.579	12669.36
563.941	12721.11
564.304	12766.75
564.666	12926.75
565.028	13003.58
565.39	12947.54
565.753	13067.09
566.115	13048.1
566.477	13123.81
566.839	13189.57
567.201	13339.17
567.563	13328.55
567.925	13494.87
568.287	13398.38
568.648	13437.7
569.01	13636.79
569.372	13685.37
569.734	13678.14
570.095	13692.38
570.457	13777.35
570.819	13798.82
571.18	13893.5
571.542	13929.66
571.903	14007.85
572.265	14084.23
572.626	14050.34
572.987	14034.29
573.349	14121.07
573.71	14284.91
574.071	14226.6
574.432	14313.15
574.794	14455.52
575.155	14400.38
575.516	14337.11
575.877	14425.02
576.238	14493.49
576.599	14613.94
576.96	14605.58
577.32	14590.21
577.681	14639.47
578.042	14678.79
578.403	14671.79
578.763	14727.16
579.124	14752.01
579.485	14752.92
579.845	14801.05
580.206	14823.42
580.566	14827.04
580.927	14917.66
581.287	14902.29
581.648	14916.08
582.008	15008.5
582.368	15018.22
582.728	14966.92
583.089	14984.55
583.449	14955.85
583.809	14961.05
584.169	15037.66
584.529	15012.12
584.889	15089.86
585.249	15028.16
585.609	15013.93
585.969	15135.28
586.329	15044.21
586.688	15114.94
587.048	15217.54
587.408	15096.18
587.768	15086.69
588.127	15181.83
588.487	15022.29
588.846	15201.27
589.206	15101.61
589.565	15115.39
589.925	15176.41
590.284	15205.56
590.643	15142.29
591.003	15245.11
591.362	15248.72
591.721	15208.5
592.08	15235.84
592.44	15361.04
592.799	15246.46
593.158	15248.72
593.517	15258.21
593.876	15310.42
594.235	15296.86
594.593	15270.19
594.952	15336.86
595.311	15250.08
595.67	15264.32
596.029	15269.51
596.387	15325.33
596.746	15445.1
597.104	15385.44
597.463	15384.76
597.822	15454.37
598.18	15388.83
598.538	15352
598.897	15483.29
599.255	15440.13
599.613	15605.1
599.972	15540.02
600.33	15615.04
600.688	15440.36
601.046	15588.83
601.404	15593.35
601.762	15570.75
602.12	15558.09
602.478	15612.33
602.836	15497.08
603.194	15578.43
603.552	15587.7
603.91	15569.62
604.268	15626.79
604.625	15529.39
604.983	15625.44
605.341	15677.41
605.698	15738.88
606.056	15728.48
606.413	15776.85
606.771	15850.29
607.128	15783.17
607.485	15708.37
607.843	15822.04
608.2	15795.6
608.557	15925.09
608.914	15911.3
609.272	15938.42
609.629	15977.07
609.986	16012.09
610.343	15903.17
610.7	16117.85
611.057	15974.58
611.414	15947.69
611.771	16010.51
612.127	16116.5
612.484	16085.31
612.841	16064.3
613.198	15993.56
613.554	15948.14
613.911	16098.42
614.267	16096.61
614.624	16041.24
614.98	16131.41
615.337	16220.22
615.693	16058.42
616.05	16163.28
616.406	16239.66
616.762	16233.33
617.118	16213.22
617.475	16339.77
617.831	16255.7
618.187	16244.86
618.543	16265.42
618.899	16287.79
619.255	16265.42
619.611	16330.95
619.967	16346.1
620.323	16441.69
620.678	16311.29
621.034	16298.19
621.39	16321.46
621.746	16261.8
622.101	16514.23
622.457	16351.97
622.812	16356.49
623.168	16388.81
623.523	16366.43
623.879	16385.64
624.234	16217.29
624.589	16351.97
624.945	16443.95
625.3	16490.05
625.655	16346.77
626.01	16371.41
626.365	16362.14
626.72	16342.93
627.075	16341.8
627.43	16395.36
627.785	16353.33
628.14	16328.92
628.495	16322.82
628.85	16372.76
629.205	16391.29
629.559	16441.23
629.914	16325.76
630.269	16364.85
630.623	16226.55
630.978	16295.7
631.332	16264.74
631.687	16274.46
632.041	16186.33
632.396	16220
632.75	16212.31
633.104	16388.81
633.459	16119.89
633.813	16174.12
634.167	16163.95
634.521	16274.91
634.875	16228.81
635.229	16115.37
635.583	16046.89
635.937	16137.97
636.291	16017.74
636.645	16067.23
636.999	16057.29
637.352	16122.82
637.706	16009.38
638.06	16074.24
638.413	16036.95
638.767	16010.51
639.121	15957.18
639.474	15949.72
639.828	15983.17
640.181	15987.69
640.534	15983.85
640.888	15809.16
641.241	15773.23
641.594	15826.56
641.947	15813.45
642.301	15770.29
642.654	15777.97
643.007	15763.29
643.36	15754.7
643.713	15779.78
644.066	15778.88
644.419	15639.67
644.771	15502.95
645.124	15379.57
645.477	15293.92
645.83	15295.95
646.182	15254.6
646.535	15173.92
646.888	15298.44
647.24	15202.17
647.593	15354.26
647.945	15212.34
648.298	15078.11
648.65	15139.35
649.002	15098.44
649.355	15107.26
649.707	15021.61
650.059	14996.3
650.411	15170.31
650.763	15166.01
651.115	15339.79
651.467	15330.98
651.819	15278.78
652.171	15282.39
652.523	15161.27
652.875	15250.76
653.227	15137.99
653.578	15243.75
653.93	15278.33
654.282	15142.29
654.633	15127.37
654.985	15154.71
655.337	15241.49
655.688	15150.42
656.039	15201.94
656.391	15077.65
656.742	15104.09
657.094	15104.32
657.445	15215.05
657.796	15113.59
658.147	15144.55
658.498	15093.47
658.849	15148.39
659.2	15110.2
659.551	15038.79
659.902	15101.83
660.253	15017.54
660.604	15078.33
660.955	14975.96
661.306	15041.05
661.656	15015.51
662.007	15005.79
662.358	14990.88
662.708	15028.84
663.059	15021.16
663.409	14844.21
663.76	14978.22
664.11	14961.5
664.461	14945.68
664.811	15039.01
665.161	14966.24
665.511	14922.86
665.862	14921.5
666.212	14924.21
666.562	14904.33
666.912	14919.69
667.262	14912.46
667.612	14926.47
667.962	14876.76
668.312	14844.89
668.662	14935.74
669.011	14889.86
669.361	14929.64
669.711	14899.35
670.06	14850.54
670.41	14862.07
670.76	14912.46
671.109	14842.18
671.459	14808.51
671.808	14855.06
672.157	14882.86
672.507	14739.13
672.856	14754.95
673.205	14856.64
673.554	14846.02
673.904	14796.76
674.253	14890.77
674.602	14772.8
674.951	14579.81
675.3	14483.55
675.649	14708.17
675.998	14602.19
676.346	14692.58
676.695	14669.3
677.044	14521.74
677.393	14613.49
677.741	14646.71
678.09	14555.63
678.438	14555.86
678.787	14600.38
679.135	14641.96
679.484	14469.53
679.832	14602.41
680.181	14479.7
680.529	14552.02
680.877	14428.41
681.225	14454.85
681.573	14439.48
681.922	14300.27
682.27	14279.26
682.618	14297.34
682.966	14414.85
683.314	14376.88
683.661	14317.45
684.009	14165.59
684.357	14201.52
684.705	14124.23
685.053	14174.4
685.4	14181.18
685.748	14048.75
686.095	14056.21
686.443	14069.32
686.79	14086.27
687.138	14043.33
687.485	14033.61
687.832	13979.6
688.18	13977.12
688.527	13824.58
688.874	13893.73
689.221	13807.86
689.568	13853.73
689.915	13778.25
690.262	13757.46
690.609	13786.84
690.956	13732.83
691.303	13671.59
691.65	13618.26
691.997	13576.9
692.344	13535.55
692.69	13487.19
693.037	13477.02
693.383	13351.37
693.73	13397.25
694.077	13355.67
694.423	13320.19
694.769	13301.43
695.116	13256.01
695.462	13180.53
695.808	13134.65
696.155	13188.44
696.501	13057.14
696.847	13060.53
697.193	12953.42
697.539	12989.57
697.885	12830.03
698.231	12887.66
698.577	12831.39
698.923	12838.84
699.269	12776.92
699.614	12693.76
699.96	12609.7
700.306	12647.66
700.651	12643.14
700.997	12553.43
701.342	12550.04
701.688	12532.18
702.033	12454.67
702.379	12541.9
702.724	12416.93
703.069	12503.03
703.415	12241.8
703.76	12236.6
704.105	12280.67
704.45	12319.53
704.795	12236.37
705.14	12174.68
705.485	12193.44
705.83	12150.27
706.175	12085.87
706.52	12091.97
706.865	12075.93
707.209	12018.75
707.554	11989.6
707.899	11907.34
708.243	11895.14
708.588	11916.61
708.932	11816.05
709.277	11774.69
709.621	11779.66
709.966	11746.44
710.31	11746.89
710.654	11600.01
710.998	11580.12
711.342	11652.43
711.687	11555.26
712.031	11547.13
712.375	11483.62
712.719	11474.59
713.063	11491.53
713.407	11501.7
713.75	11426.68
714.094	11431.2
714.438	11408.15
714.782	11362.95
715.125	11307.81
715.469	11368.15
715.812	11273.01
716.156	11196.17
716.499	11152.56
716.843	11209.73
717.186	11204.99
717.53	11214.03
717.873	11193.46
718.216	11124.76
718.559	11091.54
718.902	11035.5
719.246	10983.07
719.589	11022.85
719.932	10954.37
720.275	10962.06
720.617	10911.66
720.96	10949.18
721.303	11027.37
721.646	10998.21
721.989	10883.19
722.331	10881.83
722.674	10817.2
723.016	10828.73
723.359	10845.22
723.701	10820.82
724.044	10777.43
724.386	10752.12
724.729	10749.18
725.071	10743.53
725.413	10742.63
725.755	10704.44
726.097	10697.43
726.439	10592.35
726.782	10602.74
727.124	10680.26
727.465	10541.73
727.807	10544.44
728.149	10497.66
728.491	10536.76
728.833	10501.05
729.175	10476.19
729.516	10461.05
729.858	10460.6
730.199	10438.23
730.541	10412.92
730.882	10454.27
731.224	10469.64
731.565	10375.41
731.906	10350.77
732.248	10291.79
732.589	10306.48
732.93	10278.91
733.271	10288.4
733.612	10264
733.953	10211.79
734.294	10217.9
734.635	10210.21
734.976	10219.7
735.317	10170.89
735.658	10108.07
735.999	10113.94
736.339	10135.64
736.68	10167.5
737.021	10099.25
737.361	10124.56
737.702	10089.09
738.042	10078.46
738.383	10020.84
738.723	10104.23
739.063	10054.28
739.404	10042.98
739.744	10019.26
740.084	9957.34
740.424	9911.91
740.764	9935.19
741.104	10002.76
741.444	9919.82
741.784	9880.28
742.124	9876.66
742.464	9885.02
742.804	9893.84
743.143	9879.37
743.483	9878.47
743.823	9788.53
744.162	9800.51
744.502	9777.91
744.841	9726.83
745.181	9735.42
745.52	9659.72
745.86	9673.95
746.199	9692.94
746.538	9627.85
746.877	9668.76
747.216	9688.64
747.556	9634.63
747.895	9601.41
748.234	9605.03
748.573	9612.49
748.911	9491.81
749.25	9614.3
749.589	9549.89
749.928	9553.96
750.267	9534.07
750.605	9464.47
750.944	9509.44
751.283	9446.39
751.621	9439.84
751.96	9344.47
752.298	9396
752.636	9412.49
752.975	9315.55
753.313	9279.61
753.651	9250.24
753.989	9250.46
754.327	9250.01
754.666	9149.22
755.004	9214.53
755.342	9188.32
755.679	9182.89
756.017	9102.9
756.355	9186.74
756.693	9207.07
757.031	9138.83
757.368	9038.94
757.706	9085.5
758.044	9036.46
758.381	8986.52
758.719	8938.83
