Data from foam2_polystyrene_foam_FLMS001491_00047.txt Node
Date: Wed Feb 08 10:58:01 GMT 2017
User: dcchb
Spectrometer: FLMS00149
Trigger mode: 0
Integration Time (sec): 2.000000E-2
Scans to average: 10
Electric dark correction enabled: true
Nonlinearity correction enabled: false
Boxcar width: 0
XAxis mode: Wavelengths
Number of Pixels in Spectrum: 2048
>>>>>Begin Spectral Data<<<<<
341.393	-13.35
341.776	-13.35
342.16	-13.35
342.543	-59.67
342.927	-73.46
343.31	-59.67
343.693	-78.66
344.077	-64.65
344.46	-51.54
344.843	-40.47
345.226	-55.83
345.61	-28.26
345.993	-14.48
346.376	-8.38
346.759	19.19
347.142	29.36
347.525	48.12
347.908	31.62
348.291	70.27
348.674	91.51
349.057	111.85
349.44	110.04
349.823	114.11
350.206	152.3
350.588	218.51
350.971	211.05
351.354	216.03
351.737	254.89
352.119	279.98
352.502	262.58
352.884	296.7
353.267	292.41
353.65	304.16
354.032	301.45
354.414	325.4
354.797	331.05
355.179	361.33
355.562	339.64
355.944	339.19
356.326	342.58
356.709	371.5
357.091	353.2
357.473	359.75
357.855	363.14
358.238	360.43
358.62	378.73
359.002	364.04
359.384	362.91
359.766	373.99
360.148	370.6
360.53	372.41
360.912	364.95
361.294	371.5
361.676	345.74
362.057	362.69
362.439	366.08
362.821	331.95
363.203	349.81
363.584	337.6
363.966	349.36
364.348	358.17
364.729	334.89
365.111	356.13
365.493	349.13
365.874	350.03
366.256	350.71
366.637	356.36
367.019	355.46
367.4	351.39
367.781	356.59
368.163	367.43
368.544	346.19
368.925	356.81
369.306	379.41
369.688	367.66
370.069	365.85
370.45	356.36
370.831	359.07
371.212	368.79
371.593	371.05
371.974	399.3
372.355	393.2
372.736	376.02
373.117	368.11
373.498	381.67
373.879	388
374.26	373.31
374.641	378.06
375.021	360.88
375.402	355
375.783	399.07
376.163	417.6
376.544	403.14
376.925	394.1
377.305	403.59
377.686	390.48
378.066	410.37
378.447	413.76
378.827	407.43
379.208	410.6
379.588	425.74
379.968	413.99
380.349	431.39
380.729	414.66
381.109	425.06
381.489	423.25
381.87	405.4
382.25	443.36
382.63	445.62
383.01	455.79
383.39	460.31
383.77	448.79
384.15	445.17
384.53	440.65
384.91	452.4
385.29	460.76
385.67	451.73
386.049	479.75
386.429	492.85
386.809	475.45
387.189	475.91
387.568	489.01
387.948	491.72
388.328	477.71
388.707	495.11
389.087	520.65
389.466	500.76
389.846	493.76
390.225	524.27
390.605	515.23
390.984	506.64
391.363	540.08
391.743	542.34
392.122	537.6
392.501	543.7
392.881	549.58
393.26	560.65
393.639	570.82
394.018	565.85
394.397	583.02
394.776	578.28
395.155	576.69
395.534	577.6
395.913	587.09
396.292	593.64
396.671	600.87
397.05	619.63
397.429	608.11
397.808	631.61
398.186	612.63
398.565	607.2
398.944	624.38
399.323	639.07
399.701	628.9
400.08	651.49
400.458	636.35
400.837	644.71
401.215	672.74
401.594	679.97
401.972	663.7
402.351	669.57
402.729	688.33
403.107	681.1
403.486	685.84
403.864	701.66
404.242	705.96
404.62	705.05
404.999	733.07
405.377	710.25
405.755	722.9
406.133	726.07
406.511	738.05
406.889	749.12
407.267	760.87
407.645	791.38
408.023	792.06
408.401	826.4
408.779	821.89
409.156	837.25
409.534	845.39
409.912	856.46
410.29	838.61
410.667	875.22
411.045	885.39
411.422	878.61
411.8	874.77
412.178	884.93
412.555	891.94
412.933	912.5
413.31	929.68
413.687	950.92
414.065	945.95
414.442	960.86
414.819	952.73
415.197	997.7
415.574	994.54
415.951	1004.48
416.328	1023.91
416.705	1009.45
417.082	1054.87
417.46	1053.29
417.837	1062.33
418.214	1045.83
418.591	1076.79
418.967	1090.35
419.344	1087.19
419.721	1081.09
420.098	1092.16
420.475	1115.66
420.852	1137.13
421.228	1158.83
421.605	1143.68
421.982	1164.25
422.358	1162.67
422.735	1207.86
423.111	1213.29
423.488	1223
423.864	1227.07
424.241	1250.12
424.617	1269.78
424.994	1272.95
425.37	1286.73
425.746	1292.38
426.123	1291.48
426.499	1331.7
426.875	1332.61
427.251	1312.72
427.627	1373.96
428.003	1374.86
428.379	1401.3
428.756	1414.41
429.132	1464.13
429.507	1445.82
429.883	1455.99
430.259	1498.03
430.635	1486.5
431.011	1500.29
431.387	1540.74
431.763	1574.63
432.138	1576.44
432.514	1633.39
432.89	1618.47
433.265	1680.39
433.641	1674.74
434.016	1679.26
434.392	1740.28
434.767	1740.05
435.143	1735.76
435.518	1778.24
435.894	1778.92
436.269	1822.31
436.644	1823.89
437.02	1902.31
437.395	1859.37
437.77	1875.64
438.145	1935.53
438.52	1951.35
438.895	1965.81
439.271	1985.7
439.646	2016.2
440.021	2028.18
440.395	2020.27
440.77	2058.46
441.145	2067.05
441.52	2121.74
441.895	2130.55
442.27	2143.21
442.645	2127.39
443.019	2165.8
443.394	2208.52
443.769	2214.84
444.143	2181.4
444.518	2254.39
444.892	2253.71
445.267	2255.97
445.641	2262.75
446.016	2304.56
446.39	2327.61
446.764	2310.43
447.139	2333.48
447.513	2361.73
447.887	2360.6
448.262	2447.61
448.636	2411.22
449.01	2448.28
449.384	2486.93
449.758	2493.03
450.132	2555.4
450.506	2536.42
450.88	2545.46
451.254	2552.91
451.628	2586.13
452.002	2653.93
452.376	2629.07
452.75	2719.46
453.123	2698.45
453.497	2784.77
453.871	2759.24
454.244	2837.88
454.618	2834.71
454.992	2869.06
455.365	2879.23
455.739	2971.66
456.112	2986.8
456.486	3048.04
456.859	3034.03
457.232	3121.49
457.606	3069.96
457.979	3112.9
458.352	3203.29
458.725	3238.32
459.099	3262.95
459.472	3331.88
459.845	3353.34
460.218	3433.34
460.591	3436.28
460.964	3412.55
461.337	3512.21
461.71	3550.63
462.083	3605.09
462.456	3604.86
462.829	3628.82
463.201	3663.84
463.574	3720.57
463.947	3740.68
464.32	3852.54
464.692	3881.47
465.065	3917.4
465.438	3970.73
465.81	4026.55
466.183	4038.3
466.555	4158.29
466.928	4161.68
467.3	4191.29
467.672	4275.13
468.045	4349.25
468.417	4320.1
468.789	4370.27
469.161	4464.73
469.534	4537.27
469.906	4645.97
470.278	4695.68
470.65	4723.25
471.022	4805.96
471.394	4918.05
471.766	4898.61
472.138	5038.05
472.51	5112.62
472.882	5202.33
473.253	5239.85
473.625	5322.78
473.997	5367.3
474.369	5455.21
474.74	5544.92
475.112	5679.16
475.484	5746.73
475.855	5784.69
476.227	5927.29
476.598	6043.89
476.97	6059.49
477.341	6192.37
477.713	6286.83
478.084	6323.21
478.455	6538.8
478.827	6567.04
479.198	6809.52
479.569	6816.76
479.94	6947.83
480.311	7047.48
480.682	7135.62
481.053	7360.02
481.424	7463.74
481.795	7577.41
482.166	7693.57
482.537	7756.17
482.908	7975.82
483.279	8018.98
483.65	8175.82
484.021	8344.17
484.391	8411.74
484.762	8457.62
485.133	8584.39
485.503	8746.42
485.874	8923.14
486.244	9051.5
486.615	9219.63
486.985	9308.89
487.356	9421.89
487.726	9544.82
488.097	9800.41
488.467	9714.98
488.837	9928.31
489.207	10099.38
489.578	10262.09
489.948	10293.05
490.318	10420.28
490.688	10510.67
491.058	10707.5
491.428	10867.27
491.798	10930.32
492.168	11187.71
492.538	11156.53
492.908	11315.85
493.278	11503.41
493.648	11510.64
494.017	11776.17
494.387	11846.45
494.757	11906.34
495.126	12089.61
495.496	12095.49
495.866	12161.93
496.235	12307.91
496.605	12426.33
496.974	12536.15
497.344	12718.75
497.713	12744.06
498.082	12857.73
498.452	13000.55
498.821	13004.62
499.19	13124.84
499.559	13368
499.928	13456.81
500.298	13475.34
500.667	13617.48
501.036	13552.85
501.405	13756.01
501.774	13678.72
502.143	13875.78
502.512	14020.63
502.88	14124.36
503.249	14153.74
503.618	14224.92
503.987	14323.23
504.356	14482.99
504.724	14497.91
505.093	14645.7
505.462	14624.46
505.83	14895.19
506.199	14946.03
506.567	15186.93
506.936	15168.4
507.304	15433.48
507.672	15350.77
508.041	15546.7
508.409	15700.36
508.777	15708.27
509.145	15939.45
509.514	16004.31
509.882	16051.54
510.25	16181.71
510.618	16266.68
510.986	16408.82
511.354	16536.73
511.722	16665.99
512.09	16929.94
512.458	16924.74
512.826	17125.64
513.193	17149.82
513.561	17225.52
513.929	17418.51
514.297	17594.55
514.664	17713.87
515.032	17678.62
515.4	17965.62
515.767	18033.86
516.135	18134.88
516.502	18146.4
516.869	18380.29
517.237	18524.47
517.604	18481.31
517.972	18692.38
518.339	18858.93
518.706	18887.62
519.073	19086.94
519.44	19191.8
519.808	19357.22
520.175	19446.03
520.542	19715.17
520.909	19814.38
521.276	19862.97
521.643	20115.62
522.009	20233.8
522.376	20414.59
522.743	20588.37
523.11	20729.84
523.477	20912.66
523.843	21087.12
524.21	21401.91
524.577	21481.68
524.943	21670.38
525.31	21796.7
525.676	21964.83
526.043	22120.99
526.409	22213.87
526.776	22394.65
527.142	22478.26
527.508	22581.99
527.874	22861.08
528.241	22943.56
528.607	23054.52
528.973	23414.51
529.339	23395.98
529.705	23608.18
530.071	23768.63
530.437	23967.27
530.803	24059.69
531.169	24213.59
531.535	24259.46
531.901	24360.48
532.267	24493.58
532.632	24658.55
532.998	24808.83
533.364	24981.02
533.73	25009.27
534.095	25175.6
534.461	25371.3
534.826	25501.01
535.192	25593.89
535.557	25823.04
535.923	25674.57
536.288	25905.29
536.653	25933.32
537.019	25959.53
537.384	26170.37
537.749	26246.75
538.114	26251.05
538.479	26294.66
538.845	26508.89
539.21	26641.55
539.575	26712.05
539.94	26839.96
540.305	26973.74
540.67	26994.76
541.034	27108.65
541.399	27280.62
541.764	27239.27
542.129	27344.8
542.494	27477.68
542.858	27654.17
543.223	27722.19
543.587	27944.56
543.952	27882.87
544.316	27892.36
544.681	27948.4
545.045	28067.5
545.41	28180.49
545.774	28425.45
546.138	28346.13
546.503	28485.34
546.867	28523.3
547.231	28857.31
547.595	28850.75
547.959	28961.48
548.324	29038.54
548.688	29248.93
549.052	29180.69
549.416	29383.85
549.779	29387.91
550.143	29585.2
550.507	29675.82
550.871	29745.42
551.235	29697.06
551.599	29959.65
551.962	30101.12
552.326	30009.59
552.689	30337.27
553.053	30297.49
553.417	30312.86
553.78	30739.06
554.143	30598.96
554.507	30787.88
554.87	30806.41
555.234	31141.99
555.597	30923.01
555.96	31180.18
556.323	31447.52
556.686	31402.78
557.05	31646.39
557.413	31780.62
557.776	31811.58
558.139	32037.34
558.502	32020.16
558.865	32188.74
559.228	32410.89
559.59	32532.69
559.953	32626.7
560.316	32987.14
560.679	33049.51
561.041	33308.94
561.404	33390.52
561.767	33592.55
562.129	33405.89
562.492	33835.71
562.854	33949.15
563.217	33963.84
563.579	34087.9
563.941	34269.14
564.304	34510.04
564.666	34700.54
565.028	34759.3
565.39	34825.96
565.753	35030.93
566.115	35089.91
566.477	35161.32
566.839	35385.27
567.201	35530.35
567.563	35648.54
567.925	36008.3
568.287	36007.4
568.648	36018.47
569.01	36179.83
569.372	36452.36
569.734	36401.29
570.095	36561.28
570.457	36881.05
570.819	36778.91
571.18	36916.98
571.542	37208.73
571.903	37096.19
572.265	37325.11
572.626	37423.63
572.987	37521.26
573.349	37511.09
573.71	37660.69
574.071	37787.92
574.432	38051.19
574.794	38277.62
575.155	38181.58
575.516	38128.02
575.877	38298.64
576.238	38272.43
576.599	38515.58
576.96	38521.01
577.32	38522.81
577.681	38584.06
578.042	38877.83
578.403	38841.9
578.763	38774.11
579.124	39004.84
579.485	39025.17
579.845	39093.87
580.206	39063.14
580.566	39044.38
580.927	39123.02
581.287	39287.54
581.648	39185.85
582.008	39407.99
582.368	39278.28
582.728	39463.58
583.089	39318.95
583.449	39238.95
583.809	39326.41
584.169	39464.94
584.529	39341.78
584.889	39756.45
585.249	39515.11
585.609	39447.08
585.969	39631.03
586.329	39447.31
586.688	39683.01
587.048	39511.04
587.408	39522.11
587.768	39657.25
588.127	39597.36
588.487	39537.03
588.846	39931.14
589.206	39515.78
589.565	39562.11
589.925	39719.17
590.284	39477.82
590.643	39685.27
591.003	39639.85
591.362	39902.44
591.721	39805.04
592.08	39737.92
592.44	39862.89
592.799	39830.8
593.158	39691.37
593.517	39758.71
593.876	39833.51
594.235	39766.4
594.593	39887.98
594.952	39927.98
595.311	39781.09
595.67	39813.85
596.029	40019.05
596.387	40058.82
596.746	40012.27
597.104	39883.23
597.463	39885.04
597.822	40003.68
598.18	39844.59
598.538	39926.17
598.897	40153.05
599.255	39893.17
599.613	40510.33
599.972	40006.84
600.33	40227.63
600.688	40124.81
601.046	40280.73
601.404	40360.96
601.762	40385.59
602.12	40501.75
602.478	40447.96
602.836	40551.46
603.194	40253.39
603.552	40457.45
603.91	40404.8
604.268	40548.07
604.625	40340.85
604.983	40647.96
605.341	40495.64
605.698	40604.34
606.056	40736.09
606.413	40663.1
606.771	40755.98
607.128	40855.86
607.485	40794.39
607.843	40840.95
608.2	41061.28
608.557	41003.88
608.914	41045.46
609.272	41158.45
609.629	41336.98
609.986	41365
610.343	41159.58
610.7	41520.48
611.057	41315.51
611.414	41350.54
611.771	41394.15
612.127	41644.31
612.484	41548.95
612.841	41633.92
613.198	41508.72
613.554	41540.81
613.911	41716.63
614.267	41760.24
614.624	41603.86
614.98	41896.96
615.337	41800.47
615.693	41775.38
616.05	41814.03
616.406	41982.61
616.762	42105.09
617.118	41926.34
617.475	41898.77
617.831	41956.17
618.187	42066.22
618.543	42076.85
618.899	42310.29
619.255	42246.11
619.611	42245.65
619.967	42200.91
620.323	42465.08
620.678	42294.47
621.034	42164.98
621.39	42159.56
621.746	42215.15
622.101	42593.67
622.457	42398.87
622.812	42430.28
623.168	42340.79
623.523	42389.83
623.879	42451.3
624.234	42285.65
624.589	42441.81
624.945	42291.76
625.3	42454.01
625.655	42447.23
626.01	42506.44
626.365	42351.64
626.72	42346.44
627.075	42281.13
627.43	42263.73
627.785	42238.65
628.14	42384.86
628.495	42388.7
628.85	42271.87
629.205	42247.69
629.559	42358.65
629.914	42115.94
630.269	42198.2
630.623	42195.26
630.978	42085.21
631.332	42258.08
631.687	42275.94
632.041	41969.73
632.396	41981.03
632.75	41900.58
633.104	41936.51
633.459	41891.99
633.813	41935.38
634.167	41776.51
634.521	41931.31
634.875	41734.93
635.229	41717.31
635.583	41552.34
635.937	41489.52
636.291	41318.22
636.645	41579.01
636.999	41400.93
637.352	41504.88
637.706	41249.75
638.06	41508.95
638.413	41293.36
638.767	41276.41
639.121	41358.9
639.474	41035.74
639.828	40969.76
640.181	41050.88
640.534	41005.46
640.888	40907.84
641.241	40747.62
641.594	40839.36
641.947	40909.42
642.301	40820.38
642.654	40743.32
643.007	40827.16
643.36	40718.46
643.713	40643.21
644.066	40678.46
644.419	40466.94
644.771	40368.87
645.124	39861.76
645.477	39847.98
645.83	39513.75
646.182	39306.3
646.535	39103.82
646.888	39254.77
647.24	39092.52
647.593	39296.58
647.945	39243.25
648.298	38958.28
648.65	38946.08
649.002	38786.99
649.355	38935.91
649.707	38905.63
650.059	39007.1
650.411	39416.8
650.763	39517.82
651.115	39750.35
651.467	39663.58
651.819	39787.64
652.171	39725.04
652.523	39517.82
652.875	39495.67
653.227	39390.14
653.578	39573.41
653.93	39376.35
654.282	39230.59
654.633	39189.69
654.985	39356.47
655.337	39256.81
655.688	39031.28
656.039	39191.95
656.391	38968.45
656.742	38946.76
657.094	39000.54
657.445	39205.28
657.796	39076.25
658.147	39069.02
658.498	38886.2
658.849	39124.83
659.2	38843.48
659.551	38991.73
659.902	39040.54
660.253	38885.29
660.604	39019.75
660.955	38848
661.306	38993.08
661.656	38795.12
662.007	38905.86
662.358	38988.11
662.708	38875.12
663.059	38801
663.409	38710.38
663.76	38913.09
664.11	38755.35
664.461	38728.23
664.811	38802.13
665.161	38686.2
665.511	38537.73
665.862	38644.85
666.212	38649.59
666.562	38668.8
666.912	38614.79
667.262	38570.27
667.612	38458.18
667.962	38492.08
668.312	38460.67
668.662	38623.83
669.011	38501.12
669.361	38452.53
669.711	38485.53
670.06	38309.71
670.41	38236.49
670.76	38307.45
671.109	38505.19
671.459	38544.28
671.808	38422.25
672.157	38468.13
672.507	38252.99
672.856	38364.85
673.205	38290.5
673.554	38318.3
673.904	38327.34
674.253	38212.54
674.602	38254.8
674.951	37664.98
675.3	37550.41
675.649	38077.63
675.998	38064.07
676.346	38112.43
676.695	38092.77
677.044	37921.02
677.393	37992.43
677.741	38116.5
678.09	37870.4
678.438	37881.7
678.787	37854.36
679.135	37795.83
679.484	37563.07
679.832	37847.8
680.181	37482.84
680.529	37632.67
680.877	37463.63
681.225	37495.95
681.573	37632.22
681.922	37430.87
682.27	37359.91
682.618	37399.23
682.966	37351.55
683.314	37356.07
683.661	37182.96
684.009	37076.53
684.357	36870.43
684.705	36923.76
685.053	37019.58
685.4	36863.2
685.748	36471.57
686.095	36547.95
686.443	36444.9
686.79	36393.38
687.138	36474.73
687.485	36429.76
687.832	36393.15
688.18	36321.97
688.527	36150.22
688.874	36186.83
689.221	35970.79
689.568	35857.57
689.915	35747.07
690.262	35903.67
690.609	35634.3
690.956	35655.09
691.303	35472.95
691.65	35341.43
691.997	35339.17
692.344	35225.27
692.69	35050.14
693.037	35146.86
693.383	34925.62
693.73	35122.68
694.077	34917.49
694.423	34838.62
694.769	34595.46
695.116	34548.23
695.462	34558.63
695.808	34406.99
696.155	34547.33
696.501	34316.37
696.847	34186.43
697.193	34067.34
697.539	34118.64
697.885	33784.41
698.231	33756.16
698.577	33756.39
698.923	33699.66
699.269	33524.75
699.614	33488.6
699.96	33310.97
700.306	33474.36
700.651	33334.7
700.997	33191.2
701.342	32963.19
701.688	33031.43
702.033	32893.13
702.379	32948.27
702.724	32836.86
703.069	33026.01
703.415	32530.43
703.76	32550.77
704.105	32580.6
704.45	32532.69
704.795	32348.74
705.14	32263.09
705.485	32172.7
705.83	32025.81
706.175	32128.86
706.52	31916.89
706.865	31801.86
707.209	31817.45
707.554	31676.22
707.899	31722.09
708.243	31554.41
708.588	31465.15
708.932	31290.24
709.277	31317.81
709.621	31238.49
709.966	31034.42
710.31	31077.59
710.654	30928.66
710.998	30907.65
711.342	30969.79
711.687	30795.11
712.031	30690.48
712.375	30643.93
712.719	30660.42
713.063	30551.95
713.407	30587.66
713.75	30585.62
714.094	30474.89
714.438	30319.19
714.782	30324.39
715.125	30137.5
715.469	30271.73
715.812	30036.48
716.156	29921.23
716.499	29883.04
716.843	29996.03
717.186	29653.9
717.53	29899.99
717.873	29695.48
718.216	29796.72
718.559	29503.84
718.902	29408.48
719.246	29580.68
719.589	29407.57
719.932	29184.98
720.275	29286.22
720.617	29225.88
720.96	29244.41
721.303	29143.17
721.646	29193.79
721.989	28873.58
722.331	28954.93
722.674	29006.68
723.016	28932.78
723.359	28973.46
723.701	28950.19
724.044	28723.07
724.386	28637.88
724.729	28748.61
725.071	28620.25
725.413	28552.68
725.755	28450.54
726.097	28410.99
726.439	28363.31
726.782	28363.31
727.124	28421.16
727.465	28206.25
727.807	28154.27
728.149	28121.05
728.491	28151.11
728.833	28160.6
729.175	27982.75
729.516	28014.16
729.858	28048.51
730.199	27896.88
730.541	27727.84
730.882	27724.68
731.224	27854.85
731.565	27573.72
731.906	27634.51
732.248	27742.31
732.589	27618.69
732.93	27351.13
733.271	27526.49
733.612	27397.46
733.953	27494.63
734.294	27303.45
734.635	27261.64
734.976	27225.03
735.317	27323.56
735.658	27133.51
735.999	27237.01
736.339	27158.82
736.68	27070.69
737.021	26955.44
737.361	26963.57
737.702	26941.88
738.042	26778.04
738.383	26778.94
738.723	26926.96
739.063	26737.59
739.404	26797.02
739.744	26692.84
740.084	26580.53
740.424	26558.16
740.764	26506.41
741.104	26585.95
741.444	26518.61
741.784	26346.86
742.124	26518.16
742.464	26313.42
742.804	26345.96
743.143	26343.25
743.483	26215.34
743.823	26179.18
744.162	26170.37
744.502	26069.13
744.841	26093.54
745.181	26097.15
745.52	25982.13
745.86	26029.13
746.199	26008.12
746.538	25837.95
746.877	25971.05
747.216	25959.76
747.556	25739.87
747.895	25812.64
748.234	25671.63
748.573	25629.37
748.911	25575.81
749.25	25585.53
749.589	25461.69
749.928	25479.32
750.267	25529.94
750.605	25510.05
750.944	25391.18
751.283	25329.72
751.621	25254.01
751.96	25065.99
752.298	25063.73
752.636	25043.17
752.975	24957.52
753.313	24921.36
