Data from foam1_polythene_foam_FLMS001491_00078.txt Node
Date: Wed Feb 08 10:55:23 GMT 2017
User: dcchb
Spectrometer: FLMS00149
Trigger mode: 0
Integration Time (sec): 2.000000E-2
Scans to average: 10
Electric dark correction enabled: true
Nonlinearity correction enabled: false
Boxcar width: 0
XAxis mode: Wavelengths
Number of Pixels in Spectrum: 2048
>>>>>Begin Spectral Data<<<<<
341.393	-19.27
341.776	-19.27
342.16	-19.27
342.543	-44.8
342.927	-64.01
343.31	-71.92
343.693	-78.25
344.077	-80.28
344.46	-45.25
344.843	-57.46
345.226	-50
345.61	-38.47
345.993	-11.36
346.376	3.79
346.759	12.6
347.142	32.26
347.525	34.07
347.908	63.44
348.291	76.33
348.674	106.61
349.057	103.9
349.44	122.88
349.823	153.39
350.206	169.2
350.588	186.83
350.971	194.51
351.354	221.18
351.737	241.52
352.119	250.33
352.502	246.72
352.884	246.26
353.267	277.9
353.65	267.06
354.032	301.4
354.414	301.86
354.797	302.76
355.179	310.44
355.562	316.55
355.944	310.9
356.326	321.07
356.709	325.13
357.091	322.87
357.473	302.99
357.855	327.17
358.238	318.35
358.62	308.41
359.002	326.04
359.384	360.16
359.766	335.75
360.148	337.11
360.53	328.3
360.912	311.57
361.294	324.68
361.676	314.96
362.057	329.88
362.439	326.26
362.821	294.63
363.203	309.99
363.584	319.03
363.966	293.95
364.348	293.72
364.729	317.45
365.111	314.06
365.493	315.19
365.874	305.92
366.256	321.97
366.637	316.32
367.019	309.54
367.4	307.05
367.781	307.96
368.163	306.6
368.544	317
368.925	302.53
369.306	333.27
369.688	296.21
370.069	300.73
370.45	315.64
370.831	308.86
371.212	314.96
371.593	304.57
371.974	319.48
372.355	307.96
372.736	314.96
373.117	299.82
373.498	313.38
373.879	329.2
374.26	333.27
374.641	333.72
375.021	300.27
375.402	328.52
375.783	326.26
376.163	342.76
376.544	332.82
376.925	325.81
377.305	333.04
377.686	334.85
378.066	328.07
378.447	327.17
378.827	335.75
379.208	358.35
379.588	335.98
379.968	341.86
380.349	347.28
380.729	334.17
381.109	339.82
381.489	337.34
381.87	330.33
382.25	349.54
382.63	351.57
383.01	327.62
383.39	365.58
383.77	359.93
384.15	364
384.53	332.59
384.91	361.29
385.29	361.52
385.67	360.84
386.049	373.04
386.429	369.65
386.809	361.06
387.189	357.9
387.568	362.42
387.948	368.52
388.328	365.81
388.707	361.29
389.087	371.01
389.466	363.55
389.846	357.9
390.225	386.15
390.605	385.24
390.984	379.37
391.363	387.73
391.743	372.14
392.122	371.23
392.501	393.83
392.881	394.96
393.26	384.57
393.639	408.29
394.018	406.03
394.397	422.08
394.776	412.14
395.155	382.98
395.534	423.21
395.913	397.22
396.292	432.25
396.671	421.85
397.05	434.06
397.429	405.13
397.808	415.75
398.186	438.12
398.565	418.69
398.944	428.86
399.323	437.67
399.701	436.32
400.08	412.59
400.458	446.49
400.837	444
401.215	444.45
401.594	442.19
401.972	443.77
402.351	442.19
402.729	448.75
403.107	462.98
403.486	470.89
403.864	457.56
404.242	459.14
404.62	469.99
404.999	477.22
405.377	458.46
405.755	471.8
406.133	495.07
406.511	500.72
406.889	485.81
407.267	484.9
407.645	497.11
408.023	491.68
408.401	515.18
408.779	500.5
409.156	526.03
409.534	522.64
409.912	523.09
410.29	505.92
410.667	548.18
411.045	537.1
411.422	537.1
411.8	526.26
412.178	545.69
412.555	565.58
412.933	519.25
413.31	543.88
413.687	552.47
414.065	568.52
414.442	584.11
414.819	580.95
415.197	580.27
415.574	582.75
415.951	574.39
416.328	599.7
416.705	623.2
417.082	601.28
417.46	597.89
417.837	615.75
418.214	633.6
418.591	627.5
418.967	618.01
419.344	629.98
419.721	629.98
420.098	629.31
420.475	653.03
420.852	667.5
421.228	675.41
421.605	654.84
421.982	653.03
422.358	671.56
422.735	662.52
423.111	684.67
423.488	689.64
423.864	709.53
424.241	696.65
424.617	687.38
424.994	712.47
425.37	710.21
425.746	695.07
426.123	718.79
426.499	737.78
426.875	732.35
427.251	777.32
427.627	767.38
428.003	764.44
428.379	761.51
428.756	778.68
429.132	771.9
429.507	795.85
429.883	792.69
430.259	832.92
430.635	839.92
431.011	822.97
431.387	839.7
431.763	856.42
432.138	875.4
432.514	872.46
432.89	882.63
433.265	876.08
433.641	902.07
434.016	922.41
434.392	912.91
434.767	926.02
435.143	929.86
435.518	949.3
435.894	937.55
436.269	949.52
436.644	976.64
437.02	982.52
437.395	975.96
437.77	979.35
438.145	1022.29
438.52	991.1
438.895	1018.9
439.271	1025.91
439.646	1059.8
440.021	1057.32
440.395	1058.45
440.77	1050.09
441.145	1081.5
441.52	1098.9
441.895	1116.07
442.27	1102.29
442.645	1112
443.019	1110.42
443.394	1157.2
443.769	1152.68
444.143	1143.64
444.518	1169.86
444.892	1162.62
445.267	1168.5
445.641	1198.78
446.016	1180.48
446.39	1193.13
446.764	1220.48
447.139	1202.4
447.513	1251.89
447.887	1237.43
448.262	1241.04
448.636	1288.95
449.01	1274.26
449.384	1327.14
449.758	1312.23
450.132	1356.29
450.506	1296.18
450.88	1312
451.254	1341.6
451.628	1349.74
452.002	1386.57
452.376	1372.79
452.75	1388.83
453.123	1398.78
453.497	1385.22
453.871	1432.22
454.244	1447.82
454.618	1449.17
454.992	1465.67
455.365	1486.68
455.739	1481.03
456.112	1499.79
456.486	1545.44
456.859	1534.37
457.232	1541.82
457.606	1552.67
457.979	1559.9
458.352	1605.55
458.725	1598.77
459.099	1648.94
459.472	1636.74
459.845	1659.33
460.218	1668.15
460.591	1655.95
460.964	1676.96
461.337	1747.69
461.71	1771.87
462.083	1778.43
462.456	1753.34
462.829	1731.2
463.201	1799.22
463.574	1799.22
463.947	1838.77
464.32	1889.84
464.692	1874.7
465.065	1905.43
465.438	1917.63
465.81	1920.8
466.183	1967.12
466.555	1985.43
466.928	1975.03
467.3	1988.14
467.672	2034.69
468.045	2064.07
468.417	2085.99
468.789	2083.28
469.161	2122.37
469.534	2146.33
469.906	2181.36
470.278	2202.15
470.65	2255.93
471.022	2273.33
471.394	2292.31
471.766	2313.78
472.138	2328.02
472.51	2400.11
472.882	2444.62
473.253	2458.86
473.625	2483.72
473.997	2486.21
474.369	2523.94
474.74	2568.92
475.112	2595.58
475.484	2629.7
475.855	2673.77
476.227	2688.69
476.598	2745.41
476.97	2773.88
477.341	2848.68
477.713	2920.77
478.084	2899.75
478.455	2999.86
478.827	2998.06
479.198	3111.5
479.569	3104.27
479.94	3156.02
480.311	3219.75
480.682	3284.15
481.053	3361.44
481.424	3373.19
481.795	3424.03
482.166	3490.93
482.537	3505.39
482.908	3570.7
483.279	3631.03
483.65	3662.22
484.021	3716.46
484.391	3799.62
484.762	3820.41
485.133	3857.24
485.503	3944.25
485.874	3996.67
486.244	4031.25
486.615	4105.82
486.985	4133.62
487.356	4287.51
487.726	4297.23
488.097	4374.74
488.467	4335.42
488.837	4430.56
489.207	4485.93
489.578	4597.11
489.948	4620.61
490.318	4644.12
490.688	4722.76
491.058	4761.17
491.428	4838.69
491.798	4870.78
492.168	4928.85
492.538	4962.98
492.908	5059.25
493.278	5047.27
493.648	5132.01
494.017	5190.77
494.387	5232.8
494.757	5303.08
495.126	5324.55
495.496	5369.29
495.866	5434.6
496.235	5493.36
496.605	5551.44
496.974	5530.19
497.344	5607.48
497.713	5703.75
498.082	5721.6
498.452	5791.43
498.821	5784.2
499.19	5803.18
499.559	5847.25
499.928	5923.63
500.298	5931.99
500.667	6015.15
501.036	6055.83
501.405	6083.85
501.774	6137.64
502.143	6196.39
502.512	6194.36
502.88	6282.94
503.249	6246.11
503.618	6303.96
503.987	6352.77
504.356	6428.48
504.724	6434.12
505.093	6431.64
505.462	6506.67
505.83	6508.7
506.199	6617.85
506.567	6712.54
506.936	6726.09
507.304	6842.93
507.672	6761.57
508.041	6855.13
508.409	6880.67
508.777	6966.31
509.145	7005.64
509.514	7073.66
509.882	7149.13
510.25	7134.67
510.618	7240.21
510.986	7213.54
511.354	7303.25
511.722	7352.29
512.09	7462.57
512.458	7419.18
512.826	7543.7
513.193	7650.59
513.561	7581.21
513.929	7676.13
514.297	7777.37
514.664	7776.24
515.032	7853.75
515.4	7828.44
515.767	7907.76
516.135	7992.73
516.502	7952.5
516.869	8129.45
517.237	8137.13
517.604	8182.33
517.972	8241.31
518.339	8343.45
518.706	8376.45
519.073	8386.84
519.44	8432.72
519.808	8572.37
520.175	8536.67
520.542	8665.25
520.909	8743.89
521.276	8807.85
521.643	8817.11
522.009	8994.96
522.376	8986.15
522.743	9066.15
523.11	9143.66
523.477	9189.76
523.843	9300.49
524.21	9423.2
524.577	9397.89
524.943	9439.92
525.31	9532.57
525.676	9649.18
526.043	9706.13
526.409	9779.35
526.776	9906.8
527.142	9944.54
527.508	9946.57
527.874	9997.65
528.241	10023.86
528.607	10079.45
528.973	10159.9
529.339	10237.87
529.705	10312.44
530.071	10407.13
530.437	10460.46
530.803	10542.49
531.169	10630.62
531.535	10565.32
531.901	10642.15
532.267	10691.87
532.632	10783.61
532.998	10838.75
533.364	10904.97
533.73	10924.85
534.095	11006.66
534.461	11063.61
534.826	11140.89
535.192	11126.66
535.557	11299.53
535.923	11275.58
536.288	11215.24
536.653	11311.28
537.019	11361
537.384	11381.11
537.749	11461.56
538.114	11552.18
538.479	11522.13
538.845	11546.31
539.21	11635.57
539.575	11651.61
539.94	11664.95
540.305	11792.85
540.67	11803.93
541.034	11787.66
541.399	11867.43
541.764	11804.15
542.129	12007.09
542.494	11955.34
542.858	12120.3
543.223	12111.04
543.587	12179.06
543.952	12178.61
544.316	12159.17
544.681	12180.41
545.045	12264.93
545.41	12334.99
545.774	12320.3
546.138	12428.09
546.503	12390.13
546.867	12442.78
547.231	12545.83
547.595	12509.22
547.959	12638.93
548.324	12655.43
548.688	12639.16
549.052	12752.38
549.416	12718.25
549.779	12800.74
550.143	12844.13
550.507	12982.88
550.871	12922.77
551.235	12966.83
551.599	13037.34
551.962	13144.46
552.326	13142.87
552.689	13177
553.053	13200.5
553.417	13214.96
553.78	13347.16
554.143	13342.42
554.507	13387.16
554.87	13453.6
555.234	13628.29
555.597	13546.03
555.96	13725.68
556.323	13702.41
556.686	13699.7
557.05	13794.84
557.413	13862.63
557.776	13892.69
558.139	13983.76
558.502	13989.41
558.865	14099.46
559.228	14111.44
559.59	14198.67
559.953	14205.9
560.316	14362.73
560.679	14296.52
561.041	14484.53
561.404	14508.71
561.767	14609.05
562.129	14540.58
562.492	14679.33
562.854	14631.2
563.217	14699.9
563.579	14807.46
563.941	14911.19
564.304	14890.4
564.666	15038.19
565.028	15099.21
565.39	15166.78
565.753	15265.08
566.115	15204.97
566.477	15386.88
566.839	15403.61
567.201	15514.34
567.563	15481.57
567.925	15534.22
568.287	15618.06
568.648	15673.43
569.01	15708.23
569.372	15842.24
569.734	15787.33
570.095	15931.28
570.457	15978.96
570.819	16026.19
571.18	16021.44
571.542	16068.9
571.903	16112.29
572.265	16179.63
572.626	16217.14
572.987	16247.2
573.349	16279.97
573.71	16438.83
574.071	16413.98
574.432	16568.1
574.794	16649.68
575.155	16670.92
575.516	16548.43
575.877	16590.69
576.238	16710.69
576.599	16750.46
576.96	16641.77
577.32	16773.29
577.681	16735.32
578.042	16834.08
578.403	16787.07
578.763	16900.97
579.124	16875.21
579.485	16888.99
579.845	16990.01
580.206	17064.35
580.566	17014.19
580.927	17080.4
581.287	17099.61
581.648	16983.23
582.008	17141.64
582.368	16938.93
582.728	17071.81
583.089	17057.35
583.449	17068.65
583.809	17146.84
584.169	17213.5
584.529	17201.75
584.889	17129.89
585.249	17192.03
585.609	17243.11
585.969	17203.78
586.329	17107.97
586.688	17232.71
587.048	17113.62
587.408	17174.86
587.768	17136.22
588.127	17034.75
588.487	17075.65
588.846	17240.62
589.206	17149.32
589.565	17134.63
589.925	17275.2
590.284	17195.2
590.643	17250.56
591.003	17315.42
591.362	17295.76
591.721	17136.67
592.08	17319.94
592.44	17263.9
592.799	17253.5
593.158	17246.27
593.517	17222.77
593.876	17239.49
594.235	17198.59
594.593	17288.98
594.952	17302.31
595.311	17282.2
595.67	17239.94
596.029	17335.31
596.387	17503.44
596.746	17418.69
597.104	17319.49
597.463	17283.33
597.822	17399.03
598.18	17335.76
598.538	17338.02
598.897	17500.95
599.255	17255.76
599.613	17547.5
599.972	17377.11
600.33	17494.4
600.688	17401.75
601.046	17482.87
601.404	17541.63
601.762	17425.93
602.12	17611.91
602.478	17577.11
602.836	17471.12
603.194	17475.64
603.552	17457.79
603.91	17509.99
604.268	17605.58
604.625	17517.45
604.983	17655.98
605.341	17530.78
605.698	17721.29
606.056	17699.37
606.413	17649.65
606.771	17714.96
607.128	17751.79
607.485	17720.38
607.843	17673.6
608.2	17767.61
608.557	17818.01
608.914	17808.29
609.272	17897.55
609.629	17940.04
609.986	17919.7
610.343	17858.23
610.7	17975.97
611.057	17883.09
611.414	17931.22
611.771	17998.11
612.127	18001.96
612.484	18063.2
612.841	18024.78
613.198	18014.61
613.554	17969.19
613.911	18107.94
614.267	18083.08
614.624	18102.97
614.98	18039.7
615.337	18156.98
615.693	18055.74
616.05	17994.05
616.406	18218.22
616.762	18198.34
617.118	18159.69
617.475	18224.55
617.831	18159.69
618.187	18260.25
618.543	18254.15
618.899	18257.99
619.255	18337.31
619.611	18273.81
619.967	18351.1
620.323	18297.32
620.678	18451.44
621.034	18244.44
621.39	18352.46
621.746	18243.08
622.101	18508.16
622.457	18252.57
622.812	18320.82
623.168	18330.08
623.523	18252.34
623.879	18351.55
624.234	18250.99
624.589	18340.03
624.945	18358.56
625.3	18372.34
625.655	18308.84
626.01	18388.84
626.365	18410.08
626.72	18311.1
627.075	18368.95
627.43	18320.59
627.785	18207.83
628.14	18393.81
628.495	18241.27
628.85	18274.72
629.205	18254.83
629.559	18219.13
629.914	18192.69
630.269	18241.72
630.623	18146.36
630.978	18104.33
631.332	18215.74
631.687	18203.76
632.041	18160.82
632.396	18181.16
632.75	18048.96
633.104	18090.09
633.459	18071.78
633.813	18114.27
634.167	17981.17
634.521	17905.46
634.875	17938.45
635.229	17962.86
635.583	17855.07
635.937	17926.25
636.291	17746.6
636.645	17869.76
636.999	17779.14
637.352	18005.8
637.706	17812.13
638.06	17893.71
638.413	17776.2
638.767	17828.85
639.121	17874.05
639.474	17643.32
639.828	17670.89
640.181	17639.93
640.534	17672.02
640.888	17614.62
641.241	17450.33
641.594	17453.72
641.947	17634.28
642.301	17477.45
642.654	17508.64
643.007	17527.39
643.36	17473.61
643.713	17403.33
644.066	17599.25
644.419	17395.87
644.771	17429.77
645.124	17290.11
645.477	17248.53
645.83	17070
646.182	16881.31
646.535	16828.43
646.888	16785.72
647.24	16658.04
647.593	16748.2
647.945	16691.48
648.298	16604.48
648.65	16516.35
649.002	16602.22
649.355	16679.73
649.707	16681.31
650.059	16737.13
650.411	16887.86
650.763	16938.03
651.115	17167.63
651.467	17067.52
651.819	17061.19
652.171	16916.11
652.523	16863.45
652.875	16880.4
653.227	16780.97
653.578	16893.96
653.93	16766.73
654.282	16731.48
654.633	16730.35
654.985	16670.69
655.337	16799.28
655.688	16715.66
656.039	16926.73
656.391	16694.65
656.742	16856.22
657.094	16802.89
657.445	16826.62
657.796	16774.87
658.147	16705.72
658.498	16654.42
658.849	16718.83
659.2	16553.86
659.551	16625.72
659.902	16642.9
660.253	16594.08
660.604	16587.53
660.955	16474.99
661.306	16501.43
661.656	16608.55
662.007	16562.9
662.358	16576.23
662.708	16575.1
663.059	16571.26
663.409	16379.4
663.76	16580.98
664.11	16558.83
664.461	16634.08
664.811	16535.55
665.161	16602.9
665.511	16412.62
665.862	16476.8
666.212	16492.62
666.562	16441.55
666.912	16325.84
667.262	16395.67
667.612	16343.47
667.962	16380.53
668.312	16251.95
668.662	16429.57
669.011	16444.26
669.361	16429.12
669.711	16479.74
670.06	16263.7
670.41	16304.6
670.76	16370.81
671.109	16406.07
671.459	16356.12
671.808	16338.72
672.157	16218.5
672.507	16100.99
672.856	16189.12
673.205	16170.37
673.554	16254.88
673.904	16082.23
674.253	16294.2
674.602	16170.82
674.951	15884.05
675.3	15912.75
675.649	16099.41
675.998	16158.16
676.346	16091.05
676.695	16230.93
677.044	16033.42
677.393	16162.68
677.741	16102.8
678.09	16077.03
678.438	16112.06
678.787	16144.15
679.135	16154.55
679.484	15965.63
679.832	15982.8
680.181	15960.88
680.529	15941.22
680.877	15908.9
681.225	15785.97
681.573	15899.41
681.922	15750.94
682.27	15713.43
682.618	15720.89
682.966	15702.13
683.314	15748.23
683.661	15670.72
684.009	15622.81
684.357	15677.72
684.705	15663.26
685.053	15644.05
685.4	15633.2
685.748	15517.95
686.095	15503.26
686.443	15433.89
686.79	15412.65
687.138	15401.57
687.485	15416.04
687.832	15277.96
688.18	15389.37
688.527	15146.89
688.874	15262.37
689.221	15178.53
689.568	15178.53
689.915	15021.24
690.262	15052.2
690.609	14992.54
690.956	14978.98
691.303	14999.32
691.65	14962.49
691.997	15056.27
692.344	14915.48
692.69	14914.35
693.037	14933.11
693.383	14741.93
693.73	14847.69
694.077	14693.34
694.423	14623.29
694.769	14573.57
695.116	14595.04
695.462	14513.46
695.808	14411.32
696.155	14420.58
696.501	14354.14
696.847	14358.21
697.193	14230.08
697.539	14354.14
697.885	14235.28
698.231	14213.13
698.577	14242.51
698.923	14187.14
699.269	14106.01
699.614	14146.46
699.96	14130.87
700.306	14077.54
700.651	14048.61
700.997	13990.08
701.342	14029.63
701.688	13949.63
702.033	13853.82
702.379	13832.57
702.724	13827.15
703.069	13716.64
703.415	13592.81
703.76	13619.47
704.105	13707.83
704.45	13569.08
704.795	13466.03
705.14	13446.37
705.485	13479.36
705.83	13390.1
706.175	13470.78
706.52	13429.42
706.865	13308.52
707.209	13380.16
707.554	13401.85
707.899	13351.91
708.243	13251.8
708.588	13282.08
708.932	13226.26
709.277	13163.44
709.621	13214.74
709.966	13089.77
710.31	13032.37
710.654	13019.49
710.998	12960.28
711.342	12941.75
711.687	12833.28
712.031	12721.64
712.375	12770.46
712.719	12675.54
713.063	12687.75
713.407	12764.81
713.75	12678.93
714.094	12646.62
714.438	12651.59
714.782	12704.02
715.125	12639.16
715.469	12753.96
715.812	12655.43
716.156	12600.74
716.499	12671.7
716.843	12613.17
717.186	12518.48
717.53	12536.56
717.873	12580.86
718.216	12483.23
718.559	12390.35
718.902	12269.68
719.246	12291.6
719.589	12265.38
719.932	12115.78
720.275	12212.05
720.617	12157.82
720.96	12186.52
721.303	12192.39
721.646	12211.15
721.989	12065.39
722.331	12173.86
722.674	12176.57
723.016	12210.92
723.359	12141.77
723.701	12193.07
724.044	12137.93
724.386	12072.17
724.729	12071.49
725.071	12058.84
725.413	12078.5
725.755	11991.04
726.097	11915.79
726.439	11846.64
726.782	11814.77
727.124	11949.23
727.465	11735.45
727.807	11803.02
728.149	11779.07
728.491	11742.23
728.833	11735.91
729.175	11630.37
729.516	11594.21
729.858	11612.29
730.199	11631.5
730.541	11642.58
730.882	11699.07
731.224	11656.81
731.565	11612.52
731.906	11666.08
732.248	11642.12
732.589	11630.37
732.93	11581.11
733.271	11590.15
733.612	11528.45
733.953	11623.14
734.294	11461.34
734.635	11467.66
734.976	11408.91
735.317	11323.94
735.658	11372.98
735.999	11325.3
736.339	11325.97
736.68	11337.95
737.021	11152.87
737.361	11181.8
737.702	11291.62
738.042	11191.06
738.383	11176.15
738.723	11257.5
739.063	11198.07
739.404	11333.43
739.744	11207.11
740.084	11212.08
740.424	11203.72
740.764	11191.97
741.104	11237.39
741.444	11085.3
741.784	10996.72
742.124	11197.16
742.464	11073.55
742.804	11027.9
743.143	11103.61
743.483	10982.25
743.823	10850.51
744.162	10866.78
744.502	10863.16
744.841	10866.1
745.181	10813.9
745.52	10816.61
745.86	10807.57
746.199	10802.15
746.538	10849.6
746.877	10833.1
747.216	10782.71
747.556	10768.47
747.895	10741.36
748.234	10797.17
748.573	10708.36
748.911	10789.72
749.25	10717.85
749.589	10653.22
749.928	10721.02
750.267	10629.72
750.605	10640.57
750.944	10594.92
751.283	10564.41
751.621	10569.61
751.96	10469.95
752.298	10466.33
752.636	10460.69
752.975	10379.78
753.313	10293.23
753.651	10382.04
753.989	10316.96
754.327	10261.59
754.666	10187.7
755.004	10235.83
755.342	10275.83
755.679	10261.82
756.017	10166.46
756.355	10242.39
756.693	10244.87
