Data from foam1_polythene_foam_FLMS001491_00028.txt Node
Date: Wed Feb 08 10:54:36 GMT 2017
User: dcchb
Spectrometer: FLMS00149
Trigger mode: 0
Integration Time (sec): 2.000000E-2
Scans to average: 10
Electric dark correction enabled: true
Nonlinearity correction enabled: false
Boxcar width: 0
XAxis mode: Wavelengths
Number of Pixels in Spectrum: 2048
>>>>>Begin Spectral Data<<<<<
341.393	10.93
341.776	10.93
342.16	10.93
342.543	-57.99
342.927	-58.22
343.31	-47.15
343.693	-80.59
344.077	-68.61
344.46	-65.9
344.843	-34.04
345.226	-31.1
345.61	-41.5
345.993	-7.82
346.376	2.57
346.759	19.29
347.142	40.99
347.525	17.94
347.908	39.18
348.291	71.72
348.674	87.77
349.057	97.26
349.44	101.33
349.823	134.32
350.206	171.38
350.588	186.52
350.971	199.63
351.354	216.8
351.737	236.91
352.119	229.23
352.502	233.75
352.884	259.74
353.267	279.85
353.65	295.67
354.032	282.11
354.414	289.34
354.797	304.48
355.179	313.52
355.562	309.23
355.944	297.93
356.326	310.13
356.709	323.69
357.091	330.7
357.473	304.94
357.855	324.82
358.238	319.17
358.62	326.86
359.002	298.16
359.384	322.56
359.766	333.41
360.148	327.99
360.53	329.34
360.912	320.75
361.294	325.27
361.676	306.52
362.057	315.1
362.439	334.31
362.821	315.1
363.203	317.14
363.584	316.69
363.966	310.59
364.348	312.62
364.729	293.64
365.111	286.18
365.493	309.91
365.874	300.87
366.256	320.3
366.637	303.13
367.019	299.96
367.4	308.33
367.781	281.43
368.163	294.99
368.544	287.53
368.925	291.6
369.306	283.47
369.688	296.57
370.069	271.94
370.45	293.64
370.831	285.27
371.212	299.29
371.593	302.22
371.974	306.07
372.355	297.03
372.736	297.48
373.117	297.48
373.498	306.07
373.879	285.73
374.26	278.04
374.641	306.29
375.021	299.74
375.402	298.83
375.783	290.92
376.163	295.67
376.544	306.07
376.925	311.04
377.305	315.78
377.686	304.48
378.066	304.71
378.447	310.36
378.827	323.92
379.208	332.73
379.588	311.71
379.968	320.53
380.349	313.75
380.729	306.52
381.109	328.44
381.489	321.43
381.87	307.87
382.25	329.12
382.63	319.62
383.01	327.99
383.39	342.22
383.77	321.43
384.15	316.46
384.53	356.69
384.91	327.76
385.29	319.85
385.67	342.9
386.049	345.61
386.429	359.4
386.809	337.25
387.189	349
387.568	314.2
387.948	332.73
388.328	346.52
388.707	343.13
389.087	346.06
389.466	324.82
389.846	348.55
390.225	333.64
390.605	360.98
390.984	335.44
391.363	353.75
391.743	334.09
392.122	371.15
392.501	350.58
392.881	363.92
393.26	364.82
393.639	350.58
394.018	345.16
394.397	342
394.776	371.37
395.155	366.4
395.534	347.42
395.913	355.33
396.292	354.88
396.671	377.25
397.05	354.43
397.429	375.89
397.808	395.1
398.186	374.76
398.565	370.47
398.944	379.74
399.323	396.01
399.701	379.96
400.08	381.32
400.458	387.42
400.837	386.97
401.215	389.68
401.594	382.9
401.972	415.44
402.351	385.39
402.729	395.78
403.107	389.68
403.486	413.63
403.864	407.31
404.242	413.41
404.62	399.85
404.999	406.4
405.377	412.28
405.755	413.86
406.133	414.76
406.511	410.92
406.889	427.64
407.267	406.85
407.645	415.89
408.023	433.07
408.401	430.58
408.779	411.37
409.156	431.94
409.534	433.29
409.912	444.82
410.29	430.36
410.667	446.4
411.045	429.68
411.422	433.97
411.8	436.91
412.178	440.98
412.555	444.14
412.933	463.58
413.31	476
413.687	468.1
414.065	464.25
414.442	458.6
414.819	481.43
415.197	482.11
415.574	491.15
415.951	479.17
416.328	485.5
416.705	497.02
417.082	475.1
417.46	500.64
417.837	504.03
418.214	478.72
418.591	498.83
418.967	504.48
419.344	497.47
419.721	499.51
420.098	513.52
420.475	491.82
420.852	527.75
421.228	532.95
421.605	505.61
421.982	523.01
422.358	508.32
422.735	527.3
423.111	516.46
423.488	523.23
423.864	531.6
424.241	528.88
424.617	532.73
424.994	554.65
425.37	541.54
425.746	525.49
426.123	556.68
426.499	575.89
426.875	573.18
427.251	560.52
427.627	580.18
428.003	580.63
428.379	583.12
428.756	591.93
429.132	591.03
429.507	621.99
429.883	621.76
430.259	628.99
430.635	608.2
431.011	619.28
431.387	632.16
431.763	632.38
432.138	625.38
432.514	616.79
432.89	659.95
433.265	654.98
433.641	672.16
434.016	690.24
434.392	676
434.767	702.89
435.143	686.39
435.518	693.63
435.894	687.75
436.269	724.81
436.644	698.82
437.02	711.93
437.395	741.31
437.77	733.62
438.145	732.27
438.52	744.47
438.895	747.86
439.271	746.96
439.646	749.44
440.021	775.43
440.395	753.29
440.77	768.88
441.145	770.69
441.52	793.06
441.895	798.93
442.27	791.48
442.645	787.63
443.019	804.58
443.394	829.22
443.769	806.39
444.143	850.91
444.518	847.52
444.892	831.02
445.267	848.65
445.641	872.6
446.016	854.75
446.39	858.37
446.764	852.49
447.139	889.78
447.513	864.47
447.887	890.46
448.262	927.52
448.636	898.59
449.01	903.11
449.384	904.69
449.758	920.74
450.132	929.55
450.506	941.98
450.88	935.65
451.254	960.74
451.628	960.29
452.002	958.48
452.376	985.14
452.75	965.26
453.123	986.05
453.497	996.22
453.871	1011.81
454.244	1030.34
454.618	1016.78
454.992	1025.82
455.365	1026.72
455.739	1049.32
456.112	1050.9
456.486	1045.71
456.859	1058.81
457.232	1059.49
457.606	1076.44
457.979	1076.67
458.352	1111.69
458.725	1125.7
459.099	1129.55
459.472	1130.9
459.845	1134.74
460.218	1136.1
460.591	1137.68
460.964	1144.46
461.337	1157.57
461.71	1184.46
462.083	1224.91
462.456	1172.94
462.829	1193.05
463.201	1210.45
463.574	1224.01
463.947	1228.98
464.32	1256.77
464.692	1240.28
465.065	1286.83
465.438	1282.76
465.81	1271.01
466.183	1282.99
466.555	1317.79
466.928	1323.44
467.3	1313.04
467.672	1337.22
468.045	1346.49
468.417	1377
468.789	1375.42
469.161	1392.82
469.534	1414.06
469.906	1406.83
470.278	1453.61
470.65	1449.99
471.022	1458.58
471.394	1477.56
471.766	1508.75
472.138	1512.59
472.51	1535.19
472.882	1544.9
473.253	1562.98
473.625	1577.22
473.997	1637.1
474.369	1635.97
474.74	1642.75
475.112	1669.65
475.484	1715.97
475.855	1736.99
476.227	1722.07
476.598	1738.57
476.97	1779.25
477.341	1795.07
477.713	1808.4
478.084	1849.3
478.455	1880.94
478.827	1888.17
479.198	1958.23
479.569	1920.49
479.94	1996.42
480.311	2027.83
480.682	2040.94
481.053	2097.2
481.424	2118.67
481.795	2170.88
482.166	2185.34
482.537	2171.1
482.908	2204.32
483.279	2259.46
483.65	2310.53
484.021	2328.39
484.391	2335.39
484.762	2379.68
485.133	2379.46
485.503	2393.47
485.874	2440.92
486.244	2500.36
486.615	2510.75
486.985	2530.41
487.356	2584.42
487.726	2601.82
488.097	2635.72
488.467	2670.3
488.837	2702.16
489.207	2741.71
489.578	2796.85
489.948	2816.51
490.318	2795.94
490.688	2874.59
491.058	2915.71
491.428	2919.33
491.798	2962.49
492.168	3005.88
492.538	3013.79
492.908	3047.69
493.278	3065.77
493.648	3096.73
494.017	3121.58
494.387	3167.23
494.757	3172.66
495.126	3231.19
495.496	3214.46
495.866	3286.1
496.235	3313.9
496.605	3311.18
496.974	3341.47
497.344	3364.29
497.713	3436.83
498.082	3448.13
498.452	3472.08
498.821	3488.81
499.19	3491.74
499.559	3545.75
499.928	3577.17
500.298	3592.98
500.667	3625.75
501.036	3592.08
501.405	3626.43
501.774	3616.03
502.143	3672.53
502.512	3681.12
502.88	3713.43
503.249	3745.75
503.618	3811.74
503.987	3827.33
504.356	3846.31
504.724	3854.9
505.093	3884.5
505.462	3886.76
505.83	3911.85
506.199	3971.96
506.567	3978.96
506.936	4028
507.304	4057.15
507.672	4089.02
508.041	4110.03
508.409	4136.47
508.777	4149.13
509.145	4178.51
509.514	4139.18
509.882	4228
510.25	4210.6
510.618	4256.24
510.986	4355
511.354	4358.39
511.722	4358.84
512.09	4418.5
512.458	4415.56
512.826	4455.79
513.193	4468.44
513.561	4448.1
513.929	4547.31
514.297	4597.25
514.664	4570.36
515.032	4628.66
515.4	4668.66
515.767	4699.85
516.135	4750.02
516.502	4713.86
516.869	4764.25
517.237	4860.75
517.604	4770.58
517.972	4825.95
518.339	4915.21
518.706	4863.23
519.073	4968.09
519.44	5003.79
519.808	5081.08
520.175	5002.21
520.542	5149.1
520.909	5128.31
521.276	5159.05
521.643	5198.14
522.009	5235.43
522.376	5266.84
522.743	5307.74
523.11	5389.32
523.477	5410.11
523.843	5417.57
524.21	5488.53
524.577	5553.84
524.943	5570.33
525.31	5582.31
525.676	5612.82
526.043	5686.94
526.409	5684.68
526.776	5735.98
527.142	5766.94
527.508	5810.1
527.874	5891.46
528.241	5890.33
528.607	5950.44
528.973	5978.91
529.339	5979.14
529.705	6004.67
530.071	6019.36
530.437	6096.42
530.803	6133.93
531.169	6159.7
531.535	6145.01
531.901	6199.24
532.267	6233.37
532.632	6272.46
532.998	6317.66
533.364	6348.17
533.73	6412.35
534.095	6392.69
534.461	6416.87
534.826	6483.76
535.192	6538.22
535.557	6504.55
535.923	6506.58
536.288	6591.1
536.653	6615.73
537.019	6575.96
537.384	6617.54
537.749	6619.57
538.114	6642.4
538.479	6697.54
538.845	6731.66
539.21	6728.27
539.575	6815.05
539.94	6782.05
540.305	6841.49
540.67	6845.1
541.034	6839.68
541.399	6891.65
541.764	6925.33
542.129	6916.51
542.494	6996.96
542.858	6986.12
543.223	6990.18
543.587	7041.26
543.952	7087.58
544.316	7037.64
544.681	7143.4
545.045	7140.46
545.41	7100.24
545.774	7238.09
546.138	7184.98
546.503	7196.73
546.867	7161.48
547.231	7299.78
547.595	7257.75
547.959	7341.59
548.324	7344.75
548.688	7350.63
549.052	7316.73
549.416	7368.48
549.779	7409.38
550.143	7341.81
550.507	7502.26
550.871	7436.95
551.235	7455.26
551.599	7628.36
551.962	7605.08
552.326	7593.56
552.689	7611.64
553.053	7664.52
553.417	7647.57
553.78	7793.1
554.143	7757.85
554.507	7836.94
554.87	7792.2
555.234	7792.87
555.597	7848.01
555.96	7867.22
556.323	7906.54
556.686	7944.51
557.05	8012.98
557.413	8002.36
557.776	8045.52
558.139	8023.6
558.502	8109.25
558.865	8200.1
559.228	8144.96
559.59	8214.56
559.953	8225.41
560.316	8298.17
560.679	8302.24
561.041	8369.81
561.404	8410.03
561.767	8441.67
562.129	8412.74
562.492	8522.8
562.854	8444.16
563.217	8481.9
563.579	8560.99
563.941	8584.72
564.304	8638.28
564.666	8675.79
565.028	8679.86
565.39	8771.38
565.753	8795.56
566.115	8841.21
566.477	8810.47
566.839	8864.03
567.201	8989
567.563	8996.01
567.925	8983.8
568.287	8995.55
568.648	9050.69
569.01	9101.99
569.372	9151.71
569.734	9158.94
570.095	9214.76
570.457	9214.08
570.819	9285.04
571.18	9196.68
571.542	9351.48
571.903	9290.69
572.265	9324.13
572.626	9415.43
572.987	9334.75
573.349	9428.31
573.71	9488.2
574.071	9527.97
574.432	9556.67
574.794	9539.95
575.155	9615.65
575.516	9507.41
575.877	9525.26
576.238	9656.1
576.599	9640.06
576.96	9652.94
577.32	9671.02
577.681	9748.75
578.042	9684.58
578.403	9741.3
578.763	9755.76
579.124	9757.57
579.485	9753.05
579.845	9805.25
580.206	9780.17
580.566	9760.96
580.927	9802.99
581.287	9829.66
581.648	9757.12
582.008	9909.2
582.368	9812.26
582.728	9854.97
583.089	9913.5
583.449	9844.35
583.809	9867.17
584.169	9892.93
584.529	9821.07
584.889	9960.27
585.249	9860.62
585.609	9809.77
585.969	9913.95
586.329	9823.33
586.688	9908.75
587.048	9896.1
587.408	9814.06
587.768	9864.01
588.127	9899.49
588.487	9919.6
588.846	9836.66
589.206	9870.33
589.565	9873.5
589.925	9932.48
590.284	9910.56
590.643	9998.24
591.003	9894.74
591.362	9981.29
591.721	9885.93
592.08	10009.09
592.44	9927.28
592.799	9918.47
593.158	9914.17
593.517	9959.6
593.876	9927.73
594.235	9911.91
594.593	9934.29
594.952	9965.7
595.311	9943.1
595.67	9941.07
596.029	10070.1
596.387	10008.64
596.746	9997.34
597.104	9958.47
597.463	9990.78
597.822	9961.4
598.18	10033.72
598.538	9985.81
598.897	10070.55
599.255	9958.02
599.613	10116.65
599.972	10028.75
600.33	10016.32
600.688	10060.84
601.046	10081.18
601.404	10119.82
601.762	10096.77
602.12	10122.3
602.478	10119.14
602.836	10141.29
603.194	10078.01
603.552	10080.72
603.91	10061.29
604.268	10097.9
604.625	10060.61
604.983	10116.43
605.341	10113.49
605.698	10073.27
606.056	10165.47
606.413	10096.54
606.771	10202.08
607.128	10222.41
607.485	10174.05
607.843	10121.17
608.2	10200.95
608.557	10267.61
608.914	10250.66
609.272	10299.93
609.629	10218.35
609.986	10329.76
610.343	10278.46
610.7	10361.17
611.057	10280.04
611.414	10265.58
611.771	10269.19
612.127	10407.49
612.484	10242.3
612.841	10359.59
613.198	10278.46
613.554	10323.88
613.911	10451.11
614.267	10400.49
614.624	10322.98
614.98	10363.2
615.337	10349.42
615.693	10367.72
616.05	10358
616.406	10374.95
616.762	10421.28
617.118	10327.5
617.475	10450.88
617.831	10477.1
618.187	10459.7
618.543	10496.08
618.899	10496.08
619.255	10454.73
619.611	10473.26
619.967	10492.46
620.323	10496.76
620.678	10416.53
621.034	10392.35
621.39	10398.23
621.746	10386.03
622.101	10481.17
622.457	10428.74
622.812	10494.5
623.168	10459.47
623.523	10441.84
623.879	10465.12
624.234	10456.98
624.589	10517.1
624.945	10497.66
625.3	10510.54
625.655	10506.7
626.01	10502.18
626.365	10543.08
626.72	10469.41
627.075	10475.74
627.43	10451.11
627.785	10487.49
628.14	10476.19
628.495	10356.65
628.85	10379.7
629.205	10414.27
629.559	10448.85
629.914	10414.05
630.269	10373.37
630.623	10399.36
630.978	10341.96
631.332	10472.58
631.687	10383.99
632.041	10329.98
632.396	10405.46
632.75	10328.4
633.104	10324.56
633.459	10407.04
633.813	10223.09
634.167	10335.63
634.521	10248.18
634.875	10195.3
635.229	10249.98
635.583	10080.72
635.937	10208.63
636.291	10192.81
636.645	10155.07
636.999	10143.09
637.352	10205.47
637.706	10150.78
638.06	10128.41
638.413	10117.11
638.767	10129.76
639.121	10130.67
639.474	10048.63
639.828	10042.98
640.181	10044.34
640.534	10052.25
640.888	9955.98
641.241	9933.16
641.594	9976.77
641.947	10003.66
642.301	9916.89
642.654	9983.33
643.007	10009.99
643.36	9959.82
643.713	9986.49
644.066	9900.62
644.419	9901.52
644.771	9810
645.124	9745.37
645.477	9817
645.83	9685.93
646.182	9607.29
646.535	9525.48
646.888	9588.99
647.24	9519.61
647.593	9537.91
647.945	9489.55
648.298	9433.96
648.65	9496.11
649.002	9418.59
649.355	9450.23
649.707	9461.3
650.059	9435.77
650.411	9622.2
650.763	9651.81
651.115	9746.72
651.467	9677.12
651.819	9671.69
652.171	9711.92
652.523	9603.67
652.875	9651.13
653.227	9518.48
653.578	9639.83
653.93	9567.52
654.282	9607.06
654.633	9560.29
654.985	9633.73
655.337	9624.01
655.688	9568.65
656.039	9589.21
656.391	9579.72
656.742	9528.87
657.094	9523.9
657.445	9545.6
657.796	9543.79
658.147	9494.75
658.498	9522.77
658.849	9471.93
659.2	9524.58
659.551	9439.84
659.902	9475.99
660.253	9440.97
660.604	9404.36
660.955	9459.72
661.306	9499.5
661.656	9440.74
662.007	9458.37
662.358	9442.55
662.708	9401.19
663.059	9442.32
663.409	9365.04
663.76	9373.62
664.11	9350.35
664.461	9292.04
664.811	9419.72
665.161	9394.87
665.511	9301.08
665.862	9355.54
666.212	9326.62
666.562	9385.6
666.912	9350.35
667.262	9316.68
667.612	9237.81
667.962	9330.91
668.312	9318.94
668.662	9300.18
669.011	9245.72
669.361	9281.42
669.711	9273.51
670.06	9174.08
670.41	9243.46
670.76	9232.61
671.109	9158.49
671.459	9227.86
671.808	9153.06
672.157	9175.21
672.507	9095.89
672.856	9162.56
673.205	9155.1
673.554	9161.43
673.904	9103.57
674.253	9186.28
674.602	9137.25
674.951	9027.64
675.3	8924.6
675.649	9111.71
675.998	9099.51
676.346	9100.41
676.695	9111.48
677.044	9048.43
677.393	9109.9
677.741	9106.51
678.09	9088.21
678.438	9000.3
678.787	9079.85
679.135	9069.45
679.484	9034.88
679.832	9137.02
680.181	9046.17
680.529	8973.86
680.877	8962.79
681.225	9034.42
681.573	9041.43
681.922	8980.64
682.27	8904.48
682.618	8962.11
682.966	8854.09
683.314	8902.22
683.661	8884.37
684.009	8837.82
684.357	8842.56
684.705	8858.61
685.053	8819.74
685.4	8829.68
685.748	8809.34
686.095	8866.52
686.443	8734.32
686.79	8710.14
687.138	8748.1
687.485	8691.16
687.832	8755.33
688.18	8708.56
688.527	8664.94
688.874	8661.55
689.221	8618.84
689.568	8602.12
689.915	8506.75
690.262	8539.75
690.609	8547.2
690.956	8503.82
691.303	8465.4
691.65	8483.48
691.997	8421.56
692.344	8393.08
692.69	8422.46
693.037	8360.32
693.383	8313.99
693.73	8345.4
694.077	8210.04
694.423	8306.08
694.769	8241.22
695.116	8207.1
695.462	8213.65
695.808	8095.47
696.155	8156.71
696.501	8114.45
696.847	8123.94
697.193	8091.62
697.539	8063.83
697.885	8036.03
698.231	7984.73
698.577	7959.42
698.923	8006.88
699.269	7936.6
699.614	7911.29
699.96	7871.52
700.306	7904.51
700.651	7880.33
700.997	7871.06
701.342	7808.92
701.688	7788.58
702.033	7745.19
702.379	7767.34
702.724	7760.11
703.069	7795.81
703.415	7749.26
703.76	7715.81
704.105	7679.2
704.45	7633.33
704.795	7614.8
705.14	7629.71
705.485	7665.19
705.83	7526.89
706.175	7559.66
706.52	7500.68
706.865	7545.88
707.209	7552.2
707.554	7513.79
707.899	7540.68
708.243	7462.26
708.588	7461.13
708.932	7407.57
709.277	7456.16
709.621	7377.29
709.966	7349.95
710.31	7380.23
710.654	7323.73
710.998	7324.19
711.342	7305.66
711.687	7298.88
712.031	7245.32
712.375	7298.2
712.719	7222.27
713.063	7227.69
713.407	7220.91
713.75	7204.42
714.094	7253.23
714.438	7246.9
714.782	7191.08
715.125	7161.48
715.469	7173.91
715.812	7217.07
716.156	7063.18
716.499	7131.42
716.843	7097.53
717.186	6976.4
717.53	7150.41
717.873	7053.91
718.216	7078.99
718.559	7041.26
718.902	7019.11
719.246	7044.87
719.589	6985.89
719.932	6962.39
720.275	6928.94
720.617	6985.21
720.96	6920.13
721.303	6943.41
721.646	6942.5
721.989	6888.27
722.331	6993.57
722.674	6908.38
723.016	6908.15
723.359	6874.25
723.701	6862.96
724.044	6823.41
724.386	6764.88
724.729	6815.72
725.071	6846.91
725.413	6749.06
725.755	6766.91
726.097	6752.22
726.439	6728.04
726.782	6765.78
727.124	6681.27
727.465	6753.58
727.807	6707.93
728.149	6687.59
728.491	6661.83
728.833	6720.81
729.175	6673.58
729.516	6583.19
729.858	6625
730.199	6632.45
730.541	6610.53
730.882	6577.09
731.224	6623.87
731.565	6565.56
731.906	6559.46
732.248	6569.63
732.589	6529.18
732.93	6483.53
733.271	6565.79
733.612	6422.74
733.953	6518.56
734.294	6468.39
734.635	6486.24
734.976	6472.91
735.317	6482.17
735.658	6410.76
735.999	6461.84
736.339	6396.07
736.68	6429.29
737.021	6436.53
737.361	6379.13
737.702	6422.51
738.042	6380.26
738.383	6336.19
738.723	6347.49
739.063	6384.78
739.404	6382.74
739.744	6325.34
740.084	6322.86
740.424	6342.06
740.764	6276.76
741.104	6302.07
741.444	6238.34
741.784	6313.37
742.124	6253.25
742.464	6228.17
742.804	6226.59
743.143	6236.3
743.483	6299.81
743.823	6162.86
744.162	6161.73
744.502	6214.61
744.841	6186.36
745.181	6197.44
745.52	6213.03
745.86	6184.33
746.199	6156.31
746.538	6220.03
746.877	6182.07
747.216	6177.55
747.556	6129.19
747.895	6148.62
748.234	6118.12
748.573	6100.26
748.911	6143.88
749.25	6082.18
749.589	6091.68
749.928	6070.21
750.267	6075.86
750.605	6101.39
750.944	6021.4
751.283	5980.04
751.621	6014.84
751.96	5958.57
752.298	5952.02
752.636	5994.05
752.975	5992.92
753.313	5898.91
753.651	5927.16
753.989	5901.62
754.327	5876.99
754.666	5850.33
755.004	5891
755.342	5893.26
755.679	5885.35
756.017	5838.58
756.355	5829.76
756.693	5808.97
757.031	5835.41
757.368	5783.89
757.706	5803.32
758.044	5798.12
758.381	5789.76
758.719	5768.07
759.056	5738.46
759.394	5694.85
759.731	5669.09
760.068	5713.38
760.405	5654.17
760.743	5612.37
761.08	5643.78
761.417	5579.6
761.754	5655.76
762.091	5594.06
762.428	5615.08
762.765	5545.7
763.102	5578.92
763.438	5528.07
763.775	5493.95
764.112	5510.9
764.449	5485.59
764.785	5454.18
765.122	5451.47
765.458	5379.6
765.795	5395.65
766.131	5386.61
766.467	5421.41
766.804	5382.09
767.14	5340.06
767.476	5334.41
767.812	5321.53
768.148	5306.84
768.485	5335.54
