Data from foam2_polystyrene_foam_FLMS001491_00091.txt Node
Date: Wed Feb 08 10:58:46 GMT 2017
User: dcchb
Spectrometer: FLMS00149
Trigger mode: 0
Integration Time (sec): 2.000000E-2
Scans to average: 10
Electric dark correction enabled: true
Nonlinearity correction enabled: false
Boxcar width: 0
XAxis mode: Wavelengths
Number of Pixels in Spectrum: 2048
>>>>>Begin Spectral Data<<<<<
341.393	-19.22
341.776	-19.22
342.16	-19.22
342.543	-55.61
342.927	-64.87
343.31	-75.04
343.693	-73.01
344.077	-66.91
344.46	-55.61
344.843	-69.62
345.226	-53.57
345.61	-46.11
345.993	7.44
346.376	-7.47
346.759	0.44
347.142	16.26
347.525	57.16
347.908	80.21
348.291	85.18
348.674	108.46
349.057	92.19
349.44	114.11
349.823	162.47
350.206	152.3
350.588	194.33
350.971	202.92
351.354	230.04
351.737	236.36
352.119	253.09
352.502	264.84
352.884	275.01
353.267	282.01
353.65	290.6
354.032	322.92
354.414	316.36
354.797	307.55
355.179	335.12
355.562	333.99
355.944	327.89
356.326	344.38
356.709	352.07
357.091	343.93
357.473	338.51
357.855	358.62
358.238	338.51
358.62	357.72
359.002	345.74
359.384	352.97
359.766	345.51
360.148	345.51
360.53	346.42
360.912	340.09
361.294	350.71
361.676	353.2
362.057	320.2
362.439	330.15
362.821	340.54
363.203	330.82
363.584	324.72
363.966	355.46
364.348	350.94
364.729	328.11
365.111	343.71
365.493	320.88
365.874	339.64
366.256	334.89
366.637	325.63
367.019	337.15
367.4	313.65
367.781	344.61
368.163	349.13
368.544	341.22
368.925	348.45
369.306	347.32
369.688	332.63
370.069	351.84
370.45	333.31
370.831	340.77
371.212	335.57
371.593	315.01
371.974	340.99
372.355	356.36
372.736	344.84
373.117	354.33
373.498	349.58
373.879	359.3
374.26	344.84
374.641	351.16
375.021	337.6
375.402	341.22
375.783	361.33
376.163	350.03
376.544	378.28
376.925	336.02
377.305	355.23
377.686	355
378.066	361.33
378.447	367.43
378.827	398.39
379.208	369.02
379.588	394.78
379.968	362.01
380.349	376.93
380.729	373.54
381.109	382.57
381.489	391.39
381.87	370.82
382.25	392.07
382.63	405.62
383.01	393.65
383.39	402.91
383.77	385.74
384.15	410.37
384.53	396.36
384.91	404.27
385.29	416.02
385.67	414.89
386.049	397.72
386.429	424.61
386.809	407.88
387.189	413.31
387.568	400.65
387.948	423.93
388.328	435.68
388.707	429.35
389.087	435.45
389.466	453.76
389.846	437.26
390.225	429.13
390.605	441.78
390.984	465.06
391.363	462.8
391.743	466.64
392.122	451.73
392.501	459.41
392.881	469.13
393.26	463.48
393.639	481.33
394.018	468
394.397	477.71
394.776	468.9
395.155	484.04
395.534	490.82
395.913	494.66
396.292	482.23
396.671	514.32
397.05	509.8
397.429	529.24
397.808	504.15
398.186	493.08
398.565	507.77
398.944	512.51
399.323	526.98
399.701	504.83
400.08	535.34
400.458	555.9
400.837	544.6
401.215	545.06
401.594	533.53
401.972	562.68
402.351	539.18
402.729	556.81
403.107	558.62
403.486	560.42
403.864	588.67
404.242	571.95
404.62	566.98
404.999	579.18
405.377	587.99
405.755	591.83
406.133	620.08
406.511	590.93
406.889	610.59
407.267	630.03
407.645	623.92
408.023	621.89
408.401	633.19
408.779	634.77
409.156	656.92
409.534	659.86
409.912	664.38
410.29	666.86
410.667	656.47
411.045	696.01
411.422	702.57
411.8	671.38
412.178	678.39
412.555	710.93
412.933	713.19
413.31	713.41
413.687	736.24
414.065	719.74
414.442	762.45
414.819	752.51
415.197	766.07
415.574	773.52
415.951	764.94
416.328	780.3
416.705	779.4
417.082	781.66
417.46	774.65
417.837	802.45
418.214	808.55
418.591	810.59
418.967	815.33
419.344	835.44
419.721	845.39
420.098	866.18
420.475	860.75
420.852	867.76
421.228	861.88
421.605	877.7
421.982	902.79
422.358	895.33
422.735	902.11
423.111	889.68
423.488	907.98
423.864	926.52
424.241	941.43
424.617	939.62
424.994	944.37
425.37	939.85
425.746	958.6
426.123	966.06
426.499	962.67
426.875	981.65
427.251	997.02
427.627	1016.46
428.003	1022.56
428.379	1008.77
428.756	1046.51
429.132	1047.19
429.507	1075.21
429.883	1050.81
430.259	1113.63
430.635	1087.64
431.011	1096.68
431.387	1125.15
431.763	1140.07
432.138	1157.7
432.514	1196.79
432.89	1175.32
433.265	1207.64
433.641	1239.73
434.016	1225.49
434.392	1252.16
434.767	1273.17
435.143	1254.42
435.518	1281.76
435.894	1318.14
436.269	1299.84
436.644	1330.35
437.02	1346.84
437.395	1344.13
437.77	1373.74
438.145	1372.15
438.52	1358.37
438.895	1401.98
439.271	1413.28
439.646	1432.26
440.021	1423.9
440.395	1482.21
440.77	1468.42
441.145	1458.25
441.52	1514.97
441.895	1479.04
442.27	1511.58
442.645	1518.59
443.019	1546.39
443.394	1565.82
443.769	1556.56
444.143	1556.1
444.518	1576.44
444.892	1578.25
445.267	1599.04
445.641	1613.28
446.016	1597.46
446.39	1666.61
446.764	1646.5
447.139	1651.92
447.513	1705.93
447.887	1712.03
448.262	1684.46
448.636	1679.49
449.01	1747.96
449.384	1740.28
449.758	1776.66
450.132	1763.1
450.506	1799.94
450.88	1827.51
451.254	1792.26
451.628	1834.74
452.002	1822.54
452.376	1870.22
452.75	1895.53
453.123	1903.44
453.497	1925.13
453.871	1928.97
454.244	1983.66
454.618	1968.75
454.992	1962.87
455.365	2021.63
455.739	2053.04
456.112	2060.27
456.486	2097.78
456.859	2074.06
457.232	2117.44
457.606	2141.85
457.979	2159.7
458.352	2183.88
458.725	2205.35
459.099	2251.68
459.472	2280.15
459.845	2251.45
460.218	2305.24
460.591	2303.2
460.964	2329.42
461.337	2354.95
461.71	2378.68
462.083	2424.55
462.456	2410.32
462.829	2465.46
463.201	2480.6
463.574	2482.86
463.947	2533.7
464.32	2571.67
464.692	2614.61
465.065	2639.46
465.438	2655.28
465.81	2641.27
466.183	2696.41
466.555	2742.29
466.928	2772.79
467.3	2779.12
467.672	2811.44
468.045	2916.75
468.417	2882.17
468.789	2928.04
469.161	2985.67
469.534	3023.86
469.906	3046.91
470.278	3079.23
470.65	3118.55
471.022	3137.76
471.394	3217.3
471.766	3248.26
472.138	3298.66
472.51	3335.04
472.882	3416.39
473.253	3424.3
473.625	3455.94
473.997	3536.39
474.369	3556.73
474.74	3594.02
475.112	3617.29
475.484	3722.15
475.855	3789.94
476.227	3799.66
476.598	3922.82
476.97	3897.51
477.341	4028.81
477.713	4123.27
478.084	4100.44
478.455	4243.26
478.827	4219.99
479.198	4353.54
479.569	4368.23
479.94	4524.84
480.311	4524.39
480.682	4577.49
481.053	4690.71
481.424	4746.75
481.795	4798.96
482.166	4935.9
482.537	4909.46
482.908	5070.59
483.279	5085.28
483.65	5155.33
484.021	5243.24
484.391	5287.98
484.762	5395.78
485.133	5429.22
485.503	5510.58
485.874	5585.38
486.244	5699.95
486.615	5827.63
486.985	5845.03
487.356	5897.91
487.726	6012.94
488.097	6101.97
488.467	6164.57
488.837	6263.1
489.207	6379.71
489.578	6495.86
489.948	6496.76
490.318	6557.1
490.688	6637.78
491.058	6744.89
491.428	6812.01
491.798	6858.34
492.168	7006.58
492.538	7048.39
492.908	7151.66
493.278	7197.54
493.648	7205.22
494.017	7290.19
494.387	7386.23
494.757	7509.84
495.126	7552.33
495.496	7563.85
495.866	7605.44
496.235	7714.13
496.605	7770.85
496.974	7812.66
497.344	7867.35
497.713	8023.05
498.082	8047.46
498.452	8060.34
498.821	8133.33
499.19	8207
499.559	8276.6
499.928	8327.68
500.298	8390.5
500.667	8480.89
501.036	8432.08
501.405	8553.43
501.774	8567.67
502.143	8632.98
502.512	8750.04
502.88	8778.74
503.249	8804.5
503.618	8912.97
503.987	8930.37
504.356	8977.15
504.724	9079.3
505.093	9116.13
505.462	9169.24
505.83	9249.69
506.199	9329.46
506.567	9374.88
506.936	9411.49
507.304	9526.29
507.672	9598.38
508.041	9663.23
508.409	9712.5
508.777	9756.79
509.145	9848.54
509.514	9896.67
509.882	9962.44
510.25	9967.63
510.618	10091.7
510.986	10166.72
511.354	10276.33
511.722	10293.5
512.09	10387.96
512.458	10349.32
512.826	10456.89
513.193	10625.92
513.561	10651.23
513.929	10743.88
514.297	10779.59
514.664	10887.16
515.032	10968.06
515.4	11054.16
515.767	11064.55
516.135	11158.79
516.502	11202.18
516.869	11361.04
517.237	11412.34
517.604	11352
517.972	11479.23
518.339	11664.31
518.706	11582.05
519.073	11650.98
519.44	11744.08
519.808	11904.31
520.175	11962.61
520.542	12230.62
520.909	12104.53
521.276	12204.41
521.643	12299.1
522.009	12426.55
522.376	12478.98
522.743	12578.41
523.11	12734.34
523.477	12839.87
523.843	12815.47
524.21	13022.69
524.577	13078.96
524.943	13152.86
525.31	13231.05
525.676	13437.37
526.043	13440.08
526.409	13483.02
526.776	13661.32
527.142	13739.51
527.508	13730.7
527.874	13914.87
528.241	13978.83
528.607	13999.17
528.973	14109.67
529.339	14189.67
529.705	14260.4
530.071	14370.23
530.437	14485.93
530.803	14552.6
531.169	14596.44
531.535	14628.75
531.901	14690.22
532.267	14737.9
532.632	14873.95
532.998	14999.37
533.364	15058.35
533.73	15095.86
534.095	15260.6
534.461	15333.37
534.826	15381.73
535.192	15350.54
535.557	15491.78
535.923	15457.88
536.288	15522.74
536.653	15621.5
537.019	15539.24
537.384	15706.69
537.749	15825.78
538.114	15858.1
538.479	15842.28
538.845	15930.41
539.21	15975.16
539.575	16012.9
539.94	16053.8
540.305	16246.56
540.67	16262.61
541.034	16319.78
541.399	16273.68
541.764	16466.67
542.129	16451.76
542.494	16511.19
542.858	16587.12
543.223	16565.2
543.587	16721.35
543.952	16714.12
544.316	16833.22
544.681	16747.79
545.045	16918.64
545.41	16949.82
545.774	17120.67
546.138	17007.9
546.503	17081.34
546.867	17145.75
547.231	17252.19
547.595	17267.78
547.959	17291.51
548.324	17475.23
548.688	17476.14
549.052	17513.2
549.416	17508
549.779	17667.32
550.143	17700.99
550.507	17826.86
550.871	17806.07
551.235	17898.95
551.599	18016.91
551.962	17992.96
552.326	18104.14
552.689	18219.17
553.053	18201.09
553.417	18267.3
553.78	18560.63
554.143	18465.49
554.507	18514.53
554.87	18626.39
555.234	18865.48
555.597	18653.05
555.96	18832.49
556.323	18967.17
556.686	18943.89
557.05	19083.78
557.413	19125.36
557.776	19203.77
558.139	19320.16
558.502	19359.93
558.865	19537.33
559.228	19595.63
559.59	19655.06
559.953	19717.89
560.316	19848.73
560.679	19917.65
561.041	20009.4
561.404	20200.36
561.767	20234.48
562.129	20208.49
562.492	20451.2
562.854	20551.76
563.217	20428.15
563.579	20577.98
563.941	20706.11
564.304	20761.7
564.666	21038.98
565.028	20985.42
565.39	21272.87
565.753	21231.74
566.115	21291.86
566.477	21457.73
566.839	21583.37
567.201	21511.74
567.563	21743.37
567.925	21765.29
568.287	21812.97
568.648	21886.19
569.01	22019.97
569.372	22034.89
569.734	22089.12
570.095	22322.11
570.457	22355.33
570.819	22474.65
571.18	22427.64
571.542	22598.71
571.903	22605.49
572.265	22750.35
572.626	22761.2
572.987	22798.26
573.349	22864.24
573.71	22971.13
574.071	22986.73
574.432	23119.15
574.794	23263.78
575.155	23246.38
575.516	23230.34
575.877	23339.94
576.238	23329.09
576.599	23581.51
576.96	23489.99
577.32	23434.62
577.681	23622.64
578.042	23627.39
578.403	23616.77
578.763	23652.92
579.124	23800.94
579.485	23745.35
579.845	23941.05
580.206	23861.73
580.566	23822.18
580.927	23933.82
581.287	23948.51
581.648	23846.59
582.008	24074.16
582.368	23957.1
582.728	24098.34
583.089	24081.61
583.449	24089.07
583.809	24091.1
584.169	24159.58
584.529	24030.31
584.889	24333.13
585.249	24161.61
585.609	24152.35
585.969	24332.68
586.329	24131.55
586.688	24316.41
587.048	24220.59
587.408	24063.53
587.768	24256.07
588.127	24236.64
588.487	24168.16
588.846	24359.35
589.206	24263.98
589.565	24209.74
589.925	24347.37
590.284	24312.79
590.643	24359.35
591.003	24317.99
591.362	24422.62
591.721	24299.69
592.08	24245.22
592.44	24466.91
592.799	24402.51
593.158	24352.79
593.517	24419
593.876	24479.57
594.235	24448.16
594.593	24397.31
594.952	24561.37
595.311	24396.63
595.67	24339.23
596.029	24594.14
596.387	24601.82
596.746	24615.84
597.104	24608.6
597.463	24520.25
597.822	24666.46
598.18	24517.53
598.538	24547.36
598.897	24790.07
599.255	24651.32
599.613	24809.95
599.972	24658.55
600.33	24730.41
600.688	24679.11
601.046	24804.53
601.404	24909.39
601.762	24686.79
602.12	24969.05
602.478	24874.13
602.836	24942.83
603.194	24809.5
603.552	24893.79
603.91	24788.94
604.268	25005.66
604.625	24864.64
604.983	25030.06
605.341	24843.17
605.698	25016.5
606.056	24980.57
606.413	24960.01
606.771	25046.11
607.128	25000.68
607.485	24919.78
607.843	24934.7
608.2	25047.69
608.557	25118.42
608.914	25072.09
609.272	25279.1
609.629	25176.5
609.986	25392.54
610.343	25307.12
610.7	25412.65
611.057	25380.79
611.414	25258.98
611.771	25247.23
612.127	25489.71
612.484	25417.17
612.841	25513.89
613.198	25335.82
613.554	25432.76
613.911	25561.35
614.267	25439.32
614.624	25594.79
614.98	25523.83
615.337	25733.77
615.693	25626.88
616.05	25614
616.406	25730.83
616.762	25640.67
617.118	25661.91
617.475	25632.76
617.831	25726.09
618.187	25755.92
618.543	25761.12
618.899	25924.95
619.255	25796.37
619.611	25752.76
619.967	25851.74
620.323	25923.6
620.678	25870.72
621.034	25750.72
621.39	25846.54
621.746	25664.17
622.101	26044.72
622.457	25727.67
622.812	25976.93
623.168	25961.79
623.523	25807.89
623.879	25954.56
624.234	25754.79
624.589	25887.21
624.945	25873.88
625.3	25955.69
625.655	25774
626.01	25862.13
626.365	25799.31
626.72	25737.84
627.075	25758.86
627.43	25720.89
627.785	25658.75
628.14	25719.54
628.495	25731.96
628.85	25722.7
629.205	25588.01
629.559	25729.25
629.914	25464.63
630.269	25656.49
630.623	25580.56
630.978	25465.98
631.332	25635.47
631.687	25607.9
632.041	25516.83
632.396	25518.86
632.75	25416.27
633.104	25451.97
633.459	25207.01
633.813	25210.4
634.167	25327.91
634.521	25244.29
634.875	25288.81
635.229	25230.96
635.583	25132.66
635.937	25125.88
636.291	25169.04
636.645	25066.9
636.999	25050.85
637.352	25135.82
637.706	24886.34
638.06	24997.75
638.413	24927.01
638.767	24857.86
639.121	24800.24
639.474	24684.53
639.828	24774.48
640.181	24707.36
640.534	24734.93
640.888	24621.71
641.241	24574.48
641.594	24550.75
641.947	24635.72
642.301	24547.14
642.654	24496.06
643.007	24577.87
643.36	24543.3
643.713	24495.61
644.066	24490.87
644.419	24218.11
644.771	24243.64
645.124	23973.14
645.477	23933.82
645.83	23732.24
646.182	23618.12
646.535	23588.29
646.888	23597.33
647.24	23520.72
647.593	23629.2
647.945	23508.97
648.298	23354.4
648.65	23303.1
649.002	23274.63
649.355	23330.9
649.707	23351.91
650.059	23440.27
650.411	23660.15
650.763	23602.76
651.115	23928.85
651.467	23798.91
651.819	23853.82
652.171	23776.08
652.523	23773.37
652.875	23777.44
653.227	23592.81
653.578	23755.29
653.93	23631.91
654.282	23498.58
654.633	23479.14
654.985	23589.42
655.337	23567.73
655.688	23492.7
656.039	23636.2
656.391	23378.81
656.742	23437.56
657.094	23405.25
657.445	23515.53
657.796	23375.64
658.147	23386.49
658.498	23356.89
658.849	23435.08
659.2	23294.97
659.551	23311.01
659.902	23291.35
660.253	23331.35
660.604	23344.23
660.955	23186.72
661.306	23333.38
661.656	23209.55
662.007	23244.57
662.358	23263.33
662.708	23225.82
663.059	23219.04
663.409	23013.84
663.76	23133.39
664.11	23188.75
664.461	23134.97
664.811	23182.88
665.161	23140.17
665.511	23111.92
665.862	23077.35
666.212	23073.96
666.562	23206.61
666.912	23083.22
667.262	23094.52
667.612	23210.45
667.962	23070.11
668.312	23065.14
668.662	23253.61
669.011	23105.37
669.361	23005.26
669.711	23026.5
670.06	23023.34
670.41	22878.71
670.76	22873.96
671.109	23026.05
671.459	23004.58
671.808	22865.6
672.157	22951.02
672.507	22717.58
672.856	22836.45
673.205	22791.48
673.554	22939.5
673.904	22784.47
674.253	22895.2
674.602	22798.71
674.951	22485.27
675.3	22398.04
675.649	22719.61
675.998	22787.86
676.346	22751.93
676.695	22866.5
677.044	22612.27
677.393	22660.18
677.741	22849.1
678.09	22725.94
678.438	22730.24
678.787	22697.47
679.135	22619.96
679.484	22521.88
679.832	22697.92
680.181	22430.36
680.529	22624.48
680.877	22413.18
681.225	22439.4
681.573	22512.61
681.922	22351.94
682.27	22302.22
682.618	22275.33
682.966	22204.83
683.314	22320.53
683.661	22302.68
684.009	22145.62
684.357	22052.97
684.705	21995.79
685.053	22039.41
685.4	22037.82
685.748	21942.91
686.095	21879.86
686.443	21810.03
686.79	21883.7
687.138	21866.76
687.485	21769.58
687.832	21723.71
688.18	21701.79
688.527	21707.21
688.874	21628.12
689.221	21504.05
689.568	21537.5
689.915	21556.03
690.262	21491.62
690.609	21389.25
690.956	21367.56
691.303	21306.54
691.65	21324.4
691.997	21194.68
692.344	21074.01
692.69	21016.61
693.037	21051.64
693.383	20935.71
693.73	20986.33
694.077	20766.67
694.423	20868.82
694.769	20829.95
695.116	20690.97
695.462	20740.91
695.808	20657.3
696.155	20707.46
696.501	20448.71
696.847	20557.19
697.193	20363.74
697.539	20513.8
697.885	20256.63
698.231	20268.15
698.577	20277.64
698.923	20192.45
699.269	20137.31
699.614	20078.1
699.96	19953.81
700.306	20034.04
700.651	19932.12
700.997	19874.94
701.342	19838.33
701.688	19844.89
702.033	19831.1
702.379	19692.35
702.724	19737.77
703.069	19718.56
703.415	19556.76
703.76	19485.12
704.105	19493.26
704.45	19491.45
704.795	19267.73
705.14	19229.54
705.485	19248.07
705.83	19056.21
706.175	19127.17
706.52	18923.1
706.865	18989.32
707.209	18979.37
707.554	18899.15
707.899	18926.49
708.243	18821.41
708.588	18823.45
708.932	18671.36
709.277	18741.41
709.621	18792.03
709.966	18553.85
710.31	18693.05
710.654	18465.26
710.998	18501.87
711.342	18460.29
711.687	18374.64
712.031	18309.11
712.375	18183.24
712.719	18318.15
713.063	18314.98
713.407	18322.89
713.75	18264.36
714.094	18162.9
714.438	18156.57
714.782	18204.93
715.125	18143.92
715.469	18058.95
715.812	17935.79
716.156	17910.48
716.499	17845.84
716.843	17967.65
717.186	17827.77
717.53	17924.71
717.873	17807.65
718.216	17719.97
718.559	17568.56
718.902	17529.24
719.246	17650.14
719.589	17459.41
719.932	17577.6
720.275	17592.52
720.617	17449.24
720.96	17495.8
721.303	17528.34
721.646	17444.05
721.989	17313.2
722.331	17459.41
722.674	17359.3
723.016	17356.14
723.359	17385.29
723.701	17291.73
724.044	17209.02
724.386	17097.39
724.729	17145.98
725.071	17049.03
725.413	17062.81
725.755	17016.94
726.097	17018.52
726.439	16933.1
726.782	16886.77
727.124	16983.04
727.465	16775.36
727.807	16922.03
728.149	16808.13
728.491	16828.24
728.833	16831.41
729.175	16759.32
729.516	16741.47
729.858	16703.28
730.199	16712.31
730.541	16625.31
730.882	16656.5
731.224	16655.82
731.565	16465.99
731.906	16553.45
732.248	16567.69
732.589	16517.74
732.93	16416.73
733.271	16309.16
733.612	16472.32
733.953	16441.36
734.294	16363.62
734.635	16276.17
734.976	16353.68
735.317	16211.31
735.658	16240.24
735.999	16096.96
736.339	16176.74
736.68	16181.93
737.021	16152.56
737.361	16031.65
737.702	16036.4
738.042	16024.65
738.383	15911.43
738.723	16008.83
739.063	15985.1
739.404	15908.95
739.744	15829.4
740.084	15866.24
740.424	15840.02
740.764	15797.31
741.104	15791.66
741.444	15757.31
741.784	15618.11
742.124	15697.88
742.464	15642.29
742.804	15615.17
743.143	15588.73
743.483	15644.09
743.823	15501.5
744.162	15468.73
744.502	15591.67
744.841	15465.12
745.181	15599.8
745.52	15414.95
745.86	15407.26
746.199	15361.16
746.538	15458.56
746.877	15381.73
747.216	15361.62
747.556	15346.7
747.895	15230.77
748.234	15225.57
748.573	15140.15
748.911	15101.28
749.25	15141.28
749.589	15070.32
749.928	15077.1
750.267	15066.26
750.605	15020.61
750.944	14999.14
751.283	14913.94
751.621	14908.97
751.96	14807.51
752.298	14890.44
752.636	14860.84
752.975	14748.75
753.313	14692.25
753.651	14773.16
753.989	14718.69
754.327	14695.64
754.666	14561.18
755.004	14635.53
