Data from foam_black_FLMS001491_00017.txt Node
Date: Wed Feb 08 10:43:35 GMT 2017
User: dcchb
Spectrometer: FLMS00149
Trigger mode: 0
Integration Time (sec): 2.000000E-2
Scans to average: 10
Electric dark correction enabled: true
Nonlinearity correction enabled: false
Boxcar width: 0
XAxis mode: Wavelengths
Number of Pixels in Spectrum: 2048
>>>>>Begin Spectral Data<<<<<
341.393	-2.67
341.776	-2.67
342.16	-2.67
342.543	-84.25
342.927	-73.4
343.31	-73.63
343.693	-66.85
344.077	-67.53
344.46	-58.71
344.843	-60.75
345.226	-40.86
345.61	-30.92
345.993	-38.6
346.376	14.96
346.759	28.74
347.142	16.09
347.525	34.84
347.908	63.32
348.291	89.31
348.674	86.14
349.057	104.45
349.44	109.19
349.823	161.17
350.206	157.55
350.588	198
350.971	214.95
351.354	217.21
351.737	204.78
352.119	256.08
352.502	248.17
352.884	247.72
353.267	247.95
353.65	269.41
354.032	284.55
354.414	276.65
354.797	304.89
355.179	298.34
355.562	307.38
355.944	316.42
356.326	323.42
356.709	299.24
357.091	324.33
357.473	346.25
357.855	330.88
358.238	343.54
358.62	328.85
359.002	337.89
359.384	332.24
359.766	332.24
360.148	334.5
360.53	328.62
360.912	343.31
361.294	326.36
361.676	321.84
362.057	324.1
362.439	324.78
362.821	321.16
363.203	306.25
363.584	310.77
363.966	341.73
364.348	318.45
364.729	330.2
365.111	307.83
365.493	321.16
365.874	323.88
366.256	303.76
366.637	309.41
367.019	326.14
367.4	308.06
367.781	321.84
368.163	312.58
368.544	307.6
368.925	334.5
369.306	317.1
369.688	303.31
370.069	322.75
370.45	298.57
370.831	309.41
371.212	314.38
371.593	307.6
371.974	309.19
372.355	297.21
372.736	313.71
373.117	318.68
373.498	319.13
373.879	308.28
374.26	325.91
374.641	316.42
375.021	311.45
375.402	328.17
375.783	334.72
376.163	349.19
376.544	328.62
376.925	342.63
377.305	342.18
377.686	337.21
378.066	344.67
378.447	369.3
378.827	343.99
379.208	340.15
379.588	331.56
379.968	336.3
380.349	336.08
380.729	340.37
381.109	351.45
381.489	372.91
381.87	347.83
382.25	354.84
382.63	342.18
383.01	349.86
383.39	343.54
383.77	355.29
384.15	378.11
384.53	355.51
384.91	372.01
385.29	364.55
385.67	360.03
386.049	371.56
386.429	364.55
386.809	384.67
387.189	385.57
387.568	362.52
387.948	365.91
388.328	382.41
388.707	389.18
389.087	373.14
389.466	380.37
389.846	383.54
390.225	406.13
390.605	387.15
390.984	395.51
391.363	413.82
391.743	404.1
392.122	426.25
392.501	384.89
392.881	408.39
393.26	402.29
393.639	390.09
394.018	394.61
394.397	414.49
394.776	426.7
395.155	410.2
395.534	419.47
395.913	436.42
396.292	407.04
396.671	419.92
397.05	422.63
397.429	417.66
397.808	424.21
398.186	417.88
398.565	416.3
398.944	437.54
399.323	463.08
399.701	440.26
400.08	449.07
400.458	445.68
400.837	454.27
401.215	454.49
401.594	448.39
401.972	467.15
402.351	468.5
402.729	469.63
403.107	467.83
403.486	463.53
403.864	496.3
404.242	483.87
404.62	488.17
404.999	488.17
405.377	466.24
405.755	486.58
406.133	504.21
406.511	493.81
406.889	469.63
407.267	494.27
407.645	486.36
408.023	513.93
408.401	515.06
408.779	494.72
409.156	524.32
409.534	512.12
409.912	519.35
410.29	537.2
410.667	538.79
411.045	538.79
411.422	553.02
411.8	545.56
412.178	539.24
412.555	547.15
412.933	579.24
413.31	565
413.687	569.97
414.065	556.64
414.442	576.98
414.819	583.08
415.197	592.34
415.574	593.47
415.951	582.4
416.328	588.5
416.705	582.63
417.082	598.22
417.46	604.32
417.837	612.68
418.214	623.08
418.591	624.88
418.967	607.94
419.344	626.92
419.721	607.94
420.098	620.14
420.475	638.67
420.852	639.57
421.228	622.17
421.605	671.66
421.982	650.19
422.358	635.05
422.735	662.85
423.111	687.93
423.488	677.99
423.864	668.27
424.241	687.26
424.617	684.09
424.994	709.18
425.37	690.19
425.746	699.23
426.123	696.3
426.499	715.5
426.875	698.56
427.251	726.58
427.627	736.07
428.003	718.89
428.379	728.16
428.756	737.2
429.132	734.03
429.507	762.28
429.883	756.63
430.259	782.17
430.635	787.14
431.011	777.65
431.387	783.07
431.763	808.16
432.138	809.51
432.514	806.57
432.89	841.38
433.265	849.96
433.641	842.28
434.016	849.51
434.392	844.54
434.767	867.82
435.143	891.54
435.518	874.6
435.894	879.79
436.269	892.22
436.644	909.62
437.02	915.5
437.395	908.27
437.77	914.59
438.145	938.77
438.52	945.33
438.895	935.61
439.271	952.11
439.646	976.29
440.021	936.29
440.395	976.97
440.77	975.84
441.145	964.31
441.52	998.21
441.895	982.16
442.27	1006.57
442.645	1004.76
443.019	1010.41
443.394	1043.63
443.769	1023.07
444.143	1022.61
444.518	1051.99
444.892	1026.23
445.267	1009.73
445.641	1011.32
446.016	1044.53
446.39	1057.42
446.764	1093.35
447.139	1079.11
447.513	1051.54
447.887	1071.43
448.262	1090.41
448.636	1082.5
449.01	1108.26
449.384	1091.99
449.758	1105.55
450.132	1117.3
450.506	1137.41
450.88	1111.65
451.254	1124.31
451.628	1148.49
452.002	1162.72
452.376	1152.55
452.75	1200.24
453.123	1187.81
453.497	1203.4
453.871	1228.03
454.244	1245.89
454.618	1265.32
454.992	1276.62
455.365	1258.99
455.739	1284.53
456.112	1271.2
456.486	1291.76
456.859	1307.35
457.232	1296.51
457.606	1318.2
457.979	1341.48
458.352	1374.02
458.725	1384.19
459.099	1358.88
459.472	1407.69
459.845	1405.43
460.218	1433.68
460.591	1416.73
460.964	1409.04
461.337	1499.89
461.71	1490.85
462.083	1536.95
462.456	1532.43
462.829	1510.96
463.201	1538.76
463.574	1552.09
463.947	1536.5
464.32	1581.47
464.692	1597.06
465.065	1628.25
465.438	1625.76
465.81	1638.19
466.183	1654.01
466.555	1700.11
466.928	1696.27
467.3	1719.55
467.672	1708.25
468.045	1781.24
468.417	1796.83
468.789	1809.71
469.161	1820.11
469.534	1824.85
469.906	1866.21
470.278	1880.67
470.65	1876.6
471.022	1943.72
471.394	1955.7
471.766	1974.91
472.138	1983.04
472.51	2007.9
472.882	2084.73
473.253	2067.33
473.625	2105.3
473.997	2196.14
474.369	2133.77
474.74	2176.48
475.112	2212.19
475.484	2243.6
475.855	2249.02
476.227	2278.85
476.598	2328.12
476.97	2365.4
477.341	2409.47
477.713	2434.78
478.084	2465.97
478.455	2531.5
478.827	2516.36
479.198	2582.35
479.569	2616.47
479.94	2658.28
480.311	2709.12
480.682	2718.39
481.053	2824.83
481.424	2855.79
481.795	2849.46
482.166	2886.07
482.537	2970.81
482.908	2952.51
483.279	3018.49
483.65	3065.72
484.021	3135.1
484.391	3163.12
484.762	3189.56
485.133	3211.03
485.503	3236.12
485.874	3359.05
486.244	3366.96
486.615	3412.83
486.985	3417.13
487.356	3484.02
487.726	3519.05
488.097	3590
488.467	3537.35
488.837	3652.15
489.207	3706.39
489.578	3738.02
489.948	3758.14
490.318	3795.42
490.688	3826.61
491.058	3902.76
491.428	3930.33
491.798	3950.67
492.168	4042.87
492.538	4068.18
492.908	4103.44
493.278	4159.48
493.648	4171.91
494.017	4233.6
494.387	4244.45
494.757	4275.64
495.126	4314.73
495.496	4339.82
495.866	4373.26
496.235	4404.22
496.605	4443.77
496.974	4520.38
497.344	4533.93
497.713	4556.76
498.082	4581.84
498.452	4628.62
498.821	4654.84
499.19	4638.56
499.559	4709.75
499.928	4769.86
500.298	4762.85
500.667	4803.08
501.036	4797.66
501.405	4865.45
501.774	4815.96
502.143	4853.7
502.512	4954.94
502.88	4964.66
503.249	5039.68
503.618	4964.88
503.987	5042.17
504.356	5101.38
504.724	5122.62
505.093	5138.21
505.462	5197.65
505.83	5224.31
506.199	5215.72
506.567	5295.5
506.936	5336.85
507.304	5363.29
507.672	5436.06
508.041	5422.05
508.409	5503.63
508.777	5501.14
509.145	5581.14
509.514	5606.67
509.882	5660.68
510.25	5672.21
510.618	5685.77
510.986	5707.91
511.354	5746.56
511.722	5838.08
512.09	5862.26
512.458	5811.64
512.826	5873.33
513.193	5951.3
513.561	5940.23
513.929	5918.98
514.297	6035.82
514.664	6137.96
515.032	6072.65
515.4	6162.37
515.767	6204.17
516.135	6223.83
516.502	6192.65
516.869	6331.18
517.237	6367.33
517.604	6368.24
517.972	6438.29
518.339	6488.23
518.706	6601.9
519.073	6616.59
519.44	6586.76
519.808	6719.87
520.175	6750.37
520.542	6793.08
520.909	6828.79
521.276	6835.12
521.643	6962.8
522.009	6968.9
522.376	6983.36
522.743	7082.12
523.11	7082.79
523.477	7146.52
523.843	7230.36
524.21	7199.63
524.577	7283.01
524.943	7358.49
525.31	7347.87
525.676	7474.42
526.043	7498.6
526.409	7529.56
526.776	7637.81
527.142	7633.51
527.508	7761.65
527.874	7776.56
528.241	7890.46
528.607	7937.23
528.973	7998.93
529.339	7989.21
529.705	8137.46
530.071	8167.51
530.437	8162.99
530.803	8268.3
531.169	8310.78
531.535	8286.38
531.901	8332.93
532.267	8426.71
532.632	8506.03
532.998	8491.34
533.364	8489.31
533.73	8564.56
534.095	8641.17
534.461	8638.91
534.826	8608.4
535.192	8657.67
535.557	8754.39
535.923	8696.31
536.288	8803.2
536.653	8841.17
537.019	8786.25
537.384	8845.23
537.749	8900.15
538.114	8969.75
538.479	9015.17
538.845	9026.47
539.21	9137.88
539.575	9105.34
539.94	9174.94
540.305	9265.56
540.67	9242.74
541.034	9313.47
541.399	9359.57
541.764	9415.16
542.129	9409.29
542.494	9464.65
542.858	9569.06
543.223	9533.13
543.587	9539.45
543.952	9571.09
544.316	9654.03
544.681	9554.59
545.045	9650.86
545.41	9638.21
545.774	9710.75
546.138	9687.92
546.503	9717.75
546.867	9755.49
547.231	9892.21
547.595	9816.06
547.959	9844.08
548.324	9888.37
548.688	9953.68
549.052	9937.63
549.416	10044.98
549.779	10040.68
550.143	10063.05
550.507	10148.7
550.871	10275.25
551.235	10259.66
551.599	10370.17
551.962	10310.05
552.326	10422.14
552.689	10497.62
553.053	10421.24
553.417	10528.13
553.78	10665.75
554.143	10658.29
554.507	10695.35
554.87	10706.65
555.234	10847.67
555.597	10730.83
555.96	10835.46
556.323	10850.6
556.686	10808.57
557.05	10961.11
557.413	11002.46
557.776	10960.88
558.139	11103.71
558.502	11054.89
558.865	11078.62
559.228	11172.18
559.59	11205.17
559.953	11288.79
560.316	11375.34
560.679	11391.83
561.041	11492.17
561.404	11514.99
561.767	11749.34
562.129	11624.82
562.492	11663.46
562.854	11709.79
563.217	11790.01
563.579	11928.54
563.941	11947.3
564.304	11978.71
564.666	12133.06
565.028	12170.12
565.39	12165.6
565.753	12270.45
566.115	12348.42
566.477	12312.49
566.839	12445.14
567.201	12549.54
567.563	12494.86
567.925	12594.06
568.287	12671.12
568.648	12607.17
569.01	12662.31
569.372	12787.05
569.734	12860.72
570.095	12834.28
570.457	12845.13
570.819	12994.28
571.18	12957.22
571.542	13023.65
571.903	13011.45
572.265	13067.04
572.626	13147.49
572.987	13159.92
573.349	13192.69
573.71	13354.27
574.071	13373.93
574.432	13338
574.794	13450.76
575.155	13428.84
575.516	13450.31
575.877	13542.96
576.238	13525.56
576.599	13613.02
576.96	13598.78
577.32	13556.52
577.681	13599.68
578.042	13728.72
578.403	13736.4
578.763	13653.69
579.124	13790.87
579.485	13768.27
579.845	13933.69
580.206	13818.44
580.566	13894.37
580.927	13923.97
581.287	13958.09
581.648	13908.15
582.008	13994.02
582.368	13938.43
582.728	14065.44
583.089	13976.85
583.449	13959.68
583.809	14068.37
584.169	14037.64
584.529	14018.2
584.889	14189.73
585.249	14035.15
585.609	14093.91
585.969	14054.59
586.329	13992.44
586.688	13988.15
587.048	14026.11
587.408	13977.75
587.768	14050.97
588.127	14052.55
588.487	13959.9
588.846	14065.89
589.206	13920.58
589.565	13967.36
589.925	13948.6
590.284	13937.53
590.643	14019.11
591.003	14081.93
591.362	14069.28
591.721	14116.96
592.08	14108.37
592.44	14204.64
592.799	14235.37
593.158	14182.04
593.517	14176.17
593.876	14234.24
594.235	14211.87
594.593	14442.6
594.952	14336.39
595.311	14269.27
595.67	14354.02
596.029	14452.32
596.387	14450.96
596.746	14467.01
597.104	14512.66
597.463	14408.48
597.822	14497.06
598.18	14521.92
598.538	14450.06
598.897	14502.71
599.255	14427.01
599.613	14572.54
599.972	14445.99
600.33	14512.43
600.688	14302.04
601.046	14453.45
601.404	14510.85
601.762	14413
602.12	14502.71
602.478	14443.73
602.836	14396.5
603.194	14434.92
603.552	14350.85
603.91	14357.4
604.268	14453.45
604.625	14387.01
604.983	14431.53
605.341	14304.75
605.698	14546.78
606.056	14564.86
606.413	14492.32
606.771	14513.33
607.128	14585.87
607.485	14607.57
607.843	14613.22
608.2	14738.64
608.557	14823.83
608.914	14762.82
609.272	14849.6
609.629	14910.61
609.986	14929.37
610.343	14904.28
610.7	15047.56
611.057	15086.65
611.414	14987.9
611.771	14990.61
612.127	15055.01
612.484	15021.12
612.841	15070.38
613.198	15063.15
613.554	15005.07
613.911	15100.66
614.267	15015.24
614.624	14994.45
614.98	15036.71
615.337	15080.78
615.693	15013.43
616.05	15023.83
616.406	15208
616.762	15013.88
617.118	15022.7
617.475	14971.85
617.831	15099.98
618.187	15100.21
618.543	15100.21
618.899	15111.51
619.255	15055.47
619.611	15083.94
619.967	15225.4
620.323	15231.51
620.678	15155.58
621.034	15110.15
621.39	15198.96
621.746	15273.31
622.101	15351.05
622.457	15358.06
622.812	15399.19
623.168	15387.66
623.523	15458.62
623.879	15476.92
624.234	15459.3
624.589	15535.45
624.945	15481.44
625.3	15524.38
625.655	15509.92
626.01	15476.47
626.365	15604.6
626.72	15538.84
627.075	15600.99
627.43	15489.35
627.785	15597.82
628.14	15479.64
628.495	15522.12
628.85	15440.09
629.205	15403.48
629.559	15522.57
629.914	15454.55
630.269	15339.3
630.623	15262.69
630.978	15285.52
631.332	15242.35
631.687	15309.92
632.041	15171.39
632.396	15234.9
632.75	15155.35
633.104	15135.46
633.459	15037.16
633.813	14996.26
634.167	14976.15
634.521	15010.72
634.875	15122.13
635.229	15016.6
635.583	15020.44
635.937	15007.78
636.291	14962.13
636.645	15071.28
636.999	14886.66
637.352	14951.51
637.706	14919.42
638.06	14923.49
638.413	14894.11
638.767	14932.98
639.121	14832.42
639.474	14839.65
639.828	14894.34
640.181	14871.29
640.534	14910.38
640.888	14816.6
641.241	14742.93
641.594	14876.04
641.947	14855.47
642.301	14747.45
642.654	14843.72
643.007	14890.72
643.36	14768.69
643.713	14815.02
644.066	14815.25
644.419	14737.51
644.771	14589.94
645.124	14401.25
645.477	14370.74
645.83	14363.73
646.182	14383.84
646.535	14356.28
646.888	14317.18
647.24	14396.27
647.593	14397.18
647.945	14371.64
648.298	14295.03
648.65	14268.14
649.002	14217.97
649.355	14243.74
649.707	14196.28
650.059	14084.19
650.411	14299.1
650.763	14298.42
651.115	14557.4
651.467	14480.79
651.819	14475.59
652.171	14381.13
652.523	14394.24
652.875	14265.88
653.227	14228.59
653.578	14427.91
653.93	14361.47
654.282	14281.7
654.633	14223.4
654.985	14274.7
655.337	14285.54
655.688	14155.38
656.039	14240.12
656.391	14142.27
656.742	14192.66
657.094	14114.7
657.445	14192.21
657.796	14208.48
658.147	14156.28
658.498	14159.22
658.849	14242.83
659.2	14271.31
659.551	14213.45
659.902	14240.12
660.253	14172.1
660.604	14295.26
660.955	14235.83
661.306	14262.94
661.656	14170.74
662.007	14140.91
662.358	14284.19
662.708	14222.04
663.059	14232.66
663.409	14065.44
663.76	14251.65
664.11	14280.8
664.461	14293.23
664.811	14284.64
665.161	14245.77
665.511	14187.69
665.862	14148.82
666.212	14110.86
666.562	14189.95
666.912	14285.09
667.262	14197.18
667.612	14230.63
667.962	14216.84
668.312	14040.35
668.662	14197.86
669.011	14109.5
669.361	14052.78
669.711	14016.85
670.06	14002.39
670.41	13991.76
670.76	13901.6
671.109	13986.12
671.459	14067.7
671.808	13913.12
672.157	13949.05
672.507	13861.82
672.856	13909.96
673.205	13870.19
673.554	13941.14
673.904	13781.15
674.253	13887.59
674.602	13796.97
674.951	13566.24
675.3	13515.62
675.649	13747.48
675.998	13724.88
676.346	13817.76
676.695	13810.53
677.044	13674.03
677.393	13713.81
677.741	13718.55
678.09	13767.36
678.438	13766.46
678.787	13787.7
679.135	13838.32
679.484	13713.35
679.832	13872.22
680.181	13727.37
680.529	13775.95
680.877	13712
681.225	13702.51
681.573	13780.92
681.922	13746.8
682.27	13660.25
682.618	13668.61
682.966	13654.37
683.314	13719.23
683.661	13598.78
684.009	13634.26
684.357	13512.23
684.705	13523.08
685.053	13533.25
685.4	13472.91
685.748	13483.76
686.095	13419.12
686.443	13355.62
686.79	13390.42
687.138	13362.18
687.485	13339.8
687.832	13294.83
688.18	13236.53
688.527	13179.58
688.874	13036.99
689.221	13060.04
689.568	13065.46
689.915	12995.18
690.262	12978.91
690.609	12998.8
690.956	12887.16
691.303	12888.07
691.65	12779.59
691.997	12814.17
692.344	12782.31
692.69	12733.49
693.037	12836.32
693.383	12660.95
693.73	12662.99
694.077	12683.78
694.423	12741.63
694.769	12538.02
695.116	12513.16
695.462	12547.74
695.808	12541.18
696.155	12517
696.501	12391.35
696.847	12562.2
697.193	12457.34
697.539	12429.77
697.885	12287.85
698.231	12322.66
698.577	12333.28
698.923	12337.8
699.269	12382.54
699.614	12286.05
699.96	12279.04
700.306	12202.66
700.651	12155.2
700.997	12103
701.342	12161.08
701.688	12103.45
702.033	12030.23
702.379	12058.71
702.724	11944.81
703.069	11977.13
703.415	11821.2
703.76	11915.89
704.105	11879.5
704.45	11811.48
704.795	11754.76
705.14	11668.44
705.485	11709.56
705.83	11593.41
706.175	11632.5
706.52	11562.9
706.865	11529.46
707.209	11505.05
707.554	11399.06
707.899	11484.03
708.243	11377.6
708.588	11391.61
708.932	11358.84
709.277	11360.42
709.621	11334.89
709.966	11232.06
710.31	11268.45
710.654	11220.31
710.998	11244.27
711.342	11211.95
711.687	11251.72
712.031	11136.7
712.375	11133.08
712.719	11217.37
713.063	11173.31
713.407	11167.66
713.75	11053.54
714.094	11126.76
714.438	11083.37
714.782	11144.61
715.125	10992.07
715.469	11086.53
715.812	10990.49
716.156	11002.46
716.499	10993.65
716.843	10981.9
717.186	10896.25
717.53	10950.49
717.873	11022.8
718.216	10971.73
718.559	10898.74
718.902	10774.9
719.246	10802.24
719.589	10798.4
719.932	10833.43
720.275	10881.11
720.617	10840.89
720.96	10737.61
721.303	10710.5
721.646	10778.06
721.989	10621.46
722.331	10652.64
722.674	10661.46
723.016	10582.81
723.359	10653.32
723.701	10608.13
724.044	10507.11
724.386	10489.26
724.729	10535.36
725.071	10489.48
725.413	10469.6
725.755	10369.94
726.097	10434.34
726.439	10301.01
726.782	10304.4
727.124	10389.37
727.465	10308.25
727.807	10266.67
728.149	10287.23
728.491	10229.83
728.833	10266.67
729.175	10166.1
729.516	10188.7
729.858	10167.01
730.199	10178.76
730.541	10123.39
730.882	10150.06
731.224	10218.53
731.565	10089.04
731.906	10066.67
732.248	10093.34
732.589	10086.1
732.93	10103.96
733.271	10048.59
733.612	10054.47
733.953	10087.46
734.294	10027.35
734.635	10004.98
734.976	10082.04
735.317	10021.25
735.658	10033.68
735.999	9987.8
736.339	10010.63
736.68	10026.45
737.021	9991.64
737.361	9962.49
737.702	10008.37
738.042	10044.3
738.383	9920.46
738.723	9971.76
739.063	9919.78
739.404	9884.75
739.744	9862.38
740.084	9882.95
740.424	9955.26
740.764	9878.65
741.104	9900.8
741.444	9805.66
741.784	9772.44
742.124	9783.06
742.464	9749.84
742.804	9758.2
743.143	9730.63
743.483	9754.59
743.823	9661.94
744.162	9676.17
744.502	9676.4
744.841	9717.53
745.181	9673.01
745.52	9617.19
745.86	9614.25
746.199	9613.8
746.538	9575.16
746.877	9617.87
747.216	9540.13
747.556	9506.91
747.895	9507.14
748.234	9471.88
748.573	9429.62
748.911	9450.19
749.25	9465.1
749.589	9429.17
749.928	9458.1
750.267	9510.98
750.605	9358.89
750.944	9393.47
751.283	9259.91
751.621	9367.71
751.96	9334.49
752.298	9335.39
752.636	9209.74
752.975	9300.14
753.313	9246.58
753.651	9207.03
753.989	9142.85
754.327	9169.97
754.666	9183.08
755.004	9099.46
755.342	9162.74
755.679	9187.6
756.017	9075.06
756.355	9132.91
756.693	9020.37
757.031	9008.62
757.368	8963.65
757.706	8928.85
758.044	8902.63
758.381	8912.8
758.719	8860.6
759.056	8899.47
759.394	8881.39
759.731	8795.74
