Data from foam_black_FLMS001491_00040.txt Node
Date: Wed Feb 08 10:43:49 GMT 2017
User: dcchb
Spectrometer: FLMS00149
Trigger mode: 0
Integration Time (sec): 2.000000E-2
Scans to average: 10
Electric dark correction enabled: true
Nonlinearity correction enabled: false
Boxcar width: 0
XAxis mode: Wavelengths
Number of Pixels in Spectrum: 2048
>>>>>Begin Spectral Data<<<<<
341.393	-2.57
341.776	-2.57
342.16	-2.57
342.543	-45.28
342.927	-66.52
343.31	-83.25
343.693	-79.63
344.077	-59.07
344.46	-63.13
344.843	-61.1
345.226	-35.34
345.61	-25.85
345.993	-23.36
346.376	1.27
346.759	13.47
347.142	13.02
347.525	72.68
347.908	52.12
348.291	83.08
348.674	88.95
349.057	106.13
349.44	123.53
349.823	132.12
350.206	159.91
350.588	196.75
350.971	198.55
351.354	206.92
351.737	219.8
352.119	213.24
352.502	241.94
352.884	265.44
353.267	240.36
353.65	256.41
354.032	268.61
354.414	279.91
354.797	295.5
355.179	305.9
355.562	304.31
355.944	301.38
356.326	303.86
356.709	316.74
357.091	304.09
357.473	307.48
357.855	327.36
358.238	325.56
358.62	325.78
359.002	337.99
359.384	318.55
359.766	314.48
360.148	304.09
360.53	336.4
360.912	321.04
361.294	323.97
361.676	327.14
362.057	299.57
362.439	322.62
362.821	296.18
363.203	293.92
363.584	336.4
363.966	299.57
364.348	300.47
364.729	323.75
365.111	290.76
365.493	323.07
365.874	304.09
366.256	297.53
366.637	283.07
367.019	277.2
367.4	265.9
367.781	305.22
368.163	313.13
368.544	312.22
368.925	279.91
369.306	293.92
369.688	289.63
370.069	296.63
370.45	299.79
370.831	300.92
371.212	288.95
371.593	289.4
371.974	290.3
372.355	314.26
372.736	281.26
373.117	293.69
373.498	303.86
373.879	282.39
374.26	274.03
374.641	281.49
375.021	284.43
375.402	294.37
375.783	302.28
376.163	294.6
376.544	295.27
376.925	307.03
377.305	296.4
377.686	299.34
378.066	309.96
378.447	304.54
378.827	309.51
379.208	292.79
379.588	304.09
379.968	288.27
380.349	284.43
380.729	310.87
381.109	302.73
381.489	294.82
381.87	308.61
382.25	312.45
382.63	314.71
383.01	326.46
383.39	317.42
383.77	312.22
384.15	315.39
384.53	324.65
384.91	312.22
385.29	339.12
385.67	309.51
386.049	348.38
386.429	329.62
386.809	318.1
387.189	344.54
387.568	320.36
387.948	335.73
388.328	332.11
388.707	317.42
389.087	333.92
389.466	341.15
389.846	341.6
390.225	346.57
390.605	344.99
390.984	326.69
391.363	325.1
391.743	336.63
392.122	349.06
392.501	346.8
392.881	349.74
393.26	334.37
393.639	338.66
394.018	349.51
394.397	353.35
394.776	338.44
395.155	366.46
395.534	354.03
395.913	332.34
396.292	347.02
396.671	344.09
397.05	320.58
397.429	340.25
397.808	366.01
398.186	363.52
398.565	355.61
398.944	356.29
399.323	351.54
399.701	373.01
400.08	355.84
400.458	359.91
400.837	350.19
401.215	360.13
401.594	363.07
401.972	383.18
402.351	355.84
402.729	382.28
403.107	370.75
403.486	383.41
403.864	373.01
404.242	361.71
404.62	407.59
404.999	378.66
405.377	384.99
405.755	372.79
406.133	376.18
406.511	352.45
406.889	395.84
407.267	395.61
407.645	396.06
408.023	389.74
408.401	387.7
408.779	387.93
409.156	412.79
409.534	395.61
409.912	378.66
410.29	412.11
410.667	412.79
411.045	408.72
411.422	401.49
411.8	404.88
412.178	417.31
412.555	406.23
412.933	420.02
413.31	410.98
413.687	434.93
414.065	407.59
414.442	424.99
414.819	431.54
415.197	410.75
415.574	419.34
415.951	419.11
416.328	431.77
416.705	442.16
417.082	431.54
417.46	425.67
417.837	429.96
418.214	452.11
418.591	422.73
418.967	429.28
419.344	432.22
419.721	474.25
420.098	458.43
420.475	452.33
420.852	485.1
421.228	470.64
421.605	455.5
421.982	457.98
422.358	467.02
422.735	466.8
423.111	470.19
423.488	484.87
423.864	498.66
424.241	479.22
424.617	464.76
424.994	490.98
425.37	486.46
425.746	489.62
426.123	474.93
426.499	489.17
426.875	502.27
427.251	500.47
427.627	534.14
428.003	498.89
428.379	509.05
428.756	493.69
429.132	506.12
429.507	505.66
429.883	509.73
430.259	526.91
430.635	510.64
431.011	534.59
431.387	533.69
431.763	528.04
432.138	528.04
432.514	532.33
432.89	526.23
433.265	559.9
433.641	556.28
434.016	551.31
434.392	548.38
434.767	554.48
435.143	583.4
435.518	575.95
435.894	584.08
436.269	587.24
436.644	556.28
437.02	573.23
437.395	565.78
437.77	577.3
438.145	587.7
438.52	591.54
438.895	591.99
439.271	586.11
439.646	607.36
440.021	605.78
440.395	598.54
440.77	620.01
441.145	591.99
441.52	644.19
441.895	602.39
442.27	638.77
442.645	618.88
443.019	626.79
443.394	620.01
443.769	629.05
444.143	608.49
444.518	627.92
444.892	630.63
445.267	630.41
445.641	622.5
446.016	651.88
446.39	660.24
446.764	633.57
447.139	658.65
447.513	644.64
447.887	637.64
448.262	668.15
448.636	662.72
449.01	681.48
449.384	669.05
449.758	679.22
450.132	659.33
450.506	674.02
450.88	663.85
451.254	682.38
451.628	702.04
452.002	664.98
452.376	687.13
452.75	687.13
453.123	721.93
453.497	703.85
453.871	710.41
454.244	722.61
454.618	731.65
454.992	739.1
455.365	755.15
455.739	726
456.112	755.15
456.486	748.37
456.859	761.93
457.232	781.36
457.606	775.49
457.979	788.37
458.352	785.43
458.725	794.02
459.099	800.8
459.472	835.15
459.845	803.96
460.218	792.89
460.591	816.39
460.964	800.8
461.337	850.97
461.71	844.19
462.083	843.51
462.456	843.51
462.829	853.45
463.201	877.41
463.574	860.01
463.947	865.2
464.32	881.93
464.692	866.33
465.065	888.71
465.438	925.99
465.81	913.79
466.183	911.76
466.555	922.38
466.928	911.98
467.3	923.51
467.672	939.1
468.045	942.26
468.417	969.61
468.789	960.12
469.161	966.22
469.534	994.47
469.906	1013.9
470.278	994.47
470.65	1031.07
471.022	1026.1
471.394	1052.54
471.766	1028.36
472.138	1033.56
472.51	1085.08
472.882	1086.44
473.253	1093.67
473.625	1124.63
473.997	1111.75
474.369	1122.6
474.74	1139.77
475.112	1142.03
475.484	1158.75
475.855	1188.58
476.227	1197.62
476.598	1206.21
476.97	1203.73
477.341	1252.76
477.713	1263.16
478.084	1256.83
478.455	1284.63
478.827	1307.45
479.198	1294.34
479.569	1301.8
479.94	1357.62
480.311	1328.47
480.682	1390.16
481.053	1402.59
481.424	1422.25
481.795	1427.45
482.166	1463.38
482.537	1456.6
482.908	1502.93
483.279	1491.4
483.65	1504.06
484.021	1542.93
484.391	1549.71
484.762	1567.78
485.133	1573.43
485.503	1621.57
485.874	1606.2
486.244	1637.16
486.615	1648.91
486.985	1713.77
487.356	1724.62
487.726	1706.99
488.097	1743.15
488.467	1724.84
488.837	1767.33
489.207	1824.27
489.578	1798.96
489.948	1799.42
490.318	1874.89
490.688	1852.52
491.058	1843.48
491.428	1888.68
491.798	1881.45
492.168	1928.23
492.538	1954.21
492.908	1947.43
493.278	1975.68
493.648	2002.57
494.017	2026.08
494.387	2017.94
494.757	2060.2
495.126	2022.01
495.496	2058.39
495.866	2069.69
496.235	2116.47
496.605	2097.26
496.974	2121.67
497.344	2167.77
497.713	2112.85
498.082	2135.45
498.452	2182.46
498.821	2186.3
499.19	2224.26
499.559	2229.69
499.928	2247.54
500.298	2241.44
500.667	2259.74
501.036	2230.37
501.405	2263.36
501.774	2294.54
502.143	2297.71
502.512	2269.91
502.88	2291.61
503.249	2348.78
503.618	2350.36
503.987	2342
504.356	2371.38
504.724	2384.03
505.093	2370.02
505.462	2349.01
505.83	2412.28
506.199	2421.77
506.567	2440.76
506.936	2440.3
507.304	2443.47
507.672	2505.39
508.041	2492.28
508.409	2539.96
508.777	2565.5
509.145	2529.11
509.514	2578.6
509.882	2599.62
510.25	2590.58
510.618	2614.76
510.986	2585.38
511.354	2638.04
511.722	2682.78
512.09	2696.12
512.458	2669.22
512.826	2721.88
513.193	2699.51
513.561	2717.36
513.929	2711.93
514.297	2777.47
514.664	2774.08
515.032	2765.49
515.4	2810.24
515.767	2848.65
516.135	2822.44
516.502	2836.68
516.869	2864.92
517.237	2863.34
517.604	2894.08
517.972	2936.11
518.339	2924.58
518.706	2953.51
519.073	2976.79
519.44	3010.01
519.808	3015.2
520.175	3010.01
520.542	3052.94
520.909	3058.59
521.276	3015.66
521.643	3091.13
522.009	3123
522.376	3126.39
522.743	3179.72
523.11	3221.3
523.477	3222.66
523.843	3259.49
524.21	3286.61
524.577	3265.14
524.943	3269.89
525.31	3328.87
525.676	3372.93
526.043	3370
526.409	3355.99
526.776	3413.84
527.142	3396.89
527.508	3407.74
527.874	3435.98
528.241	3470.33
528.607	3486.83
528.973	3544.23
529.339	3522.76
529.705	3541.29
530.071	3582.42
530.437	3590.33
530.803	3608.86
531.169	3587.84
531.535	3592.59
531.901	3675.98
532.267	3689.99
532.632	3693.38
532.998	3729.08
533.364	3707.16
533.73	3715.3
534.095	3750.1
534.461	3755.75
534.826	3860.83
535.192	3811.11
535.557	3810.66
535.923	3823.09
536.288	3884.33
536.653	3886.37
537.019	3900.6
537.384	3916.65
537.749	3927.72
538.114	3931.79
538.479	3922.75
538.845	3956.2
539.21	3975.4
539.575	4002.52
539.94	3962.52
540.305	4055.4
540.67	4046.36
541.034	4023.54
541.399	4095.63
541.764	4061.96
542.129	4085.46
542.494	4091.79
542.858	4087.04
543.223	4081.62
543.587	4152.8
543.952	4129.3
544.316	4137.21
544.681	4148.28
545.045	4180.82
545.41	4186.25
545.774	4221.5
546.138	4213.14
546.503	4229.63
546.867	4248.39
547.231	4330.42
547.595	4252.23
547.959	4256.98
548.324	4299.92
548.688	4291.78
549.052	4316.64
549.416	4359.12
549.779	4320.93
550.143	4404.32
550.507	4435.28
550.871	4439.35
551.235	4405.9
551.599	4459.46
551.962	4485
552.326	4516.41
552.689	4475.28
553.053	4459.46
553.417	4523.86
553.78	4529.51
554.143	4587.14
554.507	4577.87
554.87	4598.44
555.234	4614.26
555.597	4657.42
555.96	4665.1
556.323	4673.46
556.686	4687.48
557.05	4683.63
557.413	4700.36
557.776	4767.93
558.139	4764.99
558.502	4776.51
558.865	4807.47
559.228	4822.16
559.59	4841.6
559.953	4874.36
560.316	4912.1
560.679	4915.49
561.041	4958.2
561.404	4967.24
561.767	5018.99
562.129	5005.21
562.492	5054.92
562.854	5026
563.217	5064.64
563.579	5102.61
563.941	5113.23
564.304	5160.91
564.666	5171.98
565.028	5181.25
565.39	5170.63
565.753	5214.69
566.115	5188.03
566.477	5256.95
566.839	5308.02
567.201	5303.5
567.563	5368.81
567.925	5362.94
568.287	5326.33
568.648	5357.74
569.01	5411.52
569.372	5427.57
569.734	5432.54
570.095	5490.39
570.457	5492.2
570.819	5476.61
571.18	5488.36
571.542	5571.97
571.903	5564.97
572.265	5557.74
572.626	5619.88
572.987	5585.98
573.349	5598.64
573.71	5583.72
574.071	5665.75
574.432	5652.65
574.794	5705.3
575.155	5730.16
575.516	5682.7
575.877	5702.59
576.238	5689.48
576.599	5755.92
576.96	5697.17
577.32	5748.46
577.681	5742.36
578.042	5817.84
578.403	5812.64
578.763	5845.41
579.124	5795.24
579.485	5872.98
579.845	5840.89
580.206	5844.06
580.566	5924.28
580.927	5860.78
581.287	5874.34
581.648	5918.4
582.008	5868.91
582.368	5868.46
582.728	5917.5
583.089	5886.99
583.449	5904.17
583.809	5902.13
584.169	5922.92
584.529	5905.75
584.889	5981.23
585.249	5940.32
585.609	5938.74
585.969	5959.98
586.329	5936.48
586.688	5954.56
587.048	5978.97
587.408	5928.57
587.768	5906.2
588.127	5891.29
588.487	5953.88
588.846	5974
589.206	5946.88
589.565	5958.18
589.925	5963.6
590.284	5897.61
590.643	5920.21
591.003	5975.8
591.362	6043.6
591.721	5975.8
592.08	5939.42
592.44	5981.9
592.799	5923.83
593.158	5939.87
593.517	5883.15
593.876	5969.02
594.235	5929.93
594.593	5929.25
594.952	5960.44
595.311	5990.49
595.67	5961.34
596.029	5993.88
596.387	5958.63
596.746	6000.21
597.104	5986.2
597.463	5965.18
597.822	6030.49
598.18	5948.23
598.538	6014.67
598.897	6031.4
599.255	6055.8
599.613	6054.45
599.972	6065.07
600.33	6077.27
600.688	6042.69
601.046	6043.6
601.404	6052.41
601.762	6068
602.12	6070.26
602.478	6097.38
602.836	6095.57
603.194	6041.79
603.552	6041.79
603.91	6070.26
604.268	6050.15
604.625	6099.64
604.983	6105.52
605.341	6077.27
605.698	6121.79
606.056	6093.77
606.413	6086.76
606.771	6079.76
607.128	6114.1
607.485	6100.09
607.843	6116.59
608.2	6155.91
608.557	6167.89
608.914	6104.39
609.272	6172.41
609.629	6146.19
609.986	6160.21
610.343	6142.35
610.7	6170.6
611.057	6163.82
611.414	6169.24
611.771	6166.98
612.127	6191.62
612.484	6171.96
612.841	6220.77
613.198	6258.73
613.554	6253.76
613.911	6254.67
614.267	6245.17
614.624	6307.09
614.98	6334.21
615.337	6349.35
615.693	6371.05
616.05	6345.74
616.406	6435.45
616.762	6366.3
617.118	6403.59
617.475	6388
617.831	6459.63
618.187	6406.3
618.543	6426.41
618.899	6450.37
619.255	6392.29
619.611	6448.11
619.967	6497.15
620.323	6485.62
620.678	6404.27
621.034	6411.27
621.39	6408.33
621.746	6404.27
622.101	6500.99
622.457	6342.35
622.812	6397.04
623.168	6408.56
623.523	6411.27
623.879	6365.62
624.234	6334.44
624.589	6336.25
624.945	6280.88
625.3	6369.01
625.655	6316.36
626.01	6339.64
626.365	6259.64
626.72	6248.56
627.075	6288.11
627.43	6317.04
627.785	6237.72
628.14	6275.23
628.495	6271.84
628.85	6254.21
629.205	6263.71
629.559	6234.78
629.914	6290.6
630.269	6248.79
630.623	6199.98
630.978	6254.44
631.332	6250.37
631.687	6260.32
632.041	6294.44
632.396	6306.64
632.75	6263.93
633.104	6275.23
633.459	6274.55
633.813	6279.07
634.167	6287.66
634.521	6298.05
634.875	6380.31
635.229	6343.7
635.583	6378.5
635.937	6298.73
636.291	6300.31
636.645	6291.95
636.999	6306.87
637.352	6323.36
637.706	6288.79
638.06	6288.56
638.413	6315.23
638.767	6217.15
639.121	6272.52
639.474	6296.47
639.828	6270.71
640.181	6287.89
640.534	6218.51
640.888	6256.25
641.241	6154.33
641.594	6223.71
641.947	6166.31
642.301	6219.86
642.654	6202.24
643.007	6210.37
643.36	6198.62
643.713	6141.45
644.066	6149.81
644.419	6165.85
644.771	5987.55
645.124	5908.01
645.477	5942.36
645.83	5919.08
646.182	5844.73
646.535	5927.22
646.888	5991.4
647.24	5910.49
647.593	5945.3
647.945	5910.72
648.298	5849.93
648.65	5839.31
649.002	5863.49
649.355	5831.85
649.707	5825.75
650.059	5880.44
650.411	5900.55
650.763	5930.83
651.115	6002.02
651.467	5989.59
651.819	6014.67
652.171	6001.79
652.523	5952.53
652.875	6024.16
653.227	5899.2
653.578	5976.93
653.93	5976.26
654.282	5982.36
654.633	5943.71
654.985	5970.61
655.337	6026.42
655.688	5991.85
656.039	5982.58
656.391	5954.33
656.742	5957.05
657.094	5952.3
657.445	5921.57
657.796	5955.69
658.147	5964.96
658.498	5933.54
658.849	5992.07
659.2	5925.18
659.551	5918.63
659.902	5896.48
660.253	5871.85
660.604	5886.77
660.955	5891.29
661.306	5946.88
661.656	5856.03
662.007	5849.25
662.358	5842.7
662.708	5863.94
663.059	5874.34
663.409	5771.74
663.76	5834.56
664.11	5870.27
664.461	5837.5
664.811	5809.48
665.161	5774
665.511	5798.63
665.862	5760.22
666.212	5743.27
666.562	5798.86
666.912	5772.42
667.262	5778.29
667.612	5805.64
667.962	5799.54
668.312	5816.49
668.662	5811.06
669.011	5841.57
669.361	5823.94
669.711	5787.33
670.06	5796.6
670.41	5777.16
670.76	5812.87
671.109	5830.72
671.459	5771.06
671.808	5835.69
672.157	5859.87
672.507	5840.44
672.856	5842.47
673.205	5797.28
673.554	5904.39
673.904	5848.8
674.253	5890.61
674.602	5825.3
674.951	5779.42
675.3	5779.65
675.649	5894
675.998	5820.55
676.346	5865.07
676.695	5872.3
677.044	5812.42
677.393	5804.73
677.741	5831.4
678.09	5825.07
678.438	5802.47
678.787	5802.93
679.135	5762.25
679.484	5759.09
679.832	5791.18
680.181	5742.36
680.529	5744.4
680.877	5681.35
681.225	5694
681.573	5781.01
681.922	5647.45
682.27	5674.79
682.618	5688.58
682.966	5655.59
683.314	5661.69
683.661	5578.98
684.009	5539.66
684.357	5606.55
684.705	5517.06
685.053	5559.77
685.4	5501.47
685.748	5460.11
686.095	5476.83
686.443	5470.05
686.79	5400
687.138	5474.57
687.485	5467.79
687.832	5427.57
688.18	5398.87
688.527	5414.46
688.874	5383.28
689.221	5420.79
689.568	5359.77
689.915	5400.23
690.262	5395.71
690.609	5381.02
690.956	5342.6
691.303	5408.81
691.65	5316.61
691.997	5362.03
692.344	5309.15
692.69	5275.03
693.037	5315.71
693.383	5282.94
693.73	5254.24
694.077	5288.59
694.423	5260.34
694.769	5251.75
695.116	5268.03
695.462	5246.78
695.808	5228.48
696.155	5238.2
696.501	5225.09
696.847	5244.75
697.193	5181.25
697.539	5239.78
697.885	5192.32
698.231	5173.11
698.577	5200.91
698.923	5209.72
699.269	5144.86
699.614	5136.96
699.96	5144.86
700.306	5114.81
700.651	5096.5
700.997	5087.69
701.342	5078.2
701.688	5037.52
702.033	5078.65
702.379	5026
702.724	5036.84
703.069	5041.14
703.415	4948.71
703.76	4997.75
704.105	4984.19
704.45	4943.97
704.795	4872.1
705.14	4894.02
705.485	4902.39
705.83	4848.15
706.175	4901.48
706.52	4906.23
706.865	4856.51
707.209	4864.19
707.554	4847.47
707.899	4806.34
708.243	4822.61
708.588	4816.74
708.932	4762.28
709.277	4734.93
709.621	4766.34
709.966	4679.34
710.31	4698.77
710.654	4689.06
710.998	4705.33
711.342	4696.97
711.687	4674.59
712.031	4667.59
712.375	4683.18
712.719	4649.51
713.063	4694.93
713.407	4672.33
713.75	4661.71
714.094	4633.69
714.438	4635.95
714.782	4630.98
715.125	4631.66
715.469	4586.46
715.812	4590.98
716.156	4637.08
716.499	4606.57
716.843	4595.5
717.186	4560.02
717.53	4635.05
717.873	4594.14
718.216	4564.32
718.559	4600.25
718.902	4543.07
719.246	4531.77
719.589	4519.8
719.932	4522.51
720.275	4536.07
720.617	4517.99
720.96	4515.95
721.303	4496.07
721.646	4532
721.989	4465.11
722.331	4499.68
722.674	4486.35
723.016	4491.77
723.359	4502.17
723.701	4447.71
724.044	4422.62
724.386	4444.54
724.729	4433.92
725.071	4442.74
725.413	4428.27
725.755	4418.56
726.097	4375.85
726.439	4353.25
726.782	4388.95
727.124	4422.85
727.465	4395.05
727.807	4398.22
728.149	4346.47
728.491	4330.42
728.833	4282.97
729.175	4329.29
729.516	4292.46
729.858	4304.89
730.199	4314.83
730.541	4301.27
730.882	4301.95
731.224	4303.76
731.565	4267.37
731.906	4272.57
732.248	4247.71
732.589	4212.91
732.93	4203.19
733.271	4199.13
733.612	4238.9
733.953	4195.96
734.294	4243.19
734.635	4196.87
734.976	4194.83
735.317	4173.59
735.658	4163.87
735.999	4176.08
736.339	4150.77
736.68	4155.74
737.021	4163.42
737.361	4173.14
737.702	4170.65
738.042	4118
738.383	4095.4
738.723	4130.2
739.063	4124.1
739.404	4170.65
739.744	4100.6
740.084	4103.08
740.424	4141.05
740.764	4081.84
741.104	4130.2
741.444	4121.39
741.784	4074.61
742.124	4056.31
742.464	4076.87
742.804	4071.67
743.143	4080.26
743.483	4089.53
743.823	4039.36
744.162	4070.32
744.502	4101.05
744.841	4106.25
745.181	4046.81
745.52	4092.24
745.86	4072.58
746.199	4041.16
746.538	4021.73
746.877	4006.36
747.216	4000.49
747.556	4019.02
747.895	4041.16
748.234	4011.79
748.573	4002.52
748.911	4029.41
749.25	3985.8
749.589	3984.67
749.928	4004.1
750.267	3980.6
750.605	3985.35
750.944	3976.76
751.283	3973.37
751.621	3967.72
751.96	3942.18
752.298	3939.25
752.636	3939.25
752.975	3920.94
753.313	3915.07
753.651	3920.04
753.989	3940.6
754.327	3951.68
754.666	3863.32
755.004	3883.65
755.342	3885.01
755.679	3882.3
756.017	3836.88
756.355	3870.1
756.693	3860.83
757.031	3852.7
757.368	3836.65
757.706	3818.8
758.044	3845.46
758.381	3862.64
758.719	3786.03
759.056	3768.86
759.394	3771.34
759.731	3723.89
760.068	3749.42
760.405	3727.27
760.743	3728.86
761.08	3765.47
761.417	3665.58
761.754	3735.41
762.091	3685.02
762.428	3696.99
762.765	3664.23
763.102	3713.72
763.438	3638.46
763.775	3623.32
764.112	3624.45
764.449	3597.11
764.785	3609.31
765.122	3585.36
765.458	3579.48
765.795	3587.84
766.131	3590.56
766.467	3570.22
766.804	3578.13
767.14	3540.84
767.476	3535.19
767.812	3569.76
768.148	3521.63
768.485	3460.84
768.821	3511.01
769.157	3475.76
769.492	3456.1
769.828	3433.72
770.164	3390.33
770.5	3414.74
770.836	3400.73
771.171	3403.89
771.507	3380.84
771.842	3331.58
772.178	3331.35
