Data from foam1_polythene_foam_FLMS001491_00032.txt Node
Date: Wed Feb 08 10:54:44 GMT 2017
User: dcchb
Spectrometer: FLMS00149
Trigger mode: 0
Integration Time (sec): 2.000000E-2
Scans to average: 10
Electric dark correction enabled: true
Nonlinearity correction enabled: false
Boxcar width: 0
XAxis mode: Wavelengths
Number of Pixels in Spectrum: 2048
>>>>>Begin Spectral Data<<<<<
341.393	-29.05
341.776	-29.05
342.16	-29.05
342.543	-45.32
342.927	-41.03
343.31	-59.33
343.693	-62.72
344.077	-61.14
344.46	-62.05
344.843	-45.55
345.226	-39.9
345.61	-43.97
345.993	-19.11
346.376	-8.71
346.759	3.04
347.142	28.8
347.525	37.39
347.908	67.22
348.291	76.48
348.674	83.49
349.057	106.08
349.44	115.58
349.823	145.63
350.206	152.41
350.588	182.24
350.971	172.52
351.354	199.19
351.737	208.45
352.119	221.56
352.502	239.64
352.884	264.27
353.267	249.36
353.65	269.24
354.032	280.54
354.414	263.14
354.797	280.09
355.179	292.75
355.562	308.57
355.944	309.92
356.326	315.34
356.709	318.28
357.091	304.05
357.473	307.66
357.855	298.85
358.238	324.61
358.62	328.23
359.002	310.6
359.384	308.34
359.766	311.96
360.148	330.71
360.53	332.75
360.912	321.45
361.294	297.04
361.676	322.8
362.057	315.12
362.439	314.89
362.821	302.01
363.203	297.27
363.584	301.79
363.966	293.88
364.348	304.95
364.729	300.88
365.111	317.38
365.493	293.2
365.874	303.14
366.256	298.17
366.637	273.09
367.019	298.85
367.4	295.91
367.781	310.37
368.163	289.58
368.544	279.87
368.925	289.58
369.306	304.05
369.688	307.89
370.069	289.58
370.45	302.69
370.831	293.88
371.212	295.01
371.593	305.18
371.974	302.69
372.355	290.49
372.736	284.61
373.117	302.24
373.498	293.65
373.879	291.39
374.26	299.53
374.641	301.56
375.021	292.97
375.402	287.55
375.783	286.42
376.163	301.56
376.544	306.53
376.925	311.96
377.305	294.55
377.686	304.5
378.066	291.84
378.447	312.18
378.827	308.57
379.208	292.75
379.588	311.73
379.968	307.89
380.349	296.14
380.729	298.62
381.109	309.7
381.489	319.41
381.87	313.99
382.25	310.83
382.63	319.86
383.01	344.95
383.39	324.16
383.77	319.19
384.15	308.79
384.53	317.15
384.91	326.19
385.29	328.23
385.67	325.51
386.049	332.75
386.429	336.81
386.809	332.07
387.189	321.22
387.568	334.33
387.948	351.95
388.328	336.81
388.707	335.01
389.087	336.14
389.466	341.11
389.846	331.39
390.225	340.2
390.605	327.32
390.984	326.19
391.363	345.4
391.743	345.4
392.122	333.65
392.501	346.08
392.881	356.7
393.26	347.21
393.639	359.64
394.018	373.42
394.397	343.59
394.776	338.4
395.155	353.99
395.534	348.11
395.913	353.54
396.292	357.38
396.671	353.08
397.05	361.67
397.429	339.3
397.808	356.7
398.186	348.79
398.565	359.64
398.944	339.07
399.323	356.25
399.701	352.63
400.08	349.24
400.458	357.15
400.837	358.96
401.215	382.69
401.594	377.72
401.972	374.1
402.351	387.21
402.729	377.72
403.107	369.13
403.486	369.13
403.864	336.59
404.242	376.13
404.62	386.08
404.999	378.62
405.377	398.05
405.755	390.82
406.133	390.82
406.511	382.91
406.889	395.79
407.267	378.62
407.645	363.03
408.023	384.72
408.401	372.07
408.779	391.28
409.156	409.81
409.534	388.56
409.912	388.34
410.29	421.33
410.667	394.89
411.045	398.51
411.422	417.04
411.8	416.13
412.178	431.05
412.555	424.49
412.933	404.16
413.31	398.96
413.687	405.96
414.065	403.7
414.442	419.75
414.819	432.18
415.197	410.71
415.574	436.47
415.951	429.69
416.328	442.12
416.705	413.2
417.082	432.63
417.46	438.05
417.837	437.15
418.214	450.26
418.591	458.39
418.967	444.61
419.344	446.19
419.721	435.79
420.098	438.73
420.475	460.43
420.852	424.49
421.228	457.04
421.605	470.82
421.982	461.78
422.358	474.44
422.735	469.92
423.111	451.39
423.488	454.78
423.864	496.13
424.241	480.09
424.617	493.19
424.994	476.02
425.37	493.19
425.746	481.67
426.123	485.74
426.499	486.64
426.875	493.87
427.251	493.19
427.627	493.42
428.003	525.51
428.379	520.09
428.756	514.44
429.132	510.14
429.507	513.98
429.883	522.8
430.259	551.04
430.635	545.17
431.011	558.05
431.387	492.52
431.763	541.55
432.138	525.51
432.514	555.11
432.89	540.88
433.265	566.41
433.641	577.48
434.016	564.6
434.392	572.74
434.767	589.01
435.143	569.35
435.518	598.05
435.894	580.65
436.269	593.76
436.644	583.13
437.02	593.98
437.395	595.11
437.77	607.99
438.145	611.61
438.52	623.36
438.895	627.65
439.271	613.64
439.646	581.33
440.021	650.25
440.395	630.82
440.77	635.56
441.145	649.57
441.52	653.19
441.895	655
442.27	665.39
442.645	663.81
443.019	670.82
443.394	664.49
443.769	669.69
444.143	676.24
444.518	707.65
444.892	671.95
445.267	700.19
445.641	693.19
446.016	704.49
446.39	689.57
446.764	714.2
447.139	715.11
447.513	719.63
447.887	729.35
448.262	740.19
448.636	747.42
449.01	729.8
449.384	752.17
449.758	751.27
450.132	771.83
450.506	760.53
450.88	774.32
451.254	800.3
451.628	765.05
452.002	779.97
452.376	799.4
452.75	804.6
453.123	798.04
453.497	791.72
453.871	820.64
454.244	795.78
454.618	791.04
454.992	809.57
455.365	814.09
455.739	815.44
456.112	836.24
456.486	836.24
456.859	830.36
457.232	842.79
457.606	814.99
457.979	841.21
458.352	850.02
458.725	853.86
459.099	853.18
459.472	873.52
459.845	898.38
460.218	890.02
460.591	874.88
460.964	886.4
461.337	885.73
461.71	907.42
462.083	885.5
462.456	916.46
462.829	892.73
463.201	922.56
463.574	929.34
463.947	907.42
464.32	916.01
464.692	925.95
465.065	932.28
465.438	941.09
465.81	944.03
466.183	965.27
466.555	971.15
466.928	945.84
467.3	957.81
467.672	983.35
468.045	968.66
468.417	992.62
468.789	995.55
469.161	1022.44
469.534	1019.73
469.906	1046.63
470.278	1044.82
470.65	1037.13
471.022	1044.59
471.394	1094.53
471.766	1088.88
472.138	1091.14
472.51	1085.27
472.882	1097.92
473.253	1131.14
473.625	1141.76
473.997	1132.05
474.369	1134.76
474.74	1150.8
475.112	1184.93
475.484	1202.33
475.855	1212.04
476.227	1204.59
476.598	1227.86
476.97	1224.7
477.341	1247.75
477.713	1260.4
478.084	1295.66
478.455	1282.78
478.827	1285.49
479.198	1337.01
479.569	1313.28
479.94	1377.24
480.311	1396.9
480.682	1410.23
481.053	1433.06
481.424	1433.28
481.795	1436.67
482.166	1467.63
482.537	1490
482.908	1499.95
483.279	1527.97
483.65	1523.22
484.021	1527.29
484.391	1558.02
484.762	1610.45
485.133	1598.93
485.503	1596.44
485.874	1615.2
486.244	1665.37
486.615	1675.54
486.985	1682.77
487.356	1708.53
487.726	1742.43
488.097	1765.25
488.467	1746.04
488.837	1784.46
489.207	1846.38
489.578	1829.2
489.948	1821.97
490.318	1852.71
490.688	1883.44
491.058	1877.34
491.428	1921.4
491.798	1916.88
492.168	1930.44
492.538	1948.52
492.908	1977.22
493.278	1991.01
493.648	2012.48
494.017	2037.11
494.387	2038.24
494.757	2065.81
495.126	2065.13
495.496	2078.24
495.866	2104.22
496.235	2098.12
496.605	2143.55
496.974	2149.42
497.344	2175.41
497.713	2173.38
498.082	2207.72
498.452	2209.98
498.821	2189.65
499.19	2209.76
499.559	2275.52
499.928	2234.39
500.298	2265.35
500.667	2305.8
501.036	2293.82
501.405	2323.43
501.774	2339.02
502.143	2353.48
502.512	2352.13
502.88	2367.27
503.249	2355.52
503.618	2410.88
503.987	2403.88
504.356	2426.93
504.724	2428.51
505.093	2467.15
505.462	2436.87
505.83	2466.25
506.199	2486.59
506.567	2525.23
506.936	2517.77
507.304	2569.97
507.672	2563.87
508.041	2562.97
508.409	2544.44
508.777	2596.87
509.145	2640.93
509.514	2597.54
509.882	2669.86
510.25	2627.6
510.618	2669.41
510.986	2669.86
511.354	2707.37
511.722	2730.2
512.09	2750.54
512.458	2764.09
512.826	2779.01
513.193	2776.75
513.561	2785.79
513.929	2781.04
514.297	2896.97
514.664	2879.12
515.032	2899.23
515.4	2835.73
515.767	2865.11
516.135	2890.19
516.502	2902.62
516.869	2948.95
517.237	2988.95
517.604	2979
517.972	3021.04
518.339	3014.71
518.706	3096.29
519.073	3063.75
519.44	3073.46
519.808	3105.55
520.175	3094.71
520.542	3140.81
520.909	3165.89
521.276	3153.69
521.643	3211.09
522.009	3220.81
522.376	3232.33
522.743	3212.67
523.11	3292.22
523.477	3331.54
523.843	3301.03
524.21	3331.76
524.577	3401.82
524.943	3392.55
525.31	3400.24
525.676	3437.97
526.043	3466.67
526.409	3501.7
526.776	3502.38
527.142	3489.72
527.508	3519.78
527.874	3566.56
528.241	3574.24
528.607	3582.6
528.973	3638.87
529.339	3650.17
529.705	3651.53
530.071	3674.13
530.437	3654.01
530.803	3685.43
531.169	3731.75
531.535	3779.43
531.901	3762.71
532.267	3779.43
532.632	3804.74
532.998	3820.11
533.364	3797.97
533.73	3847.91
534.095	3850.17
534.461	3873.9
534.826	3900.11
535.192	3883.16
535.557	3917.96
535.923	3946.89
536.288	3945.53
536.653	3964.06
537.019	3979.88
537.384	3962.71
537.749	4028.02
538.114	4023.27
538.479	4049.26
538.845	4032.76
539.21	4018.98
539.575	4098.07
539.94	4067.56
540.305	4090.39
540.67	4097.84
541.034	4139.88
541.399	4160.22
541.764	4152.76
542.129	4134.23
542.494	4167.9
542.858	4125.64
543.223	4197.28
543.587	4229.14
543.952	4200.21
544.316	4202.7
544.681	4207.22
545.045	4211.29
545.41	4253.77
545.774	4277.05
546.138	4284.96
546.503	4311.85
546.867	4323.6
547.231	4316.82
547.595	4322.92
547.959	4378.06
548.324	4383.03
548.688	4389.59
549.052	4400.21
549.416	4407.21
549.779	4414.9
550.143	4371.06
550.507	4484.73
550.871	4461.68
551.235	4503.03
551.599	4516.59
551.962	4529.47
552.326	4531.28
552.689	4550.49
553.053	4566.31
553.417	4590.03
553.78	4651.73
554.143	4607.66
554.507	4604.27
554.87	4645.17
555.234	4696.92
555.597	4687.43
555.96	4704.16
556.323	4741.22
556.686	4741.22
557.05	4723.82
557.413	4801.78
557.776	4759.07
558.139	4809.92
558.502	4842.91
558.865	4809.46
559.228	4825.51
559.59	4881.78
559.953	4924.49
560.316	4926.97
560.679	4899.18
561.041	4917.94
561.404	4987.31
561.767	5004.94
562.129	4986.63
562.492	5036.35
562.854	5056.24
563.217	5053.53
563.579	5095.33
563.941	5095.11
564.304	5096.24
564.666	5200.19
565.028	5219.85
565.39	5191.6
565.753	5237.93
566.115	5267.76
566.477	5274.31
566.839	5285.38
567.201	5357.7
567.563	5290.58
567.925	5361.31
568.287	5350.92
568.648	5329.68
569.01	5381.2
569.372	5416
569.734	5425.72
570.095	5506.62
570.457	5472.95
570.819	5500.97
571.18	5502.55
571.542	5490.58
571.903	5509.78
572.265	5536.22
572.626	5531.48
572.987	5630.01
573.349	5608.31
573.71	5668.65
574.071	5629.1
574.432	5621.87
574.794	5692.38
575.155	5696.9
575.516	5651.25
575.877	5633.62
576.238	5713.17
576.599	5668.65
576.96	5775.54
577.32	5720.4
577.681	5776.67
578.042	5755.43
578.403	5784.58
578.763	5851.7
579.124	5760.63
579.485	5875.42
579.845	5830.91
580.206	5796.56
580.566	5770.79
580.927	5806.27
581.287	5836.33
581.648	5812.38
582.008	5845.59
582.368	5814.86
582.728	5846.72
583.089	5884.92
583.449	5841.08
583.809	5819.83
584.169	5878.14
584.529	5834.97
584.889	5876.33
585.249	5872.26
585.609	5864.58
585.969	5882.43
586.329	5828.87
586.688	5893.05
587.048	5848.98
587.408	5851.47
587.768	5883.56
588.127	5843.11
588.487	5821.87
588.846	5886.95
589.206	5862.77
589.565	5853.73
589.925	5874.07
590.284	5876.55
590.643	5912.94
591.003	5888.53
591.362	5884.46
591.721	5890.11
592.08	5836.56
592.44	5879.27
592.799	5941.86
593.158	5910.68
593.517	5891.02
593.876	5860.28
594.235	5856.89
594.593	5901.19
594.952	5915.65
595.311	5839.72
595.67	5890.34
596.029	5907.97
596.387	5858.02
596.746	5955.2
597.104	5886.95
597.463	5900.96
597.822	5937.57
598.18	5886.95
598.538	5919.27
598.897	5900.28
599.255	5894.63
599.613	5933.05
599.972	5896.22
600.33	5944.35
600.688	5906.84
601.046	5902.09
601.404	5939.6
601.762	5930.79
602.12	5938.7
602.478	6001.75
602.836	5946.16
603.194	5884.46
603.552	5951.35
603.91	5893.5
604.268	5930.34
604.625	5918.14
604.983	5923.56
605.341	5926.04
605.698	6013.27
606.056	6010.11
606.413	6004.01
606.771	6004.46
607.128	5996.1
607.485	5968.3
607.843	5982.54
608.2	5931.02
608.557	6022.31
608.914	5943.22
609.272	5992.71
609.629	6029.09
609.986	5982.09
610.343	6025.7
610.7	6060.73
611.057	6039.04
611.414	6063.67
611.771	5990
612.127	6004.91
612.484	6055.53
612.841	6031.13
613.198	6025.7
613.554	6003.1
613.911	6062.76
614.267	6064.12
614.624	6004.46
614.98	6061.63
615.337	6033.16
615.693	6058.24
616.05	6077
616.406	6120.16
616.762	6082.88
617.118	6069.54
617.475	6078.81
617.831	6045.36
618.187	6053.5
618.543	6067.06
618.899	6086.04
619.255	6046.72
619.611	6093.95
619.967	6095.76
620.323	6136.21
620.678	6159.71
621.034	6055.76
621.39	6139.82
621.746	6051.24
622.101	6143.44
622.457	6087.85
622.812	6117.9
623.168	6067.28
623.523	6096.44
623.879	6068.87
624.234	6062.31
624.589	6037
624.945	6088.53
625.3	6074.97
625.655	6091.92
626.01	6076.78
626.365	6070.67
626.72	6026.38
627.075	6003.78
627.43	6044.23
627.785	5988.19
628.14	6039.49
628.495	6030.22
628.85	5986.83
629.205	6031.35
629.559	6017.34
629.914	5954.07
630.269	6016.44
630.623	6012.14
630.978	5974.63
631.332	5996.55
631.687	6028.41
632.041	6001.97
632.396	6003.56
632.75	6009.43
633.104	5964.46
633.459	5914.07
633.813	5990.22
634.167	5945.71
634.521	5927.4
634.875	5891.92
635.229	5876.55
635.583	5867.52
635.937	5865.93
636.291	5863.67
636.645	5834.3
636.999	5826.16
637.352	5832.71
637.706	5794.3
638.06	5860.06
638.413	5815.54
638.767	5795.2
639.121	5834.75
639.474	5753.39
639.828	5772.6
640.181	5787.52
640.534	5785.94
640.888	5757.46
641.241	5762.43
641.594	5764.47
641.947	5702.1
642.301	5721.08
642.654	5740.51
643.007	5726.73
643.36	5711.14
643.713	5649.67
644.066	5738.71
644.419	5693.06
644.771	5606.51
645.124	5566.51
645.477	5514.53
645.83	5471.82
646.182	5474.53
646.535	5518.82
646.888	5485.38
647.24	5485.15
647.593	5528.32
647.945	5507.75
648.298	5462.33
648.65	5496.45
649.002	5477.02
649.355	5439.5
649.707	5410.58
650.059	5431.37
650.411	5529.22
650.763	5502.78
651.115	5536.45
651.467	5518.82
651.819	5531.7
652.171	5555.88
652.523	5514.08
652.875	5540.52
653.227	5515.21
653.578	5498.94
653.93	5502.78
654.282	5500.52
654.633	5415.78
654.985	5385.27
655.337	5434.76
655.688	5430.46
656.039	5437.7
656.391	5407.87
656.742	5439.28
657.094	5407.41
657.445	5449.22
657.796	5385.95
658.147	5408.32
658.498	5346.62
658.849	5430.92
659.2	5363.8
659.551	5397.7
659.902	5399.5
660.253	5357.7
660.604	5411.93
660.955	5332.61
661.306	5382.56
661.656	5368.55
662.007	5373.52
662.358	5343.46
662.708	5370.58
663.059	5336
663.409	5299.39
663.76	5311.82
664.11	5343.69
664.461	5306.17
664.811	5313.18
665.161	5339.62
665.511	5337.59
665.862	5306.85
666.212	5312.28
666.562	5327.87
666.912	5331.48
667.262	5277.93
667.612	5308.43
667.962	5331.03
668.312	5274.08
668.662	5299.17
669.011	5289.68
669.361	5283.8
669.711	5289
670.06	5276.8
670.41	5224.82
670.76	5253.97
671.109	5262.33
671.459	5225.95
671.808	5222.79
672.157	5241.77
672.507	5212.84
672.856	5209.68
673.205	5254.65
673.554	5227.76
673.904	5202.67
674.253	5211.26
674.602	5145.27
674.951	5160.42
675.3	5136.91
675.649	5145.95
675.998	5177.82
676.346	5149.34
676.695	5123.58
677.044	5107.31
677.393	5127.2
677.741	5159.29
678.09	5128.1
678.438	5168.78
678.787	5122.45
679.135	5135.33
679.484	5063.24
679.832	5127.65
680.181	5134.2
680.529	5057.37
680.877	5108.21
681.225	5059.17
681.573	5116.35
681.922	5057.82
682.27	5092.85
682.618	5098.72
682.966	4997.93
683.314	5044.94
683.661	5078.84
684.009	4932.85
684.357	5058.5
684.705	4967.88
685.053	4979.18
685.4	4967.43
685.748	4954.32
686.095	4974.66
686.443	4946.86
686.79	4937.14
687.138	4929.69
687.485	4924.26
687.832	4927.43
688.18	4904.15
688.527	4848.56
688.874	4906.41
689.221	4870.93
689.568	4886.75
689.915	4828.9
690.262	4845.4
690.609	4871.84
690.956	4851.72
691.303	4851.27
691.65	4784.83
691.997	4793.42
692.344	4705.51
692.69	4753.87
693.037	4690.6
693.383	4745.06
693.73	4764.49
694.077	4700.09
694.423	4668.22
694.769	4679.75
695.116	4670.48
695.462	4618.28
695.808	4609.7
696.155	4647.66
696.501	4608.79
696.847	4624.16
697.193	4573.99
697.539	4592.97
697.885	4539.19
698.231	4569.7
698.577	4573.99
698.923	4535.35
699.269	4519.75
699.614	4523.6
699.96	4535.57
700.306	4505.74
700.651	4492.18
700.997	4495.8
701.342	4466.87
701.688	4475.24
702.033	4451.28
702.379	4434.78
702.724	4426.65
703.069	4426.2
703.415	4371.74
703.76	4399.53
704.105	4388.91
704.45	4340.55
704.795	4332.41
705.14	4328.8
705.485	4321.12
705.83	4307.78
706.175	4313.43
706.52	4296.03
706.865	4307.33
707.209	4320.89
707.554	4249.03
707.899	4291.74
708.243	4230.04
708.588	4217.62
708.932	4208.58
709.277	4230.5
709.621	4198.86
709.966	4200.89
710.31	4203.83
710.654	4135.13
710.998	4163.61
711.342	4142.59
711.687	4159.54
712.031	4170.61
712.375	4118.86
712.719	4142.59
713.063	4135.81
713.407	4125.64
713.75	4118.63
714.094	4092.19
714.438	4117.28
714.782	4081.35
715.125	4044.96
715.469	4097.17
715.812	4046.77
716.156	3993.67
716.499	4049.94
716.843	4039.09
717.186	4025.3
717.53	4005.19
717.873	4034.12
718.216	4044.96
718.559	3964.74
718.902	3930.84
719.246	3966.32
719.589	3957.06
719.932	3934.91
720.275	3934.91
720.617	3948.24
720.96	3917.06
721.303	3896.72
721.646	3941.69
721.989	3882.93
722.331	3928.13
722.674	3914.12
723.016	3915.02
723.359	3885.65
723.701	3879.77
724.044	3884.74
724.386	3870.51
724.729	3894.91
725.071	3875.03
725.413	3877.74
725.755	3831.41
726.097	3776.72
726.439	3808.36
726.782	3820.34
727.124	3795.93
727.465	3829.83
727.807	3802.03
728.149	3814.24
728.491	3752.77
728.833	3836.83
729.175	3762.26
729.516	3781.24
729.858	3765.88
730.199	3753.9
730.541	3775.59
730.882	3750.73
731.224	3780.56
731.565	3747.12
731.906	3696.72
732.248	3770.4
732.589	3722.49
732.93	3710.06
733.271	3712.54
733.612	3725.2
733.953	3731.07
734.294	3702.6
734.635	3629.83
734.976	3665.54
735.317	3699.89
735.658	3662.38
735.999	3665.99
736.339	3631.42
736.68	3681.13
737.021	3652.21
737.361	3644.07
737.702	3650.62
738.042	3618.08
738.383	3586.9
738.723	3639.1
739.063	3607.46
739.404	3613.11
739.744	3632.55
740.084	3569.27
740.424	3600.46
740.764	3564.07
741.104	3610.63
741.444	3584.64
741.784	3584.41
742.124	3621.47
742.464	3539.67
742.804	3556.39
743.143	3539.67
743.483	3547.35
743.823	3492.44
744.162	3504.19
744.502	3560.23
744.841	3511.64
745.181	3532.21
745.52	3527.69
745.86	3505.54
746.199	3476.17
746.538	3510.52
746.877	3480.01
747.216	3494.7
747.556	3513.23
747.895	3478.65
748.234	3448.6
748.573	3475.26
748.911	3480.01
749.25	3456.96
749.589	3493.11
749.928	3476.62
750.267	3466
750.605	3366.56
750.944	3452.89
751.283	3385.77
751.621	3417.41
751.96	3369.5
752.298	3431.87
752.636	3433.45
752.975	3344.42
753.313	3358.2
753.651	3418.09
753.989	3409.95
754.327	3327.92
754.666	3348.94
755.004	3345.77
755.342	3341.25
755.679	3348.03
756.017	3329.5
756.355	3331.31
756.693	3325.21
757.031	3331.54
757.368	3272.78
757.706	3271.2
758.044	3297.41
758.381	3258.32
758.719	3282.72
759.056	3280.01
759.394	3268.71
759.731	3243.63
760.068	3228.04
760.405	3258.32
760.743	3213.35
761.08	3247.25
761.417	3163.18
761.754	3192.56
762.091	3199.34
762.428	3166.8
762.765	3164.31
763.102	3172.22
763.438	3123.86
763.775	3150.07
764.112	3097.42
764.449	3156.63
764.785	3110.07
765.122	3089.74
765.458	3109.17
765.795	3088.15
766.131	3059.45
766.467	3082.5
766.804	3052.9
767.14	3063.97
767.476	3051.09
767.812	3009.51
768.148	3039.34
768.485	2996.18
768.821	3011.09
769.157	2979.23
769.492	3038.89
769.828	2990.98
770.164	2965.9
770.5	2946.69
770.836	2976.07
771.171	2962.73
