Data from foam_black_FLMS001491_00039.txt Node
Date: Wed Feb 08 10:43:49 GMT 2017
User: dcchb
Spectrometer: FLMS00149
Trigger mode: 0
Integration Time (sec): 2.000000E-2
Scans to average: 10
Electric dark correction enabled: true
Nonlinearity correction enabled: false
Boxcar width: 0
XAxis mode: Wavelengths
Number of Pixels in Spectrum: 2048
>>>>>Begin Spectral Data<<<<<
341.393	-19.51
341.776	-19.51
342.16	-19.51
342.543	-59.05
342.927	-52.5
343.31	-62.67
343.693	-95.21
344.077	-81.42
344.46	-75.77
344.843	-43.23
345.226	-41.2
345.61	-41.88
345.993	-27.87
346.376	-3.91
346.759	28.63
347.142	21.4
347.525	57.33
347.908	62.3
348.291	77.89
348.674	113.82
349.057	111.79
349.44	115.86
349.823	147.95
350.206	165.8
350.588	166.7
350.971	190.21
351.354	203.77
351.737	226.36
352.119	224.78
352.502	246.02
352.884	248.74
353.267	251.45
353.65	277.66
354.032	270.43
354.414	279.02
354.797	302.75
355.179	284.44
355.562	303.42
355.944	314.95
356.326	310.88
356.709	316.53
357.091	288.96
357.473	320.37
357.855	323.76
358.238	304.55
358.62	327.15
359.002	309.53
359.384	320.82
359.766	317.89
360.148	302.97
360.53	329.41
360.912	319.02
361.294	321.28
361.676	313.82
362.057	316.53
362.439	303.42
362.821	330.99
363.203	293.71
363.584	314.72
363.966	293.03
364.348	299.81
364.729	292.35
365.111	304.33
365.493	300.49
365.874	288.96
366.256	283.54
366.637	294.16
367.019	293.48
367.4	276.53
367.781	298.45
368.163	300.94
368.544	283.31
368.925	294.38
369.306	310.43
369.688	301.84
370.069	303.65
370.45	290.54
370.831	285.57
371.212	290.77
371.593	281.96
371.974	301.16
372.355	292.58
372.736	297.32
373.117	300.49
373.498	284.44
373.879	286.48
374.26	295.97
374.641	291.67
375.021	314.27
375.402	283.99
375.783	304.55
376.163	297.32
376.544	285.57
376.925	288.96
377.305	314.27
377.686	317.44
378.066	306.14
378.447	299.13
378.827	325.57
379.208	298
379.588	323.99
379.968	306.14
380.349	312.24
380.729	299.81
381.109	323.31
381.489	320.37
381.87	297.1
382.25	338.23
382.63	306.59
383.01	302.07
383.39	317.21
383.77	320.37
384.15	314.95
384.53	337.55
384.91	325.8
385.29	307.72
385.67	310.43
386.049	336.19
386.429	332.35
386.809	338.45
387.189	325.12
387.568	324.67
387.948	322.41
388.328	322.86
388.707	334.84
389.087	311.79
389.466	322.86
389.846	350.88
390.225	324.21
390.605	336.42
390.984	329.41
391.363	332.8
391.743	332.12
392.122	333.93
392.501	346.13
392.881	329.64
393.26	355.85
393.639	331.9
394.018	328.73
394.397	343.2
394.776	356.98
395.155	353.14
395.534	352.91
395.913	337.32
396.292	376.42
396.671	360.37
397.05	366.47
397.429	342.52
397.808	368.06
398.186	366.02
398.565	343.42
398.944	370.77
399.323	354.27
399.701	354.04
400.08	361.05
400.458	335.97
400.837	352.46
401.215	365.12
401.594	334.38
401.972	368.28
402.351	367.6
402.729	381.61
403.107	372.8
403.486	365.34
403.864	378.22
404.242	363.31
404.62	378.68
404.999	374.16
405.377	387.26
405.755	392.01
406.133	399.69
406.511	383.42
406.889	360.37
407.267	415.06
407.645	385.23
408.023	383.65
408.401	378.22
408.779	422.52
409.156	399.01
409.534	373.93
409.912	398.11
410.29	387.04
410.667	385
411.045	394.95
411.422	400.14
411.8	410.54
412.178	418.45
412.555	405.12
412.933	418.45
413.31	437.21
413.687	420.48
414.065	424.33
414.442	432.01
414.819	411.22
415.197	437.21
415.574	458
415.951	416.42
416.328	429.3
416.705	438.34
417.082	451.44
417.46	428.62
417.837	443.31
418.214	424.55
418.591	449.18
418.967	446.02
419.344	436.3
419.721	448.96
420.098	462.74
420.475	445.79
420.852	453.02
421.228	455.06
421.605	455.96
421.982	467.49
422.358	448.96
422.735	459.58
423.111	452.35
423.488	467.26
423.864	465
424.241	483.53
424.617	477.2
424.994	471.78
425.37	485.79
425.746	506.58
426.123	503.19
426.499	469.52
426.875	484.44
427.251	513.59
427.627	501.39
428.003	503.87
428.379	491.89
428.756	522.63
429.132	513.14
429.507	483.31
429.883	521.95
430.259	521.27
430.635	505.68
431.011	499.58
431.387	525.57
431.763	536.86
432.138	523.53
432.514	530.76
432.89	542.06
433.265	548.84
433.641	557.43
434.016	532.12
434.392	561.27
434.767	570.54
435.143	561.95
435.518	560.59
435.894	568.05
436.269	574.6
436.644	574.15
437.02	586.35
437.395	569.41
437.77	575.06
438.145	587.03
438.52	558.33
438.895	610.08
439.271	604.66
439.646	625
440.021	614.38
440.395	614.38
440.77	615.96
441.145	585.68
441.52	634.71
441.895	605.79
442.27	627.03
442.645	625.45
443.019	637.88
443.394	613.92
443.769	639.01
444.143	651.21
444.518	660.93
444.892	622.51
445.267	660.25
445.641	651.21
446.016	638.78
446.39	652.57
446.764	645.34
447.139	653.92
447.513	674.04
447.887	688.27
448.262	656.18
448.636	654.83
449.01	652.34
449.384	680.59
449.758	670.87
450.132	681.95
450.506	682.4
450.88	672.91
451.254	684.43
451.628	674.94
452.002	670.42
452.376	703.19
452.75	710.19
453.123	706.35
453.497	709.29
453.871	722.62
454.244	719.23
454.618	705.22
454.992	712.45
455.365	725.79
455.739	761.49
456.112	752.23
456.486	744.54
456.859	745.22
457.232	791.77
457.606	764.88
457.979	780.02
458.352	775.5
458.725	798.78
459.099	794.03
459.472	814.37
459.845	806.24
460.218	803.98
460.591	820.25
460.964	826.35
461.337	814.82
461.71	846.46
462.083	841.49
462.456	860.02
462.829	844.88
463.201	861.83
463.574	844.65
463.947	861.38
464.32	879.23
464.692	907.48
465.065	884.65
465.438	902.5
465.81	919.91
466.183	937.08
466.555	933.92
466.928	948.83
467.3	942.96
467.672	922.62
468.045	949.06
468.417	957.87
468.789	970.53
469.161	975.27
469.534	992.67
469.906	989.51
470.278	1007.36
470.65	1026.57
471.022	1037.19
471.394	1031.54
471.766	1057.75
472.138	1055.72
472.51	1041.71
472.882	1048.72
473.253	1100.01
473.625	1092.33
473.997	1125.78
474.369	1112.44
474.74	1100.01
475.112	1138.2
475.484	1161.71
475.855	1158.09
476.227	1181.37
476.598	1217.3
476.97	1211.42
477.341	1267.47
477.713	1248.48
478.084	1273.34
478.455	1290.97
478.827	1292.32
479.198	1301.14
479.569	1315.15
479.94	1349.72
480.311	1358.31
480.682	1393.34
481.053	1404.86
481.424	1416.16
481.795	1422.04
482.166	1439.44
482.537	1447.12
482.908	1491.64
483.279	1462.04
483.65	1521.92
484.021	1548.82
484.391	1561.02
484.762	1575.26
485.133	1565.76
485.503	1589.94
485.874	1624.07
486.244	1664.74
486.615	1649.38
486.985	1669.72
487.356	1716.95
487.726	1720.11
488.097	1774.57
488.467	1723.73
488.837	1771.41
489.207	1786.32
489.578	1828.36
489.948	1840.33
490.318	1859.32
490.688	1870.16
491.058	1902.93
491.428	1871.74
491.798	1881.91
492.168	1913.55
492.538	1928.24
492.908	1963.49
493.278	1994
493.648	1982.93
494.017	2009.14
494.387	2026.77
494.757	2039.65
495.126	2048.92
495.496	2095.24
495.866	2078.97
496.235	2103.15
496.605	2124.85
496.974	2116.48
497.344	2151.96
497.713	2132.3
498.082	2133.66
498.452	2215.01
498.821	2215.92
499.19	2169.82
499.559	2197.84
499.928	2219.76
500.298	2235.35
500.667	2241.9
501.036	2292.3
501.405	2255.92
501.774	2234.67
502.143	2292.52
502.512	2290.94
502.88	2314.44
503.249	2324.16
503.618	2355.12
503.987	2349.02
504.356	2364.84
504.724	2377.72
505.093	2364.39
505.462	2391.96
505.83	2415.23
506.199	2407.78
506.567	2461.33
506.936	2485.97
507.304	2446.19
507.672	2474.21
508.041	2554.89
508.409	2509.47
508.777	2535.46
509.145	2546.76
509.514	2550.82
509.882	2587.21
510.25	2598.73
510.618	2593.76
510.986	2608.67
511.354	2634.21
511.722	2653.19
512.09	2709.91
512.458	2693.42
512.826	2711.95
513.193	2716.02
513.561	2749.91
513.929	2737.71
514.297	2745.85
514.664	2780.42
515.032	2825.17
515.4	2852.51
515.767	2806.64
516.135	2808.44
516.502	2836.24
516.869	2855.9
517.237	2862.9
517.604	2896.12
517.972	2925.5
518.339	2933.41
518.706	2931.15
519.073	2987.87
519.44	2990.13
519.808	3020.87
520.175	3040.53
520.542	3071.26
520.909	3091.6
521.276	3098.6
521.643	3107.87
522.009	3127.76
522.376	3151.26
522.743	3153.29
523.11	3198.49
523.477	3247.53
523.843	3229.45
524.21	3238.04
524.577	3301.76
524.943	3308.09
525.31	3330.92
525.676	3348.09
526.043	3362.33
526.409	3399.84
526.776	3431.25
527.142	3366.39
527.508	3464.25
527.874	3466.05
528.241	3450.69
528.607	3459.73
528.973	3513.51
529.339	3513.96
529.705	3543.11
530.071	3526.84
530.437	3640.06
530.803	3587.18
531.169	3617.46
531.535	3618.59
531.901	3621.08
532.267	3671.25
532.632	3682.32
532.998	3695.43
533.364	3758.02
533.73	3745.82
534.095	3771.81
534.461	3800.51
534.826	3825.14
535.192	3803.9
535.557	3818.13
535.923	3830.56
536.288	3881.86
536.653	3888.87
537.019	3926.83
537.384	3918.24
537.749	3937.9
538.114	3907.62
538.479	3920.05
538.845	3980.39
539.21	3968.64
539.575	3961.41
539.94	3988.3
540.305	3997.34
540.67	4025.36
541.034	4023.78
541.399	4064.23
541.764	4048.64
542.129	4017.68
542.494	4095.87
542.858	4071.23
543.223	4158.24
543.587	4137.45
543.952	4143.78
544.316	4161.18
544.681	4202.3
545.045	4259.48
545.41	4195.98
545.774	4190.55
546.138	4227.61
546.503	4260.38
546.867	4259.03
547.231	4279.36
547.595	4327.5
547.959	4281.4
548.324	4325.69
548.688	4332.92
549.052	4339.7
549.416	4371.57
549.779	4377.67
550.143	4343.32
550.507	4376.09
550.871	4451.11
551.235	4460.6
551.599	4456.08
551.962	4494.73
552.326	4506.48
552.689	4498.34
553.053	4506.7
553.417	4553.26
553.78	4575.4
554.143	4492.47
554.507	4544.44
554.87	4555.74
555.234	4602.29
555.597	4604.1
555.96	4614.05
556.323	4688.17
556.686	4645
557.05	4683.87
557.413	4723.42
557.776	4772.01
558.139	4691.11
558.502	4781.05
558.865	4788.5
559.228	4846.81
559.59	4819.92
559.953	4849.07
560.316	4900.59
560.679	4940.36
561.041	4889.29
561.404	4934.94
561.767	5063.3
562.129	4981.04
562.492	5040.7
562.854	5050.64
563.217	5040.02
563.579	5034.6
563.941	5125.44
564.304	5107.37
564.666	5165.9
565.028	5173.58
565.39	5194.6
565.753	5252.9
566.115	5271.43
566.477	5261.71
566.839	5258.1
567.201	5293.8
567.563	5329.28
567.925	5353.69
568.287	5336.96
568.648	5362.95
569.01	5379.9
569.372	5409.28
569.734	5445.89
570.095	5404.31
570.457	5499.67
570.819	5522.72
571.18	5513.91
571.542	5564.08
571.903	5559.56
572.265	5510.52
572.626	5564.98
572.987	5578.99
573.349	5614.92
573.71	5667.58
574.071	5613.79
574.432	5647.24
574.794	5673.45
575.155	5676.62
575.516	5682.94
575.877	5681.14
576.238	5709.16
576.599	5740.34
576.96	5711.64
577.32	5741.93
577.681	5833
578.042	5799.32
578.403	5815.14
578.763	5841.36
579.124	5762.49
579.485	5864.63
579.845	5878.19
580.206	5880.45
580.566	5852.66
580.927	5913.22
581.287	5896.05
581.648	5890.17
582.008	5901.02
582.368	5896.72
582.728	5890.62
583.089	5908.25
583.449	5927.23
583.809	5882.03
584.169	5934.91
584.529	5934.91
584.889	6017.85
585.249	5965.42
585.609	5919.55
585.969	5969.72
586.329	5910.06
586.688	5941.92
587.048	5910.73
587.408	5950.96
587.768	5951.86
588.127	5943.95
588.487	5946.44
588.846	5991.64
589.206	5904.86
589.565	5944.86
589.925	5946.21
590.284	5905.76
590.643	5896.05
591.003	5945.76
591.362	5969.04
591.721	5978.76
592.08	5944.41
592.44	5938.98
592.799	5926.55
593.158	5938.3
593.517	5927.23
593.876	5933.78
594.235	5982.6
594.593	5936.5
594.952	5953.22
595.311	5953.67
595.67	5909.6
596.029	6003.39
596.387	5990.51
596.746	5964.74
597.104	5973.11
597.463	5972.2
597.822	5995.25
598.18	6008.13
598.538	6034.8
598.897	5986.44
599.255	5976.04
599.613	6103.95
599.972	6070.5
600.33	6005.65
600.688	6097.4
601.046	6062.14
601.404	6117.96
601.762	6069.15
602.12	6105.31
602.478	6112.31
602.836	6070.05
603.194	6101.69
603.552	6088.81
603.91	6074.12
604.268	6027.34
604.625	6065.08
604.983	6107.11
605.341	6092.88
605.698	6143.95
606.056	6096.04
606.413	6127.23
606.771	6122.71
607.128	6131.97
607.485	6102.14
607.843	6075.02
608.2	6132.65
608.557	6139.43
608.914	6155.7
609.272	6162.48
609.629	6132.2
609.986	6225.75
610.343	6172.42
610.7	6169.94
611.057	6174.91
611.414	6197.51
611.771	6221.01
612.127	6255.58
612.484	6234.79
612.841	6216.04
613.198	6179.88
613.554	6259.65
613.911	6323.83
614.267	6303.72
614.624	6284.28
614.98	6320.22
615.337	6348.69
615.693	6332.87
616.05	6385.3
616.406	6403.38
616.762	6370.84
617.118	6421.68
617.475	6423.49
617.831	6464.17
618.187	6374.23
618.543	6411.51
618.899	6444.96
619.255	6438.63
619.611	6400.89
619.967	6438.18
620.323	6467.1
620.678	6428.01
621.034	6447.22
621.39	6431.62
621.746	6374.9
622.101	6434.34
622.457	6379.87
622.812	6402.25
623.168	6399.31
623.523	6395.24
623.879	6434.79
624.234	6313.66
624.589	6388.69
624.945	6306.2
625.3	6308.46
625.655	6355.92
626.01	6312.31
626.365	6346.43
626.72	6308.01
627.075	6289.03
627.43	6248.8
627.785	6309.59
628.14	6263.49
628.495	6201.12
628.85	6210.61
629.205	6237.05
629.559	6250.61
629.914	6263.72
630.269	6225.3
630.623	6264.17
630.978	6247.9
631.332	6290.16
631.687	6258.07
632.041	6339.65
632.396	6311.18
632.75	6292.19
633.104	6282.25
633.459	6298.07
633.813	6271.85
634.167	6285.64
634.521	6365.19
634.875	6341.46
635.229	6339.42
635.583	6296.26
635.937	6350.5
636.291	6369.03
636.645	6327.22
636.999	6303.04
637.352	6312.98
637.706	6293.1
638.06	6308.69
638.413	6282.48
638.767	6263.49
639.121	6294.45
639.474	6257.39
639.828	6300.1
640.181	6231.63
640.534	6266.43
640.888	6214.23
641.241	6232.31
641.594	6206.09
641.947	6242.93
642.301	6235.25
642.654	6216.49
643.007	6199.77
643.36	6186.43
643.713	6160.9
644.066	6158.86
644.419	6045.42
644.771	6062.82
645.124	5913.67
645.477	5895.82
645.83	5919.32
646.182	5935.59
646.535	5902.15
646.888	5881.36
647.24	5897.63
647.593	5919.55
647.945	5902.83
648.298	5872.09
648.65	5873.9
649.002	5841.58
649.355	5842.49
649.707	5816.27
650.059	5870.06
650.411	5908.25
650.763	5903.05
651.115	6035.7
651.467	6040.22
651.819	6012.88
652.171	6027.57
652.523	5955.25
652.875	5910.73
653.227	5968.36
653.578	5998.42
653.93	6045.42
654.282	6001.35
654.633	5960.22
654.985	5956.61
655.337	5993.9
655.688	5945.08
656.039	6033.22
656.391	5955.25
656.742	5967.23
657.094	5950.06
657.445	5959.55
657.796	5963.84
658.147	5958.19
658.498	5930.39
658.849	5952.32
659.2	5910.06
659.551	5919.1
659.902	5899.66
660.253	5915.48
660.604	5876.16
660.955	5859.89
661.306	5882.71
661.656	5847.23
662.007	5858.98
662.358	5848.36
662.708	5841.13
663.059	5819.44
663.409	5804.07
663.76	5782.83
664.11	5798.2
664.461	5769.04
664.811	5844.07
665.161	5838.42
665.511	5783.28
665.862	5774.47
666.212	5827.12
666.562	5806.78
666.912	5770.63
667.262	5745.09
667.612	5774.69
667.962	5842.71
668.312	5778.08
668.662	5819.21
669.011	5812.66
669.361	5777.63
669.711	5807.91
670.06	5854.46
670.41	5780.57
670.76	5780.57
671.109	5844.07
671.459	5832.32
671.808	5860.79
672.157	5836.16
672.507	5837.06
672.856	5821.02
673.205	5850.17
673.554	5865.76
673.904	5841.81
674.253	5869.83
674.602	5801.81
674.951	5751.64
675.3	5727.01
675.649	5840.68
675.998	5835.93
676.346	5858.31
676.695	5876.39
677.044	5784.86
677.393	5852.66
677.741	5883.62
678.09	5777.4
678.438	5839.78
678.787	5828.7
679.135	5814.92
679.484	5752.55
679.832	5813.11
680.181	5780.57
680.529	5790.29
680.877	5716.62
681.225	5720
681.573	5730.63
681.922	5697.86
682.27	5677.07
682.618	5623.28
682.966	5646.11
683.314	5623.06
683.661	5545.09
684.009	5559.56
684.357	5477.53
684.705	5518.2
685.053	5575.83
685.4	5532.21
685.748	5465.55
686.095	5473.23
686.443	5441.14
686.79	5469.39
687.138	5489.73
687.485	5440.24
687.832	5429.62
688.18	5466.9
688.527	5396.85
688.874	5383.52
689.221	5374.93
689.568	5367.92
689.915	5346.91
690.262	5392.33
690.609	5356.62
690.956	5354.36
691.303	5320.24
691.65	5316.85
691.997	5325.67
692.344	5346.23
692.69	5303.52
693.037	5303.97
693.383	5254.48
693.73	5301.26
694.077	5306.91
694.423	5272.11
694.769	5278.43
695.116	5296.74
695.462	5226.23
695.808	5209.74
696.155	5211.32
696.501	5230.3
696.847	5260.81
697.193	5219
697.539	5228.04
697.885	5171.77
698.231	5183.3
698.577	5216.52
698.923	5195.72
699.269	5123.18
699.614	5124.77
699.96	5136.97
700.306	5119.79
700.651	5146.23
700.997	5144.43
701.342	5025.11
701.688	5082.73
702.033	5055.84
702.379	5036.63
702.724	5014.94
703.069	5036.63
703.415	4963.64
703.76	4922.51
704.105	4961.83
704.45	4919.35
704.795	4953.25
705.14	4922.06
705.485	4904.43
705.83	4876.41
706.175	4852.68
706.52	4866.02
706.865	4829.86
707.209	4866.47
707.554	4762.97
707.899	4803.42
708.243	4791.67
708.588	4815.17
708.932	4723.87
709.277	4789.86
709.621	4677.55
709.966	4758.67
710.31	4706.02
710.654	4726.13
710.998	4686.81
711.342	4726.58
711.687	4704.44
712.031	4624.21
712.375	4682.97
712.719	4621.5
713.063	4677.09
713.407	4668.06
713.75	4673.7
714.094	4653.14
714.438	4625.57
714.782	4600.03
715.125	4619.24
715.469	4612.24
715.812	4600.94
716.156	4555.29
716.499	4645.46
716.843	4549.19
717.186	4589.19
717.53	4594.38
717.873	4597.77
718.216	4588.28
718.559	4537.44
718.902	4509.19
719.246	4579.92
719.589	4582.41
719.932	4560.71
720.275	4512.81
720.617	4531.56
720.96	4501.28
721.303	4535.4
721.646	4482.3
721.989	4517.1
722.331	4410.89
722.674	4510.77
723.016	4486.59
723.359	4511.68
723.701	4473.48
724.044	4452.69
724.386	4445.46
724.729	4447.5
725.071	4389.19
725.413	4424.22
725.755	4370.66
726.097	4381.96
726.439	4360.72
726.782	4391.68
727.124	4400.72
727.465	4337.22
727.807	4371.79
728.149	4328.86
728.491	4334.73
728.833	4321.4
729.175	4336.76
729.516	4288.86
729.858	4309.87
730.199	4310.1
730.541	4295.86
730.882	4287.05
731.224	4255.18
731.565	4258.57
731.906	4285.01
732.248	4260.61
732.589	4235.3
732.93	4166.83
733.271	4215.19
733.612	4221.51
733.953	4201.85
734.294	4224.9
734.635	4156.2
734.976	4208.86
735.317	4142.87
735.658	4133.83
735.999	4227.16
736.339	4156.66
736.68	4198.24
737.021	4142.19
737.361	4161.18
737.702	4159.59
738.042	4102.87
738.383	4139.03
738.723	4120.95
739.063	4118.24
739.404	4155.75
739.744	4118.92
740.084	4110.56
740.424	4080.73
740.764	4102.42
741.104	4134.06
741.444	4095.64
741.784	4096.09
742.124	4074.85
742.464	4119.6
742.804	4079.82
743.143	4085.7
743.483	4048.18
743.823	4039.15
744.162	4057.68
744.502	4065.59
744.841	4059.26
745.181	4066.26
745.52	4063.33
745.86	4050.22
746.199	4022.87
746.538	4085.47
746.877	4001.86
747.216	4044.57
747.556	4046.15
747.895	4030.78
748.234	4021.07
748.573	4004.57
748.911	4011.35
749.25	4016.32
749.589	3997.34
749.928	4014.06
750.267	3957.57
750.605	3989.65
750.944	4005.93
751.283	3944.46
751.621	3966.6
751.96	3986.72
752.298	3975.87
752.636	3970.22
752.975	3912.37
753.313	3912.37
753.651	3910.11
753.989	3912.82
754.327	3892.03
754.666	3873.05
755.004	3904.23
755.342	3886.61
755.679	3918.7
756.017	3870.34
756.355	3890.67
756.693	3835.31
757.031	3893.39
757.368	3827.4
757.706	3818.36
758.044	3782.2
758.381	3807.96
758.719	3808.42
759.056	3767.74
759.394	3794.63
759.731	3752.6
760.068	3764.12
760.405	3749.89
760.743	3725.03
761.08	3713.05
761.417	3712.15
761.754	3711.7
762.091	3680.06
762.428	3729.32
762.765	3697.23
763.102	3662.43
763.438	3671.02
763.775	3625.82
764.112	3664.01
764.449	3641.64
764.785	3593.73
765.122	3656.33
765.458	3577.46
765.795	3537.69
766.131	3583.79
766.467	3547.63
766.804	3544.24
767.14	3539.72
767.476	3549.44
767.812	3513.74
768.148	3553.51
768.485	3504.24
768.821	3484.13
769.157	3445.26
769.492	3437.81
769.828	3445.49
770.164	3450.46
770.5	3426.96
770.836	3417.92
771.171	3426.05
771.507	3427.18
