Data from foam1_polythene_foam_FLMS001491_00004.txt Node
Date: Wed Feb 08 10:54:17 GMT 2017
User: dcchb
Spectrometer: FLMS00149
Trigger mode: 0
Integration Time (sec): 2.000000E-2
Scans to average: 10
Electric dark correction enabled: true
Nonlinearity correction enabled: false
Boxcar width: 0
XAxis mode: Wavelengths
Number of Pixels in Spectrum: 2048
>>>>>Begin Spectral Data<<<<<
341.393	0.81
341.776	0.81
342.16	0.81
342.543	-67.44
342.927	-61.34
343.31	-71.06
343.693	-69.93
344.077	-74
344.46	-74.67
344.843	-40.32
345.226	-45.97
345.61	-37.39
345.993	-25.86
346.376	5.55
346.759	15.04
347.142	35.61
347.525	63.63
347.908	55.49
348.291	52.78
348.674	101.82
349.057	109.28
349.44	110.41
349.823	155.38
350.206	167.81
350.588	169.16
350.971	200.12
351.354	222.72
351.737	215.04
352.119	247.8
352.502	252.1
352.884	271.08
353.267	262.27
353.65	271.08
354.032	281.25
354.414	272.89
354.797	306.79
355.179	312.66
355.562	315.83
355.944	307.92
356.326	326.9
356.709	322.15
357.091	338.2
357.473	314.92
357.855	314.24
358.238	328.25
358.62	318.76
359.002	309.95
359.384	327.12
359.766	307.92
360.148	311.08
360.53	299.78
360.912	307.24
361.294	327.58
361.676	321.25
362.057	328.48
362.439	290.74
362.821	308.82
363.203	308.59
363.584	311.08
363.966	316.73
364.348	309.27
364.729	305.2
365.111	299.55
365.493	304.53
365.874	300.23
366.256	287.58
366.637	307.69
367.019	305.66
367.4	283.51
367.781	315.6
368.163	289.61
368.544	293.45
368.925	308.37
369.306	307.01
369.688	296.16
370.069	306.56
370.45	290.06
370.831	284.41
371.212	288.93
371.593	293.68
371.974	286.45
372.355	293.45
372.736	270.85
373.117	295.94
373.498	284.19
373.879	314.24
374.26	309.95
374.641	307.01
375.021	283.28
375.402	293.68
375.783	286.9
376.163	307.92
376.544	301.59
376.925	300.01
377.305	299.1
377.686	311.08
378.066	296.84
378.447	332.1
378.827	302.04
379.208	318.08
379.588	321.25
379.968	309.95
380.349	310.18
380.729	317.18
381.109	322.38
381.489	352.43
381.87	326.45
382.25	338.88
382.63	315.83
383.01	317.86
383.39	332.77
383.77	305.43
384.15	321.93
384.53	318.31
384.91	323.28
385.29	334.36
385.67	331.87
386.049	328.48
386.429	341.59
386.809	320.34
387.189	336.62
387.568	324.86
387.948	317.63
388.328	356.73
388.707	356.28
389.087	343.39
389.466	342.72
389.846	340.01
390.225	364.41
390.605	343.17
390.984	333.9
391.363	344.3
391.743	349.04
392.122	339.33
392.501	340.23
392.881	346.11
393.26	346.33
393.639	341.36
394.018	347.46
394.397	353.11
394.776	347.46
395.155	353.56
395.534	358.76
395.913	365.54
396.292	356.5
396.671	370.29
397.05	358.99
397.429	360.57
397.808	360.57
398.186	364.64
398.565	354.92
398.944	357.86
399.323	359.44
399.701	364.86
400.08	392.66
400.458	364.19
400.837	359.67
401.215	374.35
401.594	356.28
401.972	388.37
402.351	382.26
402.729	383.62
403.107	393.79
403.486	391.53
403.864	393.34
404.242	380
404.62	395.6
404.999	393.34
405.377	367.12
405.755	367.8
406.133	379.78
406.511	387.46
406.889	386.56
407.267	384.98
407.645	391.08
408.023	389.5
408.401	406.67
408.779	409.16
409.156	403.73
409.534	415.48
409.912	412.77
410.29	400.12
410.667	417.29
411.045	412.77
411.422	403.51
411.8	415.03
412.178	402.38
412.555	426.33
412.933	417.97
413.31	447.35
413.687	425.43
414.065	433.11
414.442	430.62
414.819	437.4
415.197	429.04
415.574	449.83
415.951	440.57
416.328	439.44
416.705	446.9
417.082	440.57
417.46	468.36
417.837	444.41
418.214	427.91
418.591	447.8
418.967	421.13
419.344	453.22
419.721	462.04
420.098	471.75
420.475	465.88
420.852	439.44
421.228	455.26
421.605	467.91
421.982	483.05
422.358	452.09
422.735	455.03
423.111	465.2
423.488	469.04
423.864	498.19
424.241	480.34
424.617	478.53
424.994	485.99
425.37	501.13
425.746	515.59
426.123	501.81
426.499	500.23
426.875	497.29
427.251	523.5
427.627	517.4
428.003	518.53
428.379	518.76
428.756	551.3
429.132	507.01
429.507	543.84
429.883	523.96
430.259	542.03
430.635	558.53
431.011	528.47
431.387	533.9
431.763	570.96
432.138	566.89
432.514	545.2
432.89	556.27
433.265	572.54
433.641	576.16
434.016	596.04
434.392	581.58
434.767	607.79
435.143	608.92
435.518	595.14
435.894	609.6
436.269	610.51
436.644	595.82
437.02	611.41
437.395	594.91
437.77	618.42
438.145	619.32
438.52	637.4
438.895	642.82
439.271	626.78
439.646	639.88
440.021	668.58
440.395	663.39
440.77	665.65
441.145	669.04
441.52	667.68
441.895	658.19
442.27	665.19
442.645	672.43
443.019	684.18
443.394	702.93
443.769	686.44
444.143	678.3
444.518	712.88
444.892	677.17
445.267	706.32
445.641	711.07
446.016	714.46
446.39	740.9
446.764	727.11
447.139	727.57
447.513	739.09
447.887	755.81
448.262	757.85
448.636	775.47
449.01	805.76
449.384	771.86
449.758	772.08
450.132	799.65
450.506	806.89
450.88	797.39
451.254	810.05
451.628	798.3
452.002	812.54
452.376	838.3
452.75	817.05
453.123	824.96
453.497	841.91
453.871	827.9
454.244	847.56
454.618	883.27
454.992	859.31
455.365	849.14
455.739	860.9
456.112	883.72
456.486	889.37
456.859	882.82
457.232	886.43
457.606	900.67
457.979	915.81
458.352	891.86
458.725	907.22
459.099	895.24
459.472	901.57
459.845	924.17
460.218	928.46
460.591	927.56
460.964	919.88
461.337	950.16
461.71	944.51
462.083	956.26
462.456	933.21
462.829	950.16
463.201	938.86
463.574	974.56
463.947	967.79
464.32	988.35
464.692	982.47
465.065	1001.23
465.438	1005.07
465.81	996.49
466.183	1022.7
466.555	1042.13
466.928	1030.61
467.3	1024.28
467.672	1063.15
468.045	1041
468.417	1064.51
468.789	1040.1
469.161	1066.77
469.534	1098.63
469.906	1101.57
470.278	1121.91
470.65	1093.43
471.022	1126.88
471.394	1144.5
471.766	1131.4
472.138	1154.22
472.51	1165.75
472.882	1186.54
473.253	1210.72
473.625	1198.97
473.997	1226.54
474.369	1230.38
474.74	1265.4
475.112	1279.19
475.484	1284.16
475.855	1257.95
476.227	1283.48
476.598	1319.19
476.97	1316.48
477.341	1330.49
477.713	1366.42
478.084	1374.78
478.455	1406.87
478.827	1398.06
479.198	1465.17
479.569	1451.61
479.94	1481.44
480.311	1492.97
480.682	1500.43
481.053	1542.46
481.424	1532.52
481.795	1547.21
482.166	1591.05
482.537	1601.89
482.908	1606.19
483.279	1637.15
483.65	1653.19
484.021	1676.47
484.391	1696.81
484.762	1717.6
485.133	1758.27
485.503	1753.98
485.874	1767.76
486.244	1789.68
486.615	1822.23
486.985	1868.33
487.356	1886.86
487.726	1886.41
488.097	1939.51
488.467	1920.53
488.837	1961.88
489.207	1999.4
489.578	1998.27
489.948	1990.58
490.318	2064.71
490.688	2034.88
491.058	2070.58
491.428	2091.15
491.798	2132.95
492.168	2123.46
492.538	2154.42
492.908	2189.45
493.278	2190.13
493.648	2215.21
494.017	2263.34
494.387	2281.2
494.757	2305.83
495.126	2321.42
495.496	2313.51
495.866	2333.85
496.235	2394.64
496.605	2382.44
496.974	2394.87
497.344	2410.91
497.713	2427.86
498.082	2423.11
498.452	2464.7
498.821	2487.52
499.19	2524.58
499.559	2467.86
499.928	2529.55
500.298	2548.99
500.667	2548.53
501.036	2573.39
501.405	2579.95
501.774	2572.26
502.143	2656.78
502.512	2644.13
502.88	2681.64
503.249	2650.45
503.618	2701.07
503.987	2687.29
504.356	2719.83
504.724	2738.13
505.093	2743.78
505.462	2750.56
505.83	2771.13
506.199	2777
506.567	2804.8
506.936	2845.48
507.304	2878.24
507.672	2880.28
508.041	2901.52
508.409	2914.17
508.777	2926.15
509.145	2973.83
509.514	2953.27
509.882	2991.69
510.25	2972.7
510.618	3020.39
510.986	3047.05
511.354	3059.71
511.722	3071.91
512.09	3103.77
512.458	3109.65
512.826	3162.76
513.193	3163.21
513.561	3136.99
513.929	3164.11
514.297	3233.49
514.664	3219.7
515.032	3262.41
515.4	3299.25
515.767	3307.84
516.135	3300.15
516.502	3299.93
516.869	3342.41
517.237	3395.52
517.604	3416.08
517.972	3470.54
518.339	3462.18
518.706	3454.05
519.073	3484.33
519.44	3484.78
519.808	3554.61
520.175	3551.67
520.542	3603.2
520.909	3583.99
521.276	3605.91
521.643	3646.58
522.009	3687.04
522.376	3727.94
522.743	3754.38
523.11	3789.86
523.477	3824.21
523.843	3776.07
524.21	3833.7
524.577	3865.34
524.943	3929.06
525.31	3889.97
525.676	3976.29
526.043	3968.84
526.409	3988.72
526.776	4031.89
527.142	4037.08
527.508	4073.01
527.874	4114.82
528.241	4122.28
528.607	4122.73
528.973	4183.75
529.339	4204.99
529.705	4236.17
530.071	4275.49
530.437	4256.96
530.803	4306.91
531.169	4315.04
531.535	4375.83
531.901	4306.68
532.267	4357.75
532.632	4400.69
532.998	4435.72
533.364	4455.6
533.73	4442.95
534.095	4446.79
534.461	4515.26
534.826	4511.42
535.192	4550.29
535.557	4578.54
535.923	4575.37
536.288	4614.7
536.653	4609.05
537.019	4618.76
537.384	4684.07
537.749	4674.58
538.114	4733.34
538.479	4752.32
538.845	4705.09
539.21	4745.31
539.575	4722.04
539.94	4760.68
540.305	4757.06
540.67	4798.42
541.034	4837.97
541.399	4875.93
541.764	4884.97
542.129	4934.23
542.494	4893.33
542.858	4929.26
543.223	4874.8
543.587	4929.94
543.952	4919.32
544.316	4923.39
544.681	4962.71
545.045	5027.57
545.41	5037.73
545.774	5062.82
546.138	5082.48
546.503	5102.14
546.867	5035.47
547.231	5119.54
547.595	5151.86
547.959	5118.86
548.324	5161.35
548.688	5172.19
549.052	5194.79
549.416	5222.36
549.779	5208.58
550.143	5238.18
550.507	5285.41
550.871	5244.96
551.235	5283.15
551.599	5302.36
551.962	5307.78
552.326	5329.7
552.689	5361.34
553.053	5369.03
553.417	5424.39
553.78	5413.77
554.143	5467.55
554.507	5473.43
554.87	5495.58
555.234	5592.52
555.597	5545.07
555.96	5529.93
556.323	5558.4
556.686	5583.48
557.05	5569.92
557.413	5675.68
557.776	5646.08
558.139	5699.19
558.502	5722.01
558.865	5748.22
559.228	5791.16
559.59	5793.42
559.953	5798.17
560.316	5913.87
560.679	5839.97
561.041	5886.53
561.404	5916.81
561.767	5976.69
562.129	5985.28
562.492	5995.45
562.854	5994.32
563.217	5997.26
563.579	6097.14
563.941	6142.56
564.304	6130.14
564.666	6198.61
565.028	6190.7
565.39	6201.55
565.753	6206.07
566.115	6272.28
566.477	6289.23
566.839	6288.55
567.201	6357.47
567.563	6327.87
567.925	6375.55
568.287	6450.58
568.648	6471.14
569.01	6470.92
569.372	6451.48
569.734	6414.87
570.095	6507.07
570.457	6562.89
570.819	6602.67
571.18	6547.75
571.542	6580.07
571.903	6610.8
572.265	6625.72
572.626	6626.85
572.987	6728.09
573.349	6675.43
573.71	6662.1
574.071	6789.1
574.432	6761.76
574.794	6837.91
575.155	6784.58
575.516	6779.16
575.877	6836.11
576.238	6825.03
576.599	6904.58
576.96	6895.54
577.32	6826.39
577.681	6878.14
578.042	6941.19
578.403	6967.63
578.763	6846.95
579.124	6930.79
579.485	7003.11
579.845	6996.33
580.206	6987.97
580.566	6884.01
580.927	6949.1
581.287	7013.95
581.648	6952.94
582.008	7032.03
582.368	7011.69
582.728	7058.7
583.089	7010.34
583.449	7035.87
583.809	7016.21
584.169	7044.01
584.529	7024.58
584.889	7085.14
585.249	7022.09
585.609	7061.18
585.969	7027.96
586.329	7066.16
586.688	7104.35
587.048	7077.68
587.408	7059.38
587.768	7024.12
588.127	7010.11
588.487	7086.95
588.846	7067.51
589.206	7003.78
589.565	7040.39
589.925	7056.21
590.284	7052.82
590.643	7069.09
591.003	7106.15
591.362	7143.89
591.721	7098.92
592.08	7051.69
592.44	7128.75
592.799	7052.15
593.158	7081.97
593.517	7051.47
593.876	7086.49
594.235	7067.51
594.593	7038.13
594.952	7121.52
595.311	7116.1
595.67	7110.9
596.029	7133.95
596.387	7130.56
596.746	7126.04
597.104	7130.56
597.463	7086.72
597.822	7116.1
598.18	7097.79
598.538	7057.12
598.897	7135.31
599.255	7064.8
599.613	7158.13
599.972	7133.95
600.33	7130.79
600.688	7156.55
601.046	7167.17
601.404	7150.9
601.762	7170.33
602.12	7140.05
602.478	7198.13
602.836	7182.31
603.194	7134.4
603.552	7140.5
603.91	7126.27
604.268	7199.71
604.625	7147.06
604.983	7234.74
605.341	7140.05
605.698	7239.94
606.056	7160.62
606.413	7212.14
606.771	7227.06
607.128	7195.64
607.485	7201.29
607.843	7230.9
608.2	7292.36
608.557	7298.92
608.914	7261.41
609.272	7249.65
609.629	7317.45
609.986	7290.56
610.343	7278.13
610.7	7295.3
611.057	7379.37
611.414	7304.79
611.771	7324
612.127	7387.96
612.484	7318.35
612.841	7378.69
613.198	7342.08
613.554	7342.31
613.911	7394.51
614.267	7339.14
614.624	7400.16
614.98	7356.32
615.337	7378.24
615.693	7377.56
616.05	7385.47
616.406	7424.34
616.762	7349.54
617.118	7372.14
617.475	7373.72
617.831	7422.3
618.187	7404.9
618.543	7430.21
618.899	7434.06
619.255	7443.77
619.611	7359.48
619.967	7476.31
620.323	7434.73
620.678	7493.94
621.034	7362.65
621.39	7381.4
621.746	7349.76
622.101	7561.51
622.457	7437.45
622.812	7420.5
623.168	7498.24
623.523	7461.85
623.879	7478.35
624.234	7407.62
624.589	7419.37
624.945	7463.89
625.3	7426.6
625.655	7480.38
626.01	7463.89
626.365	7431.57
626.72	7360.61
627.075	7376.43
627.43	7373.04
627.785	7345.02
628.14	7372.36
628.495	7485.13
628.85	7383.44
629.205	7385.92
629.559	7424.79
629.914	7379.14
630.269	7445.58
630.623	7343.21
630.978	7335.75
631.332	7340.27
631.687	7389.54
632.041	7317.9
632.396	7306.38
632.75	7307.73
633.104	7338.92
633.459	7247.62
633.813	7331.23
634.167	7261.63
634.521	7320.39
634.875	7335.53
635.229	7337.34
635.583	7261.86
635.937	7238.58
636.291	7244
636.645	7298.69
636.999	7205.14
637.352	7174.63
637.706	7110.9
638.06	7166.72
638.413	7139.37
638.767	7150.45
639.121	7157.68
639.474	7112.26
639.828	7122.2
640.181	7134.63
640.534	7059.6
640.888	7084.69
641.241	7107.96
641.594	7096.66
641.947	7121.52
642.301	7099.38
642.654	7119.04
643.007	7018.7
643.36	7030.45
643.713	6969.89
644.066	7046.27
644.419	6983.45
644.771	6906.84
645.124	6895.31
645.477	6850.57
645.83	6846.27
646.182	6823.22
646.535	6800.4
646.888	6863
647.24	6789.33
647.593	6827.97
647.945	6806.05
648.298	6740.29
648.65	6739.16
649.002	6674.08
649.355	6710.69
649.707	6685.15
650.059	6724.24
650.411	6772.83
650.763	6778.25
651.115	6867.74
651.467	6861.64
651.819	6857.12
652.171	6878.36
652.523	6832.49
652.875	6822.32
653.227	6789.33
653.578	6837.24
653.93	6806.73
654.282	6782.55
654.633	6765.37
654.985	6752.27
655.337	6733.28
655.688	6725.15
656.039	6743
656.391	6658.03
656.742	6754.53
657.094	6686.05
657.445	6743
657.796	6758.59
658.147	6732.61
658.498	6707.97
658.849	6723.57
659.2	6702.32
659.551	6707.75
659.902	6727.63
660.253	6685.15
660.604	6681.76
660.955	6623.46
661.306	6632.27
661.656	6658.03
662.007	6613.06
662.358	6628.88
662.708	6617.35
663.059	6561.54
663.409	6547.07
663.76	6631.37
664.11	6639.05
664.461	6596.79
664.811	6601.31
665.161	6607.19
665.511	6602.21
665.862	6629.78
666.212	6657.58
666.562	6638.14
666.912	6574.19
667.262	6599.73
667.612	6567.86
667.962	6587.75
668.312	6559.05
668.662	6578.94
669.011	6532.16
669.361	6485.38
669.711	6542.55
670.06	6514.31
670.41	6536.68
670.76	6533.06
671.109	6594.08
671.459	6528.09
671.808	6527.41
672.157	6548.43
672.507	6476.34
672.856	6534.64
673.205	6547.53
673.554	6541.65
673.904	6498.04
674.253	6520.63
674.602	6482.89
674.951	6411.48
675.3	6365.61
675.649	6469.79
675.998	6459.84
676.346	6390.92
676.695	6454.42
677.044	6382.56
677.393	6420.75
677.741	6487.19
678.09	6381.43
678.438	6400.64
678.787	6446.96
679.135	6472.95
679.484	6452.39
679.832	6440.86
680.181	6403.12
680.529	6420.07
680.877	6373.97
681.225	6333.97
681.573	6400.64
681.922	6402.22
682.27	6356.34
682.618	6264.37
682.966	6254.2
683.314	6251.94
683.661	6274.09
684.009	6290.81
684.357	6239.29
684.705	6169.68
685.053	6313.86
685.4	6290.58
685.748	6255.78
686.095	6239.06
686.443	6242
686.79	6183.02
687.138	6217.82
687.485	6253.07
687.832	6166.74
688.18	6162.68
688.527	6107.76
688.874	6063.02
689.221	6039.52
689.568	6062.79
689.915	6038.84
690.262	6013.98
690.609	6027.54
690.956	6008.33
691.303	6019.4
691.65	6002.91
691.997	5992.96
692.344	5978.05
692.69	6042.23
693.037	6035.22
693.383	5916.36
693.73	5982.34
694.077	5943.47
694.423	5965.85
694.769	5917.03
695.116	5864.38
695.462	5873.64
695.808	5802.23
696.155	5826.41
696.501	5811.05
696.847	5733.31
697.193	5716.59
697.539	5732.41
697.885	5715.68
698.231	5719.07
698.577	5720.65
698.923	5691.05
699.269	5729.24
699.614	5729.92
699.96	5726.53
700.306	5742.12
700.651	5683.59
700.997	5654.67
701.342	5632.07
701.688	5581.68
702.033	5576.93
702.379	5574.22
702.724	5528.34
703.069	5490.38
703.415	5456.48
703.76	5487.67
704.105	5464.39
704.45	5466.2
704.795	5484.5
705.14	5409.48
705.485	5437.05
705.83	5451.28
706.175	5506.65
706.52	5469.36
706.865	5427.78
707.209	5385.3
707.554	5377.61
707.899	5364.96
708.243	5370.38
708.588	5340.78
708.932	5288.58
709.277	5323.38
709.621	5306.43
709.966	5208.8
710.31	5232.76
710.654	5228.01
710.998	5207.22
711.342	5188.01
711.687	5164.74
712.031	5176.49
712.375	5194.79
712.719	5167.45
713.063	5230.72
713.407	5217.62
713.75	5202.48
714.094	5140.33
714.438	5196.6
714.782	5105.53
715.125	5101.24
715.469	5106.66
715.812	5067.79
716.156	5051.29
716.499	5061.01
716.843	5071.86
717.186	5023.5
717.53	5038.64
717.873	5020.11
718.216	4991.63
718.559	4986.21
718.902	4970.17
719.246	4971.97
719.589	4971.52
719.932	4947.57
720.275	5038.41
720.617	5025.76
720.96	5040.9
721.303	5018.3
721.646	4979.21
721.989	4963.16
722.331	4968.13
722.674	4918.87
723.016	4900.56
723.359	4909.38
723.701	4846.1
724.044	4895.14
724.386	4830.51
724.729	4826.67
725.071	4814.46
725.413	4815.82
725.755	4838.87
726.097	4778.08
726.439	4809.94
726.782	4814.01
727.124	4797.29
727.465	4810.62
727.807	4828.7
728.149	4815.59
728.491	4818.53
728.833	4848.81
729.175	4842.71
729.516	4803.39
729.858	4769.04
730.199	4753
730.541	4752.09
730.882	4694.92
731.224	4748.25
731.565	4717.97
731.906	4689.72
732.248	4675.94
732.589	4641.36
732.93	4654.47
733.271	4657.41
733.612	4653.11
733.953	4645.65
734.294	4665.54
734.635	4672.09
734.976	4678.87
735.317	4727.23
735.658	4671.64
735.999	4671.64
736.339	4668.93
736.68	4647.91
737.021	4685.65
737.361	4589.38
737.702	4660.8
738.042	4571.31
738.383	4586
738.723	4610.18
739.063	4552.32
739.404	4583.06
739.744	4534.92
740.084	4536.51
740.424	4530.4
740.764	4535.38
741.104	4546.67
741.444	4510.74
741.784	4524.98
742.124	4502.38
742.464	4535.6
742.804	4552.78
743.143	4538.99
743.483	4520.01
743.823	4523.62
744.162	4574.47
744.502	4542.61
744.841	4508.26
745.181	4513.45
745.52	4425.1
745.86	4486.34
746.199	4477.52
746.538	4420.58
746.877	4376.96
747.216	4398.66
747.556	4374.02
747.895	4368.83
748.234	4344.65
748.573	4365.66
748.911	4358.43
749.25	4387.13
749.589	4391.65
749.928	4392.55
750.267	4357.07
750.605	4330.18
750.944	4365.21
751.283	4353.01
751.621	4404.53
751.96	4360.01
752.298	4346.45
752.636	4303.06
752.975	4296.29
753.313	4263.52
753.651	4259
753.989	4268.26
754.327	4255.16
754.666	4263.52
755.004	4187.36
755.342	4174.25
755.679	4166.8
756.017	4116.18
756.355	4140.81
756.693	4143.52
757.031	4159.57
757.368	4168.61
757.706	4121.6
758.044	4148.49
758.381	4166.8
758.719	4127.25
759.056	4179.45
759.394	4141.94
759.731	4106.69
760.068	4157.31
760.405	4167.48
760.743	4091.32
761.08	4118.44
761.417	4038.66
761.754	4054.71
762.091	4082.51
762.428	4016.97
762.765	3977.65
763.102	3975.84
763.438	3974.71
763.775	3954.15
764.112	3948.5
764.449	3951.89
764.785	3933.13
765.122	3931.32
765.458	3886.58
765.795	3864.21
766.131	3910.98
766.467	3871.66
766.804	3882.74
767.14	3885.67
767.476	3916.18
767.812	3871.21
768.148	3898.1
768.485	3864.21
768.821	3837.99
769.157	3899.01
769.492	3838.22
769.828	3799.58
770.164	3808.84
770.5	3745.79
770.836	3765.45
771.171	3725.45
