Data from foam1_polythene_foam_FLMS001491_00031.txt Node
Date: Wed Feb 08 10:54:44 GMT 2017
User: dcchb
Spectrometer: FLMS00149
Trigger mode: 0
Integration Time (sec): 2.000000E-2
Scans to average: 10
Electric dark correction enabled: true
Nonlinearity correction enabled: false
Boxcar width: 0
XAxis mode: Wavelengths
Number of Pixels in Spectrum: 2048
>>>>>Begin Spectral Data<<<<<
341.393	-8.52
341.776	-8.52
342.16	-8.52
342.543	-46.93
342.927	-74.05
343.31	-84.45
343.693	-79.02
344.077	-60.49
344.46	-52.81
344.843	-52.13
345.226	-31.12
345.61	-40.38
345.993	-25.47
346.376	13.18
346.759	19.73
347.142	17.92
347.525	30.58
347.908	62.89
348.291	64.7
348.674	98.15
349.057	118.71
349.44	118.71
349.823	142.67
350.206	142.21
350.588	157.35
350.971	180.63
351.354	191.93
351.737	217.69
352.119	219.05
352.502	255.66
352.884	242.1
353.267	272.15
353.65	281.42
354.032	264.02
354.414	317.58
354.797	291.36
355.179	313.51
355.562	315.77
355.944	300.18
356.326	297.46
356.709	299.72
357.091	316.45
357.473	337.24
357.855	306.5
358.238	334.98
358.62	317.12
359.002	306.05
359.384	334.3
359.766	330.68
360.148	328.2
360.53	333.4
360.912	335.66
361.294	304.92
361.676	321.42
362.057	325.26
362.439	312.83
362.821	320.06
363.203	299.05
363.584	306.96
363.966	299.05
364.348	293.85
364.729	317.8
365.111	330.46
365.493	310.8
365.874	299.05
366.256	308.99
366.637	293.62
367.019	289.78
367.4	304.47
367.781	287.52
368.163	311.7
368.544	293.62
368.925	280.06
369.306	309.89
369.688	283
370.069	298.82
370.45	284.58
370.831	292.49
371.212	307.18
371.593	294.98
371.974	311.25
372.355	298.37
372.736	303.34
373.117	300.85
373.498	275.77
373.879	295.2
374.26	311.93
374.641	296.56
375.021	302.21
375.402	291.14
375.783	295.88
376.163	292.04
376.544	319.61
376.925	310.34
377.305	298.37
377.686	321.19
378.066	304.7
378.447	307.41
378.827	301.76
379.208	311.25
379.588	315.09
379.968	324.81
380.349	299.72
380.729	313.28
381.109	296.11
381.489	317.58
381.87	325.71
382.25	318.48
382.63	325.94
383.01	313.96
383.39	325.03
383.77	316.22
384.15	314.64
384.53	344.47
384.91	321.19
385.29	318.93
385.67	339.72
386.049	326.84
386.429	320.51
386.809	347.86
387.189	320.29
387.568	334.98
387.948	318.03
388.328	315.77
388.707	351.25
389.087	332.04
389.466	324.58
389.846	345.82
390.225	332.72
390.605	335.43
390.984	320.51
391.363	334.3
391.743	340.85
392.122	339.04
392.501	342.66
392.881	338.37
393.26	332.04
393.639	337.24
394.018	342.21
394.397	344.02
394.776	344.92
395.155	365.48
395.534	365.71
395.913	349.67
396.292	346.05
396.671	374.52
397.05	367.74
397.429	351.93
397.808	356.67
398.186	356.9
398.565	353.96
398.944	378.14
399.323	358.71
399.701	359.38
400.08	371.36
400.458	359.16
400.837	377.91
401.215	382.43
401.594	369.33
401.972	394.41
402.351	367.52
402.729	361.19
403.107	366.39
403.486	385.6
403.864	365.48
404.242	362.09
404.62	394.86
404.999	398.7
405.377	373.17
405.755	370.46
406.133	391.02
406.511	397.57
406.889	393.73
407.267	396.44
407.645	368.65
408.023	387.18
408.401	384.47
408.779	389.89
409.156	393.05
409.534	394.64
409.912	405.94
410.29	410.91
410.667	421.53
411.045	407.07
411.422	435.99
411.8	412.49
412.178	408.65
412.555	405.48
412.933	446.16
413.31	405.48
413.687	436.67
414.065	431.47
414.442	422.88
414.819	440.06
415.197	431.7
415.574	444.13
415.951	459.49
416.328	425.37
416.705	451.58
417.082	432.83
417.46	448.65
417.837	443.9
418.214	444.8
418.591	452.94
418.967	441.64
419.344	451.13
419.721	447.52
420.098	448.65
420.475	459.27
420.852	450.68
421.228	449.78
421.605	459.04
421.982	456.33
422.358	462.43
422.735	475.09
423.111	469.21
423.488	457.46
423.864	487.97
424.241	486.61
424.617	496.1
424.994	493.16
425.37	469.44
425.746	479.61
426.123	505.14
426.499	497.23
426.875	510.34
427.251	519.6
427.627	492.04
428.003	516.44
428.379	505.82
428.756	496.55
429.132	508.31
429.507	522.54
429.883	518.93
430.259	521.19
430.635	517.8
431.011	542.43
431.387	530.68
431.763	534.07
432.138	527.06
432.514	560.96
432.89	571.36
433.265	558.7
433.641	575.65
434.016	573.16
434.392	570.45
434.767	550.56
435.143	579.72
435.518	570.68
435.894	586.72
436.269	581.3
436.644	599.83
437.02	605.48
437.395	628.53
437.77	606.83
438.145	593.05
438.52	638.25
438.895	621.52
439.271	625.36
439.646	638.47
440.021	631.69
440.395	652.93
440.77	635.76
441.145	632.82
441.52	673.27
441.895	641.86
442.27	664.23
442.645	663.78
443.019	656.32
443.394	659.94
443.769	704.68
444.143	678.7
444.518	701.52
444.892	675.76
445.267	686.15
445.641	708.75
446.016	734.97
446.39	712.37
446.764	708.75
447.139	711.46
447.513	730.45
447.887	715.98
448.262	711.92
448.636	705.81
449.01	739.26
449.384	745.81
449.758	743.33
450.132	744.01
450.506	762.99
450.88	755.53
451.254	765.02
451.628	767.96
452.002	778.81
452.376	782.42
452.75	773.61
453.123	784.46
453.497	794.17
453.871	776.32
454.244	803.89
454.618	826.49
454.992	801.18
455.365	822.42
455.739	830.56
456.112	854.96
456.486	845.47
456.859	850.67
457.232	844.34
457.606	840.95
457.979	830.11
458.352	869.65
458.725	863.1
459.099	878.01
459.472	869.65
459.845	862.65
460.218	868.75
460.591	881.4
460.964	877.79
461.337	890.89
461.71	898.8
462.083	928.18
462.456	902.87
462.829	902.65
463.201	902.42
463.574	929.09
463.947	903.32
464.32	937.67
464.692	957.56
465.065	921.63
465.438	966.82
465.81	961.63
466.183	951.01
466.555	951.68
466.928	964.34
467.3	978.35
467.672	985.13
468.045	989.65
468.417	993.94
468.789	987.84
469.161	1033.26
469.534	1021.29
469.906	1042.76
470.278	1030.55
470.65	1053.6
471.022	1064
471.394	1076.43
471.766	1098.57
472.138	1069.42
472.51	1103.09
472.882	1154.62
473.253	1144.45
473.625	1131.34
473.997	1135.63
474.369	1138.8
474.74	1158.46
475.112	1181.28
475.484	1191.9
475.855	1209.76
476.227	1203.88
476.598	1218.57
476.97	1244.11
477.341	1269.64
477.713	1265.57
478.084	1288.62
478.455	1294.73
478.827	1328.4
479.198	1339.47
479.569	1346.48
479.94	1369.53
480.311	1373.37
480.682	1395.97
481.053	1399.13
481.424	1419.92
481.795	1426.47
482.166	1472.35
482.537	1462.63
482.908	1506.25
483.279	1492.69
483.65	1515.06
484.021	1570.65
484.391	1566.36
484.762	1580.82
485.133	1598.45
485.503	1586.47
485.874	1657.65
486.244	1630.31
486.615	1693.59
486.985	1706.01
487.356	1735.17
487.726	1740.59
488.097	1776.07
488.467	1763.41
488.837	1807.93
489.207	1819.23
489.578	1824.88
489.948	1846.8
490.318	1855.62
490.688	1849.06
491.058	1893.35
491.428	1895.84
491.798	1916.63
492.168	1969.28
492.538	1942.84
492.908	1963.41
493.278	2009.06
493.648	2019.9
494.017	2041.37
494.387	2058.77
494.757	2075.72
495.126	2101.48
495.496	2083.41
495.866	2122.73
496.235	2106.91
496.605	2146
496.974	2147.13
497.344	2144.2
497.713	2150.75
498.082	2171.99
498.452	2213.35
498.821	2238.66
499.19	2232.55
499.559	2269.16
499.928	2263.97
500.298	2262.38
500.667	2302.16
501.036	2260.8
501.405	2319.33
501.774	2315.94
502.143	2348.03
502.512	2371.31
502.88	2409.05
503.249	2377.18
503.618	2375.15
503.987	2388.03
504.356	2451.31
504.724	2437.52
505.093	2450.85
505.462	2445.2
505.83	2503.51
506.199	2521.81
506.567	2549.38
506.936	2471.42
507.304	2522.26
507.672	2548.7
508.041	2567.01
508.409	2609.04
508.777	2600
509.145	2620.79
509.514	2634.35
509.882	2620.57
510.25	2648.81
510.618	2678.19
510.986	2656.05
511.354	2715.93
511.722	2752.54
512.09	2758.42
512.458	2749.15
512.826	2782.14
513.193	2806.1
513.561	2804.52
513.929	2821.01
514.297	2853.55
514.664	2882.25
515.032	2870.28
515.4	2896.04
515.767	2917.96
516.135	2935.13
516.502	2926.32
516.869	2959.99
517.237	2996.38
517.604	2996.83
517.972	3001.57
518.339	3036.6
518.706	3023.04
519.073	3063.49
519.44	3083.38
519.808	3087.45
520.175	3113.66
520.542	3131.29
520.909	3144.39
521.276	3176.03
521.643	3177.84
522.009	3198.4
522.376	3254.45
522.743	3263.04
523.11	3302.81
523.477	3356.14
523.843	3310.94
524.21	3359.08
524.577	3385.97
524.943	3413.54
525.31	3436.36
525.676	3399.98
526.043	3479.08
526.409	3500.77
526.776	3525.18
527.142	3504.39
527.508	3523.14
527.874	3572.86
528.241	3593.42
528.607	3580.32
528.973	3608.34
529.339	3643.59
529.705	3632.29
530.071	3665.51
530.437	3692.18
530.803	3689.92
531.169	3749.35
531.535	3752.06
531.901	3740.76
532.267	3801.1
532.632	3796.35
532.998	3800.42
533.364	3759.75
533.73	3860.99
534.095	3858.27
534.461	3877.93
534.826	3903.47
535.192	3953.19
535.557	3916.8
535.923	3905.5
536.288	3947.31
536.653	3929.91
537.019	3948.44
537.384	3969.01
537.749	4001.55
538.114	4007.2
538.479	4054.65
538.845	4026.18
539.21	4013.07
539.575	4056.01
539.94	4017.59
540.305	4096.69
540.67	4063.01
541.034	4166.51
541.399	4166.29
541.764	4117.7
542.129	4141.66
542.494	4130.13
542.858	4176.46
543.223	4182.79
543.587	4205.84
543.952	4223.69
544.316	4255.55
544.681	4249.22
545.045	4287.64
545.41	4294.42
545.774	4280.64
546.138	4257.36
546.503	4320.41
546.867	4336.23
547.231	4326.06
547.595	4357.7
547.959	4391.14
548.324	4365.83
548.688	4389.56
549.052	4459.61
549.416	4406.51
549.779	4404.25
550.143	4437.24
550.507	4442.67
550.871	4487.86
551.235	4475.21
551.599	4507.07
551.962	4511.59
552.326	4551.59
552.689	4506.84
553.053	4544.13
553.417	4541.65
553.78	4655.77
554.143	4568.31
554.507	4582.1
554.87	4670
555.234	4721.53
555.597	4711.81
555.96	4715.88
556.323	4707.97
556.686	4713.62
557.05	4766.05
557.413	4792.94
557.776	4781.41
558.139	4805.37
558.502	4819.6
558.865	4853.5
559.228	4881.07
559.59	4896.21
559.953	4896.21
560.316	4958.81
560.679	4932.82
561.041	4974.18
561.404	5010.33
561.767	5047.17
562.129	5028.19
562.492	5020.05
562.854	5030.45
563.217	5088.07
563.579	5095.3
563.941	5142.99
564.304	5178.01
564.666	5215.53
565.028	5209.2
565.39	5205.13
565.753	5210.56
566.115	5289.2
566.477	5253.49
566.839	5269.08
567.201	5302.08
567.563	5291.23
567.925	5358.57
568.287	5415.3
568.648	5367.39
569.01	5393.83
569.372	5424.79
569.734	5409.42
570.095	5466.14
570.457	5517.21
570.819	5482.19
571.18	5505.01
571.542	5528.06
571.903	5562.64
572.265	5571.68
572.626	5590.21
572.987	5622.52
573.349	5621.39
573.71	5667.04
574.071	5656.19
574.432	5657.1
574.794	5710.65
575.155	5692.58
575.516	5714.72
575.877	5764.21
576.238	5678.57
576.599	5743.65
576.96	5727.6
577.32	5764.21
577.681	5702.29
578.042	5793.59
578.403	5758.56
578.763	5758.34
579.124	5779.13
579.485	5775.06
579.845	5801.73
580.206	5850.31
580.566	5826.81
580.927	5805.12
581.287	5865.45
581.648	5837.88
582.008	5860.71
582.368	5858.67
582.728	5893.25
583.089	5873.81
583.449	5905.45
583.809	5866.58
584.169	5854.15
584.529	5864.55
584.889	5835.62
585.249	5905
585.609	5832.69
585.969	5896.19
586.329	5890.54
586.688	5894.38
587.048	5897.09
587.408	5821.39
587.768	5846.92
588.127	5859.35
588.487	5829.52
588.846	5906.36
589.206	5885.11
589.565	5881.5
589.925	5890.31
590.284	5825.23
590.643	5904.55
591.003	5853.7
591.362	5915.4
591.721	5886.7
592.08	5887.83
592.44	5865.23
592.799	5878.79
593.158	5854.38
593.517	5886.92
593.876	5936.41
594.235	5818.45
594.593	5881.05
594.952	5865.91
595.311	5863.19
595.67	5903.87
596.029	5913.59
596.387	5898.45
596.746	5947.03
597.104	5898.9
597.463	5894.38
597.822	5947.94
598.18	5904.1
598.538	5943.19
598.897	5958.11
599.255	5906.81
599.613	5921.72
599.972	5891.44
600.33	5987.03
600.688	5865.68
601.046	5943.19
601.404	5954.04
601.762	5943.42
602.12	5970.99
602.478	5921.5
602.836	5939.58
603.194	5924.66
603.552	5957.43
603.91	5906.81
604.268	5900.25
604.625	5961.04
604.983	5936.19
605.341	5920.59
605.698	5980.7
606.056	5922.17
606.413	5941.38
606.771	6016.18
607.128	6025.45
607.485	5987.26
607.843	5940.71
608.2	6000.36
608.557	6012.34
608.914	5969.18
609.272	6047.14
609.629	6053.47
609.986	6074.04
610.343	5968.95
610.7	6042.85
611.057	6030.19
611.414	6048.73
611.771	6036.52
612.127	6069.29
612.484	6067.93
612.841	6034.04
613.198	6071.55
613.554	6049.63
613.911	6081.04
614.267	6090.08
614.624	6070.87
614.98	6089.4
615.337	6102.06
615.693	6088.72
616.05	6079.01
616.406	6116.52
616.762	6048.5
617.118	6056.41
617.475	6047.6
617.831	6088.27
618.187	6092.34
618.543	6117.88
618.899	6114.94
619.255	6097.09
619.611	6090.98
619.967	6065.45
620.323	6137.31
620.678	6103.86
621.034	6080.59
621.39	6064.09
621.746	6084.66
622.101	6130.76
622.457	6070.65
622.812	6042.4
623.168	6083.98
623.523	6110.64
623.879	6065.22
624.234	6064.77
624.589	6056.63
624.945	6108.61
625.3	6065.9
625.655	6059.35
626.01	6066.35
626.365	6051.44
626.72	6058.89
627.075	6069.06
627.43	6028.84
627.785	6044.21
628.14	6025.9
628.495	6043.3
628.85	6027.93
629.205	6039.91
629.559	6014.38
629.914	6015.96
630.269	6043.3
630.623	6003.53
630.978	5996.3
631.332	6042.85
631.687	6007.6
632.041	5924.89
632.396	6042.85
632.75	5910.2
633.104	5963.76
633.459	5957.65
633.813	5919.46
634.167	5928.73
634.521	5980.7
634.875	5888.5
635.229	5953.59
635.583	5933.93
635.937	5889.18
636.291	5827.04
636.645	5930.08
636.999	5857.32
637.352	5870.42
637.706	5797.43
638.06	5882.4
638.413	5844.21
638.767	5789.75
639.121	5818.45
639.474	5783.2
639.828	5773.7
640.181	5789.52
640.534	5788.39
640.888	5782.74
641.241	5748.17
641.594	5742.29
641.947	5763.08
642.301	5710.43
642.654	5705.23
643.007	5770.54
643.36	5712.91
643.713	5730.99
644.066	5747.49
644.419	5652.8
644.771	5564.67
645.124	5510.21
645.477	5499.14
645.83	5499.59
646.182	5479.02
646.535	5507.5
646.888	5504.56
647.24	5474.95
647.593	5471.11
647.945	5543.2
648.298	5505.01
648.65	5498.01
649.002	5476.08
649.355	5487.61
649.707	5453.49
650.059	5416.88
650.411	5486.25
650.763	5541.62
651.115	5547.95
651.467	5477.21
651.819	5524.22
652.171	5535.97
652.523	5495.29
652.875	5501.62
653.227	5498.01
653.578	5490.32
653.93	5502.07
654.282	5463.88
654.633	5466.82
654.985	5486.25
655.337	5434.05
655.688	5484.67
656.039	5463.43
656.391	5407.39
656.742	5415.07
657.094	5432.24
657.445	5467.95
657.796	5391.79
658.147	5418.91
658.498	5399.48
658.849	5369.19
659.2	5460.49
659.551	5354.96
659.902	5435.41
660.253	5424.79
660.604	5357.44
660.955	5378.23
661.306	5385.01
661.656	5340.27
662.007	5391.57
662.358	5333.94
662.708	5371.45
663.059	5319.03
663.409	5321.96
663.76	5368.07
664.11	5356.99
664.461	5370.1
664.811	5351.57
665.161	5345.69
665.511	5345.47
665.862	5288.07
666.212	5375.75
666.562	5325.35
666.912	5290.1
667.262	5306.6
667.612	5304.79
667.962	5239.48
668.312	5275.41
668.662	5258.69
669.011	5289.65
669.361	5247.62
669.711	5280.84
670.06	5258.01
670.41	5278.35
670.76	5258.69
671.109	5245.58
671.459	5251.91
671.808	5253.94
672.157	5267.73
672.507	5146.15
672.856	5198.8
673.205	5224.34
673.554	5252.81
673.904	5199.93
674.253	5232.02
674.602	5217.56
674.951	5126.49
675.3	5105.02
675.649	5154.96
675.998	5185.25
676.346	5153.16
676.695	5157.68
677.044	5133.49
677.393	5206.94
677.741	5144.12
678.09	5140.5
678.438	5136.43
678.787	5096.43
679.135	5109.09
679.484	5120.84
679.832	5122.87
680.181	5094.4
680.529	5113.38
680.877	5065.47
681.225	5072.25
681.573	5114.96
681.922	5060.05
682.27	5078.58
682.618	5060.28
682.966	5042.42
683.314	5062.54
683.661	5053.72
684.009	5027.74
684.357	4976.44
684.705	4991.58
685.053	5016.66
685.4	5031.12
685.748	4951.8
686.095	4976.44
686.443	4929.21
686.79	4925.59
687.138	4967.62
687.485	4965.36
687.832	4915.2
688.18	4914.74
688.527	4912.26
688.874	4944.8
689.221	4910.22
689.568	4872.94
689.915	4878.36
690.262	4823.22
690.609	4862.99
690.956	4856.44
691.303	4785.03
691.65	4720.85
691.997	4787.74
692.344	4744.8
692.69	4735.77
693.037	4729.21
693.383	4737.35
693.73	4678.59
694.077	4725.82
694.423	4730.57
694.769	4685.6
695.116	4684.47
695.462	4643.34
695.808	4650.57
696.155	4654.86
696.501	4621.87
696.847	4633.85
697.193	4619.38
697.539	4646.95
697.885	4585.26
698.231	4579.61
698.577	4548.65
698.923	4550.46
699.269	4536
699.614	4514.53
699.96	4509.1
700.306	4490.57
700.651	4477.24
700.997	4463.68
701.342	4455.09
701.688	4469.11
702.033	4419.62
702.379	4450.58
702.724	4394.98
703.069	4444.93
703.415	4403.12
703.76	4399.05
704.105	4352.5
704.45	4374.87
704.795	4333.97
705.14	4334.42
705.485	4298.26
705.83	4324.7
706.175	4301.88
706.52	4246.51
706.865	4280.18
707.209	4327.64
707.554	4327.19
707.899	4287.42
708.243	4253.07
708.588	4234.54
708.932	4225.04
709.277	4235.21
709.621	4215.1
709.966	4222.11
710.31	4158.38
710.654	4156.57
710.998	4180.07
711.342	4178.27
711.687	4154.54
712.031	4161.32
712.375	4155.22
712.719	4138.49
713.063	4110.7
713.407	4138.27
713.75	4088.32
714.094	4119.28
714.438	4065.05
714.782	4095.56
715.125	4056.91
715.469	4081.09
715.812	4044.03
716.156	4003.81
716.499	4048.1
716.843	4000.87
717.186	3992.96
717.53	4032.96
717.873	4034.09
718.216	4030.25
718.559	4060.75
718.902	3957.25
719.246	4006.74
719.589	3997.71
719.932	3968.55
720.275	3922.23
720.617	3934.2
720.96	3940.31
721.303	3915.22
721.646	3934.2
721.989	3924.26
722.331	3916.58
722.674	3918.84
723.016	3924.49
723.359	3907.09
723.701	3882.91
724.044	3844.72
724.386	3877.03
724.729	3841.55
725.071	3868.44
725.413	3858.05
725.755	3863.92
726.097	3834.55
726.439	3818.05
726.782	3830.7
727.124	3895.11
727.465	3782.8
727.807	3810.37
728.149	3827.31
728.491	3744.6
728.833	3826.86
729.175	3819.86
729.516	3749.58
729.858	3782.34
730.199	3776.47
730.541	3785.73
730.882	3773.3
731.224	3757.71
731.565	3755
731.906	3748.67
732.248	3776.69
732.589	3727.43
732.93	3700.99
733.271	3712.97
733.612	3743.02
733.953	3709.8
734.294	3732.85
734.635	3673.42
734.976	3675.68
735.317	3673.87
735.658	3674.78
735.999	3637.94
736.339	3665.51
736.68	3643.36
737.021	3675.23
737.361	3668.22
737.702	3647.21
738.042	3625.51
738.383	3616.47
738.723	3622.12
739.063	3651.73
739.404	3638.84
739.744	3627.77
740.084	3573.08
740.424	3637.49
740.764	3616.02
741.104	3548.9
741.444	3565.63
741.784	3530.6
742.124	3561.78
742.464	3610.82
742.804	3594.1
743.143	3557.72
743.483	3555.23
743.823	3545.74
744.162	3567.89
744.502	3548
744.841	3522.92
745.181	3527.21
745.52	3502.13
745.86	3500.54
746.199	3562.91
746.538	3552.29
746.877	3492.41
747.216	3505.97
747.556	3453.31
747.895	3485.85
748.234	3474.1
748.573	3466.19
748.911	3457.38
749.25	3467.32
749.589	3491.5
749.928	3456.48
750.267	3486.53
750.605	3440.21
750.944	3440.66
751.283	3410.38
751.621	3438.62
751.96	3406.31
752.298	3422.81
752.636	3410.83
752.975	3347.78
753.313	3365.41
753.651	3382.81
753.989	3396.37
754.327	3374.67
754.666	3336.71
755.004	3338.97
755.342	3381.68
755.679	3357.27
756.017	3302.13
756.355	3312.3
756.693	3291.06
757.031	3309.14
757.368	3263.49
757.706	3264.17
758.044	3262.36
758.381	3306.42
758.719	3295.35
759.056	3293.09
759.394	3249.93
759.731	3239.31
760.068	3216.71
760.405	3211.29
760.743	3206.09
761.08	3231.4
761.417	3208.57
761.754	3230.72
762.091	3170.38
762.428	3169.93
762.765	3154.79
763.102	3158.86
763.438	3140.78
763.775	3152.08
764.112	3158.86
764.449	3138.07
764.785	3126.54
765.122	3108.24
765.458	3089.71
765.795	3092.64
766.131	3090.38
766.467	3072.76
766.804	3063.27
767.14	3049.26
767.476	3044.74
767.812	3030.5
768.148	3025.53
768.485	3038.63
768.821	3034.79
769.157	2950.95
769.492	3001.8
769.828	2980.33
770.164	2971.97
770.5	2973.55
770.836	2956.38
771.171	2945.76
771.507	2930.39
