Data from foam2_polystyrene_foam_FLMS001491_00042.txt Node
Date: Wed Feb 08 10:58:00 GMT 2017
User: dcchb
Spectrometer: FLMS00149
Trigger mode: 0
Integration Time (sec): 2.000000E-2
Scans to average: 10
Electric dark correction enabled: true
Nonlinearity correction enabled: false
Boxcar width: 0
XAxis mode: Wavelengths
Number of Pixels in Spectrum: 2048
>>>>>Begin Spectral Data<<<<<
341.393	-21.36
341.776	-21.36
342.16	-21.36
342.543	-42.6
342.927	-60.9
343.31	-59.77
343.693	-80.11
344.077	-48.02
344.46	-67.46
344.843	-47.34
345.226	-39.21
345.61	-35.59
345.993	-39.66
346.376	-0.11
346.759	11.86
347.142	27.23
347.525	42.82
347.908	55.93
348.291	78.53
348.674	95.25
349.057	105.65
349.44	120.79
349.823	164.18
350.206	156.04
350.588	214.34
350.971	233.55
351.354	226.32
351.737	254.12
352.119	274.23
352.502	254.12
352.884	280.11
353.267	310.61
353.65	322.82
354.032	327.34
354.414	314.91
354.797	341.35
355.179	342.93
355.562	364.62
355.944	347.45
356.326	355.81
356.709	357.62
357.091	362.36
357.473	351.97
357.855	378.86
358.238	371.18
358.62	352.19
359.002	361.91
359.384	349.03
359.766	352.65
360.148	358.3
360.53	351.97
360.912	372.08
361.294	354
361.676	358.07
362.057	361.46
362.439	360.33
362.821	370.27
363.203	346.54
363.584	349.93
363.966	357.84
364.348	371.18
364.729	346.77
365.111	361.23
365.493	356.49
365.874	352.65
366.256	357.84
366.637	368.46
367.019	366.66
367.4	349.03
367.781	350.16
368.163	332.53
368.544	361.91
368.925	342.25
369.306	370.5
369.688	354
370.069	376.15
370.45	373.89
370.831	361.91
371.212	362.82
371.593	371.4
371.974	360.1
372.355	367.11
372.736	396.03
373.117	381.8
373.498	386.09
373.879	379.76
374.26	361.46
374.641	367.56
375.021	360.33
375.402	370.95
375.783	385.64
376.163	413.66
376.544	405.98
376.925	392.87
377.305	401.46
377.686	412.53
378.066	406.88
378.447	412.98
378.827	406.88
379.208	406.88
379.588	406.88
379.968	425.86
380.349	410.72
380.729	420.44
381.109	425.41
381.489	411.18
381.87	428.8
382.25	441.46
382.63	431.97
383.01	436.49
383.39	469.48
383.77	466.32
384.15	448.24
384.53	469.93
384.91	462.93
385.29	446.88
385.67	449.14
386.049	450.27
386.429	494.34
386.809	487.33
387.189	467.45
387.568	478.52
387.948	481.46
388.328	478.07
388.707	499.53
389.087	498.86
389.466	499.76
389.846	484.85
390.225	522.13
390.605	518.52
390.984	526.43
391.363	527.33
391.743	519.2
392.122	542.7
392.501	568.46
392.881	563.49
393.26	562.81
393.639	563.94
394.018	553.09
394.397	556.71
394.776	551.74
395.155	592.19
395.534	576.6
395.913	547.22
396.292	612.75
396.671	587.22
397.05	606.2
397.429	572.3
397.808	618.18
398.186	622.47
398.565	625.63
398.944	604.84
399.323	626.31
399.701	666.31
400.08	635.12
400.458	657.95
400.837	668.8
401.215	643.03
401.594	662.24
401.972	673.32
402.351	678.74
402.729	676.71
403.107	685.97
403.486	678.97
403.864	692.3
404.242	713.99
404.62	697.95
404.999	722.35
405.377	707.44
405.755	739.53
406.133	748.57
406.511	746.08
406.889	757.38
407.267	763.93
407.645	763.48
408.023	783.6
408.401	793.99
408.779	814.33
409.156	810.04
409.534	819.53
409.912	829.92
410.29	849.58
410.667	874.44
411.045	887.1
411.422	874.89
411.8	891.39
412.178	907.66
412.555	900.2
412.933	929.58
413.31	908.56
413.687	929.35
414.065	947.21
414.442	959.86
414.819	981.33
415.197	969.58
415.574	1005.06
415.951	1008.9
416.328	1024.49
416.705	1019.75
417.082	1013.87
417.46	1029.69
417.837	1070.82
418.214	1063.14
418.591	1077.6
418.967	1073.53
419.344	1072.18
419.721	1103.59
420.098	1093.87
420.475	1116.92
420.852	1104.04
421.228	1162.12
421.605	1138.39
421.982	1165.28
422.358	1189.46
422.735	1191.04
423.111	1215.22
423.488	1219.97
423.864	1223.81
424.241	1249.12
424.617	1249.35
424.994	1254.77
425.37	1287.54
425.746	1293.64
426.123	1314.2
426.499	1310.59
426.875	1302.9
427.251	1354.88
427.627	1387.42
428.003	1410.7
428.379	1410.47
428.756	1415.89
429.132	1443.46
429.507	1464.71
429.883	1469.9
430.259	1467.65
430.635	1506.97
431.011	1568.89
431.387	1569.34
431.763	1580.18
432.138	1583.8
432.514	1614.31
432.89	1614.76
433.265	1649.79
433.641	1664.48
434.016	1701.09
434.392	1700.86
434.767	1758.48
435.143	1760.97
435.518	1746.28
435.894	1763.46
436.269	1797.58
436.644	1857.47
437.02	1854.75
437.395	1865.83
437.77	1900.85
438.145	1908.76
438.52	1956.67
438.895	1957.58
439.271	1982.21
439.646	2020.17
440.021	2037.35
440.395	2038.7
440.77	2040.29
441.145	2062.88
441.52	2115.09
441.895	2101.98
442.27	2138.14
442.645	2124.58
443.019	2190.56
443.394	2174.52
443.769	2235.99
444.143	2171.58
444.518	2222.65
444.892	2224.91
445.267	2239.38
445.641	2257
446.016	2320.28
446.39	2336.77
446.764	2354.63
447.139	2323.67
447.513	2399.6
447.887	2366.6
448.262	2410.45
448.636	2398.02
449.01	2475.98
449.384	2483.21
449.758	2490.67
450.132	2531.57
450.506	2558.24
450.88	2551.23
451.254	2599.59
451.628	2630.55
452.002	2626.03
452.376	2671.46
452.75	2709.65
453.123	2714.17
453.497	2745.58
453.871	2755.52
454.244	2802.53
454.618	2830.77
454.992	2860.83
455.365	2851.11
455.739	2960.26
456.112	2971.79
456.486	2979.7
456.859	3050.88
457.232	3135.17
457.606	3103.08
457.979	3148.28
458.352	3165.45
458.725	3233.25
459.099	3282.96
459.472	3315.73
459.845	3306.01
460.218	3382.62
460.591	3409.97
460.964	3427.59
461.337	3493.13
461.71	3546.01
462.083	3583.3
462.456	3612.22
462.829	3642.96
463.201	3736.74
463.574	3732.9
463.947	3757.75
464.32	3872.1
464.692	3851.76
465.065	3889.73
465.438	3962.49
465.81	4026.45
466.183	4022.61
466.555	4128.59
466.928	4148.48
467.3	4124.52
467.672	4240
468.045	4352.77
468.417	4333.11
468.789	4404.52
469.161	4457.17
469.534	4529.71
469.906	4575.13
470.278	4651.74
470.65	4724.51
471.022	4770.16
471.394	4881.34
471.766	4985.52
472.138	4990.04
472.51	5102.8
472.882	5152.29
473.253	5236.81
473.625	5290.14
473.997	5390.71
474.369	5427.54
474.74	5565.62
475.112	5589.8
475.484	5684.03
475.855	5801.99
476.227	5831.15
476.598	5980.52
476.97	6035.89
477.341	6207.18
477.713	6286.73
478.084	6297.35
478.455	6486.72
478.827	6577.79
479.198	6773.27
479.569	6754.96
479.94	6947.27
480.311	7001.06
480.682	7104.33
481.053	7346.59
481.424	7392.24
481.795	7523.98
482.166	7715.62
482.537	7778.21
482.908	7931.2
483.279	8049.62
483.65	8147.7
484.021	8333.23
484.391	8439.44
484.762	8459.33
485.133	8606.89
485.503	8716.95
485.874	8869.94
486.244	8981.57
486.615	9171.4
486.985	9232.64
487.356	9449.58
487.726	9462.01
488.097	9624.27
488.467	9752.4
488.837	9980.19
489.207	10038.72
489.578	10238.04
489.948	10315.32
490.318	10393.96
490.688	10428.54
491.058	10668.99
491.428	10853.39
491.798	10930.9
492.168	11159.14
492.538	11204.34
492.908	11316.88
493.278	11495.86
493.648	11525.46
494.017	11644.1
494.387	11786.24
494.757	11920.7
495.126	12038.21
495.496	12109.17
495.866	12159.12
496.235	12405.21
496.605	12442.05
496.974	12561.59
497.344	12623.74
497.713	12766.33
498.082	12757.74
498.452	13034.57
498.821	13047
499.19	13090.39
499.559	13234.12
499.928	13383.72
500.298	13473.21
500.667	13622.35
501.036	13565.63
501.405	13802.46
501.774	13716.81
502.143	14001.78
502.512	13953.19
502.88	14130.36
503.249	14062.79
503.618	14267.76
503.987	14315.67
504.356	14509.79
504.724	14609.9
505.093	14611.25
505.462	14778.48
505.83	14778.93
506.199	14911.59
506.567	15195.42
506.936	15133.5
507.304	15341.4
507.672	15467.73
508.041	15392.48
508.409	15607.16
508.777	15779.81
509.145	15865.01
509.514	15938.68
509.882	16080.82
510.25	16147.71
510.618	16255.96
510.986	16391.32
511.354	16569.85
511.722	16660.24
512.09	16887.13
512.458	16902.04
512.826	17023.17
513.193	17125.76
513.561	17182.94
513.929	17448.47
514.297	17552.19
514.664	17662.93
515.032	17849.14
515.4	17934.33
515.767	18022.24
516.135	18183.82
516.502	18125.51
516.869	18340.42
517.237	18503.58
517.604	18457.93
517.972	18691.82
518.339	18828.09
518.706	18975.21
519.073	19049.33
519.44	19103.57
519.808	19351.02
520.175	19344.46
520.542	19731.35
520.909	19814.06
521.276	19870.55
521.643	20062.41
522.009	20260.6
522.376	20291.56
522.743	20542.62
523.11	20776.06
523.477	20855.16
523.843	21118.88
524.21	21345.09
524.577	21537.85
524.943	21686.1
525.31	21749.6
525.676	22003.15
526.043	22178.06
526.409	22139.87
526.776	22449.69
527.142	22403.82
527.508	22649.46
527.874	22854.65
528.241	22902.34
528.607	23079.51
528.973	23360.4
529.339	23332.61
529.705	23664.58
530.071	23772.37
530.437	23938.01
530.803	23979.6
531.169	24250.32
531.535	24312.02
531.901	24334.61
532.267	24480.6
532.632	24727.6
532.998	24651.89
533.364	24952.9
533.73	25046.69
534.095	25316.96
534.461	25319.22
534.826	25348.37
535.192	25541.59
535.557	25692.54
535.923	25761.47
536.288	25744.75
536.653	25899.09
537.019	25890.73
537.384	26068.81
537.749	26268.8
538.114	26307.22
538.479	26339.76
538.845	26502.24
539.21	26476.25
539.575	26642.58
539.94	26739.75
540.305	26916.47
540.67	26927.31
541.034	27017.93
541.399	27182.45
541.764	27233.52
542.129	27346.29
542.494	27574.53
542.858	27705.15
543.223	27691.81
543.587	27880.74
543.952	27793.05
544.316	27928.87
544.681	28013.16
545.045	28128.41
545.41	28325.02
545.774	28398.24
546.138	28402.08
546.503	28527.72
546.867	28564.33
547.231	28881.84
547.595	28797.32
547.959	28996.41
548.324	29063.98
548.688	29041.38
549.052	29250.42
549.416	29292.45
549.779	29326.8
550.143	29487.7
550.507	29692.44
550.871	29722.72
551.235	29680.24
551.599	29847.92
551.962	29941.02
552.326	30193.67
552.689	30084.52
553.053	30277.06
553.417	30321.12
553.78	30632.3
554.143	30610.83
554.507	30660.1
554.87	30863.93
555.234	31194.77
555.597	30942.58
555.96	31213.08
556.323	31387.99
556.686	31470.25
557.05	31736
557.413	31790.01
557.776	31809.45
558.139	31927.64
558.502	31987.75
558.865	32154.97
559.228	32458.24
559.59	32395.42
559.953	32634.06
560.316	32955.86
560.679	32997.21
561.041	33107.04
561.404	33387.48
561.767	33583.64
562.129	33476.75
562.492	33911.31
562.854	33817.98
563.217	34020.69
563.579	34178.88
563.941	34341.81
564.304	34429.49
564.666	34712.42
565.028	34667
565.39	34798.75
565.753	34938.4
566.115	35035.35
566.477	35221.33
566.839	35381.78
567.201	35595.34
567.563	35654.54
567.925	35830.81
568.287	35976.79
568.648	35948.55
569.01	36240.52
569.372	36379.95
569.734	36315.99
570.095	36494.29
570.457	36665.59
570.819	36739.03
571.18	36845.25
571.542	37107.16
571.903	36962.98
572.265	37288.62
572.626	37325.69
572.987	37420.6
573.349	37592.57
573.71	37664.89
574.071	37827.59
574.432	37970.41
574.794	38180.13
575.155	38223.97
575.516	38086.8
575.877	38213.35
576.238	38475.71
576.599	38552.77
576.96	38437.52
577.32	38463.06
577.681	38762.71
578.042	38683.39
578.403	38791.18
578.763	38857.62
579.124	38903.95
579.485	38889.26
579.845	38964.96
580.206	38968.35
580.566	39062.59
580.927	38976.72
581.287	39375.8
581.648	39017.84
582.008	39371.73
582.368	39162.7
582.728	39272.98
583.089	39351.17
583.449	39228.91
583.809	39406.08
584.169	39610.14
584.529	39346.65
584.889	39762.91
585.249	39395.46
585.609	39448.57
585.969	39623.7
586.329	39537.83
586.688	39518.85
587.048	39467.78
587.408	39568.56
587.768	39597.72
588.127	39524.05
588.487	39524.5
588.846	39733.98
589.206	39459.87
589.565	39611.95
589.925	39748.9
590.284	39486.53
590.643	39648.34
591.003	39887.88
591.362	39869.8
591.721	39722.91
592.08	39661.22
592.44	39743.7
592.799	39713.42
593.158	39556.81
593.517	39682.23
593.876	39848.33
594.235	39846.52
594.593	39692.63
594.952	39925.16
595.311	39801.33
595.67	39822.34
596.029	39994.99
596.387	39949.8
596.746	40033.41
597.104	39809.91
597.463	39843.13
597.822	40068.44
598.18	39898.5
598.538	39938.95
598.897	40112.05
599.255	39887.2
599.613	40251.94
599.972	40113.86
600.33	40176.91
600.688	40145.72
601.046	40306.17
601.404	40381.2
601.762	40352.5
602.12	40569.22
602.478	40491.93
602.836	40500.07
603.194	40341.88
603.552	40489.67
603.91	40253.97
604.268	40507.97
604.625	40373.06
604.983	40488.09
605.341	40310.24
605.698	40671.59
606.056	40642.43
606.413	40703.45
606.771	40705.03
607.128	40823.67
607.485	40806.27
607.843	40862.99
608.2	41041.52
608.557	41288.74
608.914	41020.05
609.272	41187.96
609.629	41214.85
609.986	41177.56
610.343	41173.95
610.7	41350.44
611.057	41297.33
611.414	41338.46
611.771	41525.8
612.127	41596.76
612.484	41517.44
612.841	41635.4
613.198	41432.7
613.554	41450.32
613.911	41549.3
614.267	41645.8
614.624	41491.23
614.98	41636.76
615.337	41763.99
615.693	41755.4
616.05	41775.51
616.406	42080.81
616.762	41900.03
617.118	41901.61
617.475	41978.67
617.831	42095.28
618.187	41937.77
618.543	42015.05
618.899	42216.18
619.255	42147.48
619.611	42067.48
619.967	42345.21
620.323	42353.12
620.678	42209.62
621.034	41991.55
621.39	42158.55
621.746	42006.24
622.101	42561.71
622.457	42303.63
622.812	42358.32
623.168	42270.64
623.523	42290.53
623.879	42411.88
624.234	42205.33
624.589	42322.39
624.945	42377.98
625.3	42595.83
625.655	42458.88
626.01	42458.43
626.365	42441.03
626.72	42355.16
627.075	42366.23
627.43	42152
627.785	42273.35
628.14	42260.92
628.495	42272
628.85	42191.55
629.205	42213.69
629.559	42351.32
629.914	42228.61
630.269	42166.01
630.623	42138.44
630.978	42025.9
631.332	42224.77
631.687	42227.25
632.041	41994.04
632.396	41964.66
632.75	41868.62
633.104	41885.34
633.459	41855.51
633.813	41916.52
634.167	41719.69
634.521	41853.48
634.875	41930.08
635.229	41919.46
635.583	41516.99
635.937	41559.47
636.291	41463.88
636.645	41465.92
636.999	41278.58
637.352	41487.38
637.706	41324.45
638.06	41486.03
638.413	41283.32
638.767	41245.58
639.121	41395.86
639.474	41030.9
639.828	40982.99
640.181	40979.37
640.534	40923.33
640.888	40820.73
641.241	40520.18
641.594	40794.29
641.947	40913.84
642.301	40743
642.654	40692.6
643.007	40801.07
643.36	40715.88
643.713	40603.11
644.066	40668.65
644.419	40404.7
644.771	40232.73
645.124	39808.11
645.477	39751.61
645.83	39521.56
646.182	39295.8
646.535	39203.6
646.888	39239.76
647.24	38978.52
647.593	39319.53
647.945	39115.02
648.298	38926.77
648.65	38745.08
649.002	38774.46
649.355	38865.98
649.707	38741.02
650.059	38935.36
650.411	39354.78
650.763	39386.2
651.115	39762.46
651.467	39640.88
651.819	39738.05
652.171	39598.17
652.523	39612.18
652.875	39599.75
653.227	39309.59
653.578	39490.6
653.93	39276.82
654.282	39153.43
654.633	39178.74
654.985	39246.76
655.337	39186.43
655.688	39181.68
656.039	39295.8
656.391	38991.4
656.742	39123.15
657.094	39002.93
657.445	39164.51
657.796	39054.68
658.147	38874.57
658.498	39003.83
658.849	39069.59
659.2	38915.93
659.551	38926.1
659.902	38884.97
660.253	39019.2
660.604	38954.34
660.955	38784.63
661.306	39002.7
661.656	38868.24
662.007	38902.59
662.358	38902.82
662.708	38854.68
663.059	38875.25
663.409	38545.99
663.76	38856.94
664.11	38780.11
664.461	38744.4
664.811	38600.45
665.161	38669.15
665.511	38566.33
665.862	38659.66
666.212	38695.14
666.562	38582.38
666.912	38488.14
667.262	38497.86
667.612	38400.91
667.962	38482.26
668.312	38396.84
668.662	38577.86
669.011	38446.56
669.361	38429.39
669.711	38353.68
670.06	38330.18
670.41	38386.22
670.76	38270.29
671.109	38405.43
671.459	38369.05
671.808	38339.44
672.157	38412.89
672.507	38116.62
672.856	38152.78
673.205	38370.86
673.554	38342.38
673.904	38098.55
674.253	38393.68
674.602	38048.38
674.951	37614.49
675.3	37400.26
675.649	38071.2
675.998	37973.8
676.346	38080.47
676.695	38135.83
677.044	37842.96
677.393	38008.38
677.741	37864.88
678.09	37933.13
678.438	37746.01
678.787	37779.46
679.135	37788.27
679.484	37492.69
679.832	37736.97
680.181	37317.55
680.529	37550.99
680.877	37505.79
681.225	37406.14
681.573	37790.98
681.922	37399.36
682.27	37386.7
682.618	37301.96
682.966	37227.38
683.314	37311.22
683.661	37122.53
684.009	36995.98
684.357	36951.68
684.705	36901.29
685.053	36900.84
685.4	36772.03
685.748	36643.22
686.095	36625.14
686.443	36495.2
686.79	36452.49
687.138	36428.99
687.485	36439.61
687.832	36269.89
688.18	36266.5
688.527	36020.86
688.874	36066.28
689.221	36046.4
689.568	35677.37
689.915	35871.94
690.262	35736.35
690.609	35661.55
690.956	35361.22
691.303	35547.88
691.65	35333.65
691.997	35386.75
692.344	35186.08
692.69	35229.92
693.037	35280.09
693.383	34890.72
693.73	34911.06
694.077	34721.46
694.423	34812.08
694.769	34646.66
695.116	34603.72
695.462	34458.19
695.808	34336.39
696.155	34500
696.501	34135.26
696.847	34211.42
697.193	33913.57
697.539	34040.57
697.885	33929.84
698.231	33685.33
698.577	33793.8
698.923	33702.96
699.269	33526.01
699.614	33529.17
699.96	33349.74
700.306	33373.25
700.651	33340.03
700.997	33163.08
701.342	33146.81
701.688	33094.16
702.033	32937.33
702.379	32718.57
702.724	32906.82
703.069	32786.82
703.415	32513.61
703.76	32556.09
704.105	32609.43
704.45	32458.02
704.795	32237.91
705.14	32201.75
705.485	32239.49
705.83	32097.57
706.175	32139.15
706.52	32005.83
706.865	31752.5
707.209	31848.32
707.554	31631.37
707.899	31668.66
708.243	31542.79
708.588	31449.46
708.932	31265.96
709.277	31176.92
709.621	31215.11
709.966	31100.76
710.31	31154.1
710.654	30868.23
710.998	31094.44
711.342	30946.42
711.687	30855.35
712.031	30686.99
712.375	30590.72
712.719	30641.79
713.063	30513.21
713.407	30730.15
713.75	30455.81
714.094	30538.75
714.438	30344.63
714.782	30397.51
715.125	30242.03
715.469	30217.62
715.812	30073.67
716.156	29823.06
716.499	29888.82
716.843	29902.6
717.186	29670.75
717.53	29870.97
717.873	29800.01
718.216	29685.21
718.559	29552.56
718.902	29408.61
719.246	29512.11
719.589	29395.95
719.932	29220.81
720.275	29315.05
720.617	29123.42
720.96	29122.06
721.303	29190.31
721.646	29142.85
721.989	28951.89
722.331	29058.11
722.674	28879.35
723.016	28843.42
723.359	28887.49
723.701	28967.71
724.044	28704.44
724.386	28479.36
724.729	28644.56
725.071	28590.55
725.413	28543.32
725.755	28552.81
726.097	28363.66
726.439	28242.76
726.782	28348.52
727.124	28459.93
727.465	28321.18
727.807	28222.87
728.149	28222.42
728.491	28091.13
728.833	28124.8
729.175	27967.97
729.516	27979.49
729.858	27856.1
730.199	27864.92
730.541	27734.75
730.882	27710.12
731.224	27868.31
731.565	27609.78
731.906	27589.22
732.248	27548.99
732.589	27393.07
732.93	27353.52
733.271	27498.37
733.612	27563.91
733.953	27558.48
734.294	27294.08
734.635	27214.99
734.976	27299.73
735.317	27182.9
735.658	27027.65
735.999	27060.87
736.339	26958.27
736.68	27172.05
737.021	27019.74
737.361	26892.06
737.702	26872.85
738.042	26831.95
738.383	26742.23
738.723	26759.18
739.063	26699.98
739.404	26692.74
739.744	26689.13
740.084	26509.25
740.424	26631.73
740.764	26454.33
741.104	26611.16
741.444	26489.81
741.784	26331.4
742.124	26387.89
742.464	26215.02
742.804	26266.32
743.143	26297.73
743.483	26219.08
743.823	26064.29
744.162	26097.96
744.502	26235.13
744.841	25942.03
745.181	26087.79
745.52	25938.87
745.86	26031.07
746.199	25898.19
746.538	25926.44
746.877	25873.78
747.216	25930.96
747.556	25813.9
747.895	25693.22
748.234	25774.35
748.573	25570.97
748.911	25536.84
749.25	25566.67
749.589	25305.44
749.928	25483.06
750.267	25478.99
750.605	25310.63
750.944	25295.95
751.283	25215.5
751.621	25186.57
751.96	25133.46
752.298	25106.8
752.636	25069.28
752.975	25024.09
753.313	24772.12
753.651	25036.29
