Data from foam2_polystyrene_foam_FLMS001491_00083.txt Node
Date: Wed Feb 08 10:58:37 GMT 2017
User: dcchb
Spectrometer: FLMS00149
Trigger mode: 0
Integration Time (sec): 2.000000E-2
Scans to average: 10
Electric dark correction enabled: true
Nonlinearity correction enabled: false
Boxcar width: 0
XAxis mode: Wavelengths
Number of Pixels in Spectrum: 2048
>>>>>Begin Spectral Data<<<<<
341.393	11.84
341.776	11.84
342.16	11.84
342.543	-64.32
342.927	-67.26
343.31	-77.43
343.693	-57.31
344.077	-73.36
344.46	-55.51
344.843	-42.4
345.226	-42.63
345.61	-12.57
345.993	-20.71
346.376	-5.34
346.759	-1.27
347.142	16.58
347.525	47.09
347.908	54.32
348.291	69.01
348.674	95.45
349.057	106.07
349.44	155.56
349.823	153.53
350.206	165.73
350.588	199.63
350.971	205.28
351.354	235.78
351.737	259.51
352.119	292.96
352.502	288.89
352.884	287.53
353.267	299.96
353.65	307.2
354.032	328.89
354.414	309
354.797	339.51
355.179	322.56
355.562	344.48
355.944	337.93
356.326	353.75
356.709	346.52
357.091	354.2
357.473	343.58
357.855	355.78
358.238	349.91
358.62	370.02
359.002	341.32
359.384	355.78
359.766	357.82
360.148	370.7
360.53	367.31
360.912	359.85
361.294	346.52
361.676	348.55
362.057	358.49
362.439	353.97
362.821	375.44
363.203	376.57
363.584	350.58
363.966	357.14
364.348	359.85
364.729	354.65
365.111	362.56
365.493	324.82
365.874	358.04
366.256	358.04
366.637	345.84
367.019	351.26
367.4	357.36
367.781	337.93
368.163	353.75
368.544	354.2
368.925	344.48
369.306	367.53
369.688	350.81
370.069	349
370.45	350.13
370.831	358.95
371.212	364.37
371.593	378.15
371.974	383.8
372.355	374.31
372.736	364.59
373.117	373.18
373.498	376.35
373.879	377.48
374.26	383.8
374.641	372.28
375.021	370.24
375.402	387.65
375.783	396.46
376.163	365.27
376.544	414.09
376.925	407.08
377.305	391.03
377.686	400.07
378.066	398.27
378.447	381.77
378.827	413.18
379.208	431.49
379.588	405.27
379.968	416.57
380.349	417.02
380.729	403.46
381.109	410.7
381.489	422.67
381.87	435.78
382.25	419.51
382.63	420.41
383.01	420.64
383.39	431.03
383.77	425.84
384.15	466.97
384.53	436.46
384.91	447.53
385.29	456.57
385.67	454.54
386.049	459.51
386.429	466.51
386.809	474.2
387.189	459.51
387.568	472.84
387.948	485.72
388.328	487.3
388.707	487.98
389.087	515.1
389.466	496.12
389.846	479.17
390.225	493.63
390.605	516.23
390.984	518.26
391.363	518.04
391.743	518.94
392.122	528.66
392.501	534.31
392.881	540.86
393.26	545.38
393.639	548.54
394.018	557.58
394.397	572.73
394.776	580.18
395.155	573.63
395.534	543.12
395.913	562.1
396.292	576.34
396.671	592.61
397.05	596.23
397.429	586.96
397.808	593.52
398.186	611.14
398.565	607.98
398.944	606.17
399.323	593.52
399.701	651.14
400.08	623.57
400.458	613.18
400.837	606.4
401.215	654.98
401.594	653.85
401.972	632.38
402.351	644.36
402.729	644.14
403.107	673.29
403.486	678.03
403.864	660.41
404.242	669.22
404.62	697.24
404.999	686.17
405.377	697.92
405.755	701.99
406.133	708.09
406.511	736.56
406.889	720.52
407.267	761.87
407.645	768.2
408.023	745.38
408.401	779.27
408.779	781.08
409.156	785.37
409.534	798.71
409.912	787.63
410.29	809.1
410.667	832.15
411.045	830.35
411.422	815.88
411.8	865.15
412.178	865.82
412.555	901.08
412.933	841.19
413.31	894.3
413.687	880.97
414.065	890.91
414.442	911.25
414.819	915.31
415.197	953.96
415.574	945.37
415.951	941.75
416.328	948.53
416.705	967.74
417.082	973.17
417.46	973.17
417.837	984.69
418.214	996.67
418.591	1001.19
418.967	1018.59
419.344	1006.61
419.721	1046.61
420.098	1068.76
420.475	1045.03
420.852	1082.54
421.228	1075.99
421.605	1063.79
421.982	1095.2
422.358	1127.06
422.735	1107.4
423.111	1128.87
423.488	1156.66
423.864	1156.21
424.241	1177.45
424.617	1160.51
424.994	1186.04
425.37	1151.69
425.746	1185.59
426.123	1201.41
426.499	1249.54
426.875	1233.72
427.251	1259.03
427.627	1285.7
428.003	1270.11
428.379	1342.2
428.756	1334.96
429.132	1349.65
429.507	1367.05
429.883	1397.11
430.259	1395.98
430.635	1408.64
431.011	1424.68
431.387	1458.58
431.763	1460.84
432.138	1465.13
432.514	1501.51
432.89	1526.82
433.265	1555.07
433.641	1561.85
434.016	1566.15
434.392	1596.65
434.767	1627.16
435.143	1632.13
435.518	1658.8
435.894	1657.22
436.269	1664.67
436.644	1699.25
437.02	1717.78
437.395	1750.77
437.77	1744.9
438.145	1749.64
438.52	1775.41
438.895	1795.97
439.271	1807.27
439.646	1853.14
440.021	1877.55
440.395	1888.4
440.77	1901.73
441.145	1889.98
441.52	1940.6
441.895	1965.23
442.27	1965.91
442.645	1951.45
443.019	1984.21
443.394	1992.12
443.769	2043.87
444.143	2027.15
444.518	2052.23
444.892	2051.1
445.267	2067.15
445.641	2099.92
446.016	2118.67
446.39	2120.71
446.764	2150.54
447.139	2161.16
447.513	2196.19
447.887	2179.24
448.262	2172.68
448.636	2221.04
449.01	2234.6
449.384	2247.71
449.758	2325.45
450.132	2320.02
450.506	2326.13
450.88	2335.62
451.254	2357.76
451.628	2392.56
452.002	2419
452.376	2407.93
452.75	2425.56
453.123	2480.25
453.497	2499
453.871	2508.95
454.244	2560.47
454.618	2579.45
454.992	2576.06
455.365	2634.37
455.739	2707.13
456.112	2679.79
456.486	2739.45
456.859	2789.39
457.232	2777.41
457.606	2769.05
457.979	2829.16
458.352	2909.16
458.725	2935.6
459.099	2935.6
459.472	2983.51
459.845	3000.91
460.218	3048.14
460.591	3050.63
460.964	3083.17
461.337	3154.8
461.71	3196.38
462.083	3221.24
462.456	3238.87
462.829	3242.26
463.201	3306.66
463.574	3299.88
463.947	3329.26
464.32	3437.28
464.692	3423.72
465.065	3506.21
465.438	3582.14
465.81	3592.76
466.183	3609.71
466.555	3689.93
466.928	3745.52
467.3	3731.96
467.672	3743.26
468.045	3889.7
468.417	3884.05
468.789	3923.6
469.161	3960.88
469.534	4047.21
469.906	4102.58
470.278	4121.11
470.65	4169.24
471.022	4269.8
471.394	4329.69
471.766	4355.9
472.138	4436.58
472.51	4559.74
472.882	4565.61
473.253	4653.07
473.625	4692.39
473.997	4822.78
474.369	4812.84
474.74	4874.08
475.112	4945.27
475.484	5068.88
475.855	5139.16
476.227	5173.51
476.598	5315.65
476.97	5335.31
477.341	5499.6
477.713	5534.63
478.084	5605.59
478.455	5776.2
478.827	5749.76
479.198	5979.81
479.569	5992.24
479.94	6172.8
480.311	6201.73
480.682	6304.78
481.053	6470.2
481.424	6541.16
481.795	6661.6
482.166	6696.18
482.537	6808.95
482.908	6949.73
483.279	7004.42
483.65	7131.2
484.021	7270.4
484.391	7394.92
484.762	7452.77
485.133	7472.66
485.503	7669.04
485.874	7791.97
486.244	7852.31
486.615	7947.67
486.985	8105.86
487.356	8264.05
487.726	8350.37
488.097	8546.98
488.467	8517.6
488.837	8730.7
489.207	8823.13
489.578	8962.79
489.948	9009.57
490.318	9145.83
490.688	9187.64
491.058	9328.2
491.428	9450.46
491.798	9615.88
492.168	9793.27
492.538	9757.79
492.908	9849.77
493.278	10018.35
493.648	9989.43
494.017	10153.94
494.387	10297.44
494.757	10320.27
495.126	10479.36
495.496	10483.65
495.866	10568.17
496.235	10668.5
496.605	10810.42
496.974	10927.26
497.344	10988.5
497.713	11083.86
498.082	11166.12
498.452	11279.56
498.821	11329.96
499.19	11454.02
499.559	11527.69
499.928	11602.94
500.298	11671.42
500.667	11838.64
501.036	11788.7
501.405	11898.75
501.774	11851.52
502.143	12037.06
502.512	12113.66
502.88	12235.47
503.249	12272.98
503.618	12399.53
503.987	12399.31
504.356	12429.59
504.724	12615.12
505.093	12603.6
505.462	12745.74
505.83	12781.44
506.199	12863.48
506.567	13110.02
506.936	13109.34
507.304	13279.51
507.672	13298.04
508.041	13373.97
508.409	13519.05
508.777	13680.85
509.145	13665.04
509.514	13791.13
509.882	13832.04
510.25	13897.57
510.618	14002.88
510.986	14118.13
511.354	14218.69
511.722	14349.99
512.09	14560.15
512.458	14498.69
512.826	14580.72
513.193	14721.28
513.561	14768.06
513.929	14931.9
514.297	15128.05
514.664	15188.61
515.032	15204.66
515.4	15357.87
515.767	15460.24
516.135	15526.91
516.502	15430.41
516.869	15780.23
517.237	15863.85
517.604	15804.64
517.972	16028.59
518.339	16175.93
518.706	16241.92
519.073	16266.55
519.44	16511.29
519.808	16631.29
520.175	16695.92
520.542	16880.09
520.909	16965.51
521.276	17024.27
521.643	17253.19
522.009	17372.51
522.376	17451.6
522.743	17647.08
523.11	17743.8
523.477	17979.27
523.843	18006.16
524.21	18340.17
524.577	18414.06
524.943	18529.54
525.31	18671.23
525.676	18838.23
526.043	18984.44
526.409	19000.72
526.776	19331.1
527.142	19353.25
527.508	19376.52
527.874	19571.55
528.241	19714.14
528.607	19904.42
528.973	20032.1
529.339	20094.02
529.705	20267.12
530.071	20478.19
530.437	20468.7
530.803	20590.73
531.169	20767.9
531.535	20617.85
531.901	20783.72
532.267	20870.95
532.632	21063.26
532.998	21149.13
533.364	21254.67
533.73	21417.83
534.095	21650.14
534.461	21667.09
534.826	21821.43
535.192	21909.79
535.557	21941.2
535.923	21949.11
536.288	22082.67
536.653	22298.93
537.019	22208.09
537.384	22322.66
537.749	22452.38
538.114	22501.87
538.479	22612.6
538.845	22618.93
539.21	22730.56
539.575	22857.11
539.94	22827.28
540.305	23136.88
540.67	22991.12
541.034	23234.28
541.399	23324.44
541.764	23393.37
542.129	23438.56
542.494	23463.87
542.858	23733.47
543.223	23644.66
543.587	23798.78
543.952	23799.68
544.316	23901.38
544.681	23878.78
545.045	24083.29
545.41	24227.47
545.774	24301.82
546.138	24320.12
546.503	24531.42
546.867	24418.88
547.231	24738.19
547.595	24718.76
547.959	24748.13
548.324	24814.57
548.688	24893.89
549.052	24948.13
549.416	25120.1
549.779	25087.56
550.143	25215.47
550.507	25401.9
550.871	25493.65
551.235	25377.27
551.599	25624.5
551.962	25586.76
552.326	25694.55
552.689	25870.82
553.053	25796.92
553.417	25955.11
553.78	26370.69
554.143	26337.25
554.507	26360.07
554.87	26461.54
555.234	26800.96
555.597	26600.97
555.96	26720.74
556.323	26924.35
556.686	26986.95
557.05	27246.37
557.413	27206.83
557.776	27239.59
558.139	27569.98
558.502	27561.39
558.865	27728.17
559.228	27894.72
559.59	28003.42
559.953	27923.64
560.316	28362.05
560.679	28272.56
561.041	28436.17
561.404	28542.16
561.767	28771.08
562.129	28746.9
562.492	29105.99
562.854	29057.63
563.217	29058.98
563.579	29267.34
563.941	29397.73
564.304	29558.4
564.666	29742.35
565.028	29813.31
565.39	30012.18
565.753	30086.75
566.115	30262.11
566.477	30201.78
566.839	30356.12
567.201	30575.1
567.563	30638.15
567.925	30839.05
568.287	30895.32
568.648	30905.03
569.01	31137.57
569.372	31271.13
569.734	31118.59
570.095	31289.66
570.457	31512.48
570.819	31611.68
571.18	31621.85
571.542	31781.17
571.903	31793.15
572.265	31784.79
572.626	31845.35
572.987	32124.44
573.349	32296.86
573.71	32362.85
574.071	32493.02
574.432	32537.99
574.794	32685.1
575.155	32609.85
575.516	32582.28
575.877	32759
576.238	32878.32
576.599	32953.79
576.96	33031.98
577.32	33000.35
577.681	33167.57
578.042	33277.85
578.403	33178.65
578.763	33387
579.124	33357.63
579.485	33499.77
579.845	33561.69
580.206	33427.91
580.566	33523.5
580.927	33543.84
581.287	33699.76
581.648	33585.42
582.008	33691.4
582.368	33564.85
582.728	33669.03
583.089	33607.34
583.449	33680.78
583.809	33621.8
584.169	33745.41
584.529	33557.39
584.889	33811.85
585.249	33758.97
585.609	33608.01
585.969	33795.13
586.329	33680.1
586.688	33832.87
587.048	33730.27
587.408	33792.64
587.768	33548.58
588.127	33615.02
588.487	33624.51
588.846	33722.14
589.206	33588.81
589.565	33638.75
589.925	33908.35
590.284	33724.4
590.643	33904.96
591.003	33894.11
591.362	33999.64
591.721	33853.21
592.08	33866.76
592.44	33908.57
592.799	33943.15
593.158	33978.63
593.517	33933.43
593.876	33947.89
594.235	33892.53
594.593	33861.34
594.952	34012.3
595.311	33877.39
595.67	33948.34
596.029	33996.25
596.387	34040.09
596.746	34039.64
597.104	34007.1
597.463	33991.06
597.822	34170.71
598.18	33997.61
598.538	34055.01
598.897	34277.6
599.255	33922.58
599.613	34437.6
599.972	34147.89
600.33	34387.88
600.688	34193.76
601.046	34219.3
601.404	34521.44
601.762	34584.03
602.12	34638.72
602.478	34593.98
602.836	34548.78
603.194	34446.64
603.552	34490.48
603.91	34503.58
604.268	34715.33
604.625	34579.74
604.983	34803.46
605.341	34528.89
605.698	34776.35
606.056	34884.37
606.413	34748.1
606.771	34956
607.128	34870.35
607.485	34748.55
607.843	34815.21
608.2	34926.17
608.557	35089.78
608.914	34926.4
609.272	35054.53
609.629	34982.22
609.986	35206.62
610.343	35016.57
610.7	35361.64
611.057	35104.47
611.414	35314.64
611.771	35177.24
612.127	35365.48
612.484	35433.28
612.841	35491.13
613.198	35383.56
613.554	35469.66
613.911	35634.63
614.267	35680.73
614.624	35524.57
614.98	35551.01
615.337	35793.72
615.693	35755.08
616.05	35772.7
616.406	35947.84
616.762	35812.25
617.118	35861.51
617.475	35898.58
617.831	35991.68
618.187	35948.74
618.543	36002.3
618.899	36197.78
619.255	36075.07
619.611	36082.53
619.967	36170.89
620.323	36220.6
620.678	36161.85
621.034	36077.1
621.39	36068.29
621.746	36091.79
622.101	36524.77
622.457	36354.38
622.812	36279.13
623.168	36265.12
623.523	36398.9
623.879	36489.52
624.234	36223.99
624.589	36362.07
624.945	36297.44
625.3	36293.14
625.655	36289.98
626.01	36316.64
626.365	36454.27
626.72	36268.74
627.075	36321.84
627.43	36302.41
627.785	36228.74
628.14	36256.53
628.495	36339.47
628.85	36273.03
629.205	36125.46
629.559	36306.7
629.914	36086.37
630.269	36186.03
630.623	36051.11
630.978	35954.85
631.332	35980.16
631.687	36267.61
632.041	36037.78
632.396	36012.7
632.75	35915.75
633.104	35951.46
633.459	35777.22
633.813	35702.2
634.167	35788.52
634.521	35669.43
634.875	35587.4
635.229	35577.23
635.583	35522.77
635.937	35508.76
636.291	35546.95
636.645	35565.03
636.999	35440.73
637.352	35419.27
637.706	35189.44
638.06	35502.65
638.413	35292.72
638.767	35286.16
639.121	35249.33
639.474	35008.66
639.828	35176.56
640.181	35099.95
640.534	35054.53
640.888	34919.62
641.241	34777.7
641.594	34893.63
641.947	34879.62
642.301	34797.81
642.654	34742.45
643.007	34768.44
643.36	34762.11
643.713	34714.43
644.066	34644.37
644.419	34517.6
644.771	34442.57
645.124	34020.43
645.477	33976.82
645.83	33615.7
646.182	33671.74
646.535	33455.25
646.888	33471.3
647.24	33340.23
647.593	33471.75
647.945	33303.62
648.298	33208.7
648.65	33248.48
649.002	33130.74
649.355	33192.21
649.707	32990.86
650.059	33346.1
650.411	33632.65
650.763	33734.56
651.115	33998.51
651.467	33847.1
651.819	33845.07
652.171	33742.7
652.523	33810.72
652.875	33677.39
653.227	33581.57
653.578	33800.78
653.93	33735.69
654.282	33514.46
654.633	33349.72
654.985	33528.24
655.337	33507.45
655.688	33577.28
656.039	33537.06
656.391	33379.32
656.742	33375.48
657.094	33443.73
657.445	33468.81
657.796	33361.92
658.147	33215.48
658.498	33271.53
658.849	33201.92
659.2	33173
659.551	33245.76
659.902	33264.07
660.253	33171.64
660.604	33191.75
660.955	32976.84
661.306	33067.92
661.656	33029.05
662.007	32982.72
662.358	33003.74
662.708	33041.7
663.059	32829.96
663.409	32715.61
663.76	32974.58
664.11	32949.27
664.461	32995.38
664.811	32895.49
665.161	32813.46
665.511	32776.85
665.862	32712.67
666.212	32794.7
666.562	32863.63
666.912	32798.54
667.262	32661.6
667.612	32704.76
667.962	32773.23
668.312	32581.83
668.662	32740.92
669.011	32635.16
669.361	32606.01
669.711	32554.93
670.06	32579.79
670.41	32403.98
670.76	32464.54
671.109	32522.62
671.459	32507.25
671.808	32393.58
672.157	32477.65
672.507	32305
672.856	32418.67
673.205	32382.96
673.554	32416.86
673.904	32284.43
674.253	32308.16
674.602	32126.92
674.951	31900.71
675.3	31504.79
675.649	32187.94
675.998	32105.91
676.346	32015.29
676.695	32072.01
677.044	31869.08
677.393	31884.44
677.741	31919.7
678.09	31863.43
678.438	31752.24
678.787	31814.39
679.135	31810.77
679.484	31632.02
679.832	31826.14
680.181	31496.21
680.529	31714.51
680.877	31621.4
681.225	31570.78
681.573	31632.02
681.922	31379.6
682.27	31250.79
682.618	31345.93
682.966	31242.2
683.314	31266.83
683.661	31250.11
684.009	31158.59
684.357	31126.95
684.705	30944.58
685.053	30962.89
685.4	31009.21
685.748	30793.4
686.095	30783.91
686.443	30790.91
686.79	30585.04
687.138	30461.43
687.485	30639.96
687.832	30410.81
688.18	30496.91
688.527	30244.04
688.874	30230.02
689.221	30111.38
689.568	30020.76
689.915	30051.95
690.262	30096.24
690.609	29959.3
690.956	29795.91
691.303	29828.68
691.65	29604.96
691.997	29693.77
692.344	29553.88
692.69	29449.48
693.037	29524.28
693.383	29208.81
693.73	29217.62
694.077	29107.79
694.423	29065.76
694.769	28969.72
695.116	28903.05
695.462	28927.23
695.808	28816.5
696.155	28697.41
696.501	28588.94
696.847	28559.11
697.193	28403.63
697.539	28388.26
697.885	28211.77
698.231	28121.15
698.577	28231.21
698.923	28098.55
699.269	28008.16
699.614	27889.75
699.96	27798.45
700.306	27745.12
700.651	27697.21
700.997	27670.77
701.342	27745.12
701.688	27607.95
702.033	27476.88
702.379	27405.92
702.724	27323.89
703.069	27458.35
703.415	27033.72
703.76	27078.02
704.105	27146.94
704.45	27147.85
704.795	26974.97
705.14	26992.6
705.485	26850.9
705.83	26684.81
706.175	26810.68
706.52	26669.67
706.865	26507.18
707.209	26487.52
707.554	26297.02
707.899	26489.11
708.243	26284.37
708.588	26231.71
708.932	26131.6
709.277	26099.74
709.621	26109.91
709.966	26067.2
710.31	25975.45
710.654	25793.53
710.998	25772.97
711.342	25751.95
711.687	25678.28
712.031	25588.11
712.375	25510.6
712.719	25560.09
713.063	25487.55
713.407	25705.4
713.75	25422.24
714.094	25565.29
714.438	25385.86
714.782	25327.55
715.125	25228.8
715.469	25197.84
715.812	25047.56
716.156	24964.4
716.499	24929.37
716.843	24954.91
717.186	24817.06
717.53	24950.39
717.873	24909.49
718.216	24806.89
718.559	24651.87
718.902	24538.2
719.246	24570.06
719.589	24627.91
719.932	24404.64
720.275	24442.38
720.617	24316.28
720.96	24275.38
721.303	24305.66
721.646	24313.8
721.989	24128.94
722.331	24244.42
722.674	24125.55
723.016	24067.02
723.359	24075.84
723.701	24083.75
724.044	23953.58
724.386	23940.92
724.729	23960.81
725.071	23967.36
725.413	23879.68
725.755	23949.29
726.097	23761.72
726.439	23730.08
726.782	23697.77
727.124	23887.14
727.465	23542.97
727.807	23623.42
728.149	23480.6
728.491	23512.91
728.833	23575.96
729.175	23427.72
729.516	23409.86
729.858	23393.82
730.199	23407.83
730.541	23303.65
730.882	23300.94
731.224	23288.51
731.565	23123.32
731.906	23263.2
732.248	23154.96
732.589	23085.58
732.93	23035.86
733.271	22937.79
733.612	23024.79
733.953	22974.17
734.294	22989.31
734.635	22851.91
734.976	22985.92
735.317	22767.85
735.658	22753.38
735.999	22769.66
736.339	22732.82
736.68	22638.81
737.021	22688.08
737.361	22647.4
737.702	22772.14
738.042	22522.2
738.383	22508.42
738.723	22583.67
739.063	22465.71
739.404	22550
739.744	22375.54
740.084	22200.63
740.424	22379.84
740.764	22213.29
741.104	22295.54
741.444	22164.93
741.784	22180.52
742.124	22153.63
742.464	22131.25
742.804	22129.45
743.143	22021.88
743.483	22003.12
743.823	21929.45
744.162	21937.59
744.502	21956.57
744.841	21824.82
745.181	21889
745.52	21735.78
745.86	21828.21
746.199	21800.42
746.538	21622.34
746.877	21852.84
747.216	21667.31
747.556	21609.91
747.895	21638.84
748.234	21426.19
748.573	21481.78
748.911	21418.73
749.25	21551.16
749.589	21324.95
749.928	21441.78
750.267	21293.76
750.605	21387.09
750.944	21279.53
751.283	21168.79
751.621	21275.91
751.96	21042.02
752.298	21125.86
752.636	21159.75
752.975	21070.72
753.313	20974.45
753.651	21080.89
753.989	20885.19
754.327	20931.06
