Data from foam1_polythene_foam_FLMS001491_00021.txt Node
Date: Wed Feb 08 10:54:35 GMT 2017
User: dcchb
Spectrometer: FLMS00149
Trigger mode: 0
Integration Time (sec): 2.000000E-2
Scans to average: 10
Electric dark correction enabled: true
Nonlinearity correction enabled: false
Boxcar width: 0
XAxis mode: Wavelengths
Number of Pixels in Spectrum: 2048
>>>>>Begin Spectral Data<<<<<
341.393	-5.58
341.776	-5.58
342.16	-5.58
342.543	-66.59
342.927	-73.15
343.31	-72.92
343.693	-72.7
344.077	-69.76
344.46	-50.1
344.843	-46.71
345.226	-46.93
345.61	-29.99
345.993	-29.31
346.376	10.47
346.759	10.69
347.142	16.12
347.525	68.32
347.908	62.67
348.291	66.96
348.674	80.52
349.057	102.67
349.44	131.82
349.823	138.15
350.206	171.59
350.588	167.98
350.971	204.81
351.354	187.64
351.737	225.15
352.119	227.64
352.502	233.51
352.884	252.49
353.267	278.71
353.65	298.14
354.032	292.72
354.414	276.45
354.797	302.89
355.179	307.41
355.562	313.96
355.944	318.71
356.326	306.05
356.709	332.04
357.091	320.06
357.473	331.59
357.855	311.25
358.238	327.52
358.62	322.55
359.002	307.41
359.384	327.07
359.766	317.58
360.148	327.07
360.53	319.84
360.912	324.81
361.294	305.83
361.676	304.7
362.057	305.15
362.439	285.26
362.821	286.62
363.203	287.75
363.584	311.25
363.966	308.76
364.348	288.42
364.729	293.85
365.111	313.73
365.493	288.88
365.874	313.06
366.256	296.56
366.637	286.84
367.019	302.89
367.4	309.44
367.781	298.37
368.163	308.76
368.544	301.76
368.925	273.96
369.306	300.18
369.688	289.33
370.069	301.31
370.45	287.75
370.831	299.95
371.212	276.67
371.593	313.96
371.974	291.36
372.355	299.72
372.736	311.25
373.117	293.62
373.498	273.96
373.879	297.46
374.26	307.18
374.641	287.07
375.021	316.67
375.402	284.58
375.783	296.79
376.163	312.15
376.544	309.22
376.925	315.09
377.305	307.86
377.686	323.68
378.066	318.93
378.447	312.6
378.827	326.16
379.208	322.55
379.588	298.59
379.968	317.8
380.349	326.39
380.729	306.5
381.109	317.8
381.489	324.58
381.87	320.06
382.25	336.11
382.63	332.27
383.01	343.56
383.39	352.83
383.77	320.97
384.15	331.59
384.53	326.84
384.91	349.67
385.29	312.15
385.67	344.24
386.049	344.02
386.429	339.27
386.809	356.9
387.189	327.07
387.568	346.73
387.948	333.62
388.328	347.41
388.707	340.17
389.087	351.47
389.466	351.7
389.846	337.24
390.225	333.62
390.605	361.87
390.984	339.95
391.363	331.81
391.743	350.34
392.122	357.58
392.501	342.43
392.881	344.69
393.26	353.28
393.639	351.7
394.018	351.47
394.397	378.59
394.776	368.42
395.155	372.04
395.534	355.09
395.913	372.72
396.292	371.81
396.671	382.89
397.05	376.33
397.429	374.07
397.808	374.98
398.186	364.58
398.565	344.69
398.944	375.88
399.323	352.15
399.701	366.16
400.08	405.26
400.458	391.92
400.837	380.85
401.215	390.79
401.594	403.9
401.972	378.14
402.351	386.95
402.729	373.85
403.107	386.95
403.486	410.68
403.864	389.21
404.242	400.29
404.62	378.59
404.999	403.45
405.377	412.26
405.755	374.3
406.133	426.05
406.511	417.23
406.889	412.26
407.267	408.65
407.645	419.27
408.023	437.35
408.401	431.7
408.779	435.31
409.156	439.61
409.534	430.79
409.912	447.74
410.29	438.93
410.667	438.25
411.045	440.96
411.422	438.7
411.8	426.5
412.178	428.53
412.555	442.77
412.933	455.2
413.31	464.01
413.687	465.82
414.065	471.24
414.442	476.89
414.819	480.06
415.197	479.15
415.574	480.28
415.951	483
416.328	474.41
416.705	476.44
417.082	474.41
417.46	496.33
417.837	493.62
418.214	491.58
418.591	484.8
418.967	494.75
419.344	494.07
419.721	519.6
420.098	527.06
420.475	508.31
420.852	519.83
421.228	525.03
421.605	499.27
421.982	534.75
422.358	538.14
422.735	532.26
423.111	526.38
423.488	544.92
423.864	544.92
424.241	536.33
424.617	548.53
424.994	553.5
425.37	558.7
425.746	552.15
426.123	564.58
426.499	561.86
426.875	586.5
427.251	586.04
427.627	564.35
428.003	558.7
428.379	595.08
428.756	592.82
429.132	592.82
429.507	617.23
429.883	611.13
430.259	595.76
430.635	600.73
431.011	625.14
431.387	636.21
431.763	611.13
432.138	646.38
432.514	657.68
432.89	659.04
433.265	679.83
433.641	674.63
434.016	672.14
434.392	658.81
434.767	707.4
435.143	680.28
435.518	692.71
435.894	686.83
436.269	727.96
436.644	731.35
437.02	731.35
437.395	715.31
437.77	714.18
438.145	760.05
438.52	753.72
438.895	749.2
439.271	773.84
439.646	789.43
440.021	768.86
440.395	779.71
440.77	775.87
441.145	790.11
441.52	792.82
441.895	773.61
442.27	795.53
442.645	794.4
443.019	814.29
443.394	780.62
443.769	807.28
444.143	847.73
444.518	849.99
444.892	845.92
445.267	847.28
445.641	843.44
446.016	845.7
446.39	861.29
446.764	881.86
447.139	871.23
447.513	899.26
447.887	886.83
448.262	926.37
448.636	919.82
449.01	898.13
449.384	901.74
449.758	919.37
450.132	925.7
450.506	928.86
450.88	969.31
451.254	946.03
451.628	966.37
452.002	976.99
452.376	972.25
452.75	995.07
453.123	981.97
453.497	994.85
453.871	1033.94
454.244	1028.97
454.618	999.37
454.992	1018.8
455.365	1013.6
455.739	1034.17
456.112	1050.44
456.486	1068.97
456.859	1079.59
457.232	1087.05
457.606	1056.54
457.979	1094.73
458.352	1082.08
458.725	1084.34
459.099	1091.79
459.472	1129.08
459.845	1153.49
460.218	1153.94
460.591	1166.14
460.964	1152.36
461.337	1171.57
461.71	1162.07
462.083	1207.27
462.456	1176.08
462.829	1187.84
463.201	1199.81
463.574	1231.22
463.947	1213.6
464.32	1247.04
464.692	1256.76
465.065	1274.84
465.438	1273.26
465.81	1256.31
466.183	1270.32
466.555	1307.61
466.928	1321.39
467.3	1301.96
467.672	1339.7
468.045	1361.39
468.417	1381.5
468.789	1363.65
469.161	1400.03
469.534	1416.98
469.906	1415.63
470.278	1425.8
470.65	1447.26
471.022	1485.68
471.394	1501.73
471.766	1487.49
472.138	1492.91
472.51	1565
472.882	1560.93
473.253	1583.98
473.625	1597.77
473.997	1621.72
474.369	1615.4
474.74	1642.97
475.112	1652
475.484	1677.77
475.855	1720.7
476.227	1727.71
476.598	1746.47
476.97	1775.84
477.341	1804.99
477.713	1828.5
478.084	1861.26
478.455	1878.44
478.827	1899.23
479.198	1929.96
479.569	1949.4
479.94	2012.22
480.311	1989.17
480.682	2037.08
481.053	2067.13
481.424	2114.59
481.795	2115.95
482.166	2140.81
482.537	2189.62
482.908	2232.33
483.279	2238.2
483.65	2304.64
484.021	2273.01
484.391	2321.59
484.762	2353
485.133	2382.83
485.503	2400.46
485.874	2474.36
486.244	2468.25
486.615	2472.1
486.985	2520
487.356	2574.01
487.726	2619.21
488.097	2650.4
488.467	2663.5
488.837	2728.59
489.207	2717.97
489.578	2777.62
489.948	2784.4
490.318	2806.32
490.688	2837.06
491.058	2882.48
491.428	2914.12
491.798	2934
492.168	2946.43
492.538	3014.91
492.908	3049.93
493.278	3098.75
493.648	3088.58
494.017	3112.08
494.387	3188.24
494.757	3190.72
495.126	3203.6
495.496	3244.73
495.866	3250.38
496.235	3307.33
496.605	3314.79
496.974	3332.86
497.344	3361.56
497.713	3416.25
498.082	3405.86
498.452	3446.99
498.821	3459.19
499.19	3462.58
499.559	3536.02
499.928	3585.74
500.298	3585.29
500.667	3616.7
501.036	3658.05
501.405	3636.13
501.774	3651.5
502.143	3702.35
502.512	3701.67
502.88	3747.77
503.249	3782.8
503.618	3748.67
503.987	3815.11
504.356	3774.66
504.724	3842.68
505.093	3892.17
505.462	3864.38
505.83	3898.05
506.199	3933.75
506.567	3974.2
506.936	4033.41
507.304	4067.08
507.672	4105.73
508.041	4085.39
508.409	4109.12
508.777	4185.5
509.145	4178.94
509.514	4162.45
509.882	4243.12
510.25	4269.79
510.618	4250.81
510.986	4235.89
511.354	4367.41
511.722	4361.09
512.09	4369.67
512.458	4385.04
512.826	4433.85
513.193	4476.56
513.561	4475.21
513.929	4519.05
514.297	4557.69
514.664	4554.98
515.032	4574.19
515.4	4658.03
515.767	4703.68
516.135	4687.86
516.502	4677.01
516.869	4774.86
517.237	4825.71
517.604	4776.44
517.972	4843.56
518.339	4903.9
518.706	4930.79
519.073	4888.53
519.44	4963.1
519.808	5005.14
520.175	5028.19
520.542	5133.04
520.909	5158.81
521.276	5165.36
521.643	5251.23
522.009	5267.05
522.376	5278.8
522.743	5315.86
523.11	5340.5
523.477	5419.59
523.843	5467.05
524.21	5495.29
524.577	5550.66
524.943	5587.04
525.31	5553.37
525.676	5630.66
526.043	5710.2
526.409	5732.35
526.776	5785.91
527.142	5761.5
527.508	5832.23
527.874	5842.4
528.241	5894.6
528.607	5916.3
528.973	5917.66
529.339	5981.61
529.705	6022.29
530.071	6084.66
530.437	6132.79
530.803	6158.1
531.169	6165.11
531.535	6169.63
531.901	6177.76
532.267	6227.48
532.632	6290.07
532.998	6335.5
533.364	6329.17
533.73	6347.47
534.095	6351.77
534.461	6399.9
534.826	6471.99
535.192	6521.26
535.557	6552.21
535.923	6559.45
536.288	6570.07
536.653	6611.42
537.019	6567.36
537.384	6593.12
537.749	6661.36
538.114	6676.28
538.479	6691.65
538.845	6721.02
539.21	6732.1
539.575	6830.85
539.94	6767.58
540.305	6829.27
540.67	6852.55
541.034	6915.14
541.399	6915.59
541.764	6912.43
542.129	6958.53
542.494	6968.7
542.858	6942.03
543.223	6996.04
543.587	7106.32
543.952	7073.1
544.316	7133.89
544.681	7104.97
545.045	7065.42
545.41	7136.15
545.774	7161.24
546.138	7177.28
546.503	7218.41
546.867	7234.68
547.231	7318.07
547.595	7307.45
547.959	7330.95
548.324	7311.06
548.688	7310.61
549.052	7337.5
549.416	7384.28
549.779	7364.62
550.143	7442.13
550.507	7453.21
550.871	7502.47
551.235	7465.19
551.599	7539.53
551.962	7593.09
552.326	7594.9
552.689	7654.11
553.053	7647.78
553.417	7730.94
553.78	7799.41
554.143	7744.27
554.507	7818.62
554.87	7802.13
555.234	7904.27
555.597	7862.91
555.96	7902.24
556.323	7922.8
556.686	7995.34
557.05	7994.21
557.413	8014.32
557.776	8083.7
558.139	8033.98
558.502	8102.68
558.865	8078.05
559.228	8141.33
559.59	8231.27
559.953	8228.78
560.316	8326.63
560.679	8292.51
561.041	8361.88
561.404	8355.56
561.767	8439.4
562.129	8443.92
562.492	8458.61
562.854	8430.13
563.217	8495.21
563.579	8514.65
563.941	8588.55
564.304	8657.02
564.666	8693.18
565.028	8631.03
565.39	8743.12
565.753	8824.02
566.115	8789.44
566.477	8902.66
566.839	8905.37
567.201	8905.37
567.563	8947.86
567.925	8967.74
568.287	9040.28
568.648	9036.44
569.01	9120.06
569.372	9169.1
569.734	9181.75
570.095	9200.96
570.457	9249.54
570.819	9288.19
571.18	9261.07
571.542	9300.62
571.903	9352.37
572.265	9338.13
572.626	9364.34
572.987	9419.94
573.349	9409.31
573.71	9530.89
574.071	9496.54
574.432	9598.01
574.794	9641.85
575.155	9581.06
575.516	9572.25
575.877	9584.45
576.238	9632.13
576.599	9633.26
576.96	9620.16
577.32	9706.03
577.681	9685.47
578.042	9745.35
578.403	9741.74
578.763	9722.98
579.124	9759.81
579.485	9767.95
579.845	9829.42
580.206	9864.44
580.566	9786.93
580.927	9814.28
581.287	9840.04
581.648	9871.22
582.008	9890.66
582.368	9852.24
582.728	9846.37
583.089	9845.69
583.449	9823.54
583.809	9875.07
584.169	9772.47
584.529	9817.67
584.889	9857.44
585.249	9824.67
585.609	9801.17
585.969	9893.14
586.329	9802.75
586.688	9895.4
587.048	9856.53
587.408	9854.73
587.768	9849.98
588.127	9872.13
588.487	9842.07
588.846	9972.46
589.206	9843.88
589.565	9935.85
589.925	9895.86
590.284	9966.81
590.643	9934.72
591.003	9945.8
591.362	9990.54
591.721	9911.45
592.08	9932.01
592.44	9963.65
592.799	9962.75
593.158	9927.72
593.517	9873.94
593.876	9860.15
594.235	9944.44
594.593	9948.96
594.952	9946.93
595.311	9903.09
595.67	9908.74
596.029	10006.36
596.387	9959.13
596.746	9996.64
597.104	9942.63
597.463	9998.68
597.822	9997.77
598.18	9965.01
598.538	9957.55
598.897	9955.74
599.255	9961.62
599.613	10037.09
599.972	10000.49
600.33	10053.37
600.688	10001.84
601.046	10109.41
601.404	10100.37
601.762	10070.77
602.12	10135.85
602.478	10115.06
602.836	10034.16
603.194	10089.52
603.552	10074.38
603.91	10007.72
604.268	10066.25
604.625	10093.14
604.983	10165.68
605.341	10081.84
605.698	10122.06
606.056	10163.19
606.413	10106.47
606.771	10189.63
607.128	10213.36
607.485	10129.97
607.843	10249.29
608.2	10191.89
608.557	10250.2
608.914	10200.03
609.272	10256.52
609.629	10224.66
609.986	10221.95
610.343	10226.47
610.7	10313.47
611.057	10285.68
611.414	10302.17
611.771	10329.97
612.127	10338.1
612.484	10395.05
612.841	10388.72
613.198	10419.91
613.554	10337.43
613.911	10407.71
614.267	10381.94
614.624	10369.74
614.98	10396.63
615.337	10381.72
615.693	10388.95
616.05	10375.17
616.406	10405.67
616.762	10391.21
617.118	10377.2
617.475	10446.12
617.831	10479.12
618.187	10472.79
618.543	10456.97
618.899	10458.55
619.255	10430.76
619.611	10482.28
619.967	10515.95
620.323	10508.95
620.678	10495.61
621.034	10443.19
621.39	10470.08
621.746	10396.18
622.101	10546.69
622.457	10356.63
622.812	10516.63
623.168	10489.06
623.523	10443.86
623.879	10524.31
624.234	10449.06
624.589	10454.48
624.945	10484.09
625.3	10458.33
625.655	10477.76
626.01	10451.1
626.365	10511.43
626.72	10527.03
627.075	10553.92
627.43	10453.58
627.785	10435.05
628.14	10474.37
628.495	10390.08
628.85	10402.96
629.205	10331.55
629.559	10387.14
629.914	10365.45
630.269	10420.59
630.623	10357.54
630.978	10370.65
631.332	10411.55
631.687	10403.86
632.041	10372.91
632.396	10367.93
632.75	10332.91
633.104	10367.93
633.459	10328.16
633.813	10308.95
634.167	10263.08
634.521	10264.66
634.875	10242.29
635.229	10325.22
635.583	10091.78
635.937	10244.32
636.291	10221.04
636.645	10218.11
636.999	10110.99
637.352	10199.8
637.706	10190.54
638.06	10183.76
638.413	10167.71
638.767	10188.05
639.121	10146.24
639.474	10038.45
639.828	10009.3
640.181	10041.61
640.534	9977.66
640.888	9951.45
641.241	9966.36
641.594	9983.08
641.947	9982.63
642.301	9911.45
642.654	9997.32
643.007	9983.31
643.36	9943.99
643.713	9942.63
644.066	10044.33
644.419	9859.02
644.771	9848.4
645.124	9824.9
645.477	9731.79
645.83	9708.29
646.182	9594.39
646.535	9565.24
646.888	9558.24
647.24	9527.05
647.593	9591.46
647.945	9485.7
648.298	9466.71
648.65	9413.61
649.002	9431.01
649.355	9473.72
649.707	9491.8
650.059	9518.69
650.411	9622.19
650.763	9642.98
651.115	9721.85
651.467	9648.63
651.819	9697.89
652.171	9667.61
652.523	9655.18
652.875	9609.99
653.227	9572.93
653.578	9657.22
653.93	9567.28
654.282	9607.28
654.633	9528.41
654.985	9591.23
655.337	9594.39
655.688	9553.04
656.039	9678.23
656.391	9560.27
656.742	9531.57
657.094	9506.04
657.445	9608.41
657.796	9599.82
658.147	9506.94
658.498	9475.75
658.849	9449.99
659.2	9455.87
659.551	9426.49
659.902	9535.19
660.253	9430.11
660.604	9418.35
660.955	9441.4
661.306	9522.31
661.656	9453.16
662.007	9444.79
662.358	9467.39
662.708	9420.39
663.059	9374.97
663.409	9248.42
663.76	9411.12
664.11	9405.7
664.461	9391.24
664.811	9414.06
665.161	9360.95
665.511	9266.72
665.862	9358.92
666.212	9408.86
666.562	9288.64
666.912	9332.71
667.262	9296.1
667.612	9330.67
667.962	9301.52
668.312	9275.31
668.662	9331.58
669.011	9224.69
669.361	9319.15
669.711	9301.29
670.06	9200.96
670.41	9257
670.76	9276.44
671.109	9226.27
671.459	9163.9
671.808	9224.69
672.157	9203.9
672.507	9160.73
672.856	9174.52
673.205	9139.04
673.554	9135.65
673.904	9114.41
674.253	9157.57
674.602	9131.13
674.951	8951.93
675.3	8960.74
675.649	9094.97
675.998	9140.62
676.346	9095.42
676.695	9103.11
677.044	9118.93
677.393	9107.63
677.741	9053.62
678.09	9091.13
678.438	9033.05
678.787	9064.24
679.135	9017.69
679.484	8989.89
679.832	9043.67
680.181	9041.19
680.529	8957.58
680.877	9010.68
681.225	8920.74
681.573	9055.2
681.922	8975.2
682.27	8952.6
682.618	8927.97
682.966	8849.78
683.314	8953.96
683.661	8910.8
684.009	8867.63
684.357	8832.83
684.705	8795.32
685.053	8834.64
685.4	8857.01
685.748	8828.99
686.095	8763.23
686.443	8781.99
686.79	8735.43
687.138	8785.6
687.485	8810.46
687.832	8672.84
688.18	8732.72
688.527	8620.41
688.874	8718.26
689.221	8593.74
689.568	8627.41
689.915	8625.61
690.262	8517.59
690.609	8508.1
690.956	8448.21
691.303	8508.77
691.65	8443.01
691.997	8434.65
692.344	8381.09
692.69	8391.26
693.037	8363.47
693.383	8332.28
693.73	8351.94
694.077	8328.89
694.423	8279.63
694.769	8226.97
695.116	8182.91
695.462	8233.3
695.808	8155.79
696.155	8231.04
696.501	8133.87
696.847	8089.58
697.193	8071.04
697.539	8075.34
697.885	8045.28
698.231	8040.99
698.577	7984.27
698.923	7994.21
699.269	7899.52
699.614	7946.08
699.96	7917.83
700.306	7900.2
700.651	7910.15
700.997	7792.86
701.342	7818.17
701.688	7785.85
702.033	7777.27
702.379	7789.92
702.724	7826.76
703.069	7810.71
703.415	7711.73
703.76	7684.16
704.105	7718.29
704.45	7657.04
704.795	7626.54
705.14	7620.44
705.485	7546.09
705.83	7595.13
706.175	7612.3
706.52	7590.38
706.865	7621.57
707.209	7546.31
707.554	7469.25
707.899	7509.7
708.243	7419.76
708.588	7446.43
708.932	7404.85
709.277	7404.17
709.621	7416.6
709.966	7340.67
710.31	7371.4
710.654	7335.92
710.998	7302.48
711.342	7291.86
711.687	7326.66
712.031	7284.85
712.375	7203.72
712.719	7253.89
713.063	7211.41
713.407	7252.08
713.75	7259.99
714.094	7259.54
714.438	7156.72
714.782	7195.36
715.125	7159.66
715.469	7190.62
715.812	7137.96
716.156	7082.6
716.499	7077.85
716.843	7078.53
717.186	7051.64
717.53	7083.27
717.873	7075.36
718.216	7070.39
718.559	7001.69
718.902	7007.8
719.246	6981.81
719.589	6943.62
719.932	6978.87
720.275	6980.68
720.617	6979.1
720.96	6927.35
721.303	6923.5
721.646	6942.49
721.989	6899.78
722.331	6919.66
722.674	6940.45
723.016	6873.11
723.359	6865.43
723.701	6910.4
724.044	6861.59
724.386	6804.19
724.729	6833.11
725.071	6802.6
725.413	6788.59
725.755	6814.13
726.097	6779.33
726.439	6693.45
726.782	6672.89
727.124	6728.71
727.465	6710.85
727.807	6750.85
728.149	6675.38
728.491	6674.25
728.833	6728.71
729.175	6635.38
729.516	6624.53
729.858	6638.31
730.199	6627.92
730.541	6668.82
730.882	6619.56
731.224	6527.58
731.565	6500.01
731.906	6545.66
732.248	6545.89
732.589	6563.74
732.93	6461.14
733.271	6465.89
733.612	6484.19
733.953	6517.19
734.294	6435.83
734.635	6423.86
734.976	6450.75
735.317	6451.65
735.658	6412.56
735.999	6461.37
736.339	6412.11
736.68	6433.57
737.021	6414.37
737.361	6377.76
737.702	6358.55
738.042	6401.71
738.383	6367.13
738.723	6416.63
739.063	6372.56
739.404	6413.69
739.744	6351.77
740.084	6309.96
740.424	6348.38
740.764	6316.74
741.104	6291.43
741.444	6235.39
741.784	6265.44
742.124	6305.22
742.464	6274.71
742.804	6231.77
743.143	6251.21
743.483	6223.41
743.823	6170.53
744.162	6187.25
744.502	6239.91
744.841	6163.52
745.181	6252.56
745.52	6168.5
745.86	6205.78
746.199	6191.32
746.538	6168.27
746.877	6211.88
747.216	6194.94
747.556	6127.14
747.895	6138.44
748.234	6101.38
748.573	6116.97
748.911	6098.44
749.25	6052.57
749.589	6027.71
749.928	6022.96
750.267	6048.5
750.605	6057.99
750.944	6059.35
751.283	6020.93
751.621	5988.39
751.96	5986.13
752.298	5970.31
752.636	5924.66
752.975	5937.99
753.313	5922.4
753.651	5926.47
753.989	5902.06
754.327	5917.43
754.666	5884.66
755.004	5925.34
755.342	5870.42
755.679	5862.06
756.017	5819.8
756.355	5824.32
756.693	5819.13
757.031	5823.42
757.368	5789.75
757.706	5806.02
758.044	5773.93
758.381	5774.16
758.719	5755.4
759.056	5702.52
759.394	5762.63
759.731	5662.75
760.068	5650.09
760.405	5633.14
760.743	5602.64
761.08	5678.11
761.417	5565.35
761.754	5662.75
762.091	5581.62
762.428	5561.73
762.765	5546.59
763.102	5612.13
763.438	5525.12
763.775	5474.28
764.112	5520.83
764.449	5529.42
764.785	5471.79
765.122	5408.74
765.458	5411.68
765.795	5424.33
766.131	5364
766.467	5399.7
766.804	5378.23
767.14	5355.86
767.476	5364.45
767.812	5265.24
768.148	5353.15
