Data from foam_black_FLMS001491_00015.txt Node
Date: Wed Feb 08 10:43:35 GMT 2017
User: dcchb
Spectrometer: FLMS00149
Trigger mode: 0
Integration Time (sec): 2.000000E-2
Scans to average: 10
Electric dark correction enabled: true
Nonlinearity correction enabled: false
Boxcar width: 0
XAxis mode: Wavelengths
Number of Pixels in Spectrum: 2048
>>>>>Begin Spectral Data<<<<<
341.393	-12.01
341.776	-12.01
342.16	-12.01
342.543	-52.68
342.927	-56.3
343.31	-61.5
343.693	-46.58
344.077	-58.33
344.46	-63.98
344.843	-63.98
345.226	-31.44
345.61	-23.53
345.993	-30.08
346.376	9.24
346.759	-4.77
347.142	32.29
347.525	55.79
347.908	65.73
348.291	63.7
348.674	68.22
349.057	89.23
349.44	119.52
349.823	147.09
350.206	148.22
350.588	183.47
350.971	207.88
351.354	229.34
351.737	240.64
352.119	231.15
352.502	257.37
352.884	253.3
353.267	274.99
353.65	283.58
354.032	275.44
354.414	303.24
354.797	292.39
355.179	307.53
355.562	294.2
355.944	294.65
356.326	313.64
356.709	331.49
357.091	331.04
357.473	349.34
357.855	353.18
358.238	326.52
358.62	330.13
359.002	332.84
359.384	337.82
359.766	331.49
360.148	316.57
360.53	326.97
360.912	334.43
361.294	342.56
361.676	326.29
362.057	335.78
362.439	338.04
362.821	305.73
363.203	326.52
363.584	332.17
363.966	314.09
364.348	337.59
364.729	312.51
365.111	306.63
365.493	302.56
365.874	327.19
366.256	319.96
366.637	303.69
367.019	302.11
367.4	310.92
367.781	321.32
368.163	316.8
368.544	293.75
368.925	309.57
369.306	310.25
369.688	300.3
370.069	310.7
370.45	319.96
370.831	333.07
371.212	316.57
371.593	317.93
371.974	286.07
372.355	308.44
372.736	326.06
373.117	312.51
373.498	318.83
373.879	313.41
374.26	320.64
374.641	307.53
375.021	326.06
375.402	323.35
375.783	316.8
376.163	333.07
376.544	322.9
376.925	351.6
377.305	328.1
377.686	336.91
378.066	330.58
378.447	336.01
378.827	353.18
379.208	361.32
379.588	318.61
379.968	338.72
380.349	352.96
380.729	360.19
381.109	338.04
381.489	364.93
381.87	365.61
382.25	354.31
382.63	343.01
383.01	350.25
383.39	333.97
383.77	363.35
384.15	351.37
384.53	353.18
384.91	342.11
385.29	353.41
385.67	368.78
386.049	379.17
386.429	374.43
386.809	365.39
387.189	378.27
387.568	365.61
387.948	392.05
388.328	376.91
388.707	368.55
389.087	384.59
389.466	388.89
389.846	378.94
390.225	386.4
390.605	387.31
390.984	411.94
391.363	394.99
391.743	404.93
392.122	409.45
392.501	388.44
392.881	399.28
393.26	390.02
393.639	421.43
394.018	406.51
394.397	416.68
394.776	424.14
395.155	417.36
395.534	415.33
395.913	409.68
396.292	416.23
396.671	409.9
397.05	425.5
397.429	414.65
397.808	447.19
398.186	462.78
398.565	431.6
398.944	429.11
399.323	426.18
399.701	418.49
400.08	439.28
400.458	447.19
400.837	442.67
401.215	445.38
401.594	460.07
401.972	460.98
402.351	476.8
402.729	467.3
403.107	459.17
403.486	451.03
403.864	444.71
404.242	486.29
404.62	469.79
404.999	476.34
405.377	497.13
405.755	488.32
406.133	487.87
406.511	474.76
406.889	496.46
407.267	487.19
407.645	507.98
408.023	533.74
408.401	513.63
408.779	512.27
409.156	506.85
409.534	529
409.912	521.31
410.29	536.23
410.667	544.36
411.045	529.68
411.422	523.35
411.8	532.84
412.178	525.16
412.555	551.82
412.933	555.66
413.31	550.47
413.687	536.91
414.065	560.41
414.442	573.29
414.819	588.66
415.197	603.35
415.574	590.01
415.951	599.5
416.328	590.92
416.705	584.14
417.082	591.82
417.46	583.23
417.837	641.76
418.214	611.93
418.591	617.36
418.967	620.07
419.344	624.36
419.721	647.41
420.098	643.34
420.475	606.06
420.852	645.83
421.228	646.51
421.605	667.52
421.982	671.14
422.358	665.49
422.735	644.25
423.111	664.14
423.488	700.97
423.864	666.62
424.241	685.6
424.617	705.72
424.994	709.11
425.37	677.47
425.746	693.74
426.123	701.65
426.499	703.91
426.875	723.79
427.251	722.21
427.627	734.64
428.003	746.39
428.379	754.98
428.756	748.65
429.132	730.12
429.507	758.82
429.883	771.48
430.259	748.88
430.635	794.98
431.011	794.75
431.387	815.09
431.763	815.54
432.138	848.99
432.514	815.09
432.89	833.17
433.265	822.55
433.641	835.2
434.016	851.7
434.392	861.64
434.767	860.29
435.143	881.08
435.518	861.64
435.894	855.99
436.269	922.89
436.644	900.51
437.02	917.01
437.395	894.86
437.77	920.4
438.145	952.04
438.52	936.22
438.895	931.02
439.271	964.24
439.646	975.09
440.021	971.92
440.395	986.61
440.77	968.53
441.145	992.49
441.52	999.04
441.895	995.88
442.27	1003.79
442.645	1044.69
443.019	1048.76
443.394	1006.95
443.769	1003.79
444.143	1031.58
444.518	1050.57
444.892	1070.68
445.267	1056.67
445.641	1017.8
446.016	1039.04
446.39	1063.67
446.764	1081.3
447.139	1063.67
447.513	1069.32
447.887	1097.34
448.262	1098.02
448.636	1075.42
449.01	1093.5
449.384	1090.34
449.758	1093.05
450.132	1143.22
450.506	1143.44
450.88	1160.17
451.254	1133.5
451.628	1136.21
452.002	1182.54
452.376	1190.45
452.75	1167.62
453.123	1194.52
453.497	1190.67
453.871	1206.04
454.244	1234.29
454.618	1247.17
454.992	1295.08
455.365	1234.97
455.739	1319.03
456.112	1309.99
456.486	1306.6
456.859	1320.84
457.232	1330.78
457.606	1331.01
457.979	1365.81
458.352	1369.88
458.725	1365.59
459.099	1359.26
459.472	1410.78
459.845	1452.59
460.218	1460.5
460.591	1421.4
460.964	1456.43
461.337	1512.47
461.71	1482.64
462.083	1509.54
462.456	1522.19
462.829	1519.48
463.201	1551.12
463.574	1543.66
463.947	1557.44
464.32	1580.5
464.692	1584.79
465.065	1636.54
465.438	1628.4
465.81	1656.88
466.183	1676.09
466.555	1684.67
466.928	1736.2
467.3	1732.58
467.672	1762.41
468.045	1794.5
468.417	1816.42
468.789	1804.44
469.161	1813.48
469.534	1891
469.906	1913.37
470.278	1926.02
470.65	1928.73
471.022	1962.18
471.394	1957.43
471.766	1990.65
472.138	1984.55
472.51	2056.87
472.882	2078.56
473.253	2067.26
473.625	2107.03
473.997	2131.22
474.369	2175.06
474.74	2198.56
475.112	2221.61
475.484	2276.52
475.855	2290.08
476.227	2312.23
476.598	2374.82
476.97	2408.04
477.341	2446.01
477.713	2461.83
478.084	2455.5
478.455	2559.9
478.827	2558.77
479.198	2622.28
479.569	2624.31
479.94	2718.54
480.311	2698.88
480.682	2777.75
481.053	2804.19
481.424	2831.54
481.795	2870.86
482.166	2910.4
482.537	2955.6
482.908	2982.72
483.279	3067.46
483.65	3059.1
484.021	3116.95
484.391	3179.78
484.762	3207.35
485.133	3243.73
485.503	3302.94
485.874	3378.64
486.244	3364.4
486.615	3449.37
486.985	3460.45
487.356	3523.49
487.726	3548.13
488.097	3604.62
488.467	3665.19
488.837	3737.95
489.207	3758.74
489.578	3789.48
489.948	3783.38
490.318	3822.24
490.688	3885.29
491.058	3924.61
491.428	3966.2
491.798	4037.38
492.168	4085.74
492.538	4109.92
492.908	4123.71
493.278	4174.55
493.648	4208
494.017	4313.98
494.387	4304.49
494.757	4338.39
495.126	4375.9
495.496	4424.26
495.866	4422.68
496.235	4448.22
496.605	4517.14
496.974	4518.27
497.344	4630.81
497.713	4614.09
498.082	4620.19
498.452	4651.83
498.821	4699.06
499.19	4707.42
499.559	4771.15
499.928	4800.52
500.298	4838.94
500.667	4815.21
501.036	4850.92
501.405	4885.94
501.774	4882.56
502.143	4963.91
502.512	5031.93
502.88	5071.25
503.249	5030.8
503.618	5067.86
503.987	5063.12
504.356	5150.57
504.724	5161.64
505.093	5227.18
505.462	5211.59
505.83	5299.95
506.199	5328.42
506.567	5366.84
506.936	5398.25
507.304	5409.1
507.672	5472.37
508.041	5453.16
508.409	5580.84
508.777	5561.18
509.145	5605.47
509.514	5692.03
509.882	5666.72
510.25	5709.2
510.618	5732.7
510.986	5779.48
511.354	5853.83
511.722	5893.38
512.09	5911.68
512.458	5919.36
512.826	5977.44
513.193	5960.49
513.561	5938.8
513.929	6060.83
514.297	6124.1
514.664	6164.56
515.032	6201.62
515.4	6257.66
515.767	6244.1
516.135	6334.49
516.502	6298.56
516.869	6347.15
517.237	6489.29
517.604	6443.64
517.972	6519.35
518.339	6607.93
518.706	6663.75
519.073	6715.5
519.44	6718.89
519.808	6786.01
520.175	6811.32
520.542	6953.91
520.909	6988.71
521.276	6894.71
521.643	6991.43
522.009	7049.05
522.376	7063.29
522.743	7125.89
523.11	7176.51
523.477	7248.37
523.843	7262.15
524.21	7351.64
524.577	7337.41
524.943	7418.99
525.31	7499.21
525.676	7537.85
526.043	7582.6
526.409	7590.51
526.776	7700.56
527.142	7719.54
527.508	7806.09
527.874	7923.15
528.241	7955.47
528.607	7986.2
528.973	8108.01
529.339	8062.36
529.705	8179.64
530.071	8265.74
530.437	8282.24
530.803	8352.52
531.169	8455.34
531.535	8407.21
531.901	8527.43
532.267	8572.63
532.632	8530.82
532.998	8620.31
533.364	8600.65
533.73	8699.18
534.095	8738.73
534.461	8709.8
534.826	8689.91
535.192	8691.72
535.557	8812.85
535.923	8765.62
536.288	8863.02
536.653	8863.69
537.019	8899.17
537.384	8929.68
537.749	9034.76
538.114	9046.06
538.479	9092.39
538.845	9112.73
539.21	9121.77
539.575	9241.54
539.94	9317.69
540.305	9339.16
540.67	9323.79
541.034	9420.52
541.399	9478.14
541.764	9539.38
542.129	9563.56
542.494	9608.53
542.858	9621.19
543.223	9526.95
543.587	9646.72
543.952	9670.45
544.316	9705.48
544.681	9704.35
545.045	9795.65
545.41	9748.64
545.774	9809.66
546.138	9816.21
546.503	9796.78
546.867	9860.28
547.231	9916.77
547.595	9954.06
547.959	10003.1
548.324	10064.34
548.688	10022.31
549.052	10059.59
549.416	10124.23
549.779	10110.44
550.143	10259.36
550.507	10278.35
550.871	10448.06
551.235	10416.42
551.599	10421.17
551.962	10496.87
552.326	10626.58
552.689	10609.64
553.053	10634.27
553.417	10688.73
553.78	10835.39
554.143	10785
554.507	10769.18
554.87	10860.25
555.234	11001.94
555.597	10874.26
555.96	10923.07
556.323	10975.73
556.686	11056.4
557.05	11111.09
557.413	11125.33
557.776	11138.66
558.139	11185.67
558.502	11228.6
558.865	11257.98
559.228	11257.75
559.59	11346.11
559.953	11290.97
560.316	11554.47
560.679	11540.91
561.041	11650.29
561.404	11674.02
561.767	11767.12
562.129	11798.76
562.492	11926.44
562.854	11962.14
563.217	11992.42
563.579	11936.16
563.941	12107.22
564.304	12080.56
564.666	12313.77
565.028	12308.35
565.39	12347.22
565.753	12409.59
566.115	12386.09
566.477	12557.61
566.839	12486.42
567.201	12681.9
567.563	12694.78
567.925	12824.95
568.287	12763.25
568.648	12745.4
569.01	12912.17
569.372	12949.46
569.734	12888.9
570.095	13005.05
570.457	13086.41
570.819	13110.81
571.18	13082.34
571.542	13220.64
571.903	13194.2
572.265	13256.12
572.626	13287.53
572.987	13347.42
573.349	13440.07
573.71	13466.74
574.071	13484.36
574.432	13516.68
574.794	13656.11
575.155	13653.17
575.516	13565.04
575.877	13712.61
576.238	13700.85
576.599	13684.58
576.96	13745.6
577.32	13774.98
577.681	13852.94
578.042	13905.82
578.403	13926.84
578.763	13900.62
579.124	13897.01
579.485	13971.58
579.845	14034.63
580.206	14055.42
580.566	14003.22
580.927	14102.2
581.287	14118.92
581.648	14154.85
582.008	14225.59
582.368	14212.71
582.728	14287.51
583.089	14187.85
583.449	14167.28
583.809	14234.63
584.169	14261.97
584.529	14133.61
584.889	14240.95
585.249	14271.23
585.609	14115.53
585.969	14233.5
586.329	14135.19
586.688	14199.6
587.048	14166.15
587.408	14186.72
587.768	14203.21
588.127	14175.19
588.487	14175.42
588.846	14214.97
589.206	14076.21
589.565	14115.98
589.925	14246.83
590.284	14168.86
590.643	14167.06
591.003	14275.08
591.362	14182.88
591.721	14267.62
592.08	14290.67
592.44	14425.58
592.799	14309.2
593.158	14428.74
593.517	14416.32
593.876	14487.5
594.235	14400.05
594.593	14488.63
594.952	14529.76
595.311	14437.56
595.67	14501.74
596.029	14612.02
596.387	14614.28
596.746	14588.97
597.104	14591.68
597.463	14613.15
597.822	14753.26
598.18	14603.88
598.538	14552.81
598.897	14711.22
599.255	14628.29
599.613	14819.7
599.972	14668.29
600.33	14616.99
600.688	14551.91
601.046	14634.39
601.404	14694.95
601.762	14622.19
602.12	14609.53
602.478	14638.23
602.836	14609.53
603.194	14471
603.552	14542.87
603.91	14607.05
604.268	14685.24
604.625	14569.98
604.983	14706.48
605.341	14558.91
605.698	14751.9
606.056	14735.4
606.413	14763.65
606.771	14838.9
607.128	14837.55
607.485	14850.43
607.843	14778.34
608.2	14883.65
608.557	15052.01
608.914	14912.12
609.272	15093.13
609.629	15118.44
609.986	15146.24
610.343	15035.73
610.7	15195.05
611.057	15204.32
611.414	15160.7
611.771	15165.9
612.127	15291.77
612.484	15283.64
612.841	15275.95
613.198	15224.66
613.554	15165.45
613.911	15247.48
614.267	15202.28
614.624	15177.2
614.98	15223.98
615.337	15305.33
615.693	15269.17
616.05	15229.4
616.406	15297.2
616.762	15278.21
617.118	15234.6
617.475	15335.61
617.831	15271.43
618.187	15200.02
618.543	15258.1
618.899	15346.69
619.255	15271.66
619.611	15373.8
619.967	15421.71
620.323	15479.79
620.678	15502.61
621.034	15378.32
621.39	15445.67
621.746	15410.19
622.101	15592.56
622.457	15517.76
622.812	15554.37
623.168	15627.58
623.523	15740.8
623.879	15732.44
624.234	15609.96
624.589	15720.24
624.945	15696.51
625.3	15780.8
625.655	15696.28
626.01	15695.15
626.365	15653.12
626.72	15710.07
627.075	15777.86
627.43	15647.02
627.785	15651.54
628.14	15721.82
628.495	15746.45
628.85	15716.17
629.205	15596.17
629.559	15706.9
629.914	15592.78
630.269	15571.31
630.623	15436.4
630.978	15512.11
631.332	15492.22
631.687	15472.56
632.041	15393.92
632.396	15389.17
632.75	15334.03
633.104	15346.46
633.459	15197.76
633.813	15303.98
634.167	15214.26
634.521	15218.78
634.875	15209.06
635.229	15164.09
635.583	15149.63
635.937	15105.11
636.291	15139.01
636.645	15102.4
636.999	15130.87
637.352	15195.28
637.706	15124.09
638.06	15177.43
638.413	15117.99
638.767	15114.38
639.121	15073.93
639.474	14978.56
639.828	15037.99
640.181	15103.76
640.534	15108.05
640.888	15055.4
641.241	14979.69
641.594	14987.83
641.947	15094.49
642.301	14991.89
642.654	15015.17
643.007	14956.41
643.36	15074.38
643.713	15001.16
644.066	15028.05
644.419	14930.43
644.771	14900.82
645.124	14571.11
645.477	14636.88
645.83	14543.77
646.182	14520.27
646.535	14464.9
646.888	14571.79
647.24	14579.25
647.593	14669.87
647.945	14522.08
648.298	14500.61
648.65	14469.42
649.002	14406.6
649.355	14396.88
649.707	14306.26
650.059	14329.54
650.411	14545.35
650.763	14473.94
651.115	14623.09
651.467	14683.88
651.819	14646.14
652.171	14605.01
652.523	14503.55
652.875	14537.44
653.227	14431.91
653.578	14613.82
653.93	14457.67
654.282	14364.57
654.633	14370.67
654.985	14460.38
655.337	14412.47
655.688	14372.93
656.039	14357.11
656.391	14401.18
656.742	14286.83
657.094	14367.28
657.445	14466.94
657.796	14385.36
658.147	14333.83
658.498	14354.85
658.849	14426.94
659.2	14430.1
659.551	14392.81
659.902	14364.79
660.253	14351.23
660.604	14490.66
660.955	14281.63
661.306	14459.7
661.656	14384.9
662.007	14466.94
662.358	14469.65
662.708	14572.24
663.059	14451.57
663.409	14407.73
663.76	14473.49
664.11	14446.6
664.461	14519.14
664.811	14393.04
665.161	14498.8
665.511	14344.91
665.862	14413.15
666.212	14398.69
666.562	14423.1
666.912	14456.09
667.262	14397.79
667.612	14324.34
667.962	14252.03
668.312	14284.12
668.662	14328.18
669.011	14303.78
669.361	14227.85
669.711	14172.71
670.06	14208.41
670.41	14178.81
670.76	14114.85
671.109	14136.55
671.459	14115.53
671.808	14094.97
672.157	14165.25
672.507	13996.44
672.856	14054.97
673.205	13982.65
673.554	14092.93
673.904	14042.31
674.253	14020.39
674.602	13953.96
674.951	13782.21
675.3	13724.13
675.649	13861.98
675.998	13900.4
676.346	13983.56
676.695	13974.52
677.044	13920.28
677.393	13893.84
677.741	13998.7
678.09	13941.07
678.438	13903.79
678.787	13951.24
679.135	13986.95
679.484	13996.89
679.832	14005.25
680.181	13832.6
680.529	14021.98
680.877	13966.61
681.225	13898.59
681.573	14043.9
681.922	13936.55
682.27	13828.99
682.618	13892.71
682.966	13881.87
683.314	13843
683.661	13777.91
684.009	13805.26
684.357	13708.99
684.705	13675.09
685.053	13757.12
685.4	13683.45
685.748	13642.55
686.095	13628.09
686.443	13554.42
686.79	13429
687.138	13532.27
687.485	13554.64
687.832	13401.88
688.18	13452.95
688.527	13346.74
688.874	13248.89
689.221	13235.56
689.568	13231.94
689.915	13163.92
690.262	13109.91
690.609	13059.97
690.956	13003.92
691.303	13040.08
691.65	12889.8
691.997	12952.63
692.344	12821.56
692.69	12944.04
693.037	12953.98
693.383	12863.36
693.73	12872.63
694.077	12856.36
694.423	12775.91
694.769	12781.1
695.116	12808
695.462	12848.45
695.808	12722.12
696.155	12717.83
696.501	12601.9
696.847	12726.42
697.193	12626.08
697.539	12678.51
697.885	12537.95
698.231	12519.19
698.577	12569.13
698.923	12478.97
699.269	12602.8
699.614	12441.45
699.96	12471.28
700.306	12433.54
700.651	12321
700.997	12304.96
701.342	12321
701.688	12302.02
702.033	12259.31
702.379	12247.11
702.724	12211.18
703.069	12178.41
703.415	12066.77
703.76	12056.38
704.105	12004.85
704.45	11990.84
704.795	11871.3
705.14	11767.57
705.485	11850.51
705.83	11708.36
706.175	11716.73
706.52	11839.89
706.865	11653.45
707.209	11701.13
707.554	11643.51
707.899	11665.88
708.243	11527.58
708.588	11538.2
708.932	11501.59
709.277	11488.48
709.621	11488.48
709.966	11474.7
710.31	11470.4
710.654	11347.92
710.998	11385.89
711.342	11351.31
711.687	11334.36
712.031	11327.58
712.375	11226.12
712.719	11267.92
713.063	11260.47
713.407	11379.79
713.75	11254.14
714.094	11270.41
714.438	11197.64
714.782	11261.37
715.125	11167.36
715.469	11166.46
715.812	11209.62
716.156	11088.49
716.499	11145.22
716.843	11178.66
717.186	11049.62
717.53	11241.94
717.873	11144.09
718.216	11158.1
718.559	10965.33
718.902	10994.26
719.246	11041.49
719.589	10999.91
719.932	10888.27
720.275	10986.8
720.617	10943.19
720.96	10993.58
721.303	10965.33
721.646	10863.87
721.989	10812.34
722.331	10873.81
722.674	10825.9
723.016	10761.27
723.359	10767.82
723.701	10752.46
724.044	10620.26
724.386	10666.58
724.729	10647.38
725.071	10581.84
725.413	10622.29
725.755	10499.13
726.097	10551.56
726.439	10441.51
726.782	10470.2
727.124	10441.05
727.465	10445.57
727.807	10407.83
728.149	10337.55
728.491	10350.43
728.833	10394.5
729.175	10305.01
729.516	10440.38
729.858	10279.7
730.199	10258.23
730.541	10277.67
730.882	10307.27
731.224	10298.23
731.565	10185.92
731.906	10244.22
732.248	10259.81
732.589	10231.57
732.93	10232.02
733.271	10250.55
733.612	10197.22
733.953	10176.88
734.294	10175.07
734.635	10120.61
734.976	10163.77
735.317	10146.6
735.658	10166.03
735.999	10183.88
736.339	10148.18
736.68	10222.98
737.021	10103.66
737.361	10143.43
737.702	10163.09
738.042	10108.63
738.383	10141.17
738.723	10099.37
739.063	10141.17
739.404	10140.95
739.744	10101.85
740.084	10055.75
740.424	10069.31
740.764	9991.35
741.104	10054.85
741.444	9975.75
741.784	9909.77
742.124	9973.27
742.464	9926.49
742.804	9829.32
743.143	9892.82
743.483	9860.28
743.823	9803.33
744.162	9792.26
744.502	9853.5
744.841	9724.69
745.181	9809.66
745.52	9741.18
745.86	9743.44
746.199	9716.33
746.538	9614.63
746.877	9699.83
747.216	9663.22
747.556	9622.32
747.895	9630.23
748.234	9600.85
748.573	9584.8
748.911	9569.44
749.25	9548.87
749.589	9559.27
749.928	9541.42
750.267	9527.86
750.605	9519.27
750.944	9468.88
751.283	9444.92
751.621	9474.75
751.96	9414.87
752.298	9397.69
752.636	9446.73
752.975	9371.7
753.313	9358.6
753.651	9392.49
753.989	9305.94
754.327	9282.67
754.666	9197.7
755.004	9260.75
755.342	9289.67
755.679	9297.35
756.017	9171.26
756.355	9234.76
756.693	9161.76
757.031	9163.35
757.368	9068.21
757.706	9111.37
758.044	9057.13
758.381	9055.33
758.719	9020.98
759.056	9068.43
759.394	9008.32
