Data from foam2_polystyrene_foam_FLMS001491_00031.txt Node
Date: Wed Feb 08 10:57:52 GMT 2017
User: dcchb
Spectrometer: FLMS00149
Trigger mode: 0
Integration Time (sec): 2.000000E-2
Scans to average: 10
Electric dark correction enabled: true
Nonlinearity correction enabled: false
Boxcar width: 0
XAxis mode: Wavelengths
Number of Pixels in Spectrum: 2048
>>>>>Begin Spectral Data<<<<<
341.393	5.28
341.776	5.28
342.16	5.28
342.543	-67.03
342.927	-48.28
343.31	-68.16
343.693	-74.49
344.077	-54.38
344.46	-61.16
344.843	-30.2
345.226	-49.18
345.61	-21.84
345.993	-7.37
346.376	-15.51
346.759	-8.5
347.142	26.3
347.525	43.47
347.908	51.16
348.291	74.43
348.674	80.31
349.057	115.11
349.44	126.18
349.823	148.78
350.206	170.02
350.588	222.23
350.971	203.7
351.354	229.68
351.737	230.36
352.119	250.47
352.502	277.14
352.884	255.45
353.267	282.79
353.65	290.7
354.032	293.18
354.414	297.93
354.797	319.62
355.179	331.83
355.562	318.72
355.944	338.15
356.326	335.22
356.709	344.03
357.091	320.53
357.473	345.84
357.855	342.22
358.238	334.09
358.62	335.44
359.002	332.73
359.384	333.18
359.766	337.03
360.148	327.53
360.53	365.72
360.912	346.06
361.294	358.04
361.676	345.39
362.057	329.34
362.439	328.21
362.821	351.71
363.203	337.93
363.584	340.41
363.966	332.51
364.348	325.73
364.729	361.21
365.111	323.47
365.493	334.31
365.874	338.15
366.256	311.71
366.637	338.83
367.019	339.74
367.4	333.41
367.781	342.45
368.163	334.99
368.544	337.25
368.925	334.77
369.306	339.74
369.688	322.34
370.069	319.4
370.45	351.94
370.831	332.05
371.212	351.49
371.593	345.61
371.974	361.43
372.355	351.26
372.736	345.61
373.117	340.64
373.498	352.84
373.879	352.39
374.26	325.27
374.641	345.61
375.021	326.63
375.402	349
375.783	351.94
376.163	375.89
376.544	377.02
376.925	382
377.305	346.52
377.686	384.71
378.066	360.08
378.447	374.09
378.827	362.34
379.208	355.78
379.588	358.72
379.968	378.61
380.349	384.93
380.729	394.2
381.109	358.72
381.489	389
381.87	388.78
382.25	396.23
382.63	389
383.01	398.49
383.39	363.24
383.77	377.02
384.15	402.56
384.53	423.35
384.91	395.33
385.29	427.64
385.67	414.76
386.049	410.24
386.429	395.1
386.809	392.62
387.189	424.48
387.568	414.09
387.948	398.04
388.328	431.03
388.707	426.29
389.087	422.22
389.466	421.99
389.846	454.54
390.225	458.6
390.605	455.44
390.984	441.88
391.363	466.97
391.743	479.85
392.122	472.84
392.501	483.91
392.881	464.03
393.26	474.2
393.639	485.04
394.018	464.93
394.397	495.21
394.776	498.38
395.155	492.5
395.534	499.96
395.913	487.08
396.292	499.73
396.671	519.85
397.05	519.17
397.429	506.29
397.808	511.48
398.186	524.36
398.565	527.53
398.944	519.17
399.323	530.01
399.701	539.73
400.08	534.53
400.458	554.65
400.837	550.13
401.215	557.58
401.594	554.42
401.972	562.78
402.351	561.65
402.729	570.92
403.107	558.71
403.486	539.51
403.864	579.05
404.242	602.33
404.62	582.89
404.999	605.94
405.377	610.46
405.755	600.75
406.133	603.46
406.511	609.33
406.889	611.82
407.267	620.86
407.645	613.4
408.023	623.12
408.401	647.98
408.779	655.43
409.156	660.63
409.534	667.41
409.912	670.8
410.29	678.71
410.667	672.38
411.045	694.3
411.422	688.2
411.8	718.94
412.178	722.1
412.555	724.13
412.933	701.31
413.31	752.16
413.687	747.86
414.065	762.55
414.442	779.73
414.819	765.26
415.197	765.26
415.574	782.44
415.951	788.54
416.328	809.33
416.705	794.41
417.082	808.88
417.46	813.4
417.837	850.91
418.214	825.6
418.591	848.65
418.967	840.06
419.344	836.9
419.721	863.11
420.098	843.68
420.475	872.83
420.852	899.95
421.228	880.29
421.605	877.35
421.982	901.76
422.358	892.26
422.735	934.52
423.111	928.42
423.488	944.01
423.864	947.63
424.241	960.06
424.617	979.04
424.994	955.99
425.37	983.79
425.746	991.47
426.123	1009.55
426.499	1011.36
426.875	1014.97
427.251	1032.6
427.627	1039.38
428.003	1025.82
428.379	1081.41
428.756	1094.29
429.132	1095.2
429.507	1110.34
429.883	1093.16
430.259	1145.14
430.635	1158.47
431.011	1164.8
431.387	1165.03
431.763	1200.51
432.138	1209.32
432.514	1242.31
432.89	1216.78
433.265	1240.73
433.641	1282.76
434.016	1274.63
434.392	1299.03
434.767	1313.27
435.143	1343.55
435.518	1339.94
435.894	1333.61
436.269	1404.12
436.644	1381.07
437.02	1389.43
437.395	1395.3
437.77	1416.32
438.145	1430.1
438.52	1473.49
438.895	1453.15
439.271	1480.27
439.646	1509.88
440.021	1550.1
440.395	1532.7
440.77	1522.08
441.145	1513.49
441.52	1554.39
441.895	1550.33
442.27	1595.3
442.645	1582.64
443.019	1625.8
443.394	1620.38
443.769	1616.77
444.143	1611.57
444.518	1678.91
444.892	1660.38
445.267	1652.02
445.641	1706.71
446.016	1672.58
446.39	1729.98
446.764	1739.47
447.139	1720.72
447.513	1743.09
447.887	1790.77
448.262	1802.98
448.636	1784.67
449.01	1794.16
449.384	1824.44
449.758	1878.68
450.132	1890.66
450.506	1847.04
450.88	1898.34
451.254	1926.59
451.628	1902.86
452.002	1951.67
452.376	1962.52
452.75	1973.82
453.123	1959.36
453.497	2022.18
453.871	2042.97
454.244	2093.82
454.618	2087.26
454.992	2101.27
455.365	2113.48
455.739	2155.28
456.112	2178.11
456.486	2174.26
456.859	2251.1
457.232	2247.71
457.606	2259.46
457.979	2269.63
458.352	2329.97
458.725	2359.12
459.099	2351.21
459.472	2402.73
459.845	2414.48
460.218	2451.32
460.591	2465.56
460.964	2490.19
461.337	2533.58
461.71	2542.16
462.083	2609.96
462.456	2603.86
462.829	2580.58
463.201	2673.23
463.574	2689.28
463.947	2712.78
464.32	2749.62
464.692	2771.99
465.065	2838.2
465.438	2844.98
465.81	2878.65
466.183	2897.86
466.555	2955.71
466.928	2955.49
467.3	2961.36
467.672	3022.6
468.045	3111.42
468.417	3123.62
468.789	3103.96
469.161	3165.2
469.534	3200.23
469.906	3301.24
470.278	3272.99
470.65	3360.45
471.022	3376.04
471.394	3512.53
471.766	3508.92
472.138	3529.48
472.51	3581.69
472.882	3694.68
473.253	3718.86
473.625	3776.93
473.997	3776.48
474.369	3825.75
474.74	3856.93
475.112	3955.91
475.484	4037.94
475.855	4069.36
476.227	4062.58
476.598	4157.49
476.97	4264.61
477.341	4376.69
477.713	4352.96
478.084	4455.56
478.455	4528.33
478.827	4641.77
479.198	4723.58
479.569	4762.67
479.94	4865.95
480.311	4933.29
480.682	5047.41
481.053	5168.08
481.424	5205.15
481.795	5271.13
482.166	5329.44
482.537	5354.07
482.908	5473.61
483.279	5540.5
483.65	5693.49
484.021	5798.58
484.391	5841.97
484.762	5890.1
485.133	5907.05
485.503	5979.36
485.874	6132.8
486.244	6174.39
486.615	6336.64
486.985	6344.55
487.356	6528.05
487.726	6581.61
488.097	6659.57
488.467	6734.6
488.837	6856.18
489.207	6938.66
489.578	7027.7
489.948	7110.18
490.318	7167.13
490.688	7193.12
491.058	7317.18
491.428	7530.96
491.798	7447.35
492.168	7654.8
492.538	7706.77
492.908	7790.39
493.278	7894.34
493.648	7938.63
494.017	8072.41
494.387	8174.33
494.757	8172.98
495.126	8290.94
495.496	8324.84
495.866	8357.61
496.235	8515.79
496.605	8580.88
496.974	8599.18
497.344	8695.45
497.713	8719.4
498.082	8811.83
498.452	8896.12
498.821	8955.56
499.19	8957.36
499.559	9062.67
499.928	9121.65
500.298	9202.78
500.667	9352.83
501.036	9314.87
501.405	9450.46
501.774	9438.71
502.143	9513.28
502.512	9635.54
502.88	9727.29
503.249	9725.03
503.618	9774.52
503.987	9829.88
504.356	9880.5
504.724	9953.72
505.093	9966.38
505.462	10117.78
505.83	10139.03
506.199	10233.49
506.567	10387.38
506.936	10388.51
507.304	10547.38
507.672	10569.3
508.041	10652.01
508.409	10717.77
508.777	10828.95
509.145	10867.6
509.514	10948.27
509.882	11026.46
510.25	11084.31
510.618	11093.13
510.986	11193.01
511.354	11334.93
511.722	11381.93
512.09	11492.89
512.458	11450.86
512.826	11634.13
513.193	11697.18
513.561	11774.92
513.929	11908.7
514.297	11911.86
514.664	12112.76
515.032	12061.46
515.4	12198.63
515.767	12246.09
516.135	12451.06
516.502	12281.57
516.869	12645.63
517.237	12630.04
517.604	12637.27
517.972	12844.27
518.339	12913.19
518.706	12911.38
519.073	12940.76
519.44	13103.92
519.808	13244.71
520.175	13255.78
520.542	13464.59
520.909	13551.59
521.276	13576.9
521.643	13776.22
522.009	13838.36
522.376	13949.77
522.743	13991.58
523.11	14104.8
523.477	14292.14
523.843	14433.83
524.21	14536.43
524.577	14736.87
524.943	14680.15
525.31	14810.77
525.676	14978.9
526.043	14957.88
526.409	15065
526.776	15313.13
527.142	15337.08
527.508	15353.13
527.874	15630.86
528.241	15739.56
528.607	15722.38
528.973	15834.47
529.339	15775.94
529.705	16080.57
530.071	16128.47
530.437	16220.45
530.803	16374.34
531.169	16381.12
531.535	16408.24
531.901	16503.15
532.267	16579.76
532.632	16730.72
532.998	16866.31
533.364	16925.52
533.73	16991.28
534.095	17095.23
534.461	17197.82
534.826	17187.43
535.192	17272.62
535.557	17495.22
535.923	17526.63
536.288	17518.27
536.653	17660.41
537.019	17549
537.384	17708.55
537.749	17809.33
538.114	17868.54
538.479	17863.12
538.845	18005.26
539.21	17993.96
539.575	18123
539.94	18162.55
540.305	18396.89
540.67	18297.91
541.034	18339.94
541.399	18548.52
541.764	18560.95
542.129	18646.83
542.494	18654.51
542.858	18818.8
543.223	18724.11
543.587	18935.41
543.952	18957.33
544.316	19007.49
544.681	18969.53
545.045	19120.49
545.41	19241.84
545.774	19218.56
546.138	19229.64
546.503	19339.46
546.867	19407.94
547.231	19665.56
547.595	19643.18
547.959	19722.73
548.324	19795.72
548.688	19875.49
549.052	19925.44
549.416	20013.12
549.779	19890.86
550.143	20091.53
550.507	20123.4
550.871	20229.16
551.235	20243.85
551.599	20437.51
551.962	20386.89
552.326	20471.64
552.689	20715.02
553.053	20527.68
553.417	20616.04
553.78	20897.39
554.143	20761.57
554.507	21038.85
554.87	21099.87
555.234	21204.95
555.597	21155.91
555.96	21244.72
556.323	21352.97
556.686	21321.78
557.05	21583.7
557.413	21583.47
557.776	21686.97
558.139	21799.74
558.502	21842.9
558.865	21870.24
559.228	22143.01
559.59	22175.09
559.953	22267.75
560.316	22466.61
560.679	22432.72
561.041	22601.52
561.404	22663.9
561.767	22837
562.129	22752.48
562.492	22933.72
562.854	22978.24
563.217	23149.98
563.579	23167.61
563.941	23302.07
564.304	23557.43
564.666	23457.77
565.028	23564.89
565.39	23736.64
565.753	23747.48
566.115	23941.83
566.477	24013.24
566.839	24060.47
567.201	24287.36
567.563	24248.71
567.925	24505.66
568.287	24557.41
568.648	24618.87
569.01	24774.57
569.372	24752.43
569.734	24816.61
570.095	24979.54
570.457	25030.61
570.819	25213.43
571.18	25146.99
571.542	25391.96
571.903	25308.35
572.265	25411.39
572.626	25551.28
572.987	25460.21
573.349	25605.74
573.71	25677.38
574.071	25779.52
574.432	25793.98
574.794	25995.79
575.155	26056.8
575.516	26016.35
575.877	26221.99
576.238	26107.42
576.599	26298.38
576.96	26305.61
577.32	26398.49
577.681	26520.52
578.042	26513.29
578.403	26405.27
578.763	26510.35
579.124	26527.75
579.485	26672.38
579.845	26720.06
580.206	26641.42
580.566	26702.66
580.927	26715.99
581.287	26847.06
581.648	26698.37
582.008	26960.73
582.368	26833.28
582.728	26847.74
583.089	26796.67
583.449	26833.5
583.809	26941.3
584.169	26988.53
584.529	26844.8
584.889	27167.96
585.249	26989.88
585.609	26873.5
585.969	27024.46
586.329	26949.66
586.688	26876.21
587.048	26926.16
587.408	26873.28
587.768	26825.37
588.127	27009.54
588.487	26818.59
588.846	27162.08
589.206	26913.95
589.565	27002.31
589.925	27141.52
590.284	27055.19
590.643	27082.31
591.003	27025.59
591.362	27246.83
591.721	27162.53
592.08	27073.27
592.44	27215.87
592.799	27165.47
593.158	27072.14
593.517	27044.8
593.876	27204.34
594.235	27120.05
594.593	27000.73
594.952	27230.1
595.311	27192.36
595.67	27175.42
596.029	27420.38
596.387	27378.57
596.746	27460.83
597.104	27353.94
597.463	27340.83
597.822	27437.1
598.18	27336.32
598.538	27358.69
598.897	27455.18
599.255	27358.69
599.613	27599.81
599.972	27476.88
600.33	27552.81
600.688	27363.89
601.046	27663.54
601.404	27580.83
601.762	27568.4
602.12	27705.34
602.478	27668.96
602.836	27685.46
603.194	27572.47
603.552	27649.08
603.91	27633.03
604.268	27784.89
604.625	27613.82
604.983	27805.68
605.341	27696.53
605.698	27889.52
606.056	27864.44
606.413	27855.17
606.771	28033.02
607.128	27991.67
607.485	27808.62
607.843	27894.72
608.2	27944.66
608.557	28074.15
608.914	27947.15
609.272	28146.01
609.629	28146.24
609.986	28177.42
610.343	28156.86
610.7	28334.48
611.057	28367.02
611.414	28236.86
611.771	28318.66
612.127	28485.44
612.484	28414.48
612.841	28503.06
613.198	28308.94
613.554	28519.79
613.911	28553.68
614.267	28486.79
614.624	28447.25
614.98	28578.32
615.337	28669.84
615.693	28536.51
616.05	28563.18
616.406	28767.69
616.762	28560.01
617.118	28567.02
617.475	28657.86
617.831	28729.72
618.187	28734.02
618.543	28739.22
618.899	28909.61
619.255	28909.83
619.611	28833.9
619.967	29030.51
620.323	29017.85
620.678	28907.12
621.034	28656.96
621.39	28912.09
621.746	28888.14
622.101	29169.94
622.457	28918.19
622.812	28956.61
623.168	29018.76
623.523	29012.66
623.879	28978.76
624.234	28856.73
624.589	29022.82
624.945	29050.17
625.3	29034.12
625.655	28869.38
626.01	29024.86
626.365	28982.15
626.72	28936.05
627.075	28905.31
627.43	28819.67
627.785	28777.63
628.14	28868.7
628.495	28784.64
628.85	28820.57
629.205	28799.55
629.559	28944.63
629.914	28708.26
630.269	28773.57
630.623	28607.69
630.978	28614.47
631.332	28736.73
631.687	28776.96
632.041	28566.57
632.396	28593.23
632.75	28451.54
633.104	28587.36
633.459	28367.7
633.813	28427.13
634.167	28523.4
634.521	28473.91
634.875	28389.39
635.229	28292.22
635.583	28143.53
635.937	28231.43
636.291	28265.56
636.645	28183.07
636.999	28100.36
637.352	28094.49
637.706	28020.14
638.06	28210.42
638.413	28005.22
638.767	27927.94
639.121	28005.22
639.474	27764.78
639.828	27943.98
640.181	27827.6
640.534	27833.25
640.888	27776.3
641.241	27665.12
641.594	27711.22
641.947	27856.98
642.301	27595.07
642.654	27602.52
643.007	27669.87
643.36	27435.07
643.713	27499.47
644.066	27675.97
644.419	27347.61
644.771	27273.27
645.124	27080.05
645.477	26979.71
645.83	26833.73
646.182	26708.99
646.535	26540.18
646.888	26598.03
647.24	26492.72
647.593	26575.66
647.945	26477.81
648.298	26401.65
648.65	26339.05
649.002	26226.74
649.355	26243.24
649.707	26232.62
650.059	26429.45
650.411	26805.26
650.763	26744.01
651.115	26937
651.467	26897.23
651.819	26951.69
652.171	26802.09
652.523	26879.38
652.875	26782.21
653.227	26654.07
653.578	26800.28
653.93	26739.49
654.282	26690
654.633	26603.68
654.985	26576.11
655.337	26635.77
655.688	26697.01
656.039	26680.97
656.391	26505.15
656.742	26485.72
657.094	26496.11
657.445	26509.22
657.796	26450.01
658.147	26395.32
658.498	26417.92
658.849	26408.66
659.2	26454.53
659.551	26390.8
659.902	26376.79
660.253	26429.67
660.604	26463.8
660.955	26197.36
661.306	26310.13
661.656	26278.26
662.007	26242.56
662.358	26307.42
662.708	26282.78
663.059	26264.48
663.409	26120.08
663.76	26278.49
664.11	26137.02
664.461	26334.76
664.811	26228.77
665.161	26162.33
665.511	26156.46
665.862	26101.77
666.212	26214.76
666.562	26292.27
666.912	26171.83
667.262	26136.57
667.612	26088.44
667.962	26046.18
668.312	25988.55
668.662	26215.67
669.011	25950.59
669.361	25946.97
669.711	26033.07
670.06	25881.21
670.41	25947.2
670.76	25952.85
671.109	26021.1
671.459	25891.38
671.808	25884.38
672.157	25963.02
672.507	25836.92
672.856	25800.76
673.205	25793.76
673.554	25857.71
673.904	25793.53
674.253	25926.18
674.602	25859.52
674.951	25327.55
675.3	25132.31
675.649	25753.31
675.998	25581.33
676.346	25551.05
676.695	25749.46
677.044	25552.63
677.393	25586.53
677.741	25582.69
678.09	25567.32
678.438	25531.62
678.787	25625.63
679.135	25501.79
679.484	25328.23
679.832	25494.56
680.181	25420.89
680.529	25390.83
680.877	25190.83
681.225	25243.04
681.573	25392.64
681.922	25163.49
682.27	25077.17
682.618	25005.3
682.966	25007.79
683.314	24905.42
683.661	24902.03
684.009	24804.4
684.357	24723.95
684.705	24748.36
685.053	24723.95
685.4	24604.41
685.748	24488.03
686.095	24483.96
686.443	24401.03
686.79	24354.92
687.138	24383.4
687.485	24349.5
687.832	24223.4
688.18	24279.67
688.527	24079.23
688.874	24106.12
689.221	24119
689.568	24047.36
689.915	24043.52
690.262	23975.27
690.609	23900.02
690.956	23769.63
691.303	23769.4
691.65	23622.74
691.997	23648.73
692.344	23563.98
692.69	23418
693.037	23444.89
693.383	23333.93
693.73	23420.26
694.077	23266.14
694.423	23319.25
694.769	23184.11
695.116	23220.49
695.462	23065.92
695.808	22985.24
696.155	23032.93
696.501	22892.14
696.847	22858.24
697.193	22636.33
697.539	22865.02
697.885	22566.95
698.231	22453.05
698.577	22492.83
698.923	22488.98
699.269	22370.57
699.614	22339.84
699.96	22234.08
700.306	22153.4
700.651	22058.94
700.997	22076.57
701.342	21973.97
701.688	21879.28
702.033	21908.66
702.379	21936.68
702.724	21926.97
703.069	21942.56
703.415	21621.44
703.76	21705.5
704.105	21728.78
704.45	21705.05
704.795	21515
705.14	21500.31
705.485	21430.48
705.83	21376.7
706.175	21426.41
706.52	21351.39
706.865	21229.36
707.209	21252.41
707.554	21070.04
707.899	21066.65
708.243	21102.81
708.588	20950.95
708.932	20819.2
709.277	20764.74
709.621	20812.64
709.966	20643.61
710.31	20505.76
710.654	20473.9
710.998	20704.17
711.342	20548.92
711.687	20470.28
712.031	20450.85
712.375	20301.47
712.719	20433.45
713.063	20324.52
713.407	20427.8
713.75	20200.68
714.094	20275.48
714.438	20193.68
714.782	20213.56
715.125	20083.17
715.469	20154.36
715.812	19974.93
716.156	19983.29
716.499	19987.81
716.843	19875.04
717.186	19795.04
717.53	19879.34
717.873	19828.04
718.216	19852.67
718.559	19648.16
718.902	19573.36
719.246	19619.23
719.589	19454.49
719.932	19438.22
720.275	19479.8
720.617	19442.29
720.96	19387.6
721.303	19384.21
721.646	19347.37
721.989	19230.54
722.331	19347.82
722.674	19289.97
723.016	19313.7
723.359	19160.48
723.701	19169.52
724.044	19134.5
724.386	18998.23
724.729	19038.23
725.071	19053.37
725.413	18972.02
725.755	18932.92
726.097	18849.76
726.439	18762.08
726.782	18780.16
727.124	18943.77
727.465	18733.38
727.807	18828.97
728.149	18706.71
728.491	18604.57
728.833	18765.69
729.175	18608.18
729.516	18665.36
729.858	18489.99
730.199	18587.84
730.541	18485.7
730.882	18523.44
731.224	18470.11
731.565	18282.54
731.906	18308.98
732.248	18339.49
732.589	18147.86
732.93	18198.7
733.271	18177.91
733.612	18194.86
733.953	18171.81
734.294	18122.77
734.635	18081.64
734.976	18022.21
735.317	18003.45
735.658	17858.15
735.999	17971.82
736.339	17971.82
736.68	18023.34
737.021	17911.48
737.361	17882.33
737.702	17912.16
738.042	17759.62
738.383	17746.28
738.723	17860.41
739.063	17815.21
739.404	17842.33
739.744	17753.97
740.084	17765.27
740.424	17716.46
740.764	17541.77
741.104	17729.56
741.444	17642.11
741.784	17517.59
742.124	17561.2
742.464	17609.79
742.804	17471.49
743.143	17384.49
743.483	17436.01
743.823	17477.37
744.162	17372.28
744.502	17358.27
744.841	17333.64
745.181	17298.39
745.52	17242.8
745.86	17282.57
746.199	17238.05
746.538	17078.73
746.877	17186.98
747.216	17125.06
747.556	17176.58
747.895	17098.39
748.234	17005.74
748.573	16984.72
748.911	16918.51
749.25	16833.09
749.589	16811.39
749.928	16881.9
750.267	16824.73
750.605	16838.74
750.944	16868.34
751.283	16740.66
751.621	16799.87
751.96	16720.78
752.298	16642.13
752.636	16603.94
752.975	16573.21
753.313	16504.74
753.651	16561.46
753.989	16505.64
754.327	16392.87
754.666	16257.06
755.004	16400.11
