Data from foam1_polythene_foam_FLMS001491_00018.txt Node
Date: Wed Feb 08 10:54:28 GMT 2017
User: dcchb
Spectrometer: FLMS00149
Trigger mode: 0
Integration Time (sec): 2.000000E-2
Scans to average: 10
Electric dark correction enabled: true
Nonlinearity correction enabled: false
Boxcar width: 0
XAxis mode: Wavelengths
Number of Pixels in Spectrum: 2048
>>>>>Begin Spectral Data<<<<<
341.393	-15.75
341.776	-15.75
342.16	-15.75
342.543	-54.39
342.927	-63.43
343.31	-66.59
343.693	-69.53
344.077	-76.31
344.46	-72.47
344.843	-34.5
345.226	-39.02
345.61	-18.91
345.993	-19.82
346.376	9.79
346.759	2.56
347.142	12.5
347.525	52.72
347.908	55.44
348.291	70.35
348.674	76.45
349.057	117.36
349.44	136.79
349.823	149.67
350.206	145.6
350.588	177.02
350.971	185.38
351.354	214.3
351.737	203.68
352.119	238.71
352.502	256.79
352.884	271.48
353.267	271.7
353.65	270.35
354.032	268.09
354.414	298.82
354.797	288.2
355.179	302.44
355.562	331.36
355.944	314.41
356.326	315.77
356.709	314.86
357.091	325.94
357.473	335.66
357.855	337.91
358.238	317.58
358.62	320.06
359.002	321.19
359.384	306.73
359.766	318.93
360.148	316.22
360.53	320.74
360.912	326.62
361.294	321.64
361.676	313.96
362.057	322.55
362.439	328.2
362.821	318.93
363.203	301.08
363.584	308.99
363.966	305.83
364.348	305.83
364.729	302.44
365.111	312.38
365.493	303.34
365.874	308.99
366.256	301.76
366.637	326.84
367.019	287.97
367.4	296.79
367.781	298.59
368.163	289.78
368.544	308.09
368.925	316.67
369.306	330.23
369.688	276
370.069	298.14
370.45	307.63
370.831	301.98
371.212	305.37
371.593	292.94
371.974	319.16
372.355	303.11
372.736	309.22
373.117	313.73
373.498	301.98
373.879	295.66
374.26	271.7
374.641	304.7
375.021	304.02
375.402	309.22
375.783	334.75
376.163	331.81
376.544	300.4
376.925	320.74
377.305	320.74
377.686	321.87
378.066	301.31
378.447	308.54
378.827	313.96
379.208	303.34
379.588	315.77
379.968	311.02
380.349	313.06
380.729	318.93
381.109	320.74
381.489	314.86
381.87	330.91
382.25	327.52
382.63	318.93
383.01	332.94
383.39	334.98
383.77	347.86
384.15	344.02
384.53	336.78
384.91	349.89
385.29	332.04
385.67	357.12
386.049	347.63
386.429	336.11
386.809	325.26
387.189	338.59
387.568	328.2
387.948	347.41
388.328	364.81
388.707	353.06
389.087	347.86
389.466	348.99
389.846	336.56
390.225	350.34
390.605	345.15
390.984	346.05
391.363	353.51
391.743	343.56
392.122	360.06
392.501	356.22
392.881	355.99
393.26	344.02
393.639	374.3
394.018	369.1
394.397	347.41
394.776	374.52
395.155	358.03
395.534	367.74
395.913	379.72
396.292	354.19
396.671	349.21
397.05	355.99
397.429	392.6
397.808	374.98
398.186	348.54
398.565	377.46
398.944	363
399.323	358.71
399.701	371.36
400.08	375.65
400.458	371.81
400.837	380.85
401.215	373.85
401.594	373.39
401.972	391.7
402.351	395.31
402.729	383.79
403.107	404.13
403.486	383.79
403.864	369.1
404.242	396.44
404.62	417.23
404.999	384.02
405.377	393.28
405.755	394.41
406.133	396.67
406.511	410.46
406.889	408.65
407.267	398.7
407.645	410.91
408.023	420.85
408.401	412.04
408.779	409.33
409.156	425.6
409.534	434.64
409.912	424.47
410.29	432.38
410.667	426.27
411.045	409.33
411.422	426.27
411.8	447.06
412.178	418.59
412.555	423.34
412.933	443.67
413.31	435.09
413.687	450.91
414.065	430.79
414.442	440.96
414.819	454.07
415.197	440.29
415.574	465.14
415.951	459.04
416.328	476.22
416.705	464.24
417.082	451.13
417.46	475.99
417.837	471.7
418.214	461.98
418.591	484.35
418.967	493.62
419.344	471.02
419.721	459.72
420.098	474.86
420.475	467.4
420.852	459.72
421.228	473.73
421.605	468.76
421.982	486.16
422.358	498.59
422.735	476.67
423.111	506.5
423.488	478.02
423.864	494.07
424.241	497.46
424.617	497.23
424.994	498.36
425.37	517.57
425.746	526.16
426.123	510.79
426.499	539.49
426.875	522.99
427.251	500.85
427.627	538.59
428.003	543.79
428.379	548.76
428.756	543.56
429.132	536.78
429.507	553.73
429.883	566.16
430.259	563.67
430.635	550.79
431.011	573.61
431.387	570.23
431.763	574.52
432.138	581.75
432.514	581.98
432.89	576.78
433.265	585.37
433.641	586.72
434.016	600.05
434.392	614.74
434.767	603.44
435.143	597.8
435.518	611.81
435.894	620.85
436.269	615.42
436.644	613.61
437.02	626.72
437.395	635.99
437.77	646.16
438.145	653.39
438.52	659.94
438.895	648.64
439.271	657.23
439.646	654.52
440.021	653.61
440.395	657.91
440.77	666.49
441.145	675.99
441.52	692.26
441.895	684.35
442.27	698.81
442.645	682.76
443.019	700.39
443.394	709.88
443.769	700.62
444.143	725.02
444.518	711.24
444.892	715.31
445.267	749.66
445.641	740.39
446.016	748.75
446.39	759.15
446.764	739.71
447.139	744.01
447.513	764.8
447.887	755.08
448.262	786.72
448.636	770.22
449.01	779.26
449.384	766.6
449.758	766.38
450.132	792.37
450.506	795.53
450.88	784.46
451.254	780.62
451.628	838.92
452.002	801.86
452.376	817.68
452.75	814.29
453.123	839.37
453.497	826.72
453.871	834.4
454.244	825.13
454.618	867.17
454.992	865.58
455.365	856.55
455.739	829.88
456.112	883.89
456.486	870.1
456.859	861.29
457.232	870.1
457.606	875.08
457.979	890.89
458.352	877.56
458.725	902.42
459.099	887.5
459.472	905.13
459.845	897.9
460.218	909.88
460.591	919.14
460.964	918.01
461.337	920.5
461.71	915.53
462.083	933.38
462.456	943.32
462.829	939.71
463.201	939.48
463.574	962.31
463.947	940.61
464.32	948.29
464.692	991.46
465.065	976.32
465.438	998.01
465.81	976.54
466.183	999.37
466.555	1019.7
466.928	1026.48
467.3	1008.41
467.672	1014.96
468.045	1034.85
468.417	1038.69
468.789	1042.53
469.161	1061.74
469.534	1103.32
469.906	1082.3
470.278	1120.27
470.65	1096.54
471.022	1107.84
471.394	1101.96
471.766	1121.62
472.138	1124.79
472.51	1161.17
472.882	1164.79
473.253	1170.89
473.625	1197.1
473.997	1183.09
474.369	1190.77
474.74	1198.01
475.112	1204.56
475.484	1217.89
475.855	1256.99
476.227	1253.82
476.598	1275.29
476.97	1281.62
477.341	1311.67
477.713	1336.76
478.084	1350.32
478.455	1355.52
478.827	1336.31
479.198	1378.11
479.569	1382.63
479.94	1402.97
480.311	1428.28
480.682	1456.08
481.053	1499.24
481.424	1494.04
481.795	1520.93
482.166	1516.87
482.537	1529.75
482.908	1551.89
483.279	1588.73
483.65	1570.42
484.021	1601.84
484.391	1581.72
484.762	1620.59
485.133	1656.07
485.503	1656.3
485.874	1683.87
486.244	1720.48
486.615	1720.48
486.985	1753.02
487.356	1785.79
487.726	1805.9
488.097	1812.9
488.467	1824.88
488.837	1856.74
489.207	1853.81
489.578	1855.39
489.948	1873.47
490.318	1909.4
490.688	1955.5
491.058	1975.16
491.428	1952.34
491.798	1991.2
492.168	2015.84
492.538	2034.37
492.908	2044.99
493.278	2099.22
493.648	2034.59
494.017	2130.86
494.387	2109.85
494.757	2119.56
495.126	2155.72
495.496	2148.26
495.866	2175.61
496.235	2191.65
496.605	2197.53
496.974	2232.33
497.344	2248.15
497.713	2269.84
498.082	2214.48
498.452	2267.36
498.821	2284.3
499.19	2304.87
499.559	2312.55
499.928	2315.26
500.298	2352.78
500.667	2329.95
501.036	2351.42
501.405	2377.41
501.774	2376.05
502.143	2387.13
502.512	2425.77
502.88	2438.2
503.249	2421.02
503.618	2448.59
503.987	2468.03
504.356	2488.14
504.724	2485.65
505.093	2499.44
505.462	2543.05
505.83	2550.74
506.199	2552.77
506.567	2598.87
506.936	2595.03
507.304	2590.06
507.672	2632.09
508.041	2644.97
508.409	2667.8
508.777	2691.98
509.145	2679.1
509.514	2736.27
509.882	2730.62
510.25	2678.19
510.618	2697.63
510.986	2742.15
511.354	2752.77
511.722	2804.06
512.09	2812.88
512.458	2861.46
512.826	2863.05
513.193	2846.1
513.561	2863.27
513.929	2862.14
514.297	2910.5
514.664	2910.73
515.032	2969.71
515.4	2984.85
515.767	2974.91
516.135	2983.95
516.502	2998.64
516.869	3002.48
517.237	3067.56
517.604	3046.32
517.972	3088.8
518.339	3152.76
518.706	3115.02
519.073	3117.28
519.44	3115.69
519.808	3137.62
520.175	3148.91
520.542	3222.13
520.909	3235.24
521.276	3217.16
521.643	3243.15
522.009	3330.38
522.376	3331.51
522.743	3295.13
523.11	3369.25
523.477	3366.31
523.843	3398.63
524.21	3447.66
524.577	3475.69
524.943	3499.87
525.31	3526.98
525.676	3510.94
526.043	3553.2
526.409	3571.5
526.776	3605.17
527.142	3607.89
527.508	3611.95
527.874	3661.22
528.241	3691.05
528.607	3688.11
528.973	3696.02
529.339	3701.89
529.705	3728.79
530.071	3755.45
530.437	3752.51
530.803	3818.5
531.169	3798.16
531.535	3882.23
531.901	3859.63
532.267	3891.04
532.632	3898.05
532.998	3942.34
533.364	3902.34
533.73	3963.13
534.095	3981.66
534.461	3984.6
534.826	4056.01
535.192	4040.87
535.557	4072.73
535.923	4013.75
536.288	4078.83
536.653	4080.87
537.019	4087.87
537.384	4063.92
537.749	4139.4
538.114	4137.36
538.479	4167.87
538.845	4207.42
539.21	4166.29
539.575	4209.9
539.94	4241.09
540.305	4215.1
540.67	4229.34
541.034	4312.05
541.399	4249.68
541.764	4280.86
542.129	4326.96
542.494	4349.56
542.858	4394.08
543.223	4343.69
543.587	4375.32
543.952	4400.86
544.316	4400.63
544.681	4386.62
545.045	4426.85
545.41	4437.24
545.774	4446.96
546.138	4461.42
546.503	4508.2
546.867	4479.5
547.231	4557.01
547.595	4539.39
547.959	4513.4
548.324	4542.1
548.688	4553.4
549.052	4622.1
549.416	4625.03
549.779	4575.54
550.143	4656.45
550.507	4640.17
550.871	4654.86
551.235	4664.58
551.599	4721.53
551.962	4642.43
552.326	4737.8
552.689	4781.64
553.053	4750.23
553.417	4790.68
553.78	4844.24
554.143	4874.07
554.507	4854.86
554.87	4893.73
555.234	4857.34
555.597	4881.98
555.96	4890.56
556.323	4947.51
556.686	4978.24
557.05	4959.04
557.413	5023.67
557.776	5013.5
558.139	5038.36
558.502	5095.98
558.865	5053.5
559.228	5130.11
559.59	5119.71
559.953	5126.72
560.316	5233.61
560.679	5247.16
561.041	5254.17
561.404	5285.13
561.767	5351.34
562.129	5319.03
562.492	5384.11
562.854	5345.92
563.217	5357.9
563.579	5407.16
563.941	5433.37
564.304	5439.02
564.666	5505.24
565.028	5514.95
565.39	5555.18
565.753	5578.91
566.115	5612.13
566.477	5604.22
566.839	5630.66
567.201	5726.25
567.563	5676.31
567.925	5681.96
568.287	5683.76
568.648	5764.21
569.01	5783.65
569.372	5810.31
569.734	5740.03
570.095	5846.7
570.457	5825.68
570.819	5861.84
571.18	5859.13
571.542	5858.67
571.903	5874.27
572.265	5929.41
572.626	5962.17
572.987	6005.79
573.349	6045.34
573.71	6035.39
574.071	6029.97
574.432	6088.5
574.794	6083.07
575.155	6091.21
575.516	6071.78
575.877	6102.51
576.238	6100.48
576.599	6192
576.96	6178.21
577.32	6230.64
577.681	6222.73
578.042	6209.17
578.403	6227.03
578.763	6194.71
579.124	6212.79
579.485	6210.75
579.845	6225.44
580.206	6241.26
580.566	6255.5
580.927	6207.59
581.287	6290.98
581.648	6265.89
582.008	6297.76
582.368	6257.08
582.728	6210.53
583.089	6283.3
583.449	6248.72
583.809	6288.49
584.169	6368.72
584.529	6297.08
584.889	6357.87
585.249	6376.63
585.609	6290.3
585.969	6340.24
586.329	6290.3
586.688	6331.88
587.048	6277.65
587.408	6309.28
587.768	6326.91
588.127	6348.6
588.487	6301.6
588.846	6345.67
589.206	6329.62
589.565	6366.23
589.925	6355.61
590.284	6344.54
590.643	6310.87
591.003	6330.53
591.362	6362.84
591.721	6317.64
592.08	6356.74
592.44	6383.41
592.799	6389.51
593.158	6375.04
593.517	6353.58
593.876	6364.42
594.235	6348.15
594.593	6391.99
594.952	6380.92
595.311	6367.13
595.67	6375.27
596.029	6374.82
596.387	6425.44
596.746	6408.49
597.104	6366.23
597.463	6387.93
597.822	6435.83
598.18	6393.35
598.538	6428.83
598.897	6449.62
599.255	6394.48
599.613	6436.29
599.972	6475.61
600.33	6437.87
600.688	6418.21
601.046	6430.18
601.404	6479.22
601.762	6434.25
602.12	6522.38
602.478	6447.13
602.836	6479.9
603.194	6431.31
603.552	6467.47
603.91	6447.36
604.268	6458.88
604.625	6492.1
604.983	6513.57
605.341	6500.92
605.698	6492.56
606.056	6516.28
606.413	6521.93
606.771	6516.51
607.128	6527.81
607.485	6497.53
607.843	6536.85
608.2	6560.12
608.557	6554.7
608.914	6535.49
609.272	6540.92
609.629	6599.22
609.986	6552.89
610.343	6581.37
610.7	6624.3
611.057	6602.83
611.414	6556.51
611.771	6617.07
612.127	6623.4
612.484	6557.19
612.841	6646.68
613.198	6595.83
613.554	6595.38
613.911	6661.36
614.267	6655.71
614.624	6665.43
614.98	6680.12
615.337	6670.4
615.693	6672.66
616.05	6607.35
616.406	6625.43
616.762	6674.92
617.118	6668.37
617.475	6665.21
617.831	6671.53
618.187	6665.66
618.543	6697.75
618.899	6703.62
619.255	6644.19
619.611	6642.83
619.967	6733
620.323	6731.19
620.678	6698.2
621.034	6689.39
621.39	6691.42
621.746	6627.69
622.101	6699.56
622.457	6689.84
622.812	6704.98
623.168	6756.96
623.523	6707.01
623.879	6731.42
624.234	6669.27
624.589	6673.57
624.945	6716.05
625.3	6664.53
625.655	6709.05
626.01	6665.43
626.365	6695.71
626.72	6611.65
627.075	6684.19
627.43	6662.95
627.785	6716.05
628.14	6690.52
628.495	6660.69
628.85	6672.44
629.205	6581.37
629.559	6656.84
629.914	6604.19
630.269	6620.46
630.623	6650.97
630.978	6540.24
631.332	6607.58
631.687	6653
632.041	6622.04
632.396	6607.58
632.75	6588.15
633.104	6584.76
633.459	6546.79
633.813	6561.03
634.167	6547.92
634.521	6541.37
634.875	6570.75
635.229	6528.71
635.583	6471.99
635.937	6495.95
636.291	6458.43
636.645	6496.17
636.999	6508.83
637.352	6534.59
637.706	6476.51
638.06	6453.23
638.413	6441.71
638.767	6423.86
639.121	6434.25
639.474	6345.21
639.828	6410.98
640.181	6426.79
640.534	6433.35
640.888	6365.1
641.241	6359.68
641.594	6344.54
641.947	6405.78
642.301	6315.61
642.654	6375.95
643.007	6312.22
643.36	6337.98
643.713	6349.28
644.066	6368.72
644.419	6309.96
644.771	6255.27
645.124	6113.81
645.477	6095.28
645.83	6060.25
646.182	6050.08
646.535	6086.69
646.888	6195.39
647.24	6113.81
647.593	6229.06
647.945	6147.25
648.298	6067.03
648.65	6144.54
649.002	6125.11
649.355	6107.93
649.707	6068.39
650.059	6061.83
650.411	6103.86
650.763	6069.74
651.115	6178.44
651.467	6114.03
651.819	6123.53
652.171	6192.22
652.523	6121.72
652.875	6092.79
653.227	6074.71
653.578	6136.86
653.93	6095.05
654.282	6095.96
654.633	6104.99
654.985	6071.1
655.337	6101.83
655.688	6116.07
656.039	6103.86
656.391	6013.25
656.742	6060.7
657.094	6059.57
657.445	6085.79
657.796	6080.14
658.147	6106.8
658.498	6065.67
658.849	6025.9
659.2	6064.54
659.551	6020.03
659.902	6027.48
660.253	6067.03
660.604	6068.39
660.955	5959.46
661.306	6008.5
661.656	6004.21
662.007	6012.79
662.358	5995.39
662.708	5992.46
663.059	5975.28
663.409	5909.07
663.76	5994.04
664.11	5985.22
664.461	6030.65
664.811	5985.22
665.161	6007.14
665.511	5949.97
665.862	5971.89
666.212	5947.94
666.562	5907.94
666.912	5932.57
667.262	5940.93
667.612	5980.03
667.962	5933.93
668.312	5915.62
668.662	5975.96
669.011	5952.46
669.361	5906.58
669.711	5921.5
670.06	5946.35
670.41	5936.86
670.76	5920.59
671.109	5976.18
671.459	5938.9
671.808	5866.36
672.157	5924.21
672.507	5878.79
672.856	5854.38
673.205	5874.72
673.554	5857.09
673.904	5818.45
674.253	5859.58
674.602	5801.27
674.951	5810.54
675.3	5716.08
675.649	5815.28
675.998	5810.31
676.346	5864.1
676.695	5868.62
677.044	5808.96
677.393	5778.45
677.741	5837.66
678.09	5802.63
678.438	5803.53
678.787	5861.39
679.135	5780.26
679.484	5770.09
679.832	5819.35
680.181	5748.39
680.529	5759.02
680.877	5769.41
681.225	5768.73
681.573	5761.73
681.922	5686.7
682.27	5733.25
682.618	5716.53
682.966	5690.32
683.314	5728.51
683.661	5700.71
684.009	5693.93
684.357	5663.88
684.705	5621.39
685.053	5632.92
685.4	5639.7
685.748	5570.77
686.095	5590.88
686.443	5526.7
686.79	5564.67
687.138	5615.06
687.485	5647.61
687.832	5572.81
688.18	5527.16
688.527	5485.12
688.874	5555.4
689.221	5542.3
689.568	5494.39
689.915	5546.59
690.262	5488.97
690.609	5485.8
690.956	5495.97
691.303	5427.05
691.65	5389.53
691.997	5399.02
692.344	5394.73
692.69	5352.92
693.037	5398.35
693.383	5348.86
693.73	5383.66
694.077	5327.61
694.423	5332.36
694.769	5330.1
695.116	5300.72
695.462	5330.78
695.808	5267.73
696.155	5256.88
696.501	5284
696.847	5221.63
697.193	5237
697.539	5221.18
697.885	5182.08
698.231	5140.05
698.577	5226.37
698.923	5197
699.269	5136.88
699.614	5157.9
699.96	5155.19
700.306	5119.71
700.651	5110.44
700.997	5093.27
701.342	5100.28
701.688	5082.87
702.033	5081.97
702.379	5046.72
702.724	5011.92
703.069	5029.09
703.415	4980.96
703.76	5003.1
704.105	5006.94
704.45	4923.11
704.795	4966.49
705.14	4981.41
705.485	4950.45
705.83	4890.79
706.175	4963.56
706.52	4920.85
706.865	4951.58
707.209	4907.96
707.554	4860.51
707.899	4939.38
708.243	4877.91
708.588	4860.73
708.932	4848.08
709.277	4743.67
709.621	4839.04
709.966	4778.25
710.31	4724.24
710.654	4783.45
710.998	4781.87
711.342	4742.54
711.687	4768.08
712.031	4738.7
712.375	4740.96
712.719	4733.96
713.063	4748.87
713.407	4793.62
713.75	4742.54
714.094	4705.94
714.438	4665.26
714.782	4646.95
715.125	4611.02
715.469	4625.26
715.812	4630.46
716.156	4576.22
716.499	4640.17
716.843	4660.51
717.186	4595.88
717.53	4570.35
717.873	4641.08
718.216	4624.36
718.559	4606.73
718.902	4575.32
719.246	4629.78
719.589	4539.61
719.932	4560.4
720.275	4515.66
720.617	4547.3
720.96	4490.35
721.303	4514.53
721.646	4490.12
721.989	4455.77
722.331	4479.05
722.674	4445.83
723.016	4481.31
723.359	4438.82
723.701	4484.7
724.044	4456.22
724.386	4412.61
724.729	4448.32
725.071	4432.04
725.413	4451.25
725.755	4458.03
726.097	4430.24
726.439	4445.6
726.782	4451.25
727.124	4420.29
727.465	4387.53
727.807	4403.12
728.149	4364.48
728.491	4346.85
728.833	4346.62
729.175	4318.15
729.516	4316.34
729.858	4325.83
730.199	4359.96
730.541	4347.53
730.882	4301.2
731.224	4337.36
731.565	4306.85
731.906	4323.35
732.248	4325.83
732.589	4310.01
732.93	4291.03
733.271	4305.04
733.612	4268.66
733.953	4286.96
734.294	4248.32
734.635	4260.98
734.976	4257.59
735.317	4210.13
735.658	4198.83
735.999	4218.94
736.339	4204.03
736.68	4199.28
737.021	4202.45
737.361	4258.72
737.702	4222.33
738.042	4213.52
738.383	4169
738.723	4215.78
739.063	4186.85
739.404	4239.73
739.744	4202.45
740.084	4132.17
740.424	4175.33
740.764	4184.14
741.104	4170.81
741.444	4143.01
741.784	4102.56
742.124	4133.97
742.464	4122.67
742.804	4121.54
743.143	4132.39
743.483	4067.76
743.823	4087.65
744.162	4062.11
744.502	4051.04
744.841	4046.74
745.181	4074.77
745.52	4103.92
745.86	4084.48
746.199	4093.97
746.538	4058.04
746.877	4070.47
747.216	4068.21
747.556	4078.38
747.895	4034.31
748.234	4032.96
748.573	4023.02
748.911	4021.21
749.25	4046.52
749.589	4010.36
749.928	3999.74
750.267	3985.28
750.605	3954.32
750.944	3982.34
751.283	3941.89
751.621	3963.81
751.96	3939.63
752.298	3987.31
752.636	3973.07
752.975	3965.39
753.313	3970.59
753.651	3921.78
753.989	3886.97
754.327	3914.32
754.666	3907.54
755.004	3884.49
755.342	3907.99
755.679	3872.74
756.017	3839.07
756.355	3822.12
756.693	3785.06
757.031	3778.28
757.368	3837.26
757.706	3802
758.044	3789.12
758.381	3841.33
758.719	3799.07
759.056	3819.86
759.394	3789.8
759.731	3793.87
760.068	3778.05
760.405	3759.29
760.743	3762.46
761.08	3777.15
761.417	3758.16
761.754	3677.71
762.091	3726.98
762.428	3696.7
762.765	3682.01
763.102	3651.27
763.438	3633.42
763.775	3674.32
764.112	3648.56
764.449	3679.97
764.785	3612.18
765.122	3622.12
765.458	3614.21
765.795	3590.71
766.131	3628.9
766.467	3600.2
766.804	3578.51
767.14	3596.36
767.476	3573.31
767.812	3544.84
768.148	3545.29
768.485	3541.9
768.821	3524.95
769.157	3535.34
769.492	3486.31
769.828	3489.02
770.164	3459.41
770.5	3442.24
770.836	3389.13
771.171	3436.14
