Data from foam2_polystyrene_foam_FLMS001491_00100.txt Node
Date: Wed Feb 08 10:58:48 GMT 2017
User: dcchb
Spectrometer: FLMS00149
Trigger mode: 0
Integration Time (sec): 2.000000E-2
Scans to average: 10
Electric dark correction enabled: true
Nonlinearity correction enabled: false
Boxcar width: 0
XAxis mode: Wavelengths
Number of Pixels in Spectrum: 2048
>>>>>Begin Spectral Data<<<<<
341.393	-0.16
341.776	-0.16
342.16	-0.16
342.543	-56.65
342.927	-77.22
343.31	-72.24
343.693	-65.01
344.077	-72.02
344.46	-61.62
344.843	-40.15
345.226	-42.41
345.61	-44
345.993	-35.18
346.376	6.62
346.759	14.99
347.142	12.95
347.525	55.89
347.908	55.21
348.291	74.64
348.674	99.73
349.057	112.61
349.44	115.32
349.823	130.91
350.206	151.71
350.588	185.83
350.971	209.33
351.354	233.28
351.737	226.96
352.119	252.95
352.502	250.23
352.884	269.22
353.267	275.32
353.65	289.55
354.032	299.72
354.414	291.59
354.797	319.84
355.179	308.09
355.562	310.8
355.944	318.71
356.326	337.24
356.709	318.93
357.091	327.75
357.473	335.88
357.855	329.1
358.238	318.25
358.62	349.21
359.002	352.15
359.384	351.02
359.766	337.91
360.148	342.66
360.53	352.38
360.912	352.38
361.294	341.98
361.676	317.12
362.057	322.77
362.439	306.28
362.821	336.78
363.203	334.53
363.584	329.78
363.966	333.4
364.348	346.05
364.729	317.12
365.111	326.39
365.493	327.29
365.874	317.8
366.256	339.27
366.637	316.9
367.019	326.62
367.4	327.75
367.781	341.98
368.163	325.03
368.544	318.25
368.925	326.39
369.306	344.92
369.688	336.56
370.069	344.92
370.45	306.73
370.831	314.19
371.212	332.04
371.593	329.55
371.974	332.27
372.355	339.72
372.736	349.21
373.117	351.7
373.498	323
373.879	337.01
374.26	332.49
374.641	340.17
375.021	355.32
375.402	352.83
375.783	367.29
376.163	368.2
376.544	350.12
376.925	339.95
377.305	373.62
377.686	361.64
378.066	349.67
378.447	343.11
378.827	370.91
379.208	379.04
379.588	388.08
379.968	364.58
380.349	370.68
380.729	365.71
381.109	368.2
381.489	379.27
381.87	395.54
382.25	384.24
382.63	391.25
383.01	390.57
383.39	383.56
383.77	390.57
384.15	376.56
384.53	386.28
384.91	402.77
385.29	418.82
385.67	396.9
386.049	419.27
386.429	388.08
386.809	426.95
387.189	417.46
387.568	411.81
387.948	417.91
388.328	406.39
388.707	413.85
389.087	431.92
389.466	440.29
389.846	431.25
390.225	414.97
390.605	444.58
390.984	449.1
391.363	440.74
391.743	463.56
392.122	455.88
392.501	462.88
392.881	440.74
393.26	460.17
393.639	459.95
394.018	468.98
394.397	466.73
394.776	482.32
395.155	497.91
395.534	472.83
395.913	487.97
396.292	488.19
396.671	493.39
397.05	507.4
397.429	497.23
397.808	480.06
398.186	490.23
398.565	521.41
398.944	509.21
399.323	531.36
399.701	522.09
400.08	510.34
400.458	529.32
400.837	539.27
401.215	551.69
401.594	547.17
401.972	541.75
402.351	541.75
402.729	533.16
403.107	535.88
403.486	554.18
403.864	548.98
404.242	575.2
404.62	577
404.999	571.13
405.377	585.37
405.755	584.91
406.133	558.02
406.511	594.41
406.889	609.09
407.267	600.51
407.645	617
408.023	628.53
408.401	624.91
408.779	616.78
409.156	644.12
409.534	650.67
409.912	661.07
410.29	666.04
410.667	678.92
411.045	665.36
411.422	699.71
411.8	684.12
412.178	704.68
412.555	719.6
412.933	707.62
413.31	715.53
413.687	719.37
414.065	722.09
414.442	747.17
414.819	754.4
415.197	739.26
415.574	763.44
415.951	748.07
416.328	752.14
416.705	758.47
417.082	788.52
417.46	787.17
417.837	797.79
418.214	807.28
418.591	821.97
418.967	820.16
419.344	836.88
419.721	831.01
420.098	865.81
420.475	867.39
420.852	865.13
421.228	871.46
421.605	848.86
421.982	870.33
422.358	885.47
422.735	888.63
423.111	895.64
423.488	900.84
423.864	909.43
424.241	933.83
424.617	930.89
424.994	935.64
425.37	950.78
425.746	969.76
426.123	951.01
426.499	943.55
426.875	976.32
427.251	979.25
427.627	1008.63
428.003	1017.9
428.379	1036.88
428.756	1039.82
429.132	1049.76
429.507	1076.43
429.883	1092.92
430.259	1108.97
430.635	1111.91
431.011	1111.45
431.387	1121.85
431.763	1134.5
432.138	1140.38
432.514	1192.13
432.89	1155.07
433.265	1193.26
433.641	1240.04
434.016	1227.16
434.392	1227.61
434.767	1278.68
435.143	1230.09
435.518	1266.7
435.894	1275.52
436.269	1318.91
436.644	1308.28
437.02	1344.22
437.395	1342.18
437.77	1373.37
438.145	1366.59
438.52	1376.31
438.895	1409.98
439.271	1426.02
439.646	1426.7
440.021	1438.68
440.395	1465.34
440.77	1452.01
441.145	1462.86
441.52	1500.14
441.895	1497.88
442.27	1503.08
442.645	1509.64
443.019	1532.46
443.394	1548.73
443.769	1542.4
444.143	1576.07
444.518	1616.53
444.892	1528.62
445.267	1584.66
445.641	1618.33
446.016	1630.31
446.39	1598.9
446.764	1637.77
447.139	1670.08
447.513	1673.47
447.887	1678.9
448.262	1694.26
448.636	1712.12
449.01	1722.06
449.384	1729.97
449.758	1762.28
450.132	1792.79
450.506	1805.22
450.88	1814.71
451.254	1797.76
451.628	1828.27
452.002	1880.93
452.376	1876.41
452.75	1882.96
453.123	1872.79
453.497	1946.23
453.871	1939.91
454.244	1965.22
454.618	2003.86
454.992	1991.88
455.365	1999.11
455.739	2007.25
456.112	2057.87
456.486	2039.57
456.859	2078.43
457.232	2110.52
457.606	2135.61
457.979	2135.61
458.352	2201.37
458.725	2197.75
459.099	2221.48
459.472	2266.68
459.845	2258.99
460.218	2301.71
460.591	2291.08
460.964	2338.54
461.337	2367.01
461.71	2407.46
462.083	2404.53
462.456	2437.75
462.829	2439.55
463.201	2442.94
463.574	2474.58
463.947	2534.92
464.32	2577.63
464.692	2574.69
465.065	2635.26
465.438	2615.37
465.81	2652.88
466.183	2701.69
466.555	2764.74
466.928	2771.3
467.3	2760.68
467.672	2848.13
468.045	2846.78
468.417	2864.85
468.789	2857.4
469.161	2945.53
469.534	3059.2
469.906	3044.74
470.278	3042.25
470.65	3118.41
471.022	3154.79
471.394	3236.6
471.766	3230.49
472.138	3257.84
472.51	3347.78
472.882	3376.48
473.253	3403.82
473.625	3483.14
473.997	3497.38
474.369	3532.18
474.74	3601.11
475.112	3612.63
475.484	3707.32
475.855	3764.27
476.227	3786.19
476.598	3879.52
476.97	3897.14
477.341	3999.74
477.713	4035.22
478.084	4107.31
478.455	4181.66
478.827	4224.59
479.198	4346.85
479.569	4337.58
479.94	4479.5
480.311	4538.71
480.682	4592.04
481.053	4694.64
481.424	4743.45
481.795	4824.58
482.166	4843.56
482.537	4889.89
482.908	5044.46
483.279	5095.53
483.65	5198.8
484.021	5250.1
484.391	5328.74
484.762	5369.42
485.133	5416.43
485.503	5493.94
485.874	5638.57
486.244	5685.34
486.615	5804.89
486.985	5780.26
487.356	5907.71
487.726	5994.04
488.097	6041.49
488.467	6102.28
488.837	6274.26
489.207	6329.4
489.578	6459.11
489.948	6486.45
490.318	6614.36
490.688	6603.74
491.058	6686.67
491.428	6794.69
491.798	6846.67
492.168	7005.08
492.538	7021.81
492.908	7110.17
493.278	7240.56
493.648	7268.35
494.017	7360.1
494.387	7400.1
494.757	7486.88
495.126	7595.58
495.496	7600.77
495.866	7641.68
496.235	7713.31
496.605	7793.54
496.974	7848
497.344	7860.2
497.713	7933.65
498.082	8060.65
498.452	8127.09
498.821	8140.42
499.19	8145.85
499.559	8280.98
499.928	8324.6
500.298	8406.86
500.667	8520.3
501.036	8474.42
501.405	8596.45
501.774	8571.37
502.143	8672.84
502.512	8701.76
502.88	8790.12
503.249	8777.69
503.618	8926.84
503.987	8942.89
504.356	9051.81
504.724	9039.15
505.093	9114.18
505.462	9183.56
505.83	9183.56
506.199	9352.82
506.567	9419.71
506.936	9413.83
507.304	9527.73
507.672	9567.5
508.041	9642.08
508.409	9730.21
508.777	9819.25
509.145	9847.27
509.514	9974.72
509.882	10021.95
510.25	10011.56
510.618	10063.99
510.986	10091.1
511.354	10203.19
511.722	10303.98
512.09	10361.83
512.458	10362.51
512.826	10451.1
513.193	10624.88
513.561	10582.17
513.929	10748.94
514.297	10859.9
514.664	10925.66
515.032	10954.13
515.4	11029.84
515.767	11045.66
516.135	11115.26
516.502	11134.69
516.869	11387.34
517.237	11364.74
517.604	11419.88
517.972	11501.46
518.339	11609.48
518.706	11666.88
519.073	11686.99
519.44	11792.75
519.808	11865.52
520.175	11951.85
520.542	12049.25
520.909	12180.32
521.276	12141.67
521.643	12283.14
522.009	12375.79
522.376	12524.94
522.743	12627.08
523.11	12696.69
523.477	12826.85
523.843	12898.04
524.21	12986.17
524.577	13118.82
524.943	13197.92
525.31	13288.31
525.676	13314.52
526.043	13387.97
526.409	13487.85
526.776	13644.68
527.142	13617.57
527.508	13801.52
527.874	13844.45
528.241	13903.43
528.607	14024.33
528.973	14250.77
529.339	14132.58
529.705	14325.34
530.071	14418.9
530.437	14468.84
530.803	14555.62
531.169	14710.19
531.535	14683.07
531.901	14677.88
532.267	14790.42
532.632	14821.83
532.998	14940.02
533.364	15067.47
533.73	15064.08
534.095	15182.27
534.461	15170.97
534.826	15308.37
535.192	15413
535.557	15595.59
535.923	15557.18
536.288	15539.32
536.653	15636.72
537.019	15614.58
537.384	15718.53
537.749	15719.88
538.114	15879.43
538.479	15986.54
538.845	15951.52
539.21	15923.49
539.575	16032.19
539.94	16097.05
540.305	16202.36
540.67	16246.88
541.034	16298.4
541.399	16355.35
541.764	16438.06
542.129	16530.26
542.494	16485.51
542.858	16563.48
543.223	16593.76
543.587	16722.57
543.952	16742
544.316	16747.43
544.681	16865.62
545.045	16877.37
545.41	16953.98
545.774	17002.11
546.138	16999.4
546.503	17098.38
546.867	17108.55
547.231	17261.76
547.595	17293.63
547.959	17398.03
548.324	17395.77
548.688	17493.85
549.052	17532.94
549.416	17543.79
549.779	17715.31
550.143	17639.38
550.507	17811.13
550.871	17824.91
551.235	17822.2
551.599	18061.29
551.962	17990.56
552.326	18114.85
552.689	18191.91
553.053	18159.82
553.417	18240.95
553.78	18458.79
554.143	18435.74
554.507	18594.16
554.87	18617.21
555.234	18668.73
555.597	18680.26
555.96	18748.28
556.323	18933.58
556.686	18889.52
557.05	19102.17
557.413	19200.24
557.776	19227.59
558.139	19298.32
558.502	19446.56
558.865	19451.08
559.228	19682.94
559.59	19667.58
559.953	19668.03
560.316	19861.02
560.679	19940.79
561.041	20116.83
561.404	20072.31
561.767	20271.85
562.129	20220.33
562.492	20585.07
562.854	20468.01
563.217	20498.74
563.579	20635.69
563.941	20740.77
564.304	20796.81
564.666	20959.97
565.028	21036.35
565.39	21132.17
565.753	21234.77
566.115	21341.43
566.477	21463.01
566.839	21449.22
567.201	21567.87
567.563	21532.61
567.925	21761.76
568.287	21719.27
568.648	21891.25
569.01	21994.97
569.372	22178.24
569.734	22018.7
570.095	22262.08
570.457	22372.59
570.819	22402.19
571.18	22399.93
571.542	22578.46
571.903	22569.65
572.265	22699.81
572.626	22814.61
572.987	22842.86
573.349	22841.05
573.71	22931.9
574.071	23056.19
574.432	23051.67
574.794	23309.51
575.155	23279.46
575.516	23269.06
575.877	23258.89
576.238	23371.21
576.599	23548.15
576.96	23497.76
577.32	23387.25
577.681	23501.37
578.042	23557.87
578.403	23590.41
578.763	23561.26
579.124	23714.25
579.485	23851.42
579.845	23900.23
580.206	23899.78
580.566	23921.48
580.927	23928.71
581.287	24047.57
581.648	23885.77
582.008	23982.72
582.368	24003.51
582.728	24084.18
583.089	24041.92
583.449	24018.42
583.809	24029.27
584.169	24134.58
584.529	24112.66
584.889	24310.62
585.249	24176.38
585.609	24124.86
585.969	24322.14
586.329	24260.45
586.688	24261.81
587.048	24314.46
587.408	24170.96
587.768	24140
588.127	24274.01
588.487	24110.17
588.846	24489.82
589.206	24244.4
589.565	24147.68
589.925	24337.74
590.284	24326.89
590.643	24390.84
591.003	24374.57
591.362	24432.42
591.721	24414.57
592.08	24344.29
592.44	24514.45
592.799	24299.77
593.158	24391.97
593.517	24365.53
593.876	24491.4
594.235	24367.79
594.593	24457.73
594.952	24542.25
595.311	24376.38
595.67	24500.44
596.029	24663.15
596.387	24598.97
596.746	24686.43
597.104	24507.67
597.463	24522.36
597.822	24635.13
598.18	24547
598.538	24585.19
598.897	24736.82
599.255	24601.23
599.613	24804.62
599.972	24759.19
600.33	24786.54
600.688	24746.54
601.046	24789.25
601.404	24828.57
601.762	24770.04
602.12	24814.11
602.478	24885.74
602.836	24885.07
603.194	24896.14
603.552	24833.09
603.91	24773.43
604.268	25000.77
604.625	24839.42
604.983	24852.3
605.341	24746.31
605.698	24932.97
606.056	25013.65
606.413	25018.62
606.771	24920.09
607.128	25136.13
607.485	24899.98
607.843	24919.87
608.2	25138.84
608.557	25229.46
608.914	25088.9
609.272	25196.7
609.629	25302.46
609.986	25372.51
610.343	25318.95
610.7	25429.23
611.057	25274.21
611.414	25244.38
611.771	25331.83
612.127	25521.43
612.484	25408.22
612.841	25423.36
613.198	25370.25
613.554	25482.79
613.911	25610.24
614.267	25525.95
614.624	25563.01
614.98	25595.78
615.337	25853.18
615.693	25625.39
616.05	25590.36
616.406	25669.45
616.762	25580.41
617.118	25615.67
617.475	25671.49
617.831	25638.94
618.187	25654.31
618.543	25808.88
618.899	25926.85
619.255	25759.39
619.611	25803.46
619.967	25927.98
620.323	25947.18
620.678	25690.92
621.034	25767.75
621.39	25692.95
621.746	25662.9
622.101	26038.03
622.457	25793.06
622.812	25953.74
623.168	25914.87
623.523	25844.36
623.879	25998.48
624.234	25803.91
624.589	25974.75
624.945	25825.38
625.3	25980.18
625.655	25750.13
626.01	25875.77
626.365	25843.46
626.72	25815.44
627.075	25665.61
627.43	25755.33
627.785	25749.68
628.14	25737.02
628.495	25737.25
628.85	25601.88
629.205	25554.88
629.559	25720.07
629.914	25540.19
630.269	25604.14
630.623	25462.23
630.978	25514.65
631.332	25549
631.687	25687.08
632.041	25403.47
632.396	25525.05
632.75	25442.57
633.104	25335.9
633.459	25302.91
633.813	25227.66
634.167	25213.19
634.521	25208.22
634.875	25160.09
635.229	25169.58
635.583	24984.05
635.937	25165.96
636.291	25163.7
636.645	25043.93
636.999	24980.66
637.352	25080.54
637.706	24877.38
638.06	24930.94
638.413	24892.3
638.767	24910.38
639.121	24930.94
639.474	24715.13
639.828	24792.64
640.181	24710.38
640.534	24682.36
640.888	24721
641.241	24563.72
641.594	24624.73
641.947	24550.61
642.301	24488.24
642.654	24564.17
643.007	24459.31
643.36	24466.77
643.713	24417.51
644.066	24456.83
644.419	24326.44
644.771	24163.5
645.124	23876.5
645.477	23875.83
645.83	23787.02
646.182	23563.97
646.535	23537.08
646.888	23622.05
647.24	23454.82
647.593	23583.86
647.945	23538.43
648.298	23437.42
648.65	23391.32
649.002	23272.91
649.355	23358.78
649.707	23312.9
650.059	23408.27
650.411	23638.32
650.763	23783.4
651.115	23864.98
651.467	23793.57
651.819	23739.79
652.171	23745.66
652.523	23765.77
652.875	23743.63
653.227	23636.06
653.578	23766.68
653.93	23648.49
654.282	23671.09
654.633	23466.57
654.985	23556.74
655.337	23515.16
655.688	23569.17
656.039	23536.85
656.391	23382.05
656.742	23414.82
657.094	23482.84
657.445	23535.95
657.796	23528.27
658.147	23346.12
658.498	23371.21
658.849	23369.63
659.2	23262.51
659.551	23323.98
659.902	23307.48
660.253	23341.6
660.604	23229.97
660.955	23168.5
661.306	23441.26
661.656	23276.52
662.007	23217.77
662.358	23295.28
662.708	23315.16
663.059	23172.79
663.409	23035.85
663.76	23157.43
664.11	23159.01
664.461	23178.44
664.811	23095.73
665.161	23037.88
665.511	23113.59
665.862	23182.51
666.212	23163.53
666.562	23095.51
666.912	23138.9
667.262	23045.11
667.612	23040.59
667.962	23122.63
668.312	23072.46
668.662	23192.46
669.011	23074.94
669.361	23110.88
669.711	23026.36
670.06	22988.84
670.41	22902.29
670.76	22827.72
671.109	22998.79
671.459	22867.27
671.808	22960.6
672.157	23003.53
672.507	22770.32
672.856	22887.15
673.205	22842.63
673.554	22887.15
673.904	22752.92
674.253	22981.61
674.602	22877.44
674.951	22537.78
675.3	22521.29
675.649	22823.43
675.998	22825.46
676.346	22728.06
676.695	22785.69
677.044	22581.62
677.393	22714.73
677.741	22788.85
678.09	22638.8
678.438	22703.88
678.787	22620.49
679.135	22666.37
679.484	22474.96
679.832	22630.21
680.181	22455.75
680.529	22464.34
680.877	22494.85
681.225	22439.93
681.573	22556.31
681.922	22340.5
682.27	22267.73
682.618	22246.27
682.966	22314.29
683.314	22209.88
683.661	22288.07
684.009	22071.58
684.357	22070.68
684.705	22090.56
685.053	22064.35
685.4	21991.36
685.748	21898.48
686.095	21994.07
686.443	21759.27
686.79	21880.63
687.138	21796.33
687.485	21792.72
687.832	21721.08
688.18	21794.07
688.527	21611.48
688.874	21678.6
689.221	21571.71
689.568	21488.55
689.915	21457.59
690.262	21429.56
690.609	21448.09
690.956	21303.01
691.303	21354.76
691.65	21185.05
691.997	21244.26
692.344	21043.59
692.69	21019.63
693.037	21076.8
693.383	20894.89
693.73	20942.57
694.077	20794.78
694.423	20852.63
694.769	20775.34
695.116	20678.4
695.462	20725.85
695.808	20596.59
696.155	20646.31
696.501	20494.45
696.847	20537.84
697.193	20348.91
697.539	20452.41
697.885	20257.39
698.231	20225.75
698.577	20265.75
698.923	20215.81
699.269	20168.13
699.614	19980.11
699.96	20015.14
700.306	19957.96
700.651	19879.55
700.997	19837.29
701.342	19855.59
701.688	19896.95
702.033	19736.73
702.379	19723.85
702.724	19640.91
703.069	19665.77
703.415	19409.96
703.76	19436.85
704.105	19476.62
704.45	19431.88
704.795	19305.78
705.14	19182.39
705.485	19196.63
705.83	19030.76
706.175	19087.03
706.52	19058.1
706.865	18979.23
707.209	18935.17
707.554	18881.83
707.899	19049.51
708.243	18850.87
708.588	18817.88
708.932	18718.45
709.277	18744.21
709.621	18726.13
709.966	18553.48
710.31	18627.15
710.654	18520.26
710.998	18483.43
711.342	18445.01
711.687	18437.33
712.031	18452.24
712.375	18289.76
712.719	18227.84
713.063	18294.96
713.407	18246.14
713.75	18238.69
714.094	18187.39
714.438	18031.69
714.782	18114.85
715.125	18179.48
715.469	18219.03
715.812	17944.68
716.156	17910.33
716.499	17937.9
716.843	17951.69
717.186	17748.3
717.53	17773.16
717.873	17855.87
718.216	17736.33
718.559	17633.05
718.902	17560.74
719.246	17665.37
719.589	17542.21
719.932	17451.59
720.275	17476
720.617	17462.21
720.96	17473.74
721.303	17535.43
721.646	17514.19
721.989	17379.27
722.331	17428.76
722.674	17363
723.016	17374.76
723.359	17253.18
723.701	17347.19
724.044	17185.61
724.386	17096.8
724.729	17146.06
725.071	17117.59
725.413	17050.92
725.755	17013.63
726.097	17007.53
726.439	16873.75
726.782	16845.73
727.124	16959.17
727.465	16904.26
727.807	16876.01
728.149	16842.11
728.491	16742.23
728.833	16840.08
729.175	16673.53
729.516	16669.91
729.858	16699.74
730.199	16650.25
730.541	16677.6
730.882	16571.61
731.224	16598.5
731.565	16516.02
731.906	16580.88
732.248	16526.19
732.589	16350.15
732.93	16337.04
733.271	16392.41
733.612	16411.62
733.953	16343.14
734.294	16248.46
734.635	16271.28
734.976	16332.97
735.317	16259.08
735.658	16179.53
735.999	16131.85
736.339	16151.28
736.68	16174.56
737.021	16175.01
737.361	16085.75
737.702	16063.6
738.042	16041.68
738.383	15986.32
738.723	16003.04
739.063	15968.69
739.404	15925.75
739.744	15867.22
740.084	15787.68
740.424	15902.7
740.764	15748.36
741.104	15815.7
741.444	15743.16
741.784	15723.72
742.124	15671.3
742.464	15601.69
742.804	15649.15
743.143	15511.98
743.483	15548.14
743.823	15510.4
744.162	15513.34
744.502	15530.28
744.841	15467.23
745.181	15563.73
745.52	15484.41
745.86	15545.88
746.199	15436.95
746.538	15482.83
746.877	15350.63
747.216	15321.93
747.556	15241.03
747.895	15300.91
748.234	15133.23
748.573	15173
748.911	15164.42
749.25	15043.52
749.589	14990.64
749.928	15089.39
750.267	15023.4
750.605	15063.4
750.944	14924.65
751.283	14879.68
751.621	14930.75
751.96	14809.85
752.298	14855.5
752.636	14872.22
752.975	14793.13
753.313	14723.75
753.651	14718.1
753.989	14641.27
754.327	14630.65
754.666	14569.41
755.004	14611.66
