Data from foam_black_FLMS001491_00025.txt Node
Date: Wed Feb 08 10:43:39 GMT 2017
User: dcchb
Spectrometer: FLMS00149
Trigger mode: 0
Integration Time (sec): 2.000000E-2
Scans to average: 10
Electric dark correction enabled: true
Nonlinearity correction enabled: false
Boxcar width: 0
XAxis mode: Wavelengths
Number of Pixels in Spectrum: 2048
>>>>>Begin Spectral Data<<<<<
341.393	-27.47
341.776	-27.47
342.16	-27.47
342.543	-77.64
342.927	-65.89
343.31	-51.2
343.693	-79.45
344.077	-72.44
344.46	-52.78
344.843	-47.81
345.226	-28.15
345.61	-18.66
345.993	-11.88
346.376	-0.81
346.759	-3.97
347.142	23.6
347.525	11.62
347.908	61.11
348.291	60.44
348.674	98.63
349.057	111.73
349.44	114.45
349.823	156.7
350.206	161.22
350.588	185.18
350.971	199.64
351.354	232.86
351.737	222.47
352.119	237.15
352.502	250.04
352.884	276.25
353.267	246.19
353.65	297.72
354.032	305.18
354.414	295.68
354.797	314.21
355.179	319.19
355.562	296.59
355.944	315.12
356.326	326.64
356.709	321.45
357.091	334.55
357.473	338.4
357.855	325.51
358.238	327.77
358.62	338.17
359.002	355.34
359.384	336.59
359.766	332.29
360.148	333.2
360.53	330.71
360.912	339.3
361.294	324.38
361.676	325.74
362.057	304.72
362.439	307.21
362.821	324.16
363.203	332.29
363.584	325.74
363.966	328.9
364.348	308.11
364.729	316.47
365.111	302.69
365.493	316.7
365.874	323.03
366.256	313.54
366.637	314.89
367.019	322.35
367.4	319.41
367.781	311.05
368.163	309.92
368.544	305.85
368.925	323.93
369.306	327.77
369.688	320.99
370.069	318.51
370.45	323.71
370.831	309.47
371.212	319.19
371.593	332.52
371.974	301.79
372.355	314.21
372.736	328.68
373.117	322.35
373.498	299.53
373.879	316.7
374.26	309.24
374.641	309.47
375.021	329.36
375.402	322.8
375.783	338.4
376.163	344.5
376.544	317.83
376.925	336.14
377.305	328.23
377.686	330.49
378.066	340.43
378.447	331.62
378.827	342.91
379.208	360.32
379.588	326.87
379.968	330.03
380.349	329.81
380.729	332.97
381.109	368
381.489	350.37
381.87	363.48
382.25	353.54
382.63	348.34
383.01	356.02
383.39	351.95
383.77	375.91
384.15	346.08
384.53	363.93
384.91	356.93
385.29	371.84
385.67	376.81
386.049	362.35
386.429	354.89
386.809	376.13
387.189	375.68
387.568	370.94
387.948	374.33
388.328	391.05
388.707	376.13
389.087	383.82
389.466	398.51
389.846	378.39
390.225	387.89
390.605	372.74
390.984	396.02
391.363	386.98
391.743	387.43
392.122	405.29
392.501	405.74
392.881	406.42
393.26	420.2
393.639	396.25
394.018	407.77
394.397	416.59
394.776	419.07
395.155	395.57
395.534	414.1
395.913	405.51
396.292	393.08
396.671	432.86
397.05	407.32
397.429	425.62
397.808	419.07
398.186	436.47
398.565	445.06
398.944	440.99
399.323	443.7
399.701	427.43
400.08	434.44
400.458	441.22
400.837	451.16
401.215	451.39
401.594	436.47
401.972	444.15
402.351	446.41
402.729	476.7
403.107	457.04
403.486	468.11
403.864	462.01
404.242	460.88
404.62	464.27
404.999	469.24
405.377	491.16
405.755	468.56
406.133	476.47
406.511	483.25
406.889	475.79
407.267	484.61
407.645	499.75
408.023	514.21
408.401	493.19
408.779	517.6
409.156	522.57
409.534	522.57
409.912	514.89
410.29	526.19
410.667	506.98
411.045	511.5
411.422	527.99
411.8	545.85
412.178	540.2
412.555	562.34
412.933	574.1
413.31	553.08
413.687	560.31
414.065	554.66
414.442	577.48
414.819	600.31
415.197	561.67
415.574	599.18
415.951	612.51
416.328	582.91
416.705	582
417.082	573.19
417.46	593.08
417.837	594.66
418.214	600.54
418.591	606.41
418.967	601.66
419.344	609.8
419.721	615.9
420.098	621.33
420.475	632.85
420.852	650.25
421.228	630.14
421.605	600.76
421.982	645.96
422.358	657.48
422.735	646.18
423.111	675.79
423.488	676.69
423.864	668.33
424.241	671.49
424.617	676.47
424.994	683.24
425.37	705.84
425.746	688.44
426.123	713.07
426.499	700.65
426.875	683.92
427.251	706.97
427.627	720.08
428.003	735.22
428.379	751.27
428.756	723.92
429.132	770.93
429.507	778.38
429.883	762.79
430.259	754.43
430.635	764.82
431.011	780.19
431.387	789
431.763	793.3
432.138	818.38
432.514	793.3
432.89	814.99
433.265	824.71
433.641	815.67
434.016	822.68
434.392	836.91
434.767	847.99
435.143	835.11
435.518	849.79
435.894	869.45
436.269	876.46
436.644	902.9
437.02	887.31
437.395	903.35
437.77	935.89
438.145	905.16
438.52	909
438.895	948.55
439.271	950.13
439.646	965.5
440.021	974.31
440.395	967.76
440.77	956.46
441.145	963.92
441.52	980.19
441.895	947.87
442.27	967.98
442.645	978.38
443.019	989
443.394	1005.72
443.769	1018.38
444.143	1004.82
444.518	1017.47
444.892	1009.34
445.267	1037.81
445.641	1025.16
446.016	1052.5
446.39	1046.4
446.764	1067.19
447.139	1042.56
447.513	1047.3
447.887	1066.96
448.262	1099.05
448.636	1063.8
449.01	1058.83
449.384	1085.49
449.758	1082.1
450.132	1120.3
450.506	1108.09
450.88	1130.69
451.254	1122.1
451.628	1106.06
452.002	1133.18
452.376	1186.28
452.75	1146.51
453.123	1211.59
453.497	1197.13
453.871	1217.92
454.244	1205.04
454.618	1209.78
454.992	1230.57
455.365	1223.34
455.739	1226.51
456.112	1252.04
456.486	1279.84
456.859	1298.6
457.232	1324.13
457.606	1311.48
457.979	1314.41
458.352	1327.75
458.725	1368.88
459.099	1372.27
459.472	1386.05
459.845	1401.64
460.218	1406.62
460.591	1426.73
460.964	1429.67
461.337	1440.96
461.71	1481.42
462.083	1466.95
462.456	1487.97
462.829	1482.32
463.201	1522.09
463.574	1511.92
463.947	1529.32
464.32	1554.86
464.692	1598.47
465.065	1569.32
465.438	1594.63
465.81	1644.12
466.183	1613.84
466.555	1647.74
466.928	1662.65
467.3	1673.95
467.672	1685.25
468.045	1733.39
468.417	1705.14
468.789	1734.97
469.161	1769.32
469.534	1805.93
469.906	1847.51
470.278	1840.95
470.65	1858.81
471.022	1871.91
471.394	1897.22
471.766	1899.94
472.138	1960.95
472.51	1969.31
472.882	2045.24
473.253	2013.61
473.625	2093.38
473.997	2120.04
474.369	2120.72
474.74	2131.57
475.112	2156.65
475.484	2177.44
475.855	2201.85
476.227	2222.41
476.598	2301.28
476.97	2324.33
477.341	2372.01
477.713	2421.96
478.084	2402.52
478.455	2481.39
478.827	2495.63
479.198	2550.31
479.569	2590.31
479.94	2640.71
480.311	2638.9
480.682	2660.37
481.053	2748.05
481.424	2820.36
481.795	2800.48
482.166	2820.36
482.537	2888.38
482.908	2905.33
483.279	2941.26
483.65	2987.59
484.021	3007.48
484.391	3069.85
484.762	3081.83
485.133	3130.64
485.503	3202.95
485.874	3216.51
486.244	3253.57
486.615	3321.82
486.985	3378.32
487.356	3410.86
487.726	3445.21
488.097	3513.45
488.467	3540.12
488.837	3584.41
489.207	3623.51
489.578	3644.3
489.948	3716.84
490.318	3754.35
490.688	3745.99
491.058	3801.81
491.428	3858.98
491.798	3903.27
492.168	3955.93
492.538	3965.64
492.908	4044.74
493.278	4070.95
493.648	4083.16
494.017	4119.54
494.387	4191.85
494.757	4173.32
495.126	4225.75
495.496	4230.27
495.866	4289.03
496.235	4341.91
496.605	4398.4
496.974	4366.31
497.344	4418.51
497.713	4448.8
498.082	4471.17
498.452	4540.09
498.821	4584.16
499.19	4550.26
499.559	4621.45
499.928	4623.48
500.298	4648.34
500.667	4687.21
501.036	4650.6
501.405	4780.09
501.774	4717.94
502.143	4811.72
502.512	4806.3
502.88	4834.77
503.249	4833.64
503.618	4872.51
503.987	4957.03
504.356	4963.81
504.724	5021.66
505.093	5007.65
505.462	5007.42
505.83	5081.1
506.199	5110.25
506.567	5143.24
506.936	5206.29
507.304	5264.82
507.672	5277.47
508.041	5307.76
508.409	5359.73
508.777	5359.51
509.145	5405.38
509.514	5406.06
509.882	5503.91
510.25	5515.89
510.618	5514.76
510.986	5547.52
511.354	5575.09
511.722	5666.39
512.09	5696.22
512.458	5651.7
512.826	5705.49
513.193	5695.54
513.561	5779.38
513.929	5820.51
514.297	5849.21
514.664	5858.48
515.032	5932.82
515.4	5995.2
515.767	5997.91
516.135	6051.47
516.502	5982.99
516.869	6199.71
517.237	6193.16
517.604	6150.45
517.972	6299.14
518.339	6338.92
518.706	6395.86
519.073	6396.77
519.44	6462.53
519.808	6559.47
520.175	6575.97
520.542	6603.77
520.909	6643.09
521.276	6656.2
521.643	6719.02
522.009	6790.43
522.376	6844.89
522.743	6838.11
523.11	6876.3
523.477	6933.02
523.843	7027.71
524.21	6998.33
524.577	7065
524.943	7110.87
525.31	7124.88
525.676	7226.58
526.043	7281.94
526.409	7293.47
526.776	7425.67
527.142	7326.23
527.508	7502.27
527.874	7595.61
528.241	7626.11
528.607	7669.5
528.973	7747.01
529.339	7763.06
529.705	7864.52
530.071	7979.32
530.437	7975.93
530.803	8007.57
531.169	8106.33
531.535	8076.04
531.901	8187.91
532.267	8142.48
532.632	8220.67
532.998	8258.19
533.364	8317.39
533.73	8299.54
534.095	8283.72
534.461	8328.69
534.826	8393.1
535.192	8372.53
535.557	8486.43
535.923	8424.96
536.288	8478.52
536.653	8519.42
537.019	8535.69
537.384	8603.04
537.749	8626.76
538.114	8671.74
538.479	8697.95
538.845	8735.24
539.21	8749.47
539.575	8798.06
539.94	8882.35
540.305	8982.24
540.67	8996.7
541.034	9046.64
541.399	8992.63
541.764	9100.42
542.129	9143.81
542.494	9172.51
542.858	9174.32
543.223	9248.67
543.587	9247.99
543.952	9271.27
544.316	9309.23
544.681	9299.06
545.045	9371.83
545.41	9361.21
545.774	9396.46
546.138	9365.05
546.503	9401.21
546.867	9427.42
547.231	9515.55
547.595	9555.1
547.959	9546.97
548.324	9602.78
548.688	9619.28
549.052	9669.9
549.416	9674.65
549.779	9743.12
550.143	9769.56
550.507	9880.29
550.871	9848.88
551.235	9930.01
551.599	9972.49
551.962	10056.33
552.326	10021.3
552.689	10178.59
553.053	10141.3
553.417	10204.8
553.78	10297.68
554.143	10291.58
554.507	10275.99
554.87	10433.72
555.234	10518.92
555.597	10384.91
555.96	10486.15
556.323	10454.29
556.686	10475.53
557.05	10602.98
557.413	10612.02
557.776	10627.84
558.139	10614.51
558.502	10676.65
558.865	10786.03
559.228	10774.28
559.59	10833.94
559.953	10931.11
560.316	11042.75
560.679	11038.23
561.041	11095.17
561.404	11224.44
561.767	11262.63
562.129	11218.79
562.492	11457.42
562.854	11378.56
563.217	11430.53
563.579	11522.28
563.941	11572.9
564.304	11626.23
564.666	11635.5
565.028	11710.53
565.39	11799.79
565.753	11885.66
566.115	11898.09
566.477	11984.64
566.839	11969.28
567.201	12121.36
567.563	12113.45
567.925	12225.09
568.287	12162.26
568.648	12234.58
569.01	12297.85
569.372	12386.44
569.734	12383.95
570.095	12429.15
570.457	12483.39
570.819	12517.74
571.18	12565.64
571.542	12610.84
571.903	12673.89
572.265	12695.58
572.626	12675.92
572.987	12798.41
573.349	12824.85
573.71	12845.86
574.071	12918.86
574.432	12938.74
574.794	13009.7
575.155	13020.55
575.516	13034.56
575.877	13126.31
576.238	13104.39
576.599	13089.7
576.96	13209.02
577.32	13204.95
577.681	13252.63
578.042	13282.01
578.403	13270.71
578.763	13340.09
579.124	13255.57
579.485	13404.72
579.845	13366.53
580.206	13359.75
580.566	13422.8
580.927	13470.93
581.287	13508.22
581.648	13508.22
582.008	13567.65
582.368	13568.78
582.728	13609.68
583.089	13571.04
583.449	13492.4
583.809	13606.29
584.169	13561.78
584.529	13569.69
584.889	13741.43
585.249	13566.75
585.609	13570.36
585.969	13698.72
586.329	13521.1
586.688	13657.59
587.048	13588.44
587.408	13536.01
587.768	13600.19
588.127	13545.05
588.487	13589.12
588.846	13606.29
589.206	13491.72
589.565	13545.73
589.925	13539.86
590.284	13502.79
590.643	13573.98
591.003	13628.22
591.362	13614.88
591.721	13614.66
592.08	13667.54
592.44	13721.09
592.799	13741.43
593.158	13706.63
593.517	13695.56
593.876	13808.1
594.235	13809.23
594.593	13827.76
594.952	13874.76
595.311	13900.07
595.67	13939.39
596.029	13928.55
596.387	13992.05
596.746	13996.12
597.104	13971.48
597.463	13906.85
597.822	14003.57
598.18	13919.28
598.538	13996.12
598.897	14041.31
599.255	13918.6
599.613	14093.06
599.972	14028.43
600.33	14070.01
600.688	13926.51
601.046	13995.66
601.404	14122.67
601.762	13992.95
602.12	13983.69
602.478	13975.78
602.836	14004.25
603.194	14002.67
603.552	13850.81
603.91	13839.51
604.268	13911.15
604.625	13936
604.983	13938.49
605.341	13966.29
605.698	14053.97
606.056	14086.06
606.413	13980.75
606.771	14053.06
607.128	14060.29
607.485	14117.24
607.843	14106.85
608.2	14282.89
608.557	14224.36
608.914	14186.39
609.272	14304.36
609.629	14451.02
609.986	14548.87
610.343	14404.47
610.7	14502.99
611.057	14514.29
611.414	14471.58
611.771	14565.59
612.127	14568.76
612.484	14524.01
612.841	14608.3
613.198	14484.92
613.554	14493.5
613.911	14632.93
614.267	14475.42
614.624	14640.84
614.98	14465.03
615.337	14565.37
615.693	14503.45
616.05	14605.82
616.406	14601.97
616.762	14573.5
617.118	14467.06
617.475	14570.11
617.831	14551.35
618.187	14539.38
618.543	14627.28
618.899	14712.48
619.255	14676.78
619.611	14665.48
619.967	14657.79
620.323	14785.02
620.678	14657.34
621.034	14636.1
621.39	14681.29
621.746	14716.1
622.101	14840.61
622.457	14913.38
622.812	14886.04
623.168	14935.98
623.523	14897.56
623.879	14982.3
624.234	14948.18
624.589	15001.96
624.945	15018.24
625.3	14985.02
625.655	15021.4
626.01	14940.95
626.365	15022.98
626.72	14988.63
627.075	15029.08
627.43	14998.57
627.785	14965.36
628.14	14995.86
628.495	15053.04
628.85	14895.75
629.205	14889.65
629.559	14938.24
629.914	14903.66
630.269	14800.16
630.623	14719.49
630.978	14728.98
631.332	14742.54
631.687	14749.77
632.041	14546.38
632.396	14628.19
632.75	14572.37
633.104	14609.88
633.459	14535.08
633.813	14463.67
634.167	14550.9
634.521	14485.59
634.875	14563.56
635.229	14543.22
635.583	14476.55
635.937	14500.06
636.291	14418.7
636.645	14467.74
636.999	14437.01
637.352	14462.77
637.706	14357.24
638.06	14423.45
638.413	14361.53
638.767	14385.71
639.121	14430.91
639.474	14358.82
639.828	14444.69
640.181	14378.7
640.534	14303
640.888	14343.22
641.241	14354.3
641.594	14409.66
641.947	14499.15
642.301	14338.25
642.654	14375.54
643.007	14318.14
643.36	14256.67
643.713	14178.71
644.066	14384.35
644.419	14256
644.771	14104.59
645.124	13909.79
645.477	13955.89
645.83	13897.36
646.182	13782.11
646.535	13819.62
646.888	13856.46
647.24	13841.77
647.593	13934.65
647.945	13898.94
648.298	13771.94
648.65	13780.08
649.002	13634.32
649.355	13696.69
649.707	13630.25
650.059	13675.67
650.411	13782.79
650.763	13837.02
651.115	14027.3
651.467	14020.97
651.819	13940.52
652.171	13901.2
652.523	13905.95
652.875	13782.11
653.227	13792.96
653.578	13877.7
653.93	13825.72
654.282	13787.76
654.633	13718.16
654.985	13773.52
655.337	13695.11
655.688	13743.69
656.039	13776.46
656.391	13707.54
656.742	13737.14
657.094	13744.82
657.445	13796.35
657.796	13744.82
658.147	13757.03
658.498	13684.71
658.849	13736.01
659.2	13789.79
659.551	13710.25
659.902	13820.07
660.253	13626.86
660.604	13754.77
660.955	13611.04
661.306	13710.92
661.656	13745.27
662.007	13692.39
662.358	13717.48
662.708	13730.36
663.059	13662.79
663.409	13659.85
663.76	13703.24
664.11	13690.59
664.461	13790.47
664.811	13800.19
665.161	13717.7
665.511	13693.52
665.862	13784.82
666.212	13696.24
666.562	13734.43
666.912	13684.26
667.262	13709.12
667.612	13673.64
667.962	13678.38
668.312	13696.01
668.662	13710.92
669.011	13704.37
669.361	13551.15
669.711	13592.74
670.06	13563.58
670.41	13463.02
670.76	13424.38
671.109	13549.57
671.459	13500.99
671.808	13505.28
672.157	13502.79
672.507	13460.08
672.856	13458.05
673.205	13499.86
673.554	13488.78
673.904	13364.27
674.253	13488.56
674.602	13341.67
674.951	13071.39
675.3	13066.42
675.649	13331.05
675.998	13252.86
676.346	13213.31
676.695	13265.29
677.044	13189.81
677.393	13296.02
677.741	13282.46
678.09	13297.6
678.438	13215.57
678.787	13322.01
679.135	13350.48
679.484	13320.65
679.832	13361.56
680.181	13251.73
680.529	13263.93
680.877	13206.53
681.225	13162.69
681.573	13243.59
681.922	13209.47
682.27	13183.03
682.618	13167.44
682.966	13170.6
683.314	13182.58
683.661	13129.7
684.009	13135.35
684.357	13084.95
684.705	13024.39
685.053	13131.73
685.4	13029.13
685.748	12957.5
686.095	13022.36
686.443	12987.78
686.79	12800.89
687.138	12968.35
687.485	12946.2
687.832	12868.91
688.18	12843.15
688.527	12733.1
688.874	12714.11
689.221	12758.86
689.568	12648.81
689.915	12642.7
690.262	12495.14
690.609	12593.89
690.956	12522.93
691.303	12501.47
691.65	12444.29
691.997	12442.48
692.344	12357.51
692.69	12330.4
693.037	12395.25
693.383	12289.27
693.73	12335.82
694.077	12252.88
694.423	12225.31
694.769	12192.77
695.116	12135.6
695.462	12139.44
695.808	12103.51
696.155	12121.36
696.501	11987.58
696.847	11995.26
697.193	11963.63
697.539	11971.54
697.885	11955.94
698.231	11802.27
698.577	11893.8
698.923	11765.89
699.269	11829.17
699.614	11771.31
699.96	11809.05
700.306	11708.04
700.651	11625.1
700.997	11689.96
701.342	11695.84
701.688	11661.49
702.033	11572.22
702.379	11540.13
702.724	11574.48
703.069	11603.18
703.415	11434.83
703.76	11463.3
704.105	11434.15
704.45	11467.37
704.795	11270.09
705.14	11242.74
705.485	11318.45
705.83	11208.62
706.175	11294.94
706.52	11187.6
706.865	11133.82
707.209	11184.21
707.554	11150.54
707.899	11122.74
708.243	11098.11
708.588	11035.74
708.932	10916.2
709.277	10970.21
709.621	11059.7
709.966	10938.57
710.31	10984.22
710.654	10883.88
710.998	10872.36
711.342	10854.73
711.687	10897.67
712.031	10785.13
712.375	10756.43
712.719	10692.7
713.063	10775.86
713.407	10780.15
713.75	10699.03
714.094	10666.94
714.438	10632.59
714.782	10735.41
715.125	10648.18
715.469	10656.54
715.812	10594.17
716.156	10546.49
716.499	10574.06
716.843	10564.57
717.186	10513.49
717.53	10598.24
717.873	10545.13
718.216	10484.12
718.559	10506.49
718.902	10512.82
719.246	10422.42
719.589	10446.15
719.932	10401.63
720.275	10392.59
720.617	10409.32
720.96	10308.98
721.303	10363.89
721.646	10308.3
721.989	10265.59
722.331	10322.09
722.674	10314.86
723.016	10243.22
723.359	10250.68
723.701	10141.98
724.044	10159.38
724.386	10130.45
724.729	10202.54
725.071	10216.78
725.413	10161.41
725.755	10137.91
726.097	9988.76
726.439	9904.02
726.782	9995.77
727.124	10009.33
727.465	10028.08
727.807	9954.41
728.149	9965.94
728.491	9883.91
728.833	9915.32
729.175	9911.25
729.516	9904.7
729.858	9852.5
730.199	9866.51
730.541	9882.32
730.882	9821.08
731.224	9833.51
731.565	9809.56
731.906	9796.23
732.248	9764.14
732.589	9756.9
732.93	9793.74
733.271	9774.98
733.612	9734.98
733.953	9666.74
734.294	9679.84
734.635	9689.34
734.976	9668.55
735.317	9643.69
735.658	9686.4
735.999	9623.57
736.339	9587.64
736.68	9677.36
737.021	9571.15
737.361	9606.4
737.702	9611.37
738.042	9629.68
738.383	9597.59
738.723	9619.96
739.063	9501.09
739.404	9567.98
739.744	9525.72
740.084	9504.93
740.424	9524.82
740.764	9476.23
741.104	9448.44
741.444	9452.28
741.784	9465.61
742.124	9437.36
742.464	9410.7
742.804	9416.12
743.143	9413.64
743.483	9328.22
743.823	9319.4
744.162	9310.36
744.502	9347.88
744.841	9337.25
745.181	9321.66
745.52	9290.25
745.86	9302.45
746.199	9262.45
746.538	9272.62
746.877	9306.52
747.216	9239.18
747.556	9197.15
747.895	9221.55
748.234	9151.04
748.573	9201.44
748.911	9142.46
749.25	9237.37
749.589	9138.84
749.928	9114.66
750.267	9164.6
750.605	9102.23
750.944	9137.49
751.283	9051.39
751.621	9047.54
751.96	9016.81
752.298	8996.02
752.636	8979.07
752.975	8959.41
753.313	8874.67
753.651	8898.17
753.989	8846.19
754.327	8798.29
754.666	8817.04
755.004	8803.26
755.342	8781.56
755.679	8772.07
756.017	8778.63
756.355	8775.24
756.693	8670.38
757.031	8683.26
757.368	8662.47
757.706	8631.06
758.044	8588.12
758.381	8584.28
758.719	8588.8
759.056	8587.67
759.394	8483.27
759.731	8463.15
760.068	8473.1
