Data from foam2_polystyrene_foam_FLMS001491_00011.txt Node
Date: Wed Feb 08 10:57:34 GMT 2017
User: dcchb
Spectrometer: FLMS00149
Trigger mode: 0
Integration Time (sec): 2.000000E-2
Scans to average: 10
Electric dark correction enabled: true
Nonlinearity correction enabled: false
Boxcar width: 0
XAxis mode: Wavelengths
Number of Pixels in Spectrum: 2048
>>>>>Begin Spectral Data<<<<<
341.393	-19.69
341.776	-19.69
342.16	-19.69
342.543	-59.24
342.927	-46.81
343.31	-62.4
343.693	-87.71
344.077	-72.34
344.46	-65.79
344.843	-52
345.226	-29.63
345.61	-47.03
345.993	-1.38
346.376	3.14
346.759	6.3
347.142	28.9
347.525	32.29
347.908	70.03
348.291	83.13
348.674	88.11
349.057	106.41
349.44	116.35
349.823	140.53
350.206	156.58
350.588	187.99
350.971	223.69
351.354	226.18
351.737	248.1
352.119	253.75
352.502	277.93
352.884	288.33
353.267	286.29
353.65	301.43
354.032	316.35
354.414	327.87
354.797	333.97
355.179	342.34
355.562	336.46
355.944	325.84
356.326	350.92
356.709	355.89
357.091	334.43
357.473	346.63
357.855	373.75
358.238	350.92
358.62	368.1
359.002	360.19
359.384	380.75
359.766	351.37
360.148	362.22
360.53	363.35
360.912	372.84
361.294	358.15
361.676	371.26
362.057	351.37
362.439	363.13
362.821	355.44
363.203	348.66
363.584	345.27
363.966	347.76
364.348	349.57
364.729	331.49
365.111	354.09
365.493	346.86
365.874	352.96
366.256	351.15
366.637	347.99
367.019	349.34
367.4	354.09
367.781	345.5
368.163	342.34
368.544	352.96
368.925	352.96
369.306	349.79
369.688	337.82
370.069	345.73
370.45	354.76
370.831	365.84
371.212	344.6
371.593	344.14
371.974	358.38
372.355	362.22
372.736	380.75
373.117	355.22
373.498	377.14
373.879	352.28
374.26	351.6
374.641	344.37
375.021	367.42
375.402	393.41
375.783	393.63
376.163	376.91
376.544	396.35
376.925	405.84
377.305	366.97
377.686	379.17
378.066	390.02
378.447	401.54
378.827	367.19
379.208	388.44
379.588	401.77
379.968	396.35
380.349	412.62
380.729	415.1
381.109	395.67
381.489	414.2
381.87	422.79
382.25	402.45
382.63	423.24
383.01	415.78
383.39	432.95
383.77	417.59
384.15	436.34
384.53	427.31
384.91	427.98
385.29	446.29
385.67	457.59
386.049	439.51
386.429	464.37
386.809	471.37
387.189	484.03
387.568	474.08
387.948	474.08
388.328	474.99
388.707	470.92
389.087	472.73
389.466	506.17
389.846	467.76
390.225	485.16
390.605	489.68
390.984	496.91
391.363	501.2
391.743	510.69
392.122	522.44
392.501	500.3
392.881	507.53
393.26	529
393.639	533.97
394.018	552.95
394.397	533.74
394.776	551.6
395.155	550.47
395.534	543.69
395.913	562.22
396.292	570.58
396.671	546.17
397.05	580.07
397.429	573.74
397.808	568.32
398.186	577.81
398.565	577.13
398.944	568.54
399.323	598.83
399.701	579.84
400.08	619.16
400.458	611.48
400.837	600.41
401.215	624.36
401.594	615.55
401.972	621.42
402.351	635.44
402.729	640.41
403.107	643.34
403.486	663.46
403.864	677.69
404.242	653.06
404.62	678.82
404.999	681.08
405.377	671.14
405.755	684.47
406.133	689.45
406.511	704.36
406.889	702.33
407.267	732.61
407.645	719.5
408.023	726.05
408.401	741.87
408.779	731.48
409.156	732.61
409.534	758.82
409.912	764.92
410.29	787.3
410.667	777.8
411.045	812.38
411.422	807.18
411.8	807.86
412.178	824.81
412.555	836.11
412.933	870.68
413.31	877.69
413.687	897.35
414.065	876.33
414.442	889.44
414.819	906.61
415.197	916.11
415.574	909.78
415.951	941.87
416.328	935.54
416.705	949.1
417.082	952.72
417.46	945.94
417.837	964.01
418.214	957.46
418.591	992.71
418.967	1006.27
419.344	1039.72
419.721	1040.62
420.098	1023.22
420.475	1038.14
420.852	1018.02
421.228	1060.06
421.605	1052.37
421.982	1076.55
422.358	1073.84
422.735	1090.79
423.111	1087.4
423.488	1105.71
423.864	1110.23
424.241	1136.89
424.617	1156.33
424.994	1184.35
425.37	1196.1
425.746	1154.07
426.123	1194.29
426.499	1211.24
426.875	1231.58
427.251	1239.26
427.627	1257.11
428.003	1281.52
428.379	1300.73
428.756	1269.54
429.132	1290.56
429.507	1317.9
429.883	1344.12
430.259	1356.77
430.635	1395.19
431.011	1370.11
431.387	1426.6
431.763	1434.06
432.138	1431.12
432.514	1478.35
432.89	1498.01
433.265	1525.58
433.641	1544.56
434.016	1554.51
434.392	1573.49
434.767	1602.19
435.143	1615.75
435.518	1618.01
435.894	1649.19
436.269	1659.14
436.644	1667.95
437.02	1692.58
437.395	1711.34
437.77	1717.21
438.145	1758.34
438.52	1753.6
438.895	1815.74
439.271	1811.9
439.646	1857.55
440.021	1836.08
440.395	1908.4
440.77	1844.44
441.145	1860.26
441.52	1914.72
441.895	1925.34
442.27	1971.22
442.645	1940.03
443.019	1989.07
443.394	1969.64
443.769	1978.22
444.143	2006.47
444.518	2020.94
444.892	2030.2
445.267	2039.92
445.641	2065
446.016	2093.25
446.39	2100.71
446.764	2125.57
447.139	2126.7
447.513	2146.36
447.887	2142.97
448.262	2206.24
448.636	2173.02
449.01	2205.34
449.384	2260.25
449.758	2283.08
450.132	2285.79
450.506	2295.05
450.88	2337.31
451.254	2336.86
451.628	2367.82
452.002	2394.03
452.376	2436.97
452.75	2438.78
453.123	2425.9
453.497	2458.44
453.871	2539.11
454.244	2572.56
454.618	2533.24
454.992	2604.42
455.365	2607.13
455.739	2666.34
456.112	2682.39
456.486	2723.29
456.859	2736.4
457.232	2811.42
457.606	2805.32
457.979	2833.34
458.352	2896.39
458.725	2894.13
459.099	2924.87
459.472	2992.21
459.845	3037.86
460.218	3015.03
460.591	3067.91
460.964	3054.58
461.337	3163.28
461.71	3181.36
462.083	3222.71
462.456	3232.43
462.829	3267.23
463.201	3286.21
463.574	3325.08
463.947	3367.11
464.32	3465.19
464.692	3476.72
465.065	3519.2
465.438	3535.7
465.81	3577.73
466.183	3626.09
466.555	3719.42
466.928	3663.15
467.3	3726.43
467.672	3777.27
468.045	3923.26
468.417	3929.81
468.789	3922.13
469.161	3997.38
469.534	4015.91
469.906	4140.2
470.278	4191.73
470.65	4197.6
471.022	4339.97
471.394	4370.03
471.766	4420.42
472.138	4476.01
472.51	4530.7
472.882	4606.86
473.253	4648.89
473.625	4738.15
473.997	4802.56
474.369	4861.76
474.74	4917.81
475.112	5010.24
475.484	5073.06
475.855	5130.46
476.227	5227.86
476.598	5391.24
476.97	5398.25
477.341	5515.98
477.713	5583.1
478.084	5639.6
478.455	5784
478.827	5841.85
479.198	5981.96
479.569	5976.76
479.94	6219.24
480.311	6226.02
480.682	6346.47
481.053	6543.53
481.424	6650.19
481.795	6640.02
482.166	6795.05
482.537	6858.77
482.908	7031.2
483.279	7103.06
483.65	7188.94
484.021	7355.71
484.391	7402.26
484.762	7547.57
485.133	7624.18
485.503	7707.34
485.874	7835.7
486.244	7919.99
486.615	8056.48
486.985	8195.91
487.356	8277.72
487.726	8359.98
488.097	8650.37
488.467	8657.15
488.837	8776.01
489.207	8917.25
489.578	9016.23
489.948	9103.91
490.318	9263.01
490.688	9281.08
491.058	9440.63
491.428	9572.15
491.798	9644.92
492.168	9945.25
492.538	9862.09
492.908	9953.61
493.278	10147.73
493.648	10184.34
494.017	10337.33
494.387	10386.14
494.757	10525.34
495.126	10556.3
495.496	10578.22
495.866	10766.69
496.235	10838.56
496.605	10963.3
496.974	11085.78
497.344	11083.97
497.713	11249.85
498.082	11267.92
498.452	11405.1
498.821	11445.77
499.19	11554.7
499.559	11669.04
499.928	11773.9
500.298	11776.84
500.667	12008.7
501.036	11915.36
501.405	12105.64
501.774	12052.76
502.143	12227.22
502.512	12293.89
502.88	12497.27
503.249	12427.22
503.618	12637.61
503.987	12608.23
504.356	12708.34
504.724	12784.04
505.093	12897.49
505.462	12897.49
505.83	12993.75
506.199	13143.81
506.567	13309
506.936	13323.92
507.304	13550.35
507.672	13636.45
508.041	13675.32
508.409	13756.9
508.777	13834.64
509.145	13954.18
509.514	14017.68
509.882	14142.42
510.25	14263.78
510.618	14282.99
510.986	14392.36
511.354	14584.9
511.722	14690.66
512.09	14796.42
512.458	14780.37
512.826	14954.38
513.193	15013.14
513.561	15059.46
513.929	15275.73
514.297	15427.14
514.664	15477.08
515.032	15476.63
515.4	15714.81
515.767	15734.25
516.135	15962.04
516.502	15806.34
516.869	16110.73
517.237	16090.17
517.604	16204.97
517.972	16457.17
518.339	16457.62
518.706	16565.19
519.073	16647.44
519.44	16922.46
519.808	16944.38
520.175	16996.81
520.542	17356.35
520.909	17311.61
521.276	17411.04
521.643	17515.44
522.009	17669.79
522.376	17877.69
522.743	17948.2
523.11	18201.98
523.477	18290.11
523.843	18303.45
524.21	18565.59
524.577	18728.97
524.943	18764
525.31	18898.91
525.676	19115.18
526.043	19367.15
526.409	19335.73
526.776	19513.36
527.142	19545.9
527.508	19853.01
527.874	19983.4
528.241	20069.27
528.607	20095.94
528.973	20287.8
529.339	20345.2
529.705	20547.45
530.071	20766.43
530.437	20691.41
530.803	20989.25
531.169	21223.37
531.535	21179.98
531.901	21278.73
532.267	21288
532.632	21522.34
532.998	21630.82
533.364	21742.68
533.73	21709.68
534.095	21950.13
534.461	21991.71
534.826	22135.21
535.192	22243.45
535.557	22392.6
535.923	22429.44
536.288	22558.25
536.653	22633.95
537.019	22561.19
537.384	22735.19
537.749	22951.91
538.114	23080.72
538.479	23033.26
538.845	23203.43
539.21	23272.81
539.575	23263.77
539.94	23325.91
540.305	23534.04
540.67	23508.05
541.034	23692.68
541.399	23809.74
541.764	23792.79
542.129	23951.43
542.494	24029.85
542.858	24113.24
543.223	24108.49
543.587	24305.1
543.952	24356.62
544.316	24331.54
544.681	24459.67
545.045	24557.07
545.41	24728.81
545.774	24745.08
546.138	24824.63
546.503	24985.08
546.867	24990.5
547.231	25151.63
547.595	25259.19
547.959	25285.86
548.324	25310.72
548.688	25516.14
549.052	25639.07
549.416	25647.88
549.779	25661.9
550.143	25816.24
550.507	25957.48
550.871	26072.28
551.235	26015.56
551.599	26324.03
551.962	26401.09
552.326	26608.54
552.689	26679.27
553.053	26514.53
553.417	26608.31
553.78	26942.99
554.143	26823.9
554.507	27025.02
554.87	27056.66
555.234	27398.57
555.597	27325.81
555.96	27449.65
556.323	27530.77
556.686	27585.24
557.05	27770.09
557.413	27830.43
557.776	28003.76
558.139	28163.98
558.502	28255.73
558.865	28343.41
559.228	28521.48
559.59	28618.2
559.953	28749.5
560.316	28912.43
560.679	28923.28
561.041	29162.37
561.404	29257.51
561.767	29470.38
562.129	29427.45
562.492	29840.32
562.854	29725.74
563.217	29675.58
563.579	29994.21
563.941	30137.94
564.304	30229.69
564.666	30494.76
565.028	30506.06
565.39	30727.07
565.753	30819.27
566.115	30992.15
566.477	31026.27
566.839	31094.3
567.201	31353.05
567.563	31483.66
567.925	31594.62
568.287	31588.97
568.648	31668.07
569.01	31785.8
569.372	32111.67
569.734	31953.48
570.095	32006.81
570.457	32215.17
570.819	32309.4
571.18	32477.99
571.542	32485.45
571.903	32529.51
572.265	32681.82
572.626	32788.26
572.987	32842.05
573.349	32938.31
573.71	33057.41
574.071	33205.43
574.432	33303.28
574.794	33649.71
575.155	33467.11
575.516	33344.86
575.877	33752.53
576.238	33609.26
576.599	33689.26
576.96	33780.1
577.32	33896.03
577.681	34002.69
578.042	34097.38
578.403	34006.54
578.763	34122.01
579.124	34244.95
579.485	34317.04
579.845	34380.31
580.206	34210.37
580.566	34396.58
580.927	34389.58
581.287	34524.26
581.648	34529.69
582.008	34520.42
582.368	34512.96
582.728	34695.56
583.089	34510.02
583.449	34547.99
583.809	34642.22
584.169	34564.03
584.529	34473.42
584.889	35028.43
585.249	34720.41
585.609	34583.92
585.969	34864.37
586.329	34692.84
586.688	34742.79
587.048	34790.02
587.408	34577.82
587.768	34725.39
588.127	34832.05
588.487	34646.97
588.846	35024.14
589.206	34740.3
589.565	34737.14
589.925	35006.51
590.284	35008.09
590.643	35060.07
591.003	35088.99
591.362	35057.58
591.721	35029.79
592.08	35125.83
592.44	35157.69
592.799	35083.34
593.158	34990.01
593.517	34936
593.876	35084.92
594.235	34960.63
594.593	35015.1
594.952	35095.55
595.311	35062.1
595.67	35073.4
596.029	35261.64
596.387	35360.17
596.746	35444.24
597.104	35296.9
597.463	35168.76
597.822	35377.35
598.18	35237.46
598.538	35297.12
598.897	35564.69
599.255	35230.23
599.613	35737.56
599.972	35489.66
600.33	35513.61
600.688	35411.02
601.046	35693.95
601.404	35798.35
601.762	35687.17
602.12	35890.33
602.478	35895.75
602.836	35963.32
603.194	35676.77
603.552	35757
603.91	35917.22
604.268	35933.04
604.625	35920.38
604.983	36056.2
605.341	35701.63
605.698	36049.42
606.056	35949.76
606.413	35917.45
606.771	36033.37
607.128	36198.12
607.485	36097.1
607.843	36014.62
608.2	36246.02
608.557	36367.83
608.914	36279.02
609.272	36454.83
609.629	36398.34
609.986	36501.16
610.343	36302.75
610.7	36553.81
611.057	36639.46
611.414	36438.56
611.771	36522.18
612.127	36657.31
612.484	36713.58
612.841	36809.85
613.198	36633.81
613.554	36756.97
613.911	36853.69
614.267	36902.5
614.624	36821.15
614.98	36879
615.337	37056.17
615.693	37054.82
616.05	36960.13
616.406	37283.74
616.762	37012.56
617.118	37082.16
617.475	37073.35
617.831	37161.03
618.187	37270.4
618.543	37195.6
618.899	37413
619.255	37429.04
619.611	37158.09
619.967	37455.26
620.323	37338.2
620.678	37302.49
621.034	37264.3
621.39	37302.27
621.746	37255.26
622.101	37606.21
622.457	37265.21
622.812	37445.54
623.168	37385.88
623.523	37438.31
623.879	37558.76
624.234	37198.09
624.589	37476.95
624.945	37315.37
625.3	37321.02
625.655	37349.5
626.01	37377.52
626.365	37379.78
626.72	37395.6
627.075	37330.29
627.43	37302.72
627.785	37342.72
628.14	37423.85
628.495	37427.24
628.85	37372.55
629.205	37252.78
629.559	37295.26
629.914	37205.32
630.269	37192.89
630.623	37093.01
630.978	37121.71
631.332	37187.47
631.687	37217.52
632.041	37020.02
632.396	37119
632.75	36957.64
633.104	36811.89
633.459	36742.28
633.813	36732.11
634.167	36698.89
634.521	36636.97
634.875	36632.68
635.229	36527.37
635.583	36440.37
635.937	36482.85
636.291	36325.34
636.645	36199.02
636.999	36237.66
637.352	36357.66
637.706	36088.74
638.06	36278.34
638.413	36073.6
638.767	36022.3
639.121	36178.23
639.474	35909.54
639.828	35909.31
640.181	35966.48
640.534	35799.48
640.888	35886.49
641.241	35535.76
641.594	35665.25
641.947	35827.05
642.301	35583.89
642.654	35454.18
643.007	35558.36
643.36	35507.96
643.713	35354.97
644.066	35480.85
644.419	35140.97
644.771	34907.98
645.124	34730.36
645.477	34681.32
645.83	34488.78
646.182	34178.06
646.535	34085.18
646.888	34157.27
647.24	33933.32
647.593	34197.72
647.945	33921.34
648.298	33914.56
648.65	33764.06
649.002	33641.8
649.355	33674.79
649.707	33723.83
650.059	34095.8
650.411	34334.66
650.763	34376.92
651.115	34642.9
651.467	34600.19
651.819	34359.29
652.171	34380.76
652.523	34384.38
652.875	34339.86
653.227	34110.49
653.578	34456.47
653.93	34280.88
654.282	34043.14
654.633	34024.39
654.985	34045.18
655.337	34121.33
655.688	34035.46
656.039	34136.48
656.391	33848.12
656.742	33902.36
657.094	33800.66
657.445	34002.02
657.796	33985.07
658.147	33794.11
658.498	33760.21
658.849	33827.33
659.2	33660.1
659.551	33600.22
659.902	33637.73
660.253	33524.97
660.604	33711.85
660.955	33506.21
661.306	33542.14
661.656	33485.19
662.007	33466.44
662.358	33601.12
662.708	33408.36
663.059	33497.17
663.409	33245.2
663.76	33463.27
664.11	33423.27
664.461	33495.14
664.811	33475.93
665.161	33367.68
665.511	33273.45
665.862	33298.98
666.212	33397.74
666.562	33349.83
666.912	33173.79
667.262	33093.56
667.612	33155.26
667.962	33093.56
668.312	33122.94
668.662	33322.71
669.011	33231.87
669.361	33161.13
669.711	33012.66
670.06	32843.85
670.41	32926.34
670.76	32953
671.109	32928.37
671.459	33029.16
671.808	32767.02
672.157	32884.76
672.507	32586.91
672.856	32628.94
673.205	32800.47
673.554	32863.74
673.904	32766.12
674.253	32816.06
674.602	32658.77
674.951	32242.06
675.3	32164.1
675.649	32562.28
675.998	32504.65
676.346	32527.93
676.695	32686.8
677.044	32263.98
677.393	32470.3
677.741	32430.76
678.09	32438.44
678.438	32194.15
678.787	32357.31
679.135	32325.9
679.484	32065.57
679.832	32215.17
680.181	32108.05
680.529	32125.23
680.877	32167.71
681.225	32028.06
681.573	32257.2
681.922	31894.27
682.27	31929.53
682.618	31848.63
682.966	31780.83
683.314	31798.91
683.661	31573.15
684.009	31542.42
684.357	31418.35
684.705	31360.05
685.053	31341.97
685.4	31346.04
685.748	31100.4
686.095	31217.46
686.443	31040.06
686.79	30996.9
687.138	31068.99
687.485	30967.29
687.832	30744.25
688.18	30792.61
688.527	30557.59
688.874	30421.09
689.221	30445.95
689.568	30369.57
689.915	30273.3
690.262	30384.94
690.609	30306.75
690.956	30149.46
691.303	30089.12
691.65	29956.7
691.997	30007.54
692.344	29784.5
692.69	29739.75
693.037	29815.46
693.383	29564.39
693.73	29766.42
694.077	29496.37
694.423	29618.85
694.769	29385.87
695.116	29261.35
695.462	29403.27
695.808	29244.85
696.155	29266.55
696.501	28987.91
696.847	28856.39
697.193	28681.03
697.539	28866.33
697.885	28602.84
698.231	28596.06
698.577	28512.89
698.923	28463.4
699.269	28353.58
699.614	28240.36
699.96	28186.12
700.306	28185.67
700.651	28024.32
700.997	28053.25
701.342	27932.57
701.688	27966.02
702.033	27848.73
702.379	27802.86
702.724	27728.28
703.069	27834.04
703.415	27402.42
703.76	27529.64
704.105	27521.73
704.45	27399.03
704.795	27199.26
705.14	27183.21
705.485	27171.46
705.83	27137.11
706.175	27157.9
706.52	27098.47
706.865	26956.1
707.209	26951.81
707.554	26746.39
707.899	26909.09
708.243	26642.66
708.588	26586.62
708.932	26510.24
709.277	26445.6
709.621	26541.65
709.966	26298.72
710.31	26443.8
710.654	26203.12
710.998	26231.37
711.342	26280.86
711.687	26148.66
712.031	26062.11
712.375	25959.74
712.719	25876.58
713.063	25866.41
713.407	25936.01
713.75	25893.3
714.094	25704.15
714.438	25651.27
714.782	25667.77
715.125	25556.14
715.469	25615.34
715.812	25444.5
716.156	25409.02
716.499	25337.61
716.843	25373.99
717.186	25231.4
717.53	25288.12
717.873	25225.75
718.216	25242.47
718.559	25163.38
718.902	24943.04
719.246	25021.69
719.589	24940.33
719.932	24799.77
720.275	24865.08
720.617	24863.27
720.96	24878.41
721.303	24717.74
721.646	24816.27
721.989	24541.02
722.331	24630.96
722.674	24444.98
723.016	24693.11
723.359	24462.38
723.701	24442.72
724.044	24338.31
724.386	24249.96
724.729	24384.64
725.071	24314.36
725.413	24233.68
725.755	24240.69
726.097	24130.64
726.439	24056.74
726.782	24009.28
727.124	24207.24
727.465	23910.98
727.807	24097.42
728.149	23961.38
728.491	23887.48
728.833	23953.92
729.175	23887.03
729.516	23757.99
729.858	23765.45
730.199	23713.25
730.541	23696.07
730.882	23585.57
731.224	23835.05
731.565	23504.66
731.906	23519.58
732.248	23553.7
732.589	23413.82
732.93	23315.29
733.271	23366.59
733.612	23453.82
733.953	23332.69
734.294	23302.64
734.635	23214.73
734.976	23287.95
735.317	23227.61
735.658	22989.88
735.999	23089.76
736.339	23117.56
736.68	23134.73
737.021	23027.16
737.361	22966.83
737.702	22901.06
738.042	22932.48
738.383	22909.43
738.723	22849.54
739.063	22882.99
739.404	22931.12
739.744	22793.04
740.084	22771.58
740.424	22739.49
740.764	22587.17
741.104	22786.27
741.444	22643.44
741.784	22520.06
742.124	22543.33
742.464	22554.18
742.804	22506.72
743.143	22337.92
743.483	22338.82
743.823	22207.3
744.162	22259.73
744.502	22327.97
744.841	22197.35
745.181	22255.43
745.52	22125.49
745.86	22163.68
746.199	22114.87
746.538	22017.02
746.877	22066.51
747.216	22091.37
747.556	21927.53
747.895	21921.43
748.234	21829.91
748.573	21922.56
748.911	21835.78
749.25	21822.22
749.589	21582.68
749.928	21702
750.267	21671.72
750.605	21597.6
750.944	21562.34
751.283	21407.77
751.621	21635.79
751.96	21370.03
752.298	21436.02
752.636	21344.5
752.975	21335.68
753.313	21161.9
753.651	21289.58
753.989	21177.04
754.327	21097.5
