Data from foam1_polythene_foam_FLMS001491_00071.txt Node
Date: Wed Feb 08 10:55:21 GMT 2017
User: dcchb
Spectrometer: FLMS00149
Trigger mode: 0
Integration Time (sec): 2.000000E-2
Scans to average: 10
Electric dark correction enabled: true
Nonlinearity correction enabled: false
Boxcar width: 0
XAxis mode: Wavelengths
Number of Pixels in Spectrum: 2048
>>>>>Begin Spectral Data<<<<<
341.393	-2.77
341.776	-2.77
342.16	-2.77
342.543	-33.73
342.927	-53.39
343.31	-60.39
343.693	-53.84
344.077	-67.85
344.46	-62.2
344.843	-23.11
345.226	-49.77
345.61	-9.1
345.993	-33.28
346.376	-8.19
346.759	20.51
347.142	15.99
347.525	39.49
347.908	34.29
348.291	69.32
348.674	77.23
349.057	110.9
349.44	124.46
349.823	142.31
350.206	184.57
350.588	198.58
350.971	208.53
351.354	208.07
351.737	229.54
352.119	237.45
352.502	248.07
352.884	261.18
353.267	271.57
353.65	265.7
354.032	285.36
354.414	279.03
354.797	298.69
355.179	286.72
355.562	314.51
355.944	319.26
356.326	328.75
356.709	326.26
357.091	328.75
357.473	347.73
357.855	347.5
358.238	333.49
358.62	333.04
359.002	332.59
359.384	318.81
359.766	317.22
360.148	343.21
360.53	331.23
360.912	332.82
361.294	338.01
361.676	342.31
362.057	307.73
362.439	317.9
362.821	307.96
363.203	314.96
363.584	314.51
363.966	310.22
364.348	327.39
364.729	322.65
365.111	316.32
365.493	318.58
365.874	332.59
366.256	316.77
366.637	312.93
367.019	308.86
367.4	311.8
367.781	309.31
368.163	303.66
368.544	299.82
368.925	312.93
369.306	308.86
369.688	305.25
370.069	318.81
370.45	319.26
370.831	305.25
371.212	316.77
371.593	327.62
371.974	309.77
372.355	310.44
372.736	320.16
373.117	304.12
373.498	294.85
373.879	324.68
374.26	304.12
374.641	309.54
375.021	322.87
375.402	315.64
375.783	312.25
376.163	322.19
376.544	338.24
376.925	328.3
377.305	310.44
377.686	310.67
378.066	328.07
378.447	332.14
378.827	356.54
379.208	349.31
379.588	317
379.968	339.14
380.349	333.95
380.729	337.11
381.109	328.3
381.489	343.21
381.87	330.1
382.25	352.02
382.63	339.37
383.01	335.98
383.39	357.9
383.77	348.18
384.15	336.66
384.53	349.09
384.91	339.82
385.29	334.17
385.67	352.48
386.049	364.23
386.429	371.23
386.809	375.53
387.189	361.29
387.568	359.71
387.948	363.1
388.328	382.08
388.707	385.92
389.087	380.27
389.466	386.37
389.846	382.53
390.225	400.61
390.605	382.53
390.984	385.24
391.363	396.77
391.743	377.33
392.122	371.69
392.501	381.63
392.881	409.2
393.26	410.55
393.639	388.86
394.018	407.84
394.397	411.68
394.776	401.29
395.155	403.1
395.534	401.97
395.913	423.66
396.292	436.32
396.671	416.66
397.05	414.85
397.429	423.44
397.808	414.62
398.186	387.5
398.565	406.71
398.944	416.43
399.323	429.76
399.701	422.76
400.08	436.77
400.458	444.23
400.837	445.36
401.215	469.76
401.594	458.69
401.972	455.07
402.351	452.81
402.729	449.88
403.107	463.89
403.486	474.73
403.864	476.54
404.242	477.9
404.62	493.26
404.999	476.09
405.377	485.13
405.755	495.98
406.133	470.21
406.511	503.66
406.889	497.56
407.267	490.78
407.645	515.86
408.023	499.59
408.401	521.96
408.779	498.91
409.156	524.68
409.534	520.16
409.912	531
410.29	516.77
410.667	531.68
411.045	538.46
411.422	552.47
411.8	548.86
412.178	539.59
412.555	557.22
412.933	549.08
413.31	556.77
413.687	564
414.065	567.16
414.442	584.79
414.819	585.69
415.197	602.64
415.574	598.57
415.951	594.73
416.328	600.38
416.705	583.88
417.082	593.6
417.46	602.64
417.837	594.28
418.214	608.74
418.591	615.29
418.967	634.28
419.344	623.43
419.721	620.94
420.098	639.93
420.475	638.8
420.852	655.52
421.228	654.62
421.605	661.17
421.982	648.06
422.358	660.72
422.735	658.91
423.111	684.67
423.488	683.54
423.864	664.56
424.241	707.27
424.617	678.34
424.994	722.86
425.37	713.37
425.746	726.7
426.123	741.62
426.499	707.04
426.875	736.2
427.251	753.14
427.627	767.15
428.003	774.39
428.379	762.64
428.756	763.31
429.132	780.71
429.507	782.97
429.883	810.09
430.259	795.18
430.635	821.39
431.011	833.37
431.387	813.03
431.763	854.38
432.138	854.38
432.514	867.72
432.89	888.73
433.265	886.25
433.641	914.95
434.016	925.12
434.392	924.89
434.767	925.57
435.143	952.69
435.518	953.36
435.894	953.59
436.269	938
436.644	961.73
437.02	998.56
437.395	975.74
437.77	1016.87
438.145	1021.61
438.52	1005.11
438.895	1040.37
439.271	1041.95
439.646	1051.44
440.021	1053.02
440.395	1049.18
440.77	1058.9
441.145	1043.53
441.52	1089.41
441.895	1110.2
442.27	1095.28
442.645	1132.34
443.019	1113.36
443.394	1126.69
443.769	1126.24
444.143	1134.83
444.518	1165.79
444.892	1159.46
445.267	1187.48
445.641	1200.14
446.016	1187.71
446.39	1192.68
446.764	1211.21
447.139	1207.6
447.513	1204.88
447.887	1234.49
448.262	1242.4
448.636	1262.28
449.01	1294.6
449.384	1295.73
449.758	1313.81
450.132	1310.42
450.506	1316.75
450.88	1310.64
451.254	1309.74
451.628	1342.06
452.002	1337.08
452.376	1396.74
452.75	1366.46
453.123	1388.61
453.497	1420.25
453.871	1434.48
454.244	1462.73
454.618	1455.95
454.992	1455.05
455.365	1487.81
455.739	1496.85
456.112	1520.58
456.486	1516.29
456.859	1530.3
457.232	1558.32
457.606	1554.25
457.979	1559.68
458.352	1609.84
458.725	1601.48
459.099	1612.1
459.472	1640.8
459.845	1637.41
460.218	1632.22
460.591	1669.73
460.964	1674.93
461.337	1730.97
461.71	1726.9
462.083	1722.61
462.456	1735.94
462.829	1755.38
463.201	1810.29
463.574	1780.01
463.947	1802.16
464.32	1863.85
464.692	1865.66
465.065	1882.38
465.438	1905.66
465.81	1936.16
466.183	1936.62
466.555	1984.98
466.928	2022.26
467.3	2023.85
467.672	2031.3
468.045	2060.23
468.417	2091.41
468.789	2087.12
469.161	2128.25
469.534	2131.19
469.906	2216.61
470.278	2208.02
470.65	2218.64
471.022	2244.4
471.394	2301.8
471.766	2324.18
472.138	2320.56
472.51	2391.07
472.882	2415.47
473.253	2456.6
473.625	2465.19
473.997	2527.33
474.369	2522.82
474.74	2535.24
475.112	2619.31
475.484	2637.16
475.855	2697.05
476.227	2691.4
476.598	2786.08
476.97	2815.01
477.341	2845.74
477.713	2876.25
478.084	2927.55
478.455	2975.91
478.827	3013.88
479.198	3103.82
479.569	3117.38
479.94	3183.81
480.311	3220.42
480.682	3234.43
481.053	3382
481.424	3378.39
481.795	3438.05
482.166	3463.58
482.537	3505.61
482.908	3601.2
483.279	3648.44
483.65	3685.27
484.021	3738.15
484.391	3784.48
484.762	3830.58
485.133	3893.63
485.503	3895.66
485.874	3979.27
486.244	4050.01
486.615	4175.2
486.985	4199.83
487.356	4279.6
487.726	4291.36
488.097	4289.1
488.467	4318.02
488.837	4407.96
489.207	4462.43
489.578	4524.34
489.948	4588.52
490.318	4667.17
490.688	4703.77
491.058	4761.4
491.428	4819.25
491.798	4871.45
492.168	4999.59
492.538	4977.44
492.908	5041.39
493.278	5116.19
493.648	5168.17
494.017	5212.46
494.387	5241.84
494.757	5309.86
495.126	5339.01
495.496	5437.09
495.866	5403.19
496.235	5463.08
496.605	5512.11
496.974	5521.61
497.344	5582.85
497.713	5675.05
498.082	5767.7
498.452	5843.41
498.821	5807.7
499.19	5784.42
499.559	5873.01
499.928	5909.84
500.298	5936.51
500.667	6014.25
501.036	5975.83
501.405	6123.17
501.774	6124.98
502.143	6203.85
502.512	6193.23
502.88	6282.49
503.249	6277.74
503.618	6302.15
503.987	6320.46
504.356	6356.61
504.724	6445.88
505.093	6460.34
505.462	6505.54
505.83	6555.03
506.199	6650.39
506.567	6713.21
506.936	6716.83
507.304	6797.96
507.672	6795.47
508.041	6861.68
508.409	6900.33
508.777	6967.67
509.145	7000.44
509.514	7034.79
509.882	7153.65
510.25	7159.3
510.618	7210.15
510.986	7221.67
511.354	7273.2
511.722	7366.98
512.09	7408.56
512.458	7418.28
512.826	7502.57
513.193	7535.34
513.561	7670.93
513.929	7724.26
514.297	7693.07
514.664	7802.45
515.032	7891.26
515.4	7875.22
515.767	7922.45
516.135	7981.88
516.502	7975.1
516.869	8095.55
517.237	8166.51
517.604	8135.55
517.972	8322.66
518.339	8293.28
518.706	8372.6
519.073	8352.94
519.44	8477.91
519.808	8554.75
520.175	8589.32
520.542	8632.03
520.909	8764.01
521.276	8785.02
521.643	8810.56
522.009	8926.94
522.376	8986.37
522.743	9074.96
523.11	9141.17
523.477	9241.73
523.843	9281.28
524.21	9329.64
524.577	9345.69
524.943	9480.37
525.31	9578.22
525.676	9605.57
526.043	9722.4
526.409	9759.46
526.776	9859.8
527.142	9904.77
527.508	9961.49
527.874	9979.79
528.241	10075.61
528.607	10051.2
528.973	10208.49
529.339	10177.75
529.705	10346.34
530.071	10424.3
530.437	10560.34
530.803	10580.91
531.169	10557.86
531.535	10657.29
531.901	10659.32
532.267	10769.38
532.632	10779.32
532.998	10730.28
533.364	10949.26
533.73	10927.57
534.095	11083.27
534.461	11077.17
534.826	11103.15
535.192	11185.41
535.557	11334.79
535.923	11249.14
536.288	11319.42
536.653	11335.46
537.019	11344.73
537.384	11441.45
537.749	11450.94
538.114	11437.61
538.479	11546.08
538.845	11589.24
539.21	11583.14
539.575	11663.14
539.94	11634.21
540.305	11758.73
540.67	11808.9
541.034	11815.23
541.399	11839.63
541.764	11906.98
542.129	11963.92
542.494	12033.07
542.858	11951.95
543.223	12058.84
543.587	12162.34
543.952	12121.21
544.316	12257.47
544.681	12215.44
545.045	12260.19
545.41	12375.21
545.774	12386.74
546.138	12417.47
546.503	12403.91
546.867	12373.4
547.231	12576.34
547.595	12559.16
547.959	12641.19
548.324	12665.6
548.688	12740.63
549.052	12729.33
549.416	12736.78
549.779	12736.78
550.143	12827.63
550.507	12988.08
550.871	12918.7
551.235	12900.4
551.599	13083.89
551.962	13095.87
552.326	13160.5
552.689	13236.43
553.053	13141.97
553.417	13270.78
553.78	13451.79
554.143	13387.16
554.507	13461.51
554.87	13411.79
555.234	13602.98
555.597	13494.5
555.96	13566.37
556.323	13735.85
556.686	13723.2
557.05	13778.11
557.413	13826.7
557.776	13844.78
558.139	13933.36
558.502	14009.97
558.865	14001.61
559.228	14094.49
559.59	14128.39
559.953	14164.99
560.316	14343.3
560.679	14424.2
561.041	14432.11
561.404	14471.43
561.767	14580.13
562.129	14516.85
562.492	14706
562.854	14674.13
563.217	14760.01
563.579	14780.12
563.941	14917.07
564.304	14922.94
564.666	15018.31
565.028	15083.61
565.39	15096.5
565.753	15167
566.115	15275.25
566.477	15357.51
566.839	15344.62
567.201	15555.01
567.563	15506.88
567.925	15581.68
568.287	15645.41
568.648	15760.21
569.01	15795.23
569.372	15811.28
569.734	15800.21
570.095	16004.72
570.457	16027.09
570.819	16044.72
571.18	15995
571.542	16098.05
571.903	16135.34
572.265	16208.56
572.626	16231.38
572.987	16231.16
573.349	16332.17
573.71	16394.54
574.071	16492.17
574.432	16446.29
574.794	16721.76
575.155	16678.38
575.516	16468.44
575.877	16637.47
576.238	16643.12
576.599	16703.01
576.96	16743.23
577.32	16746.17
577.681	16725.61
578.042	16782.55
578.403	16772.16
578.763	16858.26
579.124	16896.45
579.485	16998.37
579.845	16932.61
580.206	17001.76
580.566	17023.68
580.927	17003.79
581.287	17046.05
581.648	17044.02
582.008	17151.81
582.368	17014.86
582.728	17135.31
583.089	17090.12
583.449	17156.55
583.809	17149.1
584.169	17199.94
584.529	17201.3
584.889	17267.29
585.249	17154.75
585.609	17203.11
585.969	17231.13
586.329	17105.26
586.688	17177.57
587.048	17127.18
587.408	17123.79
587.768	17181.19
588.127	17118.14
588.487	17081.98
588.846	17245.37
589.206	17265.93
589.565	17272.26
589.925	17269.32
590.284	17209.43
590.643	17241.07
591.003	17286.04
591.362	17383.67
591.721	17271.58
592.08	17190.9
592.44	17228.87
592.799	17234.07
593.158	17281.3
593.517	17204.91
593.876	17190
594.235	17189.77
594.593	17293.73
594.952	17426.38
595.311	17210.34
595.67	17311.13
596.029	17427.73
596.387	17441.07
596.746	17433.16
597.104	17328.75
597.463	17210.79
597.822	17477.45
598.18	17357.68
598.538	17420.95
598.897	17450.78
599.255	17381.86
599.613	17581.18
599.972	17381.86
600.33	17455.08
600.688	17389.77
601.046	17460.73
601.404	17518.13
601.762	17428.86
602.12	17592.48
602.478	17557.67
602.836	17679.93
603.194	17569.43
603.552	17558.13
603.91	17467.96
604.268	17516.55
604.625	17547.96
604.983	17729.19
605.341	17545.02
605.698	17694.39
606.056	17668.18
606.413	17541.63
606.771	17658.24
607.128	17686.03
607.485	17626.37
607.843	17747.05
608.2	17809.64
608.557	17872.69
608.914	17731.68
609.272	17844.67
609.629	17917.89
609.986	17982.52
610.343	17842.41
610.7	17999.24
611.057	17975.97
611.414	17952.92
611.771	17942.97
612.127	18015.29
612.484	18055.29
612.841	18053.71
613.198	17942.52
613.554	17975.52
613.911	18105.23
614.267	18130.31
614.624	18134.16
614.98	18048.51
615.337	18188.17
615.693	18124.89
616.05	18008.28
616.406	18245.34
616.762	18171.22
617.118	18161.5
617.475	18181.61
617.831	18248.96
618.187	18242.63
618.543	18311.78
618.899	18352.68
619.255	18291.21
619.611	18302.51
619.967	18378.67
620.323	18420.93
620.678	18333.02
621.034	18314.94
621.39	18406.92
621.746	18328.5
622.101	18470.64
622.457	18313.13
622.812	18357.2
623.168	18351.1
623.523	18426.8
623.879	18380.48
624.234	18295.73
624.589	18340.03
624.945	18366.01
625.3	18375.51
625.655	18422.06
626.01	18392.91
626.365	18330.31
626.72	18375.28
627.075	18319.24
627.43	18347.71
627.785	18288.5
628.14	18272.46
628.495	18279.01
628.85	18306.81
629.205	18216.41
629.559	18280.59
629.914	18229.75
630.269	18198.11
630.623	18143.87
630.978	18086.02
631.332	18207.15
631.687	18267.26
632.041	18154.27
632.396	18201.05
632.75	18155.85
633.104	18195.85
633.459	18086.02
633.813	18013.26
634.167	18006.7
634.521	17964.44
634.875	17999.02
635.229	18001.96
635.583	17884.67
635.937	17878.57
636.291	17898.68
636.645	17888.51
636.999	17779.81
637.352	17913.82
637.706	17921.96
638.06	17934.61
638.413	17818.91
638.767	17767.16
639.121	17843.54
639.474	17686.71
639.828	17667.73
640.181	17649.87
640.534	17584.34
640.888	17470.22
641.241	17449.2
641.594	17447.39
641.947	17560.39
642.301	17444.46
642.654	17530.56
643.007	17615.98
643.36	17444.68
643.713	17398.58
644.066	17498.92
644.419	17451.91
644.771	17409.88
645.124	17271.58
645.477	17166.5
645.83	17067.74
646.182	16874.98
646.535	16860.29
646.888	16726.96
647.24	16639.28
647.593	16677.92
647.945	16655.1
648.298	16617.59
648.65	16576.23
649.002	16509.34
649.355	16646.74
649.707	16712.05
650.059	16788.43
650.411	16938.26
650.763	17086.95
651.115	17131.47
651.467	17161.07
651.819	17007.41
652.171	16980.74
652.523	17015.54
652.875	16857.81
653.227	16808.32
653.578	16896.22
653.93	16851.7
654.282	16721.09
654.633	16659.39
654.985	16737.81
655.337	16840.86
655.688	16768.77
656.039	16879.5
656.391	16724.48
656.742	16771.25
657.094	16769.9
657.445	16924.02
657.796	16825.49
658.147	16648.09
658.498	16634.31
658.849	16759.28
659.2	16664.82
659.551	16637.25
659.902	16557.93
660.253	16646.74
660.604	16597.02
660.955	16543.92
661.306	16517.93
661.656	16565.61
662.007	16562.67
662.358	16609.68
662.708	16606.51
663.059	16586.63
663.409	16538.72
663.76	16617.59
664.11	16545.72
664.461	16480.64
664.811	16575.55
665.161	16444.03
665.511	16393.64
665.862	16410.59
666.212	16471.37
666.562	16473.86
666.912	16313.64
667.262	16306.18
667.612	16345.95
667.962	16379.63
668.312	16323.58
668.662	16424.82
669.011	16440.19
669.361	16345.05
669.711	16338.72
670.06	16308.67
670.41	16378.95
670.76	16329.91
671.109	16441.09
671.459	16362.23
671.808	16322.9
672.157	16378.04
672.507	16327.2
672.856	16187.09
673.205	16280.42
673.554	16260.76
673.904	16224.83
674.253	16201.78
674.602	16142.57
674.951	16009.24
675.3	15840.43
675.649	16072.29
675.998	16078.84
676.346	16151.61
676.695	16175.79
677.044	16052.63
677.393	16161.1
677.741	16133.76
678.09	16098.5
678.438	16049.47
678.787	16067.77
679.135	15980.09
679.484	15903.93
679.832	15963.59
680.181	15862.8
680.529	16019.18
680.877	15937.15
681.225	15839.53
681.573	15855.57
681.922	15667.33
682.27	15791.84
682.618	15739.19
682.966	15699.64
683.314	15781.9
683.661	15636.59
684.009	15663.03
684.357	15687.21
684.705	15618.06
685.053	15711.62
685.4	15644.28
685.748	15519.76
686.095	15545.3
686.443	15530.38
686.79	15416.49
687.138	15450.84
687.485	15449.25
687.832	15348.47
688.18	15278.19
688.527	15255.81
688.874	15180.34
689.221	15215.81
689.568	15101.02
689.915	15100.34
690.262	15133.78
690.609	15067.34
690.956	14991.64
691.303	15039.55
691.65	14974.47
691.997	14955.71
692.344	14800.01
692.69	14909.61
693.037	15002.49
693.383	14861.7
693.73	14822.6
694.077	14693.79
694.423	14727.01
694.769	14660.35
695.116	14586
695.462	14563.85
695.808	14520.69
696.155	14532.44
696.501	14363.41
696.847	14346.68
697.193	14222.17
697.539	14352.56
697.885	14322.96
698.231	14190.98
698.577	14296.29
698.923	14218.55
699.269	14094.26
699.614	14110.08
699.96	14065.56
700.306	14067.14
700.651	14082.96
700.997	14015.62
701.342	13966.36
701.688	14008.16
702.033	13859.92
702.379	13769.07
702.724	13771.11
703.069	13811.56
703.415	13600.94
703.76	13612.92
704.105	13605.69
704.45	13554.84
704.795	13457.89
705.14	13435.07
705.485	13463.32
705.83	13361.85
706.175	13448.86
706.52	13373.6
706.865	13350.55
707.209	13312.14
707.554	13385.58
707.899	13408.4
708.243	13328.86
708.588	13348.07
708.932	13225.81
709.277	13245.02
709.621	13210.67
709.966	13116.21
710.31	13099.49
710.654	12960.51
710.998	12999.83
711.342	12936.55
711.687	12907.85
712.031	12749.44
712.375	12698.82
712.719	12868.98
713.063	12777.23
713.407	12768.2
713.75	12648.42
714.094	12701.3
714.438	12638.26
714.782	12774.07
715.125	12678.71
715.469	12701.98
715.812	12667.63
716.156	12687.97
716.499	12585.38
716.843	12604.58
717.186	12567.3
717.53	12621.76
717.873	12585.38
718.216	12470.35
718.559	12432.84
718.902	12341.09
719.246	12389.45
719.589	12229.23
719.932	12221.54
720.275	12142.45
720.617	12240.3
720.96	12166.63
721.303	12201.2
721.646	12184.93
721.989	12147.65
722.331	12141.55
722.674	12032.62
723.016	12153.75
723.359	12186.97
723.701	12140.42
724.044	12176.8
724.386	12013.41
724.729	12119.85
725.071	12045.05
725.413	12109.68
725.755	12005.73
726.097	11850.93
726.439	11864.26
726.782	11897.94
727.124	11931.61
727.465	11796.47
727.807	11780.65
728.149	11719.64
728.491	11677.15
728.833	11706.75
729.175	11662.69
729.516	11625.4
729.858	11697.26
730.199	11646.64
730.541	11668.56
730.882	11651.84
731.224	11653.65
731.565	11634.44
731.906	11561.22
732.248	11706.53
732.589	11588.11
732.93	11592.86
733.271	11626.53
733.612	11558.74
733.953	11593.76
734.294	11538.4
734.635	11390.15
734.976	11417.95
735.317	11345.86
735.658	11326.2
735.999	11297.73
736.339	11264.05
736.68	11290.49
737.021	11218.86
737.361	11170.27
737.702	11200.33
738.042	11290.27
738.383	11297.5
738.723	11192.64
739.063	11247.33
739.404	11270.83
739.744	11215.92
740.084	11104.96
740.424	11213.66
740.764	11140.44
741.104	11213.66
741.444	11147.67
741.784	11096.15
742.124	11177.5
742.464	11038.75
742.804	11087.56
743.143	11032.2
743.483	11003.5
743.823	10956.49
744.162	10905.42
744.502	10803.95
744.841	10820.68
745.181	10959.43
745.52	10801.02
745.86	10795.82
746.199	10770.73
746.538	10850.73
746.877	10806.89
747.216	10858.19
747.556	10813.67
747.895	10781.81
748.234	10751.3
748.573	10717.18
748.911	10742.71
749.25	10739.1
749.589	10638.31
749.928	10651.41
750.267	10692.54
750.605	10707.68
750.944	10601.25
751.283	10603.05
751.621	10521.02
751.96	10488.48
752.298	10444.19
752.636	10511.98
752.975	10413.91
753.313	10459.33
753.651	10389.95
753.989	10288.94
754.327	10249.84
754.666	10292.78
755.004	10355.83
755.342	10291.88
755.679	10252.56
756.017	10188.38
756.355	10259.79
756.693	10237.87
