Data from foam_black_FLMS001491_00057.txt Node
Date: Wed Feb 08 10:44:08 GMT 2017
User: dcchb
Spectrometer: FLMS00149
Trigger mode: 0
Integration Time (sec): 2.000000E-2
Scans to average: 10
Electric dark correction enabled: true
Nonlinearity correction enabled: false
Boxcar width: 0
XAxis mode: Wavelengths
Number of Pixels in Spectrum: 2048
>>>>>Begin Spectral Data<<<<<
341.393	-15.4
341.776	-15.4
342.16	-15.4
342.543	-59.69
342.927	-58.78
343.31	-52.68
343.693	-70.08
344.077	-56.75
344.46	-45.9
344.843	-64.21
345.226	-40.71
345.61	-45
345.993	-13.36
346.376	-1.61
346.759	4.04
347.142	32.06
347.525	40.65
347.908	49.24
348.291	65.96
348.674	89.23
349.057	109.12
349.44	127.43
349.823	119.52
350.206	131.95
350.588	177.37
350.971	205.16
351.354	208.33
351.737	207.2
352.119	227.31
352.502	246.07
352.884	264.37
353.267	266.63
353.65	259.17
354.032	267.08
354.414	265.5
354.797	298.49
355.179	289.46
355.562	297.59
355.944	281.32
356.326	308.21
356.709	312.73
357.091	310.25
357.473	325.16
357.855	307.31
358.238	324.48
358.62	321.55
359.002	327.87
359.384	306.18
359.766	322.68
360.148	318.61
360.53	305.05
360.912	340.08
361.294	323.35
361.676	321.77
362.057	314.99
362.439	333.07
362.821	324.71
363.203	305.05
363.584	311.15
363.966	301.43
364.348	299.17
364.729	308.89
365.111	292.62
365.493	289.23
365.874	283.58
366.256	300.53
366.637	297.59
367.019	265.73
367.4	297.59
367.781	298.04
368.163	292.17
368.544	292.62
368.925	300.3
369.306	293.98
369.688	288.55
370.069	294.65
370.45	269.57
370.831	286.74
371.212	301.21
371.593	304.14
371.974	285.39
372.355	298.95
372.736	300.98
373.117	300.08
373.498	312.05
373.879	298.72
374.26	300.08
374.641	295.78
375.021	283.13
375.402	300.75
375.783	307.08
376.163	314.54
376.544	297.59
376.925	293.75
377.305	315.9
377.686	299.17
378.066	307.31
378.447	286.29
378.827	322.68
379.208	328.55
379.588	303.01
379.968	320.64
380.349	315.44
380.729	321.32
381.109	319.06
381.489	331.04
381.87	320.42
382.25	319.51
382.63	312.28
383.01	321.32
383.39	312.51
383.77	328.32
384.15	335.78
384.53	346.86
384.91	333.97
385.29	326.52
385.67	329
386.049	331.94
386.429	338.95
386.809	314.77
387.189	328.55
387.568	316.8
387.948	338.04
388.328	328.78
388.707	338.95
389.087	340.98
389.466	340.53
389.846	350.92
390.225	336.23
390.605	350.7
390.984	335.56
391.363	345.27
391.743	350.92
392.122	331.49
392.501	356.12
392.881	343.92
393.26	353.18
393.639	351.83
394.018	344.14
394.397	346.86
394.776	361.32
395.155	377.59
395.534	347.31
395.913	364.26
396.292	356.35
396.671	364.03
397.05	366.06
397.429	364.48
397.808	370.58
398.186	358.15
398.565	388.44
398.944	374.43
399.323	361.54
399.701	372.84
400.08	379.4
400.458	379.17
400.837	369.23
401.215	379.85
401.594	373.75
401.972	377.14
402.351	386.18
402.729	385.05
403.107	393.63
403.486	398.61
403.864	377.81
404.242	383.46
404.62	387.31
404.999	391.37
405.377	389.57
405.755	394.54
406.133	394.76
406.511	400.64
406.889	386.85
407.267	406.06
407.645	383.92
408.023	416.01
408.401	399.51
408.779	399.96
409.156	413.97
409.534	427.53
409.912	413.97
410.29	438.6
410.667	429.34
411.045	417.14
411.422	416.91
411.8	425.95
412.178	440.64
412.555	424.14
412.933	427.08
413.31	432.5
413.687	449.45
414.065	446.51
414.442	446.29
414.819	456.23
415.197	450.58
415.574	435.21
415.951	475.44
416.328	451.26
416.705	444.48
417.082	453.52
417.46	469.34
417.837	446.51
418.214	436.12
418.591	465.27
418.967	459.62
419.344	458.72
419.721	456
420.098	461.65
420.475	447.42
420.852	475.89
421.228	471.6
421.605	459.17
421.982	488.09
422.358	477.7
422.735	477.02
423.111	507.53
423.488	498.49
423.864	489.22
424.241	496.91
424.617	486.51
424.994	523.12
425.37	516.79
425.746	476.34
426.123	517.7
426.499	519.51
426.875	516.12
427.251	502.56
427.627	526.06
428.003	505.5
428.379	541.65
428.756	537.36
429.132	526.06
429.507	539.62
429.883	528.77
430.259	546.4
430.635	544.82
431.011	549.34
431.387	562.67
431.763	527.87
432.138	543.23
432.514	579.62
432.89	567.87
433.265	586.17
433.641	571.71
434.016	584.59
434.392	580.75
434.767	601.09
435.143	595.21
435.518	616.68
435.894	595.44
436.269	602.22
436.644	603.12
437.02	617.81
437.395	593.63
437.77	631.14
438.145	618.71
438.52	624.14
438.895	633.4
439.271	658.71
439.646	638.6
440.021	649.22
440.395	639.73
440.77	631.14
441.145	651.93
441.52	644.93
441.895	644.7
442.27	673.4
442.645	661.2
443.019	681.08
443.394	646.96
443.769	663.68
444.143	669.11
444.518	667.3
444.892	677.92
445.267	660.52
445.641	688.77
446.016	691.03
446.39	687.41
446.764	714.76
447.139	671.14
447.513	695.32
447.887	685.15
448.262	704.59
448.636	694.64
449.01	704.81
449.384	695.55
449.758	717.92
450.132	706.85
450.506	723.34
450.88	705.49
451.254	738.71
451.628	755.43
452.002	759.05
452.376	766.28
452.75	750.23
453.123	751.82
453.497	768.31
453.871	757.24
454.244	767.41
454.618	780.29
454.992	800.63
455.365	791.82
455.739	785.26
456.112	796.56
456.486	804.92
456.859	799.72
457.232	814.19
457.606	820.74
457.979	828.2
458.352	842.21
458.725	859.38
459.099	862.1
459.472	855.77
459.845	851.02
460.218	862.1
460.591	866.84
460.964	862.1
461.337	890.8
461.71	894.64
462.083	894.64
462.456	904.58
462.829	912.26
463.201	917.46
463.574	923.34
463.947	937.35
464.32	967.18
464.692	951.81
465.065	960.85
465.438	957.23
465.81	977.57
466.183	1004.24
466.555	1002.88
466.928	1039.72
467.3	1008.76
467.672	1039.49
468.045	1052.83
468.417	1061.64
468.789	1038.36
469.161	1062.77
469.534	1074.07
469.906	1073.16
470.278	1092.37
470.65	1102.09
471.022	1108.64
471.394	1145.93
471.766	1147.29
472.138	1134.63
472.51	1169.66
472.882	1181.86
473.253	1195.87
473.625	1189.09
473.997	1208.53
474.369	1226.15
474.74	1216.21
475.112	1262.99
475.484	1239.71
475.855	1289.43
476.227	1284.46
476.598	1326.49
476.97	1319.94
477.341	1355.87
477.713	1352.03
478.084	1387.05
478.455	1419.37
478.827	1419.14
479.198	1457.33
479.569	1441.06
479.94	1463.89
480.311	1510.67
480.682	1514.28
481.053	1536.43
481.424	1522.87
481.795	1541.17
482.166	1565.13
482.537	1593.15
482.908	1626.6
483.279	1600.16
483.65	1645.58
484.021	1683.09
484.391	1693.71
484.762	1719.7
485.133	1724.45
485.503	1749.98
485.874	1758.34
486.244	1796.76
486.615	1793.6
486.985	1827.04
487.356	1871.33
487.726	1878.79
488.097	1888.74
488.467	1900.03
488.837	1954.27
489.207	1969.41
489.578	1997.66
489.948	2029.07
490.318	2005.12
490.688	2034.04
491.058	2088.96
491.428	2081.05
491.798	2105.23
492.168	2109.75
492.538	2134.15
492.908	2154.94
493.278	2191.78
493.648	2166.47
494.017	2217.09
494.387	2245.34
494.757	2250.53
495.126	2205.11
495.496	2265.22
495.866	2276.3
496.235	2311.55
496.605	2293.47
496.974	2333.47
497.344	2324.2
497.713	2368.27
498.082	2391.1
498.452	2412.11
498.821	2392
499.19	2403.75
499.559	2448.27
499.928	2470.64
500.298	2424.77
500.667	2498.66
501.036	2483.97
501.405	2510.87
501.774	2485.1
502.143	2510.41
502.512	2560.13
502.88	2595.16
503.249	2567.81
503.618	2592.45
503.987	2637.19
504.356	2648.26
504.724	2653.24
505.093	2643.74
505.462	2648.94
505.83	2669.05
506.199	2693.01
506.567	2705.66
506.936	2740.92
507.304	2766.45
507.672	2740.69
508.041	2758.32
508.409	2781.14
508.777	2799.22
509.145	2828.15
509.514	2815.49
509.882	2875.38
510.25	2842.61
510.618	2869.95
510.986	2879.22
511.354	2911.99
511.722	2942.49
512.09	2959.89
512.458	2929.61
512.826	2986.79
513.193	3001.7
513.561	3001.25
513.929	3019.55
514.297	3081.92
514.664	3112.43
515.032	3057.97
515.4	3125.09
515.767	3128.7
516.135	3138.65
516.502	3148.59
516.869	3148.59
517.237	3207.8
517.604	3200.34
517.972	3210.51
518.339	3260
518.706	3257.06
519.073	3295.93
519.44	3304.07
519.808	3359.66
520.175	3323.5
520.542	3379.32
520.909	3388.81
521.276	3412.99
521.643	3447.79
522.009	3435.59
522.376	3467.68
522.743	3517.17
523.11	3528.92
523.477	3559.43
523.843	3569.6
524.21	3610.5
524.577	3652.76
524.943	3633.77
525.31	3679.42
525.676	3733.43
526.043	3740.89
526.409	3748.35
526.776	3782.7
527.142	3790.61
527.508	3770.04
527.874	3820.44
528.241	3880.1
528.607	3869.93
528.973	3909.25
529.339	3934.78
529.705	3969.36
530.071	3958.96
530.437	3990.38
530.803	4022.24
531.169	4102.69
531.535	4000.77
531.901	4031.96
532.267	4080.99
532.632	4142.46
532.998	4107.43
533.364	4155.12
533.73	4147.43
534.095	4190.14
534.461	4222.01
534.826	4222.69
535.192	4196.02
535.557	4262.46
535.923	4241.44
536.288	4252.52
536.653	4303.59
537.019	4296.13
537.384	4295.9
537.749	4296.81
538.114	4335.68
538.479	4332.97
538.845	4363.7
539.21	4405.28
539.575	4386.3
539.94	4383.36
540.305	4453.64
540.67	4435.79
541.034	4424.26
541.399	4479.85
541.764	4454.54
542.129	4545.84
542.494	4525.5
542.858	4552.39
543.223	4588.33
543.587	4590.36
543.952	4586.74
544.316	4650.7
544.681	4619.96
545.045	4664.26
545.41	4686.4
545.774	4708.1
546.138	4671.71
546.503	4713.97
546.867	4763.24
547.231	4803.01
547.595	4741.09
547.959	4823.12
548.324	4818.38
548.688	4801.88
549.052	4803.24
549.416	4793.97
549.779	4886.4
550.143	4879.39
550.507	4869.9
550.871	4956
551.235	4871.71
551.599	4953.74
551.962	4957.13
552.326	4911.93
552.689	5010.69
553.053	4963.68
553.417	4994.19
553.78	5051.59
554.143	4995.32
554.507	5043
554.87	5037.13
555.234	5116.45
555.597	5043
555.96	5121.42
556.323	5164.58
556.686	5184.24
557.05	5171.36
557.413	5212.04
557.776	5246.39
558.139	5233.96
558.502	5242.32
558.865	5259.04
559.228	5294.3
559.59	5363.22
559.953	5327.06
560.316	5400.51
560.679	5384.69
561.041	5426.04
561.404	5423.56
561.767	5473.95
562.129	5532.93
562.492	5491.8
562.854	5574.97
563.217	5590.33
563.579	5601.18
563.941	5624
564.304	5631.69
564.666	5683.66
565.028	5685.92
565.39	5738.13
565.753	5779.03
566.115	5809.76
566.477	5842.53
566.839	5856.99
567.201	5878.91
567.563	5892.47
567.925	5914.17
568.287	5896.77
568.648	5953.94
569.01	5970.89
569.372	5988.51
569.734	5994.16
570.095	6020.38
570.457	6045.01
570.819	6053.37
571.18	6096.08
571.542	6066.7
571.903	6141.96
572.265	6087.72
572.626	6127.95
572.987	6146.25
573.349	6149.19
573.71	6251.11
574.071	6268.28
574.432	6238
574.794	6305.57
575.155	6225.34
575.516	6258.11
575.877	6292.46
576.238	6254.95
576.599	6328.84
576.96	6295.63
577.32	6369.07
577.681	6343.76
578.042	6351.22
578.403	6378.56
578.763	6403.87
579.124	6431.67
579.485	6383.53
579.845	6430.99
580.206	6408.62
580.566	6442.97
580.927	6410.88
581.287	6485.68
581.648	6412.23
582.008	6493.81
582.368	6413.59
582.728	6504.89
583.089	6463.98
583.449	6471.89
583.809	6457.66
584.169	6498.56
584.529	6508.95
584.889	6500.59
585.249	6510.76
585.609	6545.79
585.969	6539.91
586.329	6513.25
586.688	6511.89
587.048	6506.47
587.408	6522.29
587.768	6477.09
588.127	6480.25
588.487	6504.43
588.846	6589.85
589.206	6493.59
589.565	6515.51
589.925	6530.2
590.284	6520.25
590.643	6494.26
591.003	6518.22
591.362	6554.38
591.721	6519.35
592.08	6535.62
592.44	6560.25
592.799	6595.05
593.158	6511.44
593.517	6561.83
593.876	6536.3
594.235	6516.18
594.593	6597.76
594.952	6536.3
595.311	6557.99
595.67	6501.95
596.029	6605.9
596.387	6544.21
596.746	6591.66
597.104	6566.8
597.463	6575.39
597.822	6582.4
598.18	6552.12
598.538	6549.4
598.897	6652.68
599.255	6520.25
599.613	6636.86
599.972	6621.04
600.33	6633.02
600.688	6613.81
601.046	6632.34
601.404	6646.35
601.762	6587.37
602.12	6709.63
602.478	6695.61
602.836	6670.98
603.194	6669.85
603.552	6720.25
603.91	6678.67
604.268	6672.11
604.625	6626.92
604.983	6721.38
605.341	6688.16
605.698	6719.12
606.056	6759.79
606.413	6745.78
606.771	6727.7
607.128	6692.9
607.485	6749.85
607.843	6749.17
608.2	6739.91
608.557	6814.26
608.914	6744.65
609.272	6776.52
609.629	6834.82
609.986	6806.12
610.343	6782.62
610.7	6862.16
611.057	6781.26
611.414	6779.68
611.771	6827.81
612.127	6777.19
612.484	6715.5
612.841	6827.59
613.198	6791.43
613.554	6807.02
613.911	6782.17
614.267	6809.51
614.624	6829.17
614.98	6779
615.337	6856.29
615.693	6890.41
616.05	6846.35
616.406	6870.53
616.762	6924.08
617.118	6794.82
617.475	6837.53
617.831	6892.9
618.187	6927.93
618.543	6917.53
618.899	6884.76
619.255	6903.07
619.611	6969.73
619.967	6902.84
620.323	6912.78
620.678	6917.98
621.034	6942.39
621.39	6962.27
621.746	6953.69
622.101	6947.13
622.457	7034.36
622.812	6966.57
623.168	6991.2
623.523	6946.91
623.879	6985.55
624.234	6971.31
624.589	6969.51
624.945	7013.12
625.3	7031.2
625.655	6980.58
626.01	7026
626.365	7066.9
626.72	6988.71
627.075	7024.42
627.43	6995.27
627.785	7028.04
628.14	7043.63
628.495	7030.97
628.85	6997.53
629.205	6920.69
629.559	7004.99
629.914	6989.84
630.269	6975.83
630.623	6996.62
630.978	6976.29
631.332	6998.88
631.687	6989.17
632.041	6967.47
632.396	6925.89
632.75	6898.32
633.104	6929.28
633.459	6884.08
633.813	6904.42
634.167	6862.16
634.521	6890.19
634.875	6858.32
635.229	6837.98
635.583	6787.59
635.937	6786.46
636.291	6813.35
636.645	6826.68
636.999	6759.57
637.352	6786.46
637.706	6782.62
638.06	6754.14
638.413	6740.36
638.767	6721.15
639.121	6700.36
639.474	6653.58
639.828	6653.58
640.181	6659.46
640.534	6703.07
640.888	6635.5
641.241	6606.13
641.594	6630.53
641.947	6644.54
642.301	6613.81
642.654	6648.84
643.007	6633.7
643.36	6591.44
643.713	6588.27
644.066	6627.82
644.419	6558.67
644.771	6547.82
645.124	6460.14
645.477	6423.53
645.83	6374.95
646.182	6456.3
646.535	6372.23
646.888	6424.66
647.24	6448.16
647.593	6482.74
647.945	6440.71
648.298	6420.82
648.65	6403.42
649.002	6401.16
649.355	6454.72
649.707	6373.14
650.059	6344.21
650.411	6462.85
650.763	6466.69
651.115	6529.29
651.467	6490.65
651.819	6500.59
652.171	6532.46
652.523	6517.99
652.875	6473.47
653.227	6442.29
653.578	6479.12
653.93	6511.21
654.282	6473.25
654.633	6454.49
654.985	6506.47
655.337	6494.04
655.688	6438.45
656.039	6453.81
656.391	6432.12
656.742	6447.94
657.094	6401.16
657.445	6404.78
657.796	6439.58
658.147	6360.48
658.498	6344.21
658.849	6384.66
659.2	6367.04
659.551	6316.19
659.902	6369.52
660.253	6399.13
660.604	6374.04
660.955	6336.75
661.306	6322.52
661.656	6296.08
662.007	6291.56
662.358	6239.13
662.708	6348.51
663.059	6285.46
663.409	6239.58
663.76	6315.06
664.11	6313.03
664.461	6278.68
664.811	6319.13
665.161	6328.17
665.511	6284.33
665.862	6257.89
666.212	6289.07
666.562	6311.9
666.912	6311.44
667.262	6287.72
667.612	6279.81
667.962	6310.31
668.312	6252.91
668.662	6252.24
669.011	6232.8
669.361	6273.48
669.711	6214.05
670.06	6254.5
670.41	6247.04
670.76	6268.06
671.109	6291.33
671.459	6269.64
671.808	6236.64
672.157	6331.33
672.507	6219.02
672.856	6228.28
673.205	6272.58
673.554	6221.05
673.904	6256.3
674.253	6281.39
674.602	6257.21
674.951	6216.31
675.3	6140.38
675.649	6294.72
675.998	6219.02
676.346	6199.13
676.695	6271.67
677.044	6178.57
677.393	6170.43
677.741	6209.98
678.09	6214.72
678.438	6172.69
678.787	6182.18
679.135	6218.11
679.484	6122.52
679.832	6174.95
680.181	6126.36
680.529	6143.77
680.877	6136.76
681.225	6122.07
681.573	6163.88
681.922	6127.49
682.27	6028.74
682.618	6105.35
682.966	6054.95
683.314	6051.79
683.661	6067.61
684.009	6015.18
684.357	6052.24
684.705	5988.29
685.053	6022.64
685.4	6013.6
685.748	5949.65
686.095	5983.09
686.443	5903.77
686.79	5921.4
687.138	5926.14
687.485	5929.31
687.832	5887.27
688.18	5856.99
688.527	5800.27
688.874	5867.61
689.221	5817.9
689.568	5836.43
689.915	5741.52
690.262	5807.5
690.609	5761.85
690.956	5732.25
691.303	5741.97
691.65	5772.02
691.997	5749.43
692.344	5637.11
692.69	5638.92
693.037	5689.99
693.383	5674.17
693.73	5676.88
694.077	5598.92
694.423	5614.51
694.769	5609.32
695.116	5570.22
695.462	5600.95
695.808	5579.49
696.155	5533.16
696.501	5561.63
696.847	5519.15
697.193	5508.53
697.539	5524.35
697.885	5482.77
698.231	5485.93
698.577	5487.06
698.923	5466.49
699.269	5441.41
699.614	5428.08
699.96	5391.02
700.306	5422.88
700.651	5407.51
700.997	5393.73
701.342	5397.34
701.688	5396.67
702.033	5380.17
702.379	5331.13
702.724	5342.88
703.069	5303.34
703.415	5254.07
703.76	5297.46
704.105	5296.56
704.45	5293.17
704.795	5283.22
705.14	5228.08
705.485	5251.13
705.83	5188.54
706.175	5235.77
706.52	5224.69
706.865	5214.52
707.209	5175.65
707.554	5157.8
707.899	5176.33
708.243	5119.61
708.588	5165.03
708.932	5103.34
709.277	5145.15
709.621	5106.28
709.966	5087.52
710.31	5054.75
710.654	5042.55
710.998	5005.26
711.342	5034.19
711.687	4963.46
712.031	5044.13
712.375	4986.73
712.719	5026.96
713.063	4984.25
713.407	5010.24
713.75	4991.48
714.094	4947.86
714.438	4923.01
714.782	4927.75
715.125	4877.58
715.469	4979.05
715.812	4878.49
716.156	4873.97
716.499	4904.02
716.843	4893.63
717.186	4907.41
717.53	4871.71
717.873	4851.37
718.216	4840.97
718.559	4816.57
718.902	4839.39
719.246	4789.9
719.589	4783.57
719.932	4766.85
720.275	4791.94
720.617	4761.2
720.96	4738.38
721.303	4798.72
721.646	4785.16
721.989	4709.45
722.331	4737.93
722.674	4699.28
723.016	4701.77
723.359	4711.71
723.701	4703.12
724.044	4685.5
724.386	4654.09
724.729	4700.87
725.071	4668.55
725.413	4643.69
725.755	4713.97
726.097	4575.67
726.439	4597.14
726.782	4598.72
727.124	4614.09
727.465	4589.46
727.807	4583.13
728.149	4525.73
728.491	4630.36
728.833	4601.88
729.175	4594.65
729.516	4560.3
729.858	4525.28
730.199	4503.36
730.541	4533.19
730.882	4557.14
731.224	4556.46
731.565	4520.53
731.906	4497.71
732.248	4533.64
732.589	4483.7
732.93	4516.01
733.271	4498.84
733.612	4476.92
733.953	4509.68
734.294	4506.07
734.635	4430.14
734.976	4499.74
735.317	4474.2
735.658	4442.57
735.999	4442.57
736.339	4414.54
736.68	4468.78
737.021	4423.81
737.361	4409.57
737.702	4422.91
738.042	4426.52
738.383	4422.23
738.723	4389.23
739.063	4371.83
739.404	4411.83
739.744	4370.25
740.084	4362.57
740.424	4369.8
740.764	4341.55
741.104	4352.85
741.444	4307.2
741.784	4317.6
742.124	4289.8
742.464	4314.43
742.804	4252.29
743.143	4294.77
743.483	4306.98
743.823	4272.85
744.162	4292.74
744.502	4252.29
744.841	4243.02
745.181	4245.06
745.52	4236.7
745.86	4293.64
746.199	4231.95
746.538	4249.35
746.877	4237.6
747.216	4246.64
747.556	4172.29
747.895	4213.19
748.234	4204.83
748.573	4203.93
748.911	4150.6
749.25	4142.24
749.589	4162.8
749.928	4138.17
750.267	4151.5
750.605	4154.89
750.944	4158.73
751.283	4136.13
751.621	4169.58
751.96	4118.28
752.298	4118.28
752.636	4097.72
752.975	4111.28
753.313	4085.74
753.651	4073.08
753.989	4064.05
754.327	4088
754.666	4030.83
755.004	4015.91
755.342	4028.79
755.679	4032.18
756.017	4021.11
756.355	4015.01
756.693	4023.59
757.031	3960.09
757.368	4008.23
757.706	3972.52
758.044	4001.45
758.381	3958.06
758.719	3923.48
759.056	3954.44
759.394	3928.68
759.731	3911.06
760.068	3875.12
760.405	3837.38
760.743	3908.12
761.08	3902.02
761.417	3890.26
761.754	3856.14
762.091	3870.83
762.428	3842.36
762.765	3804.17
763.102	3835.35
763.438	3831.06
763.775	3776.82
764.112	3771.17
764.449	3768.91
764.785	3749.48
765.122	3758.97
765.458	3716.26
765.795	3715.58
766.131	3689.59
766.467	3706.54
766.804	3704.28
767.14	3645.75
767.476	3671.06
767.812	3685.75
768.148	3683.72
768.485	3625.41
768.821	3601.68
769.157	3612.53
769.492	3581.35
769.828	3597.62
770.164	3594.45
770.5	3555.81
770.836	3576.83
771.171	3532.76
771.507	3556.04
