Data from foam_black_FLMS001491_00049.txt Node
Date: Wed Feb 08 10:43:57 GMT 2017
User: dcchb
Spectrometer: FLMS00149
Trigger mode: 0
Integration Time (sec): 2.000000E-2
Scans to average: 10
Electric dark correction enabled: true
Nonlinearity correction enabled: false
Boxcar width: 0
XAxis mode: Wavelengths
Number of Pixels in Spectrum: 2048
>>>>>Begin Spectral Data<<<<<
341.393	4.59
341.776	4.59
342.16	4.59
342.543	-39.02
342.927	-57.33
343.31	-77.67
343.693	-68.18
344.077	-68.85
344.46	-61.17
344.843	-43.09
345.226	-27.95
345.61	-12.81
345.993	-27.73
346.376	-11.91
346.759	5.95
347.142	5.49
347.525	42.56
347.908	47.98
348.291	84.36
348.674	106.28
349.057	106.73
349.44	128.43
349.823	145.15
350.206	150.8
350.588	205.94
350.971	210.91
351.354	217.92
351.737	223.34
352.119	245.71
352.502	258.82
352.884	274.19
353.267	267.41
353.65	275.09
354.032	268.54
354.414	288.42
354.797	310.8
355.179	301.76
355.562	304.47
355.944	325.26
356.326	317.35
356.709	323
357.091	325.49
357.473	349.44
357.855	339.27
358.238	334.53
358.62	330.23
359.002	340.63
359.384	329.78
359.766	324.36
360.148	332.49
360.53	332.72
360.912	333.85
361.294	314.41
361.676	301.53
362.057	334.98
362.439	342.43
362.821	323.45
363.203	320.51
363.584	320.29
363.966	318.03
364.348	311.02
364.729	303.11
365.111	326.84
365.493	319.38
365.874	326.39
366.256	328.65
366.637	290.23
367.019	327.97
367.4	332.27
367.781	318.93
368.163	322.77
368.544	321.87
368.925	323.45
369.306	314.19
369.688	290.23
370.069	309.22
370.45	293.17
370.831	325.03
371.212	320.29
371.593	306.05
371.974	315.54
372.355	303.79
372.736	309.67
373.117	317.8
373.498	326.62
373.879	302.66
374.26	308.54
374.641	314.19
375.021	337.46
375.402	317.12
375.783	324.58
376.163	313.96
376.544	338.37
376.925	339.5
377.305	320.51
377.686	330.01
378.066	323.23
378.447	349.21
378.827	343.34
379.208	358.03
379.588	341.53
379.968	331.59
380.349	331.36
380.729	348.76
381.109	364.81
381.489	352.6
381.87	360.97
382.25	346.05
382.63	357.8
383.01	346.05
383.39	348.08
383.77	353.96
384.15	385.6
384.53	359.84
384.91	336.78
385.29	347.63
385.67	375.43
386.049	367.74
386.429	362.09
386.809	381.76
387.189	364.58
387.568	357.58
387.948	379.27
388.328	391.47
388.707	380.63
389.087	399.16
389.466	359.61
389.846	386.95
390.225	382.43
390.605	386.73
390.984	376.33
391.363	399.61
391.743	396.67
392.122	407.07
392.501	379.95
392.881	402.32
393.26	389.21
393.639	386.5
394.018	413.85
394.397	405.71
394.776	421.3
395.155	428.08
395.534	412.72
395.913	419.49
396.292	401.19
396.671	422.43
397.05	438.48
397.429	416.33
397.808	416.56
398.186	443.9
398.565	432.15
398.944	432.15
399.323	431.92
399.701	436.67
400.08	445.71
400.458	422.66
400.837	433.28
401.215	435.09
401.594	442.32
401.972	430.57
402.351	440.06
402.729	446.84
403.107	443.45
403.486	468.53
403.864	443.67
404.242	453.84
404.62	452.26
404.999	454.52
405.377	461.98
405.755	470.79
406.133	464.69
406.511	488.19
406.889	463.34
407.267	465.37
407.645	486.61
408.023	479.61
408.401	485.48
408.779	499.72
409.156	498.36
409.534	497.46
409.912	505.59
410.29	521.19
410.667	523.45
411.045	545.59
411.422	523.22
411.8	538.36
412.178	518.02
412.555	532.49
412.933	534.29
413.31	527.51
413.687	538.81
414.065	559.15
414.442	537.68
414.819	566.38
415.197	566.16
415.574	568.87
415.951	580.17
416.328	588.08
416.705	575.65
417.082	583.56
417.46	560.73
417.837	589.21
418.214	583.56
418.591	572.94
418.967	605.48
419.344	605.03
419.721	614.52
420.098	626.49
420.475	602.54
420.852	597.8
421.228	633.73
421.605	637.79
421.982	618.81
422.358	636.44
422.735	634.4
423.111	626.95
423.488	654.29
423.864	624.23
424.241	660.17
424.617	650.67
424.994	651.35
425.37	660.17
425.746	659.26
426.123	652.26
426.499	696.1
426.875	671.24
427.251	696.1
427.627	710.33
428.003	708.3
428.379	704.46
428.756	721.63
429.132	731.8
429.507	759.37
429.883	744.46
430.259	760.05
430.635	764.34
431.011	760.5
431.387	787.39
431.763	786.72
432.138	774.06
432.514	757.34
432.89	783.78
433.265	800.95
433.641	821.29
434.016	793.27
434.392	825.36
434.767	814.74
435.143	835.98
435.518	844.79
435.894	847.73
436.269	854.74
436.644	853.61
437.02	885.92
437.395	852.93
437.77	872.14
438.145	888.86
438.52	901.52
438.895	913.94
439.271	902.87
439.646	924.11
440.021	920.5
440.395	927.05
440.77	927.28
441.145	934.96
441.52	935.87
441.895	945.81
442.27	936.54
442.645	939.71
443.019	986.03
443.394	938.13
443.769	974.96
444.143	956.88
444.518	969.76
444.892	980.16
445.267	972.47
445.641	980.38
446.016	996.2
446.39	1012.25
446.764	1018.12
447.139	1006.82
447.513	1024.68
447.887	1059.93
448.262	1035.3
448.636	1056.09
449.01	1058.12
449.384	1074.39
449.758	1050.66
450.132	1080.72
450.506	1066.03
450.88	1094.51
451.254	1103.77
451.628	1117.56
452.002	1126.37
452.376	1123.88
452.75	1132.24
453.123	1150.55
453.497	1154.16
453.871	1148.29
454.244	1152.36
454.618	1183.32
454.992	1183.99
455.365	1183.99
455.739	1207.5
456.112	1228.74
456.486	1240.26
456.859	1262.18
457.232	1281.84
457.606	1246.37
457.979	1282.75
458.352	1318
458.725	1316.42
459.099	1313.93
459.472	1356.87
459.845	1341.05
460.218	1345.8
460.591	1373.82
460.964	1373.82
461.337	1411.78
461.71	1436.87
462.083	1430.32
462.456	1436.87
462.829	1455.63
463.201	1464.44
463.574	1471.67
463.947	1500.37
464.32	1525.45
464.692	1525.23
465.065	1534.95
465.438	1527.94
465.81	1559.58
466.183	1586.7
466.555	1613.59
466.928	1614.94
467.3	1594.6
467.672	1608.16
468.045	1654.04
468.417	1630.08
468.789	1687.03
469.161	1724.09
469.534	1713.92
469.906	1775.17
470.278	1779.46
470.65	1806.35
471.022	1800.93
471.394	1875.05
471.766	1880.7
472.138	1895.16
472.51	1904.2
472.882	1935.16
473.253	1980.36
473.625	1999.34
473.997	2022.16
474.369	2035.95
474.74	2022.39
475.112	2059.45
475.484	2140.81
475.855	2148.26
476.227	2166.57
476.598	2221.26
476.97	2228.03
477.341	2282.95
477.713	2310.29
478.084	2292.44
478.455	2363.17
478.827	2383.51
479.198	2443.4
479.569	2434.58
479.94	2516.84
480.311	2523.62
480.682	2600.45
481.053	2633
481.424	2649.72
481.795	2686.33
482.166	2724.29
482.537	2800.9
482.908	2810.84
483.279	2866.66
483.65	2897.17
484.021	2932.2
484.391	2961.35
484.762	3027.79
485.133	3002.7
485.503	3042.93
485.874	3116.37
486.244	3108.46
486.615	3240.89
486.985	3266.43
487.356	3268.23
487.726	3251.51
488.097	3350.04
488.467	3364.73
488.837	3423.26
489.207	3456.25
489.578	3475.69
489.948	3553.88
490.318	3565.63
490.688	3575.34
491.058	3672.52
491.428	3678.17
491.798	3735.11
492.168	3747.99
492.538	3810.37
492.908	3830.48
493.278	3906.86
493.648	3903.92
494.017	3935.33
494.387	3958.84
494.757	3990.47
495.126	4073.64
495.496	4015.56
495.866	4101.43
496.235	4158.15
496.605	4215.78
496.974	4216.46
497.344	4278.38
497.713	4260.98
498.082	4322.67
498.452	4308.66
498.821	4388.88
499.19	4369
499.559	4438.82
499.928	4464.36
500.298	4527.41
500.667	4519.5
501.036	4559.5
501.405	4594.53
501.774	4565.37
502.143	4597.92
502.512	4691.02
502.88	4733.28
503.249	4757.46
503.618	4766.72
503.987	4733.28
504.356	4787.29
504.724	4804.01
505.093	4859.38
505.462	4855.08
505.83	4860.96
506.199	4928.75
506.567	4960.84
506.936	4987.96
507.304	5019.37
507.672	5048.07
508.041	5041.75
508.409	5168.97
508.777	5142.31
509.145	5199.26
509.514	5155.42
509.882	5215.07
510.25	5196.32
510.618	5317.67
510.986	5346.14
511.354	5346.82
511.722	5444.22
512.09	5399.7
512.458	5479.25
512.826	5521.96
513.193	5555.18
513.561	5581.39
513.929	5681.28
514.297	5662.97
514.664	5751.78
515.032	5751.33
515.4	5871.78
515.767	5859.8
516.135	5893.7
516.502	5878.79
516.869	5975.73
517.237	5980.25
517.604	6030.19
517.972	6088.5
518.339	6076.52
518.706	6170.3
519.073	6158.55
519.44	6173.02
519.808	6286.46
520.175	6276.29
520.542	6389.96
520.909	6359.68
521.276	6410.75
521.643	6464.08
522.009	6548.37
522.376	6568.71
522.743	6655.71
523.11	6635.83
523.477	6727.58
523.843	6785.43
524.21	6840.57
524.577	6898.65
524.943	6937.52
525.31	6982.71
525.676	7025.42
526.043	7046.89
526.409	7184.51
526.776	7226.55
527.142	7189.49
527.508	7255.7
527.874	7282.59
528.241	7399.88
528.607	7408.69
528.973	7523.49
529.339	7393.55
529.705	7535.69
530.071	7618.63
530.437	7685.07
530.803	7681.22
531.169	7745.63
531.535	7747.44
531.901	7834.89
532.267	7848.9
532.632	7935.91
532.998	7919.18
533.364	7864.04
533.73	7925.51
534.095	8107.88
534.461	8039.41
534.826	8179.29
535.192	8145.17
535.557	8177.26
535.923	8138.16
536.288	8245.05
536.653	8240.53
537.019	8311.72
537.384	8334.77
537.749	8398.49
538.114	8382
538.479	8450.02
538.845	8506.51
539.21	8524.14
539.575	8586.06
539.94	8572.05
540.305	8621.09
540.67	8637.13
541.034	8674.87
541.399	8764.81
541.764	8833.74
542.129	8825.38
542.494	8851.82
542.858	8916.67
543.223	8939.72
543.587	9028.53
543.952	8961.19
544.316	9061.53
544.681	9045.26
545.045	9086.84
545.41	9145.82
545.774	9135.88
546.138	9214.52
546.503	9224.69
546.867	9211.13
547.231	9294.06
547.595	9277.57
547.959	9377.45
548.324	9356.43
548.688	9341.75
549.052	9447.73
549.416	9491.8
549.779	9414.51
550.143	9511.23
550.507	9549.88
550.871	9638.91
551.235	9652.25
551.599	9712.36
551.962	9646.6
552.326	9802.52
552.689	9852.92
553.053	9812.24
553.417	9814.28
553.78	9872.58
554.143	9909.19
554.507	9956.64
554.87	10061.5
555.234	10125.91
555.597	10150.31
555.96	10158.45
556.323	10177.43
556.686	10222.17
557.05	10285.68
557.413	10300.59
557.776	10409.29
558.139	10434.37
558.502	10449.74
558.865	10401.83
559.228	10623.97
559.59	10602.05
559.953	10680.47
560.316	10687.47
560.679	10725.66
561.041	10837.53
561.404	10826.9
561.767	10923.4
562.129	10913.46
562.492	11094.92
562.854	11048.37
563.217	11105.99
563.579	11123.62
563.941	11261.47
564.304	11291.53
564.666	11299.66
565.028	11398.87
565.39	11472.54
565.753	11502.14
566.115	11568.58
566.477	11669.82
566.839	11731.97
567.201	11757.28
567.563	11824.84
567.925	11864.39
568.287	11911.4
568.648	11914.11
569.01	12009.47
569.372	12156.36
569.734	12150.03
570.095	12284.95
570.457	12265.96
570.819	12370.14
571.18	12289.01
571.542	12422.12
571.903	12439.74
572.265	12444.72
572.626	12528.78
572.987	12510.48
573.349	12618.27
573.71	12622.56
574.071	12645.84
574.432	12696.01
574.794	12825.72
575.155	12846.51
575.516	12748.66
575.877	12835.44
576.238	12879.28
576.599	12917.47
576.96	12853.97
577.32	12917.25
577.681	12966.06
578.042	12969.9
578.403	12931.93
578.763	12994.53
579.124	13027.52
579.485	13025.94
579.845	13086.73
580.206	13106.39
580.566	13116.56
580.927	13127.18
581.287	13168.54
581.648	13122.66
582.008	13143
582.368	13184.81
582.728	13281.76
583.089	13112.49
583.449	13218.48
583.809	13219.84
584.169	13252.38
584.529	13200.4
584.889	13364.69
585.249	13220.97
585.609	13185.49
585.969	13265.03
586.329	13240.17
586.688	13300.96
587.048	13266.39
587.408	13280.63
587.768	13260.74
588.127	13235.65
588.487	13254.64
588.846	13338.7
589.206	13358.59
589.565	13293.05
589.925	13471.81
590.284	13410.34
590.643	13453.28
591.003	13528.53
591.362	13486.95
591.721	13438.36
592.08	13505.93
592.44	13553.61
592.799	13547.06
593.158	13492.82
593.517	13562.2
593.876	13533.95
594.235	13564.69
594.593	13552.03
594.952	13498.92
595.311	13575.98
595.67	13663.44
596.029	13691.91
596.387	13717.45
596.746	13708.86
597.104	13613.27
597.463	13655.3
597.822	13764
598.18	13759.93
598.538	13740.05
598.897	13704.8
599.255	13685.36
599.613	13794.06
599.972	13793.61
600.33	13844.9
600.688	13740.5
601.046	13761.06
601.404	13846.94
601.762	13770.1
602.12	13827.96
602.478	13756.77
602.836	13798.35
603.194	13773.72
603.552	13728.3
603.91	13721.29
604.268	13837.9
604.625	13800.16
604.983	13803.55
605.341	13811.46
605.698	13852.81
606.056	13883.77
606.413	13825.47
606.771	13920.16
607.128	13944.56
607.485	13852.59
607.843	13880.16
608.2	14034.05
608.557	14097.55
608.914	13984.34
609.272	14062.3
609.629	14041.51
609.986	14163.31
610.343	14081.73
610.7	14183.43
611.057	14176.42
611.414	14136.2
611.771	14217.78
612.127	14196.31
612.484	14214.39
612.841	14223.88
613.198	14221.39
613.554	14320.82
613.911	14346.59
614.267	14344.1
614.624	14326.02
614.98	14347.94
615.337	14434.04
615.693	14395.85
616.05	14444.89
616.406	14551.1
616.762	14394.04
617.118	14387.26
617.475	14429.97
617.831	14548.39
618.187	14565.56
618.543	14555.62
618.899	14589.52
619.255	14516.53
619.611	14525.34
619.967	14705.22
620.323	14610.76
620.678	14649.85
621.034	14486.24
621.39	14530.08
621.746	14607.82
622.101	14698.67
622.457	14632.23
622.812	14620.7
623.168	14647.82
623.523	14694.15
623.879	14753.81
624.234	14596.3
624.589	14648.27
624.945	14673.81
625.3	14654.6
625.655	14639.01
626.01	14704.09
626.365	14731.89
626.72	14664.09
627.075	14677.42
627.43	14670.87
627.785	14692.57
628.14	14716.75
628.495	14637.65
628.85	14723.53
629.205	14637.2
629.559	14697.54
629.914	14669.52
630.269	14655.5
630.623	14590.2
630.978	14575.73
631.332	14675.39
631.687	14689.63
632.041	14544.77
632.396	14610.53
632.75	14564.66
633.104	14602.17
633.459	14497.54
633.813	14507.26
634.167	14420.93
634.521	14395.85
634.875	14465.68
635.229	14422.74
635.583	14325.12
635.937	14379.81
636.291	14407.6
636.645	14422.97
636.999	14391.56
637.352	14352.91
637.706	14288.73
638.06	14331.67
638.413	14314.04
638.767	14232.24
639.121	14264.55
639.474	14221.62
639.828	14253.93
640.181	14223.2
640.534	14286.47
640.888	14233.37
641.241	14139.36
641.594	14161.05
641.947	14222.52
642.301	14058.91
642.654	14161.51
643.007	14165.12
643.36	14190.21
643.713	14189.98
644.066	14276.53
644.419	14067.72
644.771	13962.64
645.124	13768.75
645.477	13799.03
645.83	13749.54
646.182	13617.79
646.535	13686.94
646.888	13782.99
647.24	13650.56
647.593	13781.4
647.945	13698.92
648.298	13625.25
648.65	13561.52
649.002	13543.9
649.355	13612.59
649.707	13554.52
650.059	13569.88
650.411	13692.37
650.763	13756.55
651.115	13908.63
651.467	13884.9
651.819	13807.39
652.171	13788.18
652.523	13728.07
652.875	13761.29
653.227	13648.75
653.578	13831.35
653.93	13802.65
654.282	13696.89
654.633	13668.41
654.985	13712.48
655.337	13644.01
655.688	13705.92
656.039	13760.16
656.391	13610.33
656.742	13598.81
657.094	13710.9
657.445	13667.73
657.796	13622.54
658.147	13641.97
658.498	13600.62
658.849	13672.71
659.2	13643.1
659.551	13569.21
659.902	13618.02
660.253	13579.37
660.604	13604.23
660.955	13564.69
661.306	13695.76
661.656	13495.99
662.007	13513.61
662.358	13539.83
662.708	13565.14
663.059	13502.54
663.409	13504.8
663.76	13553.84
664.11	13633.84
664.461	13478.13
664.811	13587.06
665.161	13612.37
665.511	13544.35
665.862	13587.74
666.212	13617.57
666.562	13604.23
666.912	13623.44
667.262	13609.88
667.612	13562.65
667.962	13607.85
668.312	13524.01
668.662	13596.1
669.011	13530.79
669.361	13522.65
669.711	13559.94
670.06	13452.82
670.41	13480.39
670.76	13476.1
671.109	13508.19
671.459	13601.52
671.808	13486.04
672.157	13420.28
672.507	13446.72
672.856	13409.21
673.205	13357.69
673.554	13478.36
673.904	13423.22
674.253	13467.97
674.602	13361.08
674.951	13147.3
675.3	13192.94
675.649	13405.59
675.998	13331.7
676.346	13273.85
676.695	13329.21
677.044	13251.25
677.393	13189.78
677.741	13279.5
678.09	13250.57
678.438	13197.69
678.787	13208.99
679.135	13246.73
679.484	13139.61
679.832	13203.11
680.181	13127.18
680.529	13209.67
680.877	13197.24
681.225	13080.86
681.573	13174.87
681.922	13037.02
682.27	13039.95
682.618	13100.97
682.966	13074.3
683.314	12977.58
683.661	13095.32
684.009	12927.64
684.357	12976.45
684.705	12903.69
685.053	12930.35
685.4	12895.55
685.748	12867.3
686.095	12864.14
686.443	12786.18
686.79	12782.79
687.138	12804.93
687.485	12793.41
687.832	12753.86
688.18	12759.96
688.527	12691.71
688.874	12644.03
689.221	12726.52
689.568	12635.9
689.915	12555.9
690.262	12540.08
690.609	12489.01
690.956	12490.14
691.303	12412.17
691.65	12400.42
691.997	12424.38
692.344	12287.21
692.69	12342.8
693.037	12206.3
693.383	12202.46
693.73	12278.39
694.077	12150.26
694.423	12146.64
694.769	12061.22
695.116	12104.61
695.462	12090.15
695.808	11949.36
696.155	12010.15
696.501	11855.13
696.847	11912.98
697.193	11792.53
697.539	11866.43
697.885	11773.09
698.231	11753.43
698.577	11789.82
698.923	11846.09
699.269	11719.08
699.614	11717.5
699.96	11675.02
700.306	11595.92
700.651	11623.04
700.997	11583.27
701.342	11550.28
701.688	11576.72
702.033	11499.66
702.379	11591.4
702.724	11513.89
703.069	11503.5
703.415	11449.94
703.76	11479.99
704.105	11408.13
704.45	11375.82
704.795	11388.02
705.14	11409.94
705.485	11332.88
705.83	11299.43
706.175	11293.56
706.52	11289.94
706.865	11288.36
707.209	11240.45
707.554	11287.68
707.899	11340.56
708.243	11200.23
708.588	11277.97
708.932	11126.56
709.277	11124.98
709.621	11177.18
709.966	11074.58
710.31	11133.34
710.654	11027.8
710.998	11021.7
711.342	11058.76
711.687	10973.79
712.031	10930.4
712.375	10979.89
712.719	10983.28
713.063	11000.91
713.407	10887.47
713.75	10890.41
714.094	10799.33
714.438	10804.53
714.782	10880.91
715.125	10801.14
715.469	10776.06
715.812	10691.77
716.156	10642.73
716.499	10681.6
716.843	10636.85
717.186	10572.9
717.53	10548.49
717.873	10584.88
718.216	10520.7
718.559	10497.42
718.902	10402.51
719.246	10441.6
719.589	10380.36
719.932	10422.17
720.275	10360.48
720.617	10314.83
720.96	10319.57
721.303	10288.39
721.646	10243.42
721.989	10187.6
722.331	10213.14
722.674	10200.03
723.016	10162.06
723.359	10145.11
723.701	10168.16
724.044	10096.53
724.386	10044.78
724.729	10083.2
725.071	10051.56
725.413	10036.87
725.755	9923.2
726.097	10011.11
726.439	9879.81
726.782	9854.27
727.124	9963.2
727.465	9864.9
727.807	9848.17
728.149	9872.35
728.491	9840.72
728.833	9878.91
729.175	9856.99
729.516	9896.31
729.858	9812.02
730.199	9848.4
730.541	9754.62
730.882	9817.89
731.224	9826.48
731.565	9721.85
731.906	9768.85
732.248	9742.19
732.589	9779.93
732.93	9749.64
733.271	9816.76
733.612	9732.92
733.953	9731.11
734.294	9656.99
734.635	9685.69
734.976	9811.79
735.317	9690.89
735.658	9730.89
735.999	9732.92
736.339	9659.48
736.68	9744.45
737.021	9706.03
737.361	9729.53
737.702	9733.15
738.042	9652.47
738.383	9672.58
738.723	9661.51
739.063	9700.38
739.404	9706.71
739.744	9587.39
740.084	9570.67
740.424	9631.23
740.764	9599.37
741.104	9592.13
741.444	9596.65
741.784	9494.74
742.124	9503.32
742.464	9505.13
742.804	9518.01
743.143	9522.53
743.483	9483.89
743.823	9352.37
744.162	9456.09
744.502	9478.01
744.841	9407.28
745.181	9432.14
745.52	9332.48
745.86	9422.2
746.199	9389.88
746.538	9334.97
746.877	9334.74
747.216	9327.73
747.556	9297.91
747.895	9272.6
748.234	9202.31
748.573	9295.42
748.911	9139.49
749.25	9221.3
749.589	9131.81
749.928	9163.9
750.267	9111.47
750.605	9159.38
750.944	9073.73
751.283	9103.79
751.621	9102.66
751.96	8989.21
752.298	9043.67
752.636	9000.96
752.975	8979.27
753.313	8959.84
753.651	9014.3
753.989	8893.17
754.327	8923
754.666	8830.8
755.004	8868.54
755.342	8830.8
755.679	8844.36
756.017	8794.19
756.355	8828.09
756.693	8818.82
757.031	8793.51
757.368	8710.8
757.706	8691.37
758.044	8652.5
758.381	8727.75
758.719	8633.97
759.056	8659.96
759.394	8652.05
759.731	8617.7
760.068	8576.12
760.405	8528.66
760.743	8478.27
