Data from foam1_polythene_foam_FLMS001491_00073.txt Node
Date: Wed Feb 08 10:55:22 GMT 2017
User: dcchb
Spectrometer: FLMS00149
Trigger mode: 0
Integration Time (sec): 2.000000E-2
Scans to average: 10
Electric dark correction enabled: true
Nonlinearity correction enabled: false
Boxcar width: 0
XAxis mode: Wavelengths
Number of Pixels in Spectrum: 2048
>>>>>Begin Spectral Data<<<<<
341.393	5.51
341.776	5.51
342.16	5.51
342.543	-52.34
342.927	-70.87
343.31	-60.93
343.693	-72
344.077	-55.51
344.46	-54.6
344.843	-62.51
345.226	-39.01
345.61	-38.11
345.993	-25
346.376	-13.7
346.759	7.09
347.142	31.04
347.525	57.48
347.908	72.4
348.291	60.42
348.674	84.15
349.057	108.78
349.44	114.88
349.823	135
350.206	166.86
350.588	186.97
350.971	201.89
351.354	207.99
351.737	208.21
352.119	240.98
352.502	245.28
352.884	278.27
353.267	298.61
353.65	289.79
354.032	285.27
354.414	309.46
354.797	303.13
355.179	318.49
355.562	310.36
355.944	300.64
356.326	315.1
356.709	322.11
357.091	334.77
357.473	324.6
357.855	327.76
358.238	334.99
358.62	336.35
359.002	334.54
359.384	346.06
359.766	332.96
360.148	336.12
360.53	318.72
360.912	314.65
361.294	332.96
361.676	337.25
362.057	325.05
362.439	320.53
362.821	335.22
363.203	321.88
363.584	310.59
363.966	325.73
364.348	316.91
364.729	327.76
365.111	323.47
365.493	307.87
365.874	291.38
366.256	308.78
366.637	310.59
367.019	307.2
367.4	289.57
367.781	299.74
368.163	315.56
368.544	325.5
368.925	310.59
369.306	311.94
369.688	307.65
370.069	287.76
370.45	301.77
370.831	293.86
371.212	311.94
371.593	331.6
371.974	320.3
372.355	313.97
372.736	310.81
373.117	309.91
373.498	316.23
373.879	327.99
374.26	310.59
374.641	313.3
375.021	309.46
375.402	302.22
375.783	323.24
376.163	314.43
376.544	332.28
376.925	340.41
377.305	322.56
377.686	333.41
378.066	327.76
378.447	333.18
378.827	349.91
379.208	334.54
379.588	332.73
379.968	331.6
380.349	365.27
380.729	341.77
381.109	332.05
381.489	343.35
381.87	344.71
382.25	330.7
382.63	344.03
383.01	344.48
383.39	363.24
383.77	350.36
384.15	359.17
384.53	357.36
384.91	353.07
385.29	358.27
385.67	354.2
386.049	361.21
386.429	360.08
386.809	361.66
387.189	377.02
387.568	374.99
387.948	369.11
388.328	363.01
388.707	393.97
389.087	376.35
389.466	349.68
389.846	392.84
390.225	381.09
390.605	373.63
390.984	379.28
391.363	363.01
391.743	360.53
392.122	416.57
392.501	377.93
392.881	393.97
393.26	392.16
393.639	391.26
394.018	401.2
394.397	426.06
394.776	422.9
395.155	404.14
395.534	411.6
395.913	408.89
396.292	418.6
396.671	426.97
397.05	421.09
397.429	425.61
397.808	433.97
398.186	424.48
398.565	424.03
398.944	418.38
399.323	407.08
399.701	427.42
400.08	431.03
400.458	450.69
400.837	439.17
401.215	455.89
401.594	446.85
401.972	454.31
402.351	452.73
402.729	467.64
403.107	436.01
403.486	466.06
403.864	478.49
404.242	475.33
404.62	465.84
404.999	464.93
405.377	500.64
405.755	476.46
406.133	496.34
406.511	458.83
406.889	486.4
407.267	476.46
407.645	480.98
408.023	500.41
408.401	486.17
408.779	488.66
409.156	509.68
409.534	526.4
409.912	539.28
410.29	523.01
410.667	537.7
411.045	545.83
411.422	541.09
411.8	556.91
412.178	552.16
412.555	561.2
412.933	578.6
413.31	569.79
413.687	573.4
414.065	580.86
414.442	587.19
414.819	595.32
415.197	566.17
415.574	604.14
415.951	586.06
416.328	610.46
416.705	596.23
417.082	608.2
417.46	601.2
417.837	630.35
418.214	619.96
418.591	623.8
418.967	615.44
419.344	619.73
419.721	640.75
420.098	621.54
420.475	637.13
420.852	653.17
421.228	665.6
421.605	658.82
421.982	671.48
422.358	693.17
422.735	682.55
423.111	679.39
423.488	683
423.864	703.34
424.241	715.09
424.617	689.56
424.994	701.54
425.37	725.72
425.746	709.22
426.123	711.48
426.499	737.47
426.875	728.88
427.251	763.68
427.627	763.45
428.003	791.93
428.379	767.07
428.756	800.97
429.132	799.61
429.507	805.94
429.883	800.74
430.259	777.92
430.635	821.98
431.011	829.89
431.387	824.47
431.763	852.04
432.138	854.53
432.514	843.68
432.89	876.45
433.265	897.46
433.641	885.94
434.016	917.57
434.392	925.48
434.767	942.66
435.143	927.52
435.518	949.66
435.894	934.75
436.269	967.29
436.644	986.73
437.02	1004.58
437.395	984.69
437.77	986.5
438.145	1022.88
438.52	1029.44
438.895	1012.94
439.271	1055.88
439.646	1067.85
440.021	1070.34
440.395	1072.15
440.77	1088.42
441.145	1092.26
441.52	1092.26
441.895	1096.1
442.27	1125.25
442.645	1110.79
443.019	1152.14
443.394	1149.21
443.769	1165.25
444.143	1148.53
444.518	1182.65
444.892	1163.67
445.267	1193.27
445.641	1183.78
446.016	1200.05
446.39	1217.23
446.764	1201.18
447.139	1219.04
447.513	1260.84
447.887	1216.1
448.262	1231.46
448.636	1249.54
449.01	1273.72
449.384	1310.33
449.758	1306.72
450.132	1298.81
450.506	1301.52
450.88	1321.86
451.254	1346.26
451.628	1344.46
452.002	1347.85
452.376	1349.88
452.75	1381.52
453.123	1392.14
453.497	1407.73
453.871	1399.82
454.244	1444.57
454.618	1462.42
454.992	1440.95
455.365	1463.78
455.739	1513.27
456.112	1503.55
456.486	1544
456.859	1523.89
457.232	1510.1
457.606	1540.84
457.979	1535.86
458.352	1591.91
458.725	1601.85
459.099	1638.91
459.472	1657.67
459.845	1656.76
460.218	1663.32
460.591	1685.69
460.964	1698.8
461.337	1724.11
461.71	1731.79
462.083	1767.27
462.456	1766.59
462.829	1762.07
463.201	1808.62
463.574	1819.7
463.947	1802.07
464.32	1853.14
464.692	1891.11
465.065	1856.31
465.438	1904.22
465.81	1934.27
466.183	1958.9
466.555	2007.49
466.928	1995.74
467.3	2003.42
467.672	2051.1
468.045	2076.87
468.417	2076.19
468.789	2087.49
469.161	2136.75
469.534	2170.42
469.906	2188.28
470.278	2219.69
470.65	2237.54
471.022	2265.56
471.394	2305.11
471.766	2301.49
472.138	2345.79
472.51	2404.09
472.882	2412.45
473.253	2452.68
473.625	2438.66
473.997	2546.46
474.369	2539
474.74	2559.57
475.112	2563.86
475.484	2650.86
475.855	2701.03
476.227	2714.14
476.598	2796.62
476.97	2787.81
477.341	2881.36
477.713	2892.21
478.084	2908.26
478.455	2980.35
478.827	3026.45
479.198	3104.86
479.569	3072.32
479.94	3183.28
480.311	3217.63
480.682	3257.63
481.053	3321.13
481.424	3398.87
481.795	3391.63
482.166	3469.82
482.537	3497.62
482.908	3586.88
483.279	3610.39
483.65	3661.91
484.021	3759.76
484.391	3801.11
484.762	3842.7
485.133	3861
485.503	3924.28
485.874	4017.15
486.244	4024.84
486.615	4120.43
486.985	4184.16
487.356	4261.89
487.726	4258.5
488.097	4342.8
488.467	4337.15
488.837	4432.28
489.207	4523.13
489.578	4553.86
489.948	4653.97
490.318	4679.06
490.688	4712.28
491.058	4776.23
491.428	4815.55
491.798	4907.53
492.168	4987.07
492.538	5001.76
492.908	5037.47
493.278	5108.88
493.648	5128.54
494.017	5191.59
494.387	5247.4
494.757	5320.4
495.126	5346.84
495.496	5386.16
495.866	5434.52
496.235	5489.43
496.605	5575.08
496.974	5544.35
497.344	5626.83
497.713	5625.7
498.082	5717.9
498.452	5776.88
498.821	5788.86
499.19	5814.17
499.559	5865.92
499.928	5889.87
500.298	5970.55
500.667	5997.44
501.036	6056.42
501.405	6101.62
501.774	6118.79
502.143	6180.49
502.512	6224.1
502.88	6260.71
503.249	6300.94
503.618	6325.12
503.987	6343.87
504.356	6387.71
504.724	6507.71
505.093	6487.82
505.462	6564.21
505.83	6584.09
506.199	6616.63
506.567	6768.49
506.936	6713.35
507.304	6800.13
507.672	6861.6
508.041	6841.03
508.409	6901.82
508.777	6999.45
509.145	7085.1
509.514	7049.62
509.882	7153.79
510.25	7166
510.618	7206.9
510.986	7246.22
511.354	7292.55
511.722	7382.49
512.09	7445.09
512.458	7422.94
512.826	7486.67
513.193	7590.85
513.561	7591.75
513.929	7676.04
514.297	7833.78
514.664	7800.78
515.032	7835.58
515.4	7903.38
515.767	7930.5
516.135	8002.13
516.502	7958.97
516.869	8123.04
517.237	8099.53
517.604	8077.84
517.972	8299.08
518.339	8377.49
518.706	8416.36
519.073	8413.42
519.44	8505.85
519.808	8483.48
520.175	8549.24
520.542	8700.87
520.909	8752.4
521.276	8680.53
521.643	8926.4
522.009	8881.89
522.376	9018.6
522.743	9071.03
523.11	9149
523.477	9252.5
523.843	9241.2
524.21	9285.72
524.577	9412.49
524.943	9430.12
525.31	9531.13
525.676	9664.24
526.043	9770.22
526.409	9763.67
526.776	9889.32
527.142	9885.7
527.508	9920.5
527.874	9998.92
528.241	10079.82
528.607	10110.55
528.973	10183.55
529.339	10203.21
529.705	10365.69
530.071	10453.14
530.437	10517.55
530.803	10579.92
531.169	10600.26
531.535	10580.15
531.901	10690.88
532.267	10679.58
532.632	10775.17
532.998	10808.16
533.364	10882.74
533.73	10856.07
534.095	11014.03
534.461	11047.03
534.826	11139.45
535.192	11202.95
535.557	11186.46
535.923	11256.74
536.288	11295.61
536.653	11297.41
537.019	11311.43
537.384	11360.46
537.749	11428.03
538.114	11472.78
538.479	11426.68
538.845	11610.4
539.21	11592.1
539.575	11680.23
539.94	11724.97
540.305	11798.19
540.67	11731.3
541.034	11827.57
541.399	11856.5
541.764	11935.82
542.129	11922.94
542.494	11944.18
542.858	12038.41
543.223	12099.43
543.587	12199.99
543.952	12079.77
544.316	12216.03
544.681	12186.43
545.045	12260.33
545.41	12329.7
545.774	12355.24
546.138	12355.69
546.503	12406.54
546.867	12416.03
547.231	12518.85
547.595	12577.61
547.959	12656.02
548.324	12661.67
548.688	12628.68
549.052	12725.85
549.416	12705.06
549.779	12850.82
550.143	12758.39
550.507	12930.59
550.871	12952.74
551.235	12989.12
551.599	13059.85
551.962	13071.38
552.326	13119.06
552.689	13226.63
553.053	13184.82
553.417	13239.06
553.78	13396.34
554.143	13352.28
554.507	13407.42
554.87	13461.88
555.234	13652.83
555.597	13517.02
555.96	13580.07
556.323	13650.57
556.686	13686.28
557.05	13821.19
557.413	13863.9
557.776	13889.44
558.139	13966.95
558.502	13955.2
558.865	13993.84
559.228	14108.19
559.59	14234.51
559.953	14179.6
560.316	14427.73
560.679	14424.34
561.041	14434.73
561.404	14493.71
561.767	14653.71
562.129	14547.95
562.492	14698.46
562.854	14663.43
563.217	14727.16
563.579	14746.36
563.941	14826.81
564.304	14958.56
564.666	14981.39
565.028	15126.92
565.39	15063.42
565.753	15229.97
566.115	15269.29
566.477	15353.58
566.839	15326.46
567.201	15526
567.563	15458.44
567.925	15607.58
568.287	15592.22
568.648	15611.2
569.01	15763.74
569.372	15950.17
569.734	15863.17
570.095	16039.89
570.457	15992.21
570.819	16076.95
571.18	16006.44
571.542	16191.98
571.903	16137.51
572.265	16162.15
572.626	16198.75
572.987	16213.22
573.349	16310.84
573.71	16400.78
574.071	16459.99
574.432	16564.85
574.794	16688.46
575.155	16598.29
575.516	16558.97
575.877	16690.95
576.238	16669.93
576.599	16709.93
576.96	16631.96
577.32	16736.14
577.681	16814.56
578.042	16723.49
578.403	16893.88
578.763	16888
579.124	16926.42
579.485	16998.28
579.845	17040.77
580.206	17008
580.566	16945.85
580.927	17058.62
581.287	17043.03
581.648	17040.77
582.008	17212.51
582.368	17014.55
582.728	17024.72
583.089	17122.57
583.449	17034.89
583.809	17125.96
584.169	17136.81
584.529	17182.68
584.889	17248.44
585.249	17278.73
585.609	17187.88
585.969	17293.64
586.329	17124.38
586.688	17085.29
587.048	17192.63
587.408	17165.06
587.768	17111.27
588.127	17158.5
588.487	17253.19
588.846	17221.78
589.206	17177.94
589.565	17200.76
589.925	17300.87
590.284	17184.49
590.643	17224.49
591.003	17247.31
591.362	17313.3
591.721	17113.53
592.08	17156.7
592.44	17249.12
592.799	17269.46
593.158	17243.25
593.517	17236.69
593.876	17227.43
594.235	17307.2
594.593	17208.45
594.952	17250.7
595.311	17218.84
595.67	17252.06
596.029	17396.69
596.387	17412.28
596.746	17419.74
597.104	17337.26
597.463	17234.66
597.822	17325.5
598.18	17331.15
598.538	17320.31
598.897	17468.55
599.255	17360.76
599.613	17557.14
599.972	17495.67
600.33	17631.94
600.688	17405.5
601.046	17479.4
601.404	17566.18
601.762	17492.28
602.12	17638.49
602.478	17496.12
602.836	17647.98
603.194	17532.28
603.552	17548.55
603.91	17554.2
604.268	17630.58
604.625	17535.22
604.983	17607.31
605.341	17555.1
605.698	17633.97
606.056	17814.76
606.413	17645.72
606.771	17705.83
607.128	17693.63
607.485	17635.55
607.843	17621.99
608.2	17772.05
608.557	17850.01
608.914	17794.65
609.272	17858.6
609.629	17879.61
609.986	18001.65
610.343	17888.65
610.7	17914.64
611.057	17935.21
611.414	17916.22
611.771	17939.95
612.127	18077.8
612.484	18029.89
612.841	18048.42
613.198	17983.57
613.554	17973.85
613.911	18077.58
614.267	18043
614.624	18083.45
614.98	18097.01
615.337	18078.25
615.693	18147.86
616.05	18042.1
616.406	18216.55
616.762	18118.7
617.118	18139.72
617.475	18182.66
617.831	18205.03
618.187	18230.57
618.543	18261.3
618.899	18393.5
619.255	18308.98
619.611	18290.9
619.967	18340.85
620.323	18359.83
620.678	18338.36
621.034	18295.65
621.39	18300.85
621.746	18255.42
622.101	18448.41
622.457	18314.63
622.812	18303.11
623.168	18402.09
623.523	18362.54
623.879	18403.22
624.234	18209.1
624.589	18365.7
624.945	18392.14
625.3	18397.12
625.655	18418.81
626.01	18330.68
626.365	18426.49
626.72	18273.73
627.075	18339.04
627.43	18350.79
627.785	18311.02
628.14	18345.82
628.495	18267.85
628.85	18280.96
629.205	18170.45
629.559	18291.13
629.914	18226.27
630.269	18160.06
630.623	18216.55
630.978	18207.52
631.332	18225.37
631.687	18323.67
632.041	18187.4
632.396	18149.89
632.75	18085.48
633.104	18111.92
633.459	18015.43
633.813	18016.11
634.167	18058.14
634.521	17967.3
634.875	18009.1
635.229	17938.14
635.583	17895.21
635.937	17860.63
636.291	17832.84
636.645	17812.05
636.999	17869.67
637.352	17961.19
637.706	17805.94
638.06	17878.71
638.413	17741.31
638.767	17840.97
639.121	17812.95
639.474	17594.42
639.828	17604.14
640.181	17663.12
640.534	17684.37
640.888	17587.19
641.241	17402.57
641.594	17499.29
641.947	17606.18
642.301	17485.27
642.654	17499.29
643.007	17420.64
643.36	17566.63
643.713	17484.82
644.066	17543.8
644.419	17461.09
644.771	17398.72
645.124	17222
645.477	17254.77
645.83	17019.07
646.182	16925.29
646.535	16704.28
646.888	16832.18
647.24	16599.2
647.593	16788.57
647.945	16681.68
648.298	16659.76
648.65	16542.93
649.002	16613.43
649.355	16716.93
649.707	16613.66
650.059	16829.25
650.411	17031.73
650.763	17102.46
651.115	17195.79
651.467	17049.81
651.819	16977.72
652.171	16973.65
652.523	16981.79
652.875	16954.89
653.227	16682.58
653.578	16896.14
653.93	16792.86
654.282	16737.5
654.633	16706.54
654.985	16772.53
655.337	16737.27
655.688	16745.63
656.039	16851.39
656.391	16669.48
656.742	16729.36
657.094	16784.73
657.445	16848.91
657.796	16848
658.147	16836.25
658.498	16621.12
658.849	16782.24
659.2	16654.34
659.551	16415.25
659.902	16676.26
660.253	16550.61
660.604	16636.94
660.955	16450.5
661.306	16470.61
661.656	16494.11
662.007	16589.93
662.358	16557.84
662.708	16603.72
663.059	16554.68
663.409	16546.99
663.76	16557.84
664.11	16506.54
664.461	16570.27
664.811	16536.15
665.161	16527.33
665.511	16349.03
665.862	16428.35
666.212	16467.22
666.562	16498.63
666.912	16341.35
667.262	16391.07
667.612	16369.82
667.962	16388.81
668.312	16324.63
668.662	16438.97
669.011	16396.72
669.361	16467.67
669.711	16391.97
670.06	16278.75
670.41	16284.4
670.76	16347.45
671.109	16451.4
671.459	16385.64
671.808	16378.41
672.157	16358.52
672.507	16222.26
672.856	16266.1
673.205	16234.23
673.554	16266.32
673.904	16124.63
674.253	16238.98
674.602	16145.65
674.951	15911.08
675.3	15823.62
675.649	16163.5
675.998	16098.87
676.346	16078.98
676.695	16234.69
677.044	16194.91
677.393	16078.98
677.741	16152.65
678.09	16094.58
678.438	16057.06
678.787	16078.53
679.135	16069.04
679.484	15922.83
679.832	15968.48
680.181	15915.6
680.529	16005.54
680.877	15933
681.225	15753.79
681.573	15871.53
681.922	15826.56
682.27	15739.11
682.618	15722.61
682.966	15687.58
683.314	15733.91
683.661	15735.72
684.009	15695.72
684.357	15620.01
684.705	15684.64
685.053	15680.8
685.4	15627.24
685.748	15570.52
686.095	15527.81
686.443	15535.27
686.79	15435.16
687.138	15503.18
687.485	15400.36
687.832	15344.31
688.18	15329.63
688.527	15259.8
688.874	15151.1
689.221	15199.69
689.568	15104.32
689.915	15129.18
690.262	15096.18
690.609	15002.18
690.956	15038.79
691.303	15084.66
691.65	14971.22
691.997	14966.24
692.344	14968.05
692.69	14896.64
693.037	14965.34
693.383	14768.06
693.73	14915.4
694.077	14755.4
694.423	14674.5
694.769	14675.41
695.116	14528.97
695.462	14556.76
695.808	14508.4
696.155	14485.81
696.501	14398.35
696.847	14320.61
697.193	14314.06
697.539	14331.91
697.885	14222.76
698.231	14194.74
698.577	14202.88
698.923	14196.77
699.269	14130.33
699.614	14141.18
699.96	14068.64
700.306	14076.78
700.651	14027.96
700.997	14062.99
701.342	14034.52
701.688	13978.02
702.033	13821.87
702.379	13839.95
702.724	13759.95
703.069	13805.82
703.415	13613.74
703.76	13663.91
704.105	13677.92
704.45	13590.24
704.795	13450.35
705.14	13475.66
705.485	13532.38
705.83	13357.25
706.175	13457.81
706.52	13346.63
706.865	13383.24
707.209	13394.99
707.554	13338.94
707.899	13464.59
708.243	13299.17
708.588	13265.27
708.932	13208.78
709.277	13247.19
709.621	13195.67
709.966	13055.11
710.31	13097.14
710.654	13025.73
710.998	13019.86
711.342	12929.46
711.687	12845.17
712.031	12830.71
712.375	12725.17
712.719	12750.03
713.063	12750.26
713.407	12815.79
713.75	12773.99
714.094	12786.42
714.438	12650.15
714.782	12684.72
715.125	12600.21
715.469	12734.89
715.812	12613.31
716.156	12503.94
716.499	12686.98
716.843	12588.91
717.186	12487.67
717.53	12676.14
717.873	12602.92
718.216	12498.51
718.559	12442.47
718.902	12330.83
719.246	12311.17
719.589	12263.27
719.932	12185.75
720.275	12165.19
720.617	12163.15
720.96	12251.06
721.303	12138.3
721.646	12161.35
721.989	12073.89
722.331	12101.01
722.674	12119.31
723.016	12137.17
723.359	12165.41
723.701	12162.7
724.044	12141.46
724.386	12076.38
724.729	12096.26
725.071	12004.06
725.413	12062.82
725.755	12006.77
726.097	11920.9
726.439	11862.15
726.782	11948.7
727.124	11864.63
727.465	11882.94
727.807	11743.73
728.149	11798.64
728.491	11704.64
728.833	11713.68
729.175	11669.16
729.516	11634.36
729.858	11655.37
730.199	11651.08
730.541	11594.13
730.882	11632.32
731.224	11724.3
731.565	11601.14
731.906	11654.69
732.248	11674.58
732.589	11627.12
732.93	11567.01
733.271	11597.75
733.612	11598.65
733.953	11532.66
734.294	11458.77
734.635	11350.29
734.976	11505.09
735.317	11331.31
735.658	11386.23
735.999	11302.39
736.339	11277.08
736.68	11349.84
737.021	11201.6
737.361	11244.31
737.702	11294.93
738.042	11207.7
738.383	11227.59
738.723	11233.01
739.063	11227.81
739.404	11287.92
739.744	11203.63
740.084	11182.16
740.424	11258.77
740.764	11153.92
741.104	11195.95
741.444	11186.91
741.784	11067.36
742.124	11164.08
742.464	11169.28
742.804	11090.19
743.143	10932.68
743.483	10988.27
743.823	10906.24
744.162	10884.77
744.502	10882.28
744.841	10870.31
745.181	10873.47
745.52	10900.14
745.86	10847.94
746.199	10817.65
746.538	10897.43
746.877	10814.72
747.216	10806.35
747.556	10761.16
747.895	10783.08
748.234	10774.72
748.573	10740.59
748.911	10745.79
749.25	10730.2
749.589	10785.79
749.928	10662.18
750.267	10788.05
750.605	10646.81
750.944	10625.79
751.283	10513.03
751.621	10511.67
751.96	10448.17
752.298	10449.98
752.636	10423.09
752.975	10373.6
753.313	10388.96
753.651	10368.17
753.989	10358.91
754.327	10277.33
754.666	10252.7
755.004	10225.35
755.342	10251.79
755.679	10320.49
756.017	10181.51
756.355	10301.73
756.693	10226.26
757.031	10208.86
757.368	10196.65
