Data from foam1_polythene_foam_FLMS001491_00090.txt Node
Date: Wed Feb 08 10:55:31 GMT 2017
User: dcchb
Spectrometer: FLMS00149
Trigger mode: 0
Integration Time (sec): 2.000000E-2
Scans to average: 10
Electric dark correction enabled: true
Nonlinearity correction enabled: false
Boxcar width: 0
XAxis mode: Wavelengths
Number of Pixels in Spectrum: 2048
>>>>>Begin Spectral Data<<<<<
341.393	-27.58
341.776	-27.58
342.16	-27.58
342.543	-51.76
342.927	-49.96
343.31	-72.55
343.693	-66
344.077	-86.34
344.46	-60.35
344.843	-55.61
345.226	-25.78
345.61	-15.38
345.993	-10.86
346.376	-30.75
346.759	2.25
347.142	31.17
347.525	61.23
347.908	45.63
348.291	81.11
348.674	103.26
349.057	98.97
349.44	135.8
349.823	149.36
350.206	147.33
350.588	181.9
350.971	185.07
351.354	221
351.737	239.3
352.119	252.41
352.502	251.05
352.884	267.55
353.267	262.13
353.65	285.18
354.032	318.85
354.414	292.41
354.797	316.81
355.179	300.09
355.562	310.49
355.944	301.67
356.326	323.14
356.709	322.92
357.091	308.68
357.473	324.95
357.855	335.8
358.238	332.63
358.62	319.98
359.002	312.29
359.384	325.4
359.766	340.32
360.148	341.67
360.53	306.42
360.912	319.3
361.294	305.29
361.676	331.05
362.057	319.75
362.439	303.48
362.821	291.05
363.203	314.55
363.584	326.53
363.966	315.01
364.348	314.33
364.729	288.79
365.111	303.93
365.493	319.3
365.874	301.9
366.256	306.64
366.637	303.25
367.019	307.77
367.4	299.64
367.781	304.61
368.163	306.42
368.544	313.65
368.925	293.31
369.306	326.53
369.688	320.2
370.069	301.67
370.45	314.55
370.831	321.79
371.212	316.59
371.593	306.64
371.974	301.9
372.355	288.34
372.736	335.12
373.117	277.27
373.498	304.38
373.879	305.97
374.26	304.16
374.641	316.81
375.021	308.9
375.402	326.3
375.783	318.4
376.163	324.95
376.544	336.7
376.925	321.79
377.305	307.77
377.686	296.25
378.066	318.4
378.447	317.94
378.827	320.2
379.208	326.98
379.588	317.27
379.968	317.94
380.349	316.81
380.729	326.08
381.109	331.28
381.489	342.35
381.87	334.21
382.25	359.07
382.63	367.66
383.01	322.92
383.39	330.6
383.77	325.4
384.15	351.39
384.53	346.87
384.91	332.63
385.29	355.46
385.67	345.74
386.049	322.46
386.429	340.54
386.809	343.25
387.189	338.96
387.568	338.06
387.948	346.87
388.328	355.23
388.707	357.72
389.087	350.49
389.466	373.54
389.846	365.85
390.225	370.15
390.605	347.77
390.984	372.41
391.363	375.12
391.743	363.82
392.122	379.86
392.501	389.58
392.881	379.64
393.26	364.72
393.639	354.78
394.018	356.81
394.397	370.82
394.776	373.76
395.155	349.13
395.534	376.7
395.913	386.19
396.292	383.7
396.671	400.43
397.05	416.02
397.429	372.86
397.808	407.43
398.186	393.2
398.565	397.94
398.944	396.81
399.323	406.08
399.701	405.4
400.08	395.23
400.458	395.23
400.837	392.29
401.215	391.84
401.594	393.87
401.972	424.38
402.351	416.92
402.729	402.01
403.107	425.29
403.486	420.77
403.864	423.03
404.242	408.79
404.62	400.2
404.999	411.95
405.377	410.37
405.755	419.86
406.133	428.68
406.511	431.84
406.889	433.19
407.267	445.4
407.645	433.65
408.023	449.01
408.401	464.38
408.779	432.97
409.156	472.29
409.534	468.45
409.912	460.09
410.29	463.7
410.667	458.5
411.045	457.83
411.422	463.7
411.8	472.97
412.178	472.97
412.555	489.24
412.933	482.46
413.31	494.66
413.687	491.5
414.065	499.18
414.442	496.24
414.819	482.01
415.197	533.08
415.574	496.24
415.951	499.86
416.328	508
416.705	509.35
417.082	501.44
417.46	524.49
417.837	512.97
418.214	527.88
418.591	530.14
418.967	520.2
419.344	538.28
419.721	532.4
420.098	535.11
420.475	524.94
420.852	543.47
421.228	560.88
421.605	579.41
421.982	568.11
422.358	544.15
422.735	567.43
423.111	579.86
423.488	561.78
423.864	572.17
424.241	576.02
424.617	576.92
424.994	598.84
425.37	600.42
425.746	583.7
426.123	586.19
426.499	587.32
426.875	601.78
427.251	603.36
427.627	609.69
428.003	619.18
428.379	619.18
428.756	621.21
429.132	626.64
429.507	623.7
429.883	646.52
430.259	633.87
430.635	646.3
431.011	668.67
431.387	671.61
431.763	667.09
432.138	663.7
432.514	675.9
432.89	687.2
433.265	691.49
433.641	688.33
434.016	721.32
434.392	713.19
434.767	729.46
435.143	706.41
435.518	736.24
435.894	743.7
436.269	737.37
436.644	751.6
437.02	769.46
437.395	773.52
437.77	754.32
438.145	754.32
438.52	794.99
438.895	794.09
439.271	775.11
439.646	816.01
440.021	832.05
440.395	835.67
440.77	813.75
441.145	832.28
441.52	834.99
441.895	811.94
442.27	868.44
442.645	828.44
443.019	851.94
443.394	873.18
443.769	879.51
444.143	848.55
444.518	883.8
444.892	897.14
445.267	906.63
445.641	907.53
446.016	881.32
446.39	929.45
446.764	933.52
447.139	922.9
447.513	926.52
447.887	947.08
448.262	946.4
448.636	951.37
449.01	970.81
449.384	958.83
449.758	982.78
450.132	983.01
450.506	985.27
450.88	980.98
451.254	994.54
451.628	1006.74
452.002	1013.29
452.376	1021.65
452.75	1038.83
453.123	1028.21
453.497	1015.78
453.871	1041.09
454.244	1077.92
454.618	1073.18
454.992	1092.16
455.365	1096.91
455.739	1102.56
456.112	1123.57
456.486	1122.22
456.859	1122.22
457.232	1119.28
457.606	1142.78
457.979	1154.08
458.352	1134.42
458.725	1154.08
459.099	1182.33
459.472	1163.57
459.845	1211.03
460.218	1208.77
460.591	1207.64
460.964	1202.21
461.337	1230.69
461.71	1239.73
462.083	1265.49
462.456	1234.3
462.829	1270.01
463.201	1273.62
463.574	1270.46
463.947	1320.18
464.32	1340.29
464.692	1335.09
465.065	1348.88
465.438	1343
465.81	1350.68
466.183	1341.19
466.555	1379.61
466.928	1401.08
467.3	1375.99
467.672	1433.39
468.045	1470.23
468.417	1481.3
468.789	1480.4
469.161	1476.78
469.534	1474.52
469.906	1510
470.278	1510.45
470.65	1510
471.022	1568.31
471.394	1593.62
471.766	1604.01
472.138	1605.82
472.51	1624.12
472.882	1674.52
473.253	1635.42
473.625	1709.32
473.997	1690.56
474.369	1701.18
474.74	1729.21
475.112	1758.81
475.484	1783.89
475.855	1831.35
476.227	1820.95
476.598	1888.3
476.97	1863.89
477.341	1935.08
477.713	1918.58
478.084	1949.99
478.455	1991.12
478.827	2016.88
479.198	2046.49
479.569	2055.53
479.94	2113.38
480.311	2116.54
480.682	2152.92
481.053	2197.89
481.424	2222.53
481.795	2255.07
482.166	2287.16
482.537	2316.08
482.908	2359.7
483.279	2385.01
483.65	2389.53
484.021	2470.88
484.391	2442.18
484.762	2511.11
485.133	2532.8
485.503	2542.07
485.874	2584.78
486.244	2608.05
486.615	2670.2
486.985	2661.38
487.356	2706.58
487.726	2722.4
488.097	2784.77
488.467	2838.78
488.837	2888.72
489.207	2912.9
489.578	2936.18
489.948	2948.16
490.318	3021.6
490.688	3003.3
491.058	3078.1
491.428	3084.42
491.798	3096.63
492.168	3127.14
492.538	3228.6
492.908	3200.35
493.278	3280.35
493.648	3237.87
494.017	3308.37
494.387	3363.29
494.757	3394.02
495.126	3428.37
495.496	3403.29
495.866	3445.54
496.235	3490.06
496.605	3516.05
496.974	3490.52
497.344	3520.12
497.713	3550.4
498.082	3573.45
498.452	3652.55
498.821	3660.23
499.19	3710.85
499.559	3730.51
499.928	3800.34
500.298	3761.47
500.667	3792.88
501.036	3786.33
501.405	3857.96
501.774	3812.54
502.143	3862.48
502.512	3854.57
502.88	3936.83
503.249	3937.28
503.618	3987.9
503.987	4007.56
504.356	4056.6
504.724	4077.39
505.093	4086.88
505.462	4076.94
505.83	4083.04
506.199	4104.06
506.567	4179.76
506.936	4177.5
507.304	4248.46
507.672	4233.32
508.041	4304.96
508.409	4359.19
508.777	4372.75
509.145	4419.3
509.514	4386.09
509.882	4451.17
510.25	4475.57
510.618	4460.66
510.986	4483.94
511.354	4512.64
511.722	4582.92
512.09	4593.54
512.458	4579.75
512.826	4672.41
513.193	4753.53
513.561	4731.16
513.929	4799.18
514.297	4843.25
514.664	4818.16
515.032	4873.53
515.4	4922.57
515.767	4877.82
516.135	4934.55
516.502	4899.74
516.869	5033.3
517.237	5039.85
517.604	5075.78
517.972	5138.61
518.339	5197.82
518.706	5203.92
519.073	5229.45
519.44	5283.91
519.808	5337.02
520.175	5308.09
520.542	5374.08
520.909	5362.56
521.276	5353.52
521.643	5475.1
522.009	5430.58
522.376	5522.33
522.743	5625.37
523.11	5630.35
523.477	5720.29
523.843	5742.21
524.21	5814.07
524.577	5857.23
524.943	5824.01
525.31	5879.61
525.676	5927.74
526.043	5957.8
526.409	5978.36
526.776	6050.67
527.142	6025.14
527.508	6141.52
527.874	6142.88
528.241	6230.33
528.607	6273.95
528.973	6408.63
529.339	6320.05
529.705	6428.52
530.071	6418.12
530.437	6416.77
530.803	6471.91
531.169	6518.68
531.535	6519.14
531.901	6563.2
532.267	6574.05
532.632	6607.72
532.998	6636.2
533.364	6746.48
533.73	6721.62
534.095	6798.9
534.461	6880.48
534.826	6902.4
535.192	6864.44
535.557	6958
535.923	6926.36
536.288	6952.12
536.653	6989.18
537.019	6922.29
537.384	7003.87
537.749	7022.63
538.114	7083.64
538.479	7082.29
538.845	7161.38
539.21	7166.13
539.575	7234.37
539.94	7244.54
540.305	7274.14
540.67	7317.31
541.034	7312.56
541.399	7364.99
541.764	7321.83
542.129	7372.9
542.494	7412.45
542.858	7424.42
543.223	7439.79
543.587	7451.32
543.952	7475.5
544.316	7518.43
544.681	7518.43
545.045	7631.42
545.41	7712.55
545.774	7695.15
546.138	7664.42
546.503	7686.34
546.867	7662.61
547.231	7769.95
547.595	7721.14
547.959	7714.59
548.324	7757.07
548.688	7783.06
549.052	7859.89
549.416	7869.16
549.779	7964.07
550.143	7975.6
550.507	8046.78
550.871	8100.11
551.235	8095.59
551.599	8114.57
551.962	8172.43
552.326	8131.75
552.689	8197.96
553.053	8128.59
553.417	8212.43
553.78	8287.68
554.143	8274.12
554.507	8311.18
554.87	8319.77
555.234	8447.9
555.597	8515.02
555.96	8482.93
556.323	8577.16
556.686	8552.08
557.05	8615.13
557.413	8656.48
557.776	8625.97
558.139	8717.5
558.502	8653.77
558.865	8701.23
559.228	8719.53
559.59	8778.96
559.953	8787.55
560.316	8891.5
560.679	8903.48
561.041	8936.7
561.404	9010.6
561.767	9119.52
562.129	9118.39
562.492	9222.57
562.854	9206.07
563.217	9163.81
563.579	9235
563.941	9263.02
564.304	9304.15
564.666	9389.57
565.028	9323.81
565.39	9413.75
565.753	9480.19
566.115	9493.75
566.477	9542.33
566.839	9539.4
567.201	9678.15
567.563	9762.89
567.925	9741.2
568.287	9783.91
568.648	9773.06
569.01	9898.03
569.372	9936.22
569.734	9869.1
570.095	9921.08
570.457	9932.83
570.819	9953.4
571.18	9918.14
571.542	10108.87
571.903	10048.08
572.265	10075.88
572.626	10108.19
572.987	10160.85
573.349	10207.4
573.71	10325.82
574.071	10271.35
574.432	10342.54
574.794	10454.4
575.155	10433.16
575.516	10315.65
575.877	10391.8
576.238	10411.92
576.599	10482.2
576.96	10439.49
577.32	10434.97
577.681	10529.2
578.042	10528.52
578.403	10524.68
578.763	10517.45
579.124	10526.49
579.485	10532.36
579.845	10640.84
580.206	10656.43
580.566	10638.58
580.927	10645.81
581.287	10754.51
581.648	10676.54
582.008	10640.84
582.368	10574.17
582.728	10704.56
583.089	10655.07
583.449	10649.88
583.809	10615.53
584.169	10624.34
584.529	10573.49
584.889	10717.67
585.249	10692.13
585.609	10668.63
585.969	10803.32
586.329	10819.81
586.688	10844.9
587.048	10802.19
587.408	10768.06
587.768	10815.52
588.127	10734.39
588.487	10649.2
588.846	10882.41
589.206	10685.35
589.565	10669.54
589.925	10721.51
590.284	10728.74
590.643	10710.21
591.003	10768.74
591.362	10812.13
591.721	10790.21
592.08	10788.85
592.44	10835.41
592.799	10810.55
593.158	10834.05
593.517	10912.47
593.876	10815.75
594.235	10865.01
594.593	10818.68
594.952	10857.33
595.311	10837.44
595.67	10806.03
596.029	10922.64
596.387	10801.06
596.746	10835.86
597.104	10787.27
597.463	10815.52
597.822	10892.81
598.18	10828.63
598.538	10866.14
598.897	10920.6
599.255	10900.72
599.613	11080.82
599.972	10971.67
600.33	10956.31
600.688	10981.39
601.046	10952.47
601.404	11018.23
601.762	10989.3
602.12	10996.53
602.478	10975.74
602.836	10887.84
603.194	10885.58
603.552	10914.95
603.91	10868.63
604.268	10931.45
604.625	10880.6
604.983	11014.61
605.341	10889.19
605.698	10978.68
606.056	11082.41
606.413	11024.78
606.771	11078.34
607.128	11147.94
607.485	11050.99
607.843	11085.34
608.2	11194.72
608.557	11236.3
608.914	11074.27
609.272	11104.78
609.629	11086.93
609.986	11199.47
610.343	11123.76
610.7	11218.9
611.057	11153.36
611.414	11227.49
611.771	11190.88
612.127	11189.97
612.484	11198.79
612.841	11303.19
613.198	11290.76
613.554	11299.58
613.911	11378.22
614.267	11368.27
614.624	11357.65
614.98	11320.82
615.337	11418.89
615.693	11377.99
616.05	11379.8
616.406	11366.47
616.762	11397.88
617.118	11276.98
617.475	11302.06
617.831	11337.54
618.187	11278.33
618.543	11324.89
618.899	11411.66
619.255	11399.69
619.611	11408.5
619.967	11454.6
620.323	11478.78
620.678	11471.1
621.034	11427.93
621.39	11451.44
621.746	11405.79
622.101	11563.3
622.457	11419.12
622.812	11466.35
623.168	11499.34
623.523	11356.07
623.879	11415.5
624.234	11333.93
624.589	11414.83
624.945	11379.35
625.3	11415.96
625.655	11353.59
626.01	11389.06
626.365	11450.31
626.72	11431.55
627.075	11455.28
627.43	11518.33
627.785	11405.34
628.14	11484.88
628.495	11516.29
628.85	11435.17
629.205	11469.29
629.559	11419.12
629.914	11417.76
630.269	11373.92
630.623	11288.28
630.978	11297.99
631.332	11382.06
631.687	11291.21
632.041	11203.76
632.396	11281.95
632.75	11175.29
633.104	11216.64
633.459	11233.36
633.813	11239.24
634.167	11225.91
634.521	11274.04
634.875	11250.54
635.229	11258.67
635.583	11241.27
635.937	11148.39
636.291	11206.24
636.645	11148.17
636.999	11117.21
637.352	11180.26
637.706	11080.6
638.06	11066.81
638.413	11023.65
638.767	11011.67
639.121	10989.53
639.474	10954.5
639.828	10974.84
640.181	10931.9
640.534	10899.81
640.888	10938.68
641.241	10817.55
641.594	10907.95
641.947	10935.52
642.301	11002.63
642.654	11012.58
643.007	10957.21
643.36	10959.47
643.713	10885.12
644.066	10944.78
644.419	10799.25
644.771	10778.01
645.124	10639.93
645.477	10624.11
645.83	10466.83
646.182	10475.42
646.535	10458.69
646.888	10411.01
647.24	10355.42
647.593	10416.66
647.945	10404.01
648.298	10369.43
648.65	10282.65
649.002	10343.22
649.355	10380.28
649.707	10359.94
650.059	10418.47
650.411	10515.19
650.763	10580.05
651.115	10678.35
651.467	10676.77
651.819	10644.45
652.171	10632.25
652.523	10521.74
652.875	10634.51
653.227	10483.1
653.578	10573.04
653.93	10539.37
654.282	10426.83
654.633	10422.99
654.985	10445.59
655.337	10386.15
655.688	10350.67
656.039	10406.94
656.391	10399.03
656.742	10404.46
657.094	10398.81
657.445	10524.45
657.796	10447.39
658.147	10330.34
658.498	10392.03
658.849	10387.06
659.2	10450.56
659.551	10451.46
659.902	10523.55
660.253	10460.28
660.604	10365.82
660.955	10361.75
661.306	10370.11
661.656	10424.8
662.007	10294.63
662.358	10333.27
662.708	10230
663.059	10297.57
663.409	10096.9
663.76	10253.5
664.11	10124.69
664.461	10222.54
664.811	10143.45
665.161	10210.56
665.511	10158.36
665.862	10201.53
666.212	10224.35
666.562	10270.68
666.912	10249.21
667.262	10233.16
667.612	10256.89
667.962	10288.3
668.312	10285.14
668.662	10280.39
669.011	10336.66
669.361	10246.72
669.711	10267.06
670.06	10184.8
670.41	10223.45
670.76	10118.36
671.109	10200.85
671.459	10213.95
671.808	10092.15
672.157	10141.64
672.507	9982.77
672.856	10038.59
673.205	9982.1
673.554	10004.92
673.904	10027.52
674.253	10089.89
674.602	10081.75
674.951	9865.26
675.3	9927.63
675.649	10030.68
675.998	10078.82
676.346	10166.05
676.695	10174.18
677.044	10015.54
677.393	10112.94
677.741	10107.74
678.09	10112.04
678.438	10048.54
678.787	9964.24
679.135	10056.22
679.484	9910.23
679.832	10004.24
680.181	9853.96
680.529	9871.14
680.877	9874.08
681.225	9761.99
681.573	9850.35
681.922	9759.5
682.27	9836.11
682.618	9739.39
682.966	9774.64
683.314	9789.11
683.661	9735.55
684.009	9689
684.357	9757.24
684.705	9760.18
685.053	9762.22
685.4	9771.03
685.748	9693.52
686.095	9713.85
686.443	9623.91
686.79	9724.7
687.138	9647.64
687.485	9711.59
687.832	9616.23
688.18	9678.6
688.527	9540.98
688.874	9558.83
689.221	9512.05
689.568	9491.49
689.915	9470.02
690.262	9375.33
690.609	9355.45
690.956	9314.54
691.303	9228.44
691.65	9251.95
691.997	9265.96
692.344	9185.06
692.69	9156.81
693.037	9182.34
693.383	9164.72
693.73	9173.53
694.077	9219.4
694.423	9178.95
694.769	9193.19
695.116	9134.66
695.462	9163.13
695.808	9123.14
696.155	9185.51
696.501	9116.58
696.847	9072.52
697.193	8964.95
697.539	8971.28
697.885	8923.82
698.231	8948.9
698.577	8832.3
698.923	8838.62
699.269	8814.22
699.614	8692.41
699.96	8680.44
700.306	8679.76
700.651	8574.68
700.997	8604.96
701.342	8569.7
701.688	8598.18
702.033	8634.56
702.379	8536.03
702.724	8583.49
703.069	8612.64
703.415	8498.75
703.76	8538.29
704.105	8600.44
704.45	8579.65
704.795	8514.56
705.14	8474.57
705.485	8496.03
705.83	8440.67
706.175	8514.34
706.52	8426.2
706.865	8403.38
707.209	8398.18
707.554	8331.52
707.899	8341.69
708.243	8246.32
708.588	8273.21
708.932	8130.17
709.277	8191.86
709.621	8157.74
709.966	8092.2
710.31	8095.37
710.654	8075.03
710.998	8078.64
711.342	7998.42
711.687	8067.12
712.031	8005.2
712.375	8000
712.719	8046.1
713.063	8069.83
713.407	8097.63
713.75	8016.05
714.094	8043.84
714.438	8009.49
714.782	7965.88
715.125	8022.15
715.469	8040.23
715.812	7918.42
716.156	7906.67
716.499	7928.36
716.843	7897.86
717.186	7852.66
717.53	7846.11
717.873	7813.79
718.216	7780.12
718.559	7762.95
718.902	7670.07
719.246	7679.11
719.589	7622.61
719.932	7591.42
720.275	7615.38
720.617	7570.41
720.96	7622.38
721.303	7565.21
721.646	7585.55
721.989	7574.93
722.331	7583.97
722.674	7545.1
723.016	7572.67
723.359	7602.05
723.701	7646.11
724.044	7559.34
724.386	7526.34
724.729	7560.24
725.071	7602.05
725.413	7591.65
725.755	7600.46
726.097	7478.21
726.439	7508.94
726.782	7487.02
727.124	7470.75
727.465	7450.19
727.807	7423.52
728.149	7414.71
728.491	7333.8
728.833	7381.03
729.175	7321.15
729.516	7284.77
729.858	7379.9
730.199	7260.59
730.541	7232.79
730.882	7188.5
731.224	7241.15
731.565	7234.37
731.906	7195.95
732.248	7216.07
732.589	7165.22
732.93	7223.52
733.271	7194.82
733.612	7160.93
733.953	7222.85
734.294	7236.86
734.635	7232.56
734.976	7194.37
735.317	7246.57
735.658	7202.06
735.999	7189.63
736.339	7133.81
736.68	7171.77
737.021	7090.65
737.361	7112.79
737.702	7118.89
738.042	7155.96
738.383	7125
738.723	7014.94
739.063	7022.4
739.404	6984.89
739.744	6936.53
740.084	6959.35
740.424	6958.45
740.764	6978.33
741.104	6999.35
741.444	6875.51
741.784	6843.65
742.124	6899.01
742.464	6872.12
742.804	6879.58
743.143	6870.99
743.483	6918.9
743.823	6896.75
744.162	6851.33
744.502	6900.14
744.841	6856.98
745.181	6904.21
745.52	6917.54
745.86	6879.8
746.199	6915.96
746.538	6927.04
746.877	6906.02
747.216	6883.65
747.556	6856.08
747.895	6852.91
748.234	6806.81
748.573	6781.5
748.911	6772.46
749.25	6732.46
749.589	6716.19
749.928	6688.4
750.267	6676.65
750.605	6620.38
750.944	6602.98
751.283	6571.11
751.621	6605.69
751.96	6580.38
752.298	6530.44
752.636	6558.01
752.975	6534.28
753.313	6474.17
753.651	6524.56
753.989	6515.97
754.327	6547.61
754.666	6515.75
755.004	6555.75
755.342	6541.96
755.679	6531.34
756.017	6507.84
756.355	6565.24
756.693	6475.97
757.031	6513.94
757.368	6489.31
757.706	6498.12
758.044	6487.95
758.381	6453.15
758.719	6397.78
759.056	6381.06
759.394	6316.2
759.731	6338.8
760.068	6265.81
760.405	6268.75
760.743	6211.57
761.08	6236.66
761.417	6206.15
761.754	6162.31
762.091	6094.51
762.428	6076.66
762.765	6092.71
763.102	6080.05
763.438	6070.33
763.775	6021.75
764.112	6044.8
764.449	6027.62
764.785	6025.14
