Data from foam2_polystyrene_foam_FLMS001491_00010.txt Node
Date: Wed Feb 08 10:57:27 GMT 2017
User: dcchb
Spectrometer: FLMS00149
Trigger mode: 0
Integration Time (sec): 2.000000E-2
Scans to average: 10
Electric dark correction enabled: true
Nonlinearity correction enabled: false
Boxcar width: 0
XAxis mode: Wavelengths
Number of Pixels in Spectrum: 2048
>>>>>Begin Spectral Data<<<<<
341.393	-25.75
341.776	-25.75
342.16	-25.75
342.543	-49.93
342.927	-66.65
343.31	-50.15
343.693	-65.52
344.077	-47.89
344.46	-65.75
344.843	-68.68
345.226	-56.71
345.61	-21.23
345.993	-15.8
346.376	-26.43
346.759	4.99
347.142	33.46
347.525	17.41
347.908	67.13
348.291	89.5
348.674	81.14
349.057	124.53
349.44	120.91
349.823	129.05
350.206	166.79
350.588	201.59
350.971	244.53
351.354	262.15
351.737	249.5
352.119	261.25
352.502	269.39
352.884	283.85
353.267	287.69
353.65	313.68
354.032	307.8
354.414	321.59
354.797	326.11
355.179	316.62
355.562	327.92
355.944	341.02
356.326	354.36
356.709	333.34
357.091	358.65
357.473	355.94
357.855	365.65
358.238	367.69
358.62	357.97
359.002	345.32
359.384	388.7
359.766	365.43
360.148	365.88
360.53	359.1
360.912	329.27
361.294	353.68
361.676	354.36
362.057	357.74
362.439	346.9
362.821	362.26
363.203	342.6
363.584	334.02
363.966	369.95
364.348	363.62
364.729	357.07
365.111	352.77
365.493	332.89
365.874	336.28
366.256	338.99
366.637	328.82
367.019	334.47
367.4	356.39
367.781	364.75
368.163	357.97
368.544	341.25
368.925	339.89
369.306	359.55
369.688	344.19
370.069	350.29
370.45	367.24
370.831	341.47
371.212	343.06
371.593	360.23
371.974	362.94
372.355	350.06
372.736	342.6
373.117	345.99
373.498	355.94
373.879	373.11
374.26	364.07
374.641	366.56
375.021	352.77
375.402	382.15
375.783	371.53
376.163	412.66
376.544	400.23
376.925	384.64
377.305	372.66
377.686	368.37
378.066	388.7
378.447	431.87
378.827	410.62
379.208	409.27
379.588	402.04
379.968	394.58
380.349	399.1
380.729	388.25
381.109	417.86
381.489	400.91
381.87	396.16
382.25	408.14
382.63	388.48
383.01	446.56
383.39	414.69
383.77	415.14
384.15	431.87
384.53	423.51
384.91	427.8
385.29	436.84
385.67	443.39
386.049	449.27
386.429	439.1
386.809	448.59
387.189	447.46
387.568	446.1
387.948	441.81
388.328	452.43
388.707	452.43
389.087	458.76
389.466	476.39
389.846	468.02
390.225	488.14
390.605	467.35
390.984	475.48
391.363	493.11
391.743	480.45
392.122	502.83
392.501	497.63
392.881	522.03
393.26	500.57
393.639	537.18
394.018	507.8
394.397	526.55
394.776	532.66
395.155	532.43
395.534	519.1
395.913	537.4
396.292	557.06
396.671	527.23
397.05	532.66
397.429	523.39
397.808	537.18
398.186	562.71
398.565	544.41
398.944	562.94
399.323	566.33
399.701	585.08
400.08	581.47
400.458	602.94
400.837	581.47
401.215	582.82
401.594	594.12
401.972	607
402.351	605.65
402.729	634.12
403.107	606.78
403.486	631.41
403.864	614.69
404.242	633.67
404.62	641.35
404.999	643.84
405.377	660.34
405.755	669.83
406.133	675.93
406.511	659.43
406.889	696.49
407.267	689.94
407.645	688.58
408.023	695.82
408.401	712.99
408.779	694.01
409.156	725.64
409.534	712.54
409.912	732.65
410.29	748.47
410.667	758.86
411.045	779.2
411.422	762.48
411.8	777.62
412.178	789.82
412.555	782.37
412.933	789.37
413.31	806.32
413.687	820.11
414.065	831.86
414.442	838.18
414.819	828.69
415.197	851.74
415.574	848.13
415.951	880.44
416.328	851.07
416.705	874.79
417.082	884.74
417.46	887
417.837	901.91
418.214	914.34
418.591	913.44
418.967	927
419.344	959.76
419.721	932.64
420.098	957.28
420.475	981.68
420.852	973.77
421.228	978.29
421.605	979.88
421.982	1007.9
422.358	991.4
422.735	1022.36
423.111	1032.53
423.488	1027.11
423.864	1047.9
424.241	1053.09
424.617	1059.42
424.994	1090.83
425.37	1071.17
425.746	1086.09
426.123	1105.75
426.499	1110.49
426.875	1133.54
427.251	1154.33
427.627	1177.84
428.003	1190.94
428.379	1189.36
428.756	1190.94
429.132	1206.08
429.507	1268.23
429.883	1246.31
430.259	1266.42
430.635	1272.07
431.011	1282.47
431.387	1322.47
431.763	1358.85
432.138	1322.47
432.514	1330.15
432.89	1359.53
433.265	1386.87
433.641	1423.03
434.016	1403.14
434.392	1451.05
434.767	1451.95
435.143	1465.51
435.518	1497.38
435.894	1522.01
436.269	1508.9
436.644	1558.84
437.02	1550.93
437.395	1538.96
437.77	1585.51
438.145	1599.07
438.52	1621.21
438.895	1648.78
439.271	1637.26
439.646	1687.43
440.021	1712.29
440.395	1691.27
440.77	1700.99
441.145	1703.47
441.52	1753.19
441.895	1751.83
442.27	1766.3
442.645	1784.15
443.019	1804.94
443.394	1776.92
443.769	1802
444.143	1799.06
444.518	1840.64
444.892	1854.65
445.267	1852.39
445.641	1896.46
446.016	1907.99
446.39	1944.37
446.764	1962.22
447.139	1972.17
447.513	1944.82
447.887	1955.22
448.262	1966.52
448.636	2004.03
449.01	1996.57
449.384	2039.73
449.758	2076.57
450.132	2085.83
450.506	2052.62
450.88	2087.19
451.254	2076.34
451.628	2152.27
452.002	2163.12
452.376	2167.41
452.75	2233.85
453.123	2211.03
453.497	2254.19
453.871	2278.37
454.244	2323.34
454.618	2344.36
454.992	2362.44
455.365	2375.32
455.739	2435.43
456.112	2456.9
456.486	2459.16
456.859	2491.02
457.232	2545.03
457.606	2491.47
457.979	2555.43
458.352	2590.23
458.725	2664.35
459.099	2627.29
459.472	2686.72
459.845	2696.89
460.218	2760.85
460.591	2747.96
460.964	2748.42
461.337	2794.74
461.71	2874.29
462.083	2973.95
462.456	2926.94
462.829	2912.03
463.201	2950.67
463.574	2984.12
463.947	3041.74
464.32	3100.72
464.692	3083.77
465.065	3163.55
465.438	3192.47
465.81	3246.48
466.183	3229.76
466.555	3280.15
466.928	3359.47
467.3	3306.37
467.672	3367.61
468.045	3484.44
468.417	3487.83
468.789	3540.71
469.161	3603.31
469.534	3612.35
469.906	3712.46
470.278	3724.89
470.65	3753.14
471.022	3824.55
471.394	3887.82
471.766	3919.46
472.138	3990.19
472.51	4041.72
472.882	4107.93
473.253	4206.46
473.625	4219.79
473.997	4293.91
474.369	4324.87
474.74	4388.37
475.112	4488.26
475.484	4528.26
475.855	4581.59
476.227	4615.49
476.598	4752.43
476.97	4807.35
477.341	4953.78
477.713	5001.01
478.084	5004.4
478.455	5169.37
478.827	5159.2
479.198	5353.77
479.569	5309.71
479.94	5467.22
480.311	5552.41
480.682	5641.45
481.053	5785.4
481.424	5804.16
481.795	5881.67
482.166	5981.33
482.537	6114.88
482.908	6211.15
483.279	6283.92
483.65	6422.22
484.021	6531.37
484.391	6616.79
484.762	6641.87
485.133	6736.56
485.503	6789.44
485.874	6985.82
486.244	7000.28
486.615	7177.45
486.985	7240.73
487.356	7335.64
487.726	7464.68
488.097	7584.9
488.467	7642.3
488.837	7847.72
489.207	7917.77
489.578	7966.13
489.948	8110.54
490.318	8170.19
490.688	8190.08
491.058	8338.1
491.428	8475.72
491.798	8488.15
492.168	8694.02
492.538	8695.83
492.908	8890.85
493.278	8959.55
493.648	8989.83
494.017	9097.85
494.387	9128.81
494.757	9259.88
495.126	9382.14
495.496	9409.71
495.866	9503.04
496.235	9541.01
496.605	9717.72
496.974	9690.61
497.344	9811.73
497.713	9889.02
498.082	9948.23
498.452	10071.61
498.821	10122.69
499.19	10204.04
499.559	10332.62
499.928	10336.92
500.298	10424.15
500.667	10484.03
501.036	10478.16
501.405	10641.09
501.774	10630.7
502.143	10750.24
502.512	10822.33
502.88	10956.56
503.249	10942.78
503.618	11016.22
503.987	11047.18
504.356	11203.34
504.724	11197.46
505.093	11381.18
505.462	11403.33
505.83	11493.72
506.199	11542.08
506.567	11751.34
506.936	11730.55
507.304	11878.8
507.672	11904.33
508.041	11929.87
508.409	12009.87
508.777	12100.26
509.145	12287.6
509.514	12248.51
509.882	12367.6
510.25	12441.95
510.618	12455.51
510.986	12583.86
511.354	12796.29
511.722	12810.3
512.09	13004.42
512.458	12998.09
512.826	13018.65
513.193	13198.99
513.561	13184.75
513.929	13260.68
514.297	13462.03
514.664	13594.91
515.032	13597.17
515.4	13721.46
515.767	13747.45
516.135	13852.53
516.502	13807.33
516.869	14045.29
517.237	14175.01
517.604	14191.51
517.972	14366.19
518.339	14351.73
518.706	14472.63
519.073	14514.89
519.44	14705.84
519.808	14864.48
520.175	14767.08
520.542	15123.68
520.909	15154.19
521.276	15166.17
521.643	15327.75
522.009	15413.39
522.376	15649.55
522.743	15676.89
523.11	15810.22
523.477	15978.13
523.843	16122.53
524.21	16342.41
524.577	16421.05
524.943	16492.91
525.31	16524.33
525.676	16736.98
526.043	16805.67
526.409	16953.92
526.776	17154.59
527.142	17256.28
527.508	17304.87
527.874	17489.5
528.241	17625.99
528.607	17666.44
528.973	17781.92
529.339	17792.77
529.705	17996.38
530.071	18139.2
530.437	18194.79
530.803	18367.89
531.169	18428.68
531.535	18454.9
531.901	18562.46
532.267	18625.51
532.632	18818.28
532.998	18862.79
533.364	19019.18
533.73	19006.75
534.095	19206.51
534.461	19270.92
534.826	19296
535.192	19404.02
535.557	19541.2
535.923	19507.07
536.288	19627.29
536.653	19702.32
537.019	19785.93
537.384	19813.5
537.749	19958.59
538.114	20078.13
538.479	20065.93
538.845	20224.79
539.21	20189.77
539.575	20389.53
539.94	20352.93
540.305	20445.13
540.67	20590.43
541.034	20604.67
541.399	20672.24
541.764	20737.77
542.129	20867.71
542.494	20940.71
542.858	20984.1
543.223	21061.38
543.587	21115.17
543.952	21125.56
544.316	21272.9
544.681	21308.38
545.045	21388.15
545.41	21501.14
545.774	21556.28
546.138	21572.78
546.503	21677.18
546.867	21741.14
547.231	21869.5
547.595	21898.87
547.959	22027.46
548.324	22059.32
548.688	22113.78
549.052	22150.62
549.416	22201.01
549.779	22324.17
550.143	22435.81
550.507	22666.76
550.871	22593.09
551.235	22710.83
551.599	22852.97
551.962	22886.87
552.326	23072.18
552.689	23159.63
553.053	23036.47
553.417	23188.78
553.78	23412.73
554.143	23358.5
554.507	23454.31
554.87	23534.99
555.234	23887.75
555.597	23704.7
555.96	23833.96
556.323	23869.44
556.686	23920.29
557.05	24042.77
557.413	24202.77
557.776	24236.21
558.139	24569.99
558.502	24544.91
558.865	24659.48
559.228	24823.32
559.59	24909.42
559.953	24966.36
560.316	25285.22
560.679	25307.37
561.041	25387.6
561.404	25368.16
561.767	25612.67
562.129	25675.72
562.492	25823.06
562.854	25907.58
563.217	25913.68
563.579	26059.67
563.941	26294.46
564.304	26376.72
564.666	26467.34
565.028	26554.12
565.39	26628.01
565.753	26787.78
566.115	27007.67
566.477	27046.31
566.839	27236.81
567.201	27498.5
567.563	27282.46
567.925	27633.86
568.287	27627.08
568.648	27657.59
569.01	27788.89
569.372	27951.37
569.734	27944.14
570.095	28218.03
570.457	28221.19
570.819	28238.37
571.18	28232.94
571.542	28452.15
571.903	28475.88
572.265	28576.89
572.626	28705.93
572.987	28664.57
573.349	28834.28
573.71	28997.44
574.071	29026.6
574.432	29112.02
574.794	29260.71
575.155	29354.95
575.516	29228.17
575.877	29316.31
576.238	29346.59
576.599	29483.31
576.96	29474.27
577.32	29606.92
577.681	29717.42
578.042	29804.43
578.403	29793.36
578.763	29897.31
579.124	29846.69
579.485	30003.52
579.845	30221.14
580.206	29997.19
580.566	30045.78
580.927	30098.21
581.287	30048.04
581.648	29968.27
582.008	30254.36
582.368	30174.14
582.728	30281.7
583.089	30236.51
583.449	30257.52
583.809	30353.79
584.169	30450.74
584.529	30265.88
584.889	30589.49
585.249	30330.74
585.609	30349.72
585.969	30504.52
586.329	30321.48
586.688	30522.83
587.048	30521.25
587.408	30326.67
587.768	30355.37
588.127	30291.87
588.487	30392.44
588.846	30509.72
589.206	30332.78
589.565	30351.76
589.925	30498.2
590.284	30469.5
590.643	30429.5
591.003	30477.86
591.362	30536.61
591.721	30506.78
592.08	30444.19
592.44	30652.32
592.799	30656.84
593.158	30639.66
593.517	30607.12
593.876	30762.82
594.235	30593.56
594.593	30671.07
594.952	30795.36
595.311	30688.02
595.67	30738.19
596.029	30923.95
596.387	30881.91
596.746	30847.11
597.104	30660
597.463	30741.58
597.822	30872.87
598.18	30755.36
598.538	30854.12
598.897	30972.53
599.255	30617.97
599.613	31038.07
599.972	30842.14
600.33	30981.57
600.688	30752.88
601.046	31009.37
601.404	31137.05
601.762	31129.14
602.12	31083.72
602.478	31281.9
602.836	31185.86
603.194	31055.24
603.552	31141.34
603.91	31121
604.268	31171.4
604.625	31192.19
604.983	31410.94
605.341	31167.56
605.698	31302.02
606.056	31378.85
606.413	31268.57
606.771	31390.38
607.128	31409.13
607.485	31277.61
607.843	31262.92
608.2	31563.48
608.557	31684.83
608.914	31488.68
609.272	31702.91
609.629	31745.17
609.986	31830.14
610.343	31701.33
610.7	31850.93
611.057	31878.72
611.414	31750.82
611.771	31917.82
612.127	31972.73
612.484	31950.36
612.841	32063.8
613.198	31840.08
613.554	32082.11
613.911	32180.64
614.267	32063.35
614.624	32089.11
614.98	32068.1
615.337	32347.86
615.693	32254.76
616.05	32288.43
616.406	32440.97
616.762	32338.6
617.118	32250.92
617.475	32339.05
617.831	32498.59
618.187	32397.35
618.543	32559.38
618.899	32576.33
619.255	32471.48
619.611	32393.51
619.967	32569.78
620.323	32648.2
620.678	32546.73
621.034	32383.8
621.39	32486.39
621.746	32379.73
622.101	32929.09
622.457	32564.13
622.812	32577.01
623.168	32655.88
623.523	32485.94
623.879	32904.91
624.234	32533.62
624.589	32764.8
624.945	32714.86
625.3	32709.66
625.655	32640.29
626.01	32676.9
626.365	32720.51
626.72	32629.89
627.075	32655.2
627.43	32675.09
627.785	32529.78
628.14	32547.18
628.495	32636.67
628.85	32583.11
629.205	32497.46
629.559	32593.06
629.914	32523.45
630.269	32595.99
630.623	32341.31
630.978	32412.72
631.332	32511.48
631.687	32447.52
632.041	32367.07
632.396	32352.38
632.75	32251.37
633.104	32203.91
633.459	31996.46
633.813	32058.61
634.167	32058.15
634.521	32012.51
634.875	32013.86
635.229	32019.96
635.583	31942.23
635.937	31870.59
636.291	31823.58
636.645	31801.89
636.999	31799.18
637.352	31833.75
637.706	31594.44
638.06	31867.42
638.413	31712.4
638.767	31635.57
639.121	31692.06
639.474	31553.76
639.828	31453.42
640.181	31555.57
640.534	31463.82
640.888	31413.65
641.241	31419.75
641.594	31376.36
641.947	31468.57
642.301	31290.04
642.654	31329.13
643.007	31210.04
643.36	31188.8
643.713	31209.81
644.066	31279.64
644.419	31129.14
644.771	30875.36
645.124	30655.48
645.477	30634.01
645.83	30372.77
646.182	30251.87
646.535	30134.59
646.888	30050.98
647.24	29963.75
647.593	30199.67
647.945	30103.86
648.298	30054.14
648.65	29844.43
649.002	29887.14
649.355	30024.08
649.707	29989.28
650.059	29968.72
650.411	30426.78
650.763	30370.06
651.115	30775.48
651.467	30530.96
651.819	30582.03
652.171	30567.57
652.523	30417.97
652.875	30481.25
653.227	30347.69
653.578	30485.31
653.93	30350.18
654.282	30140.46
654.633	30137.3
654.985	30253.68
655.337	30262.95
655.688	30160.35
656.039	30356.5
656.391	30219.56
656.742	30124.87
657.094	30125.78
657.445	30222.04
657.796	30147.02
658.147	30161.71
658.498	30106.34
658.849	30146.79
659.2	30077.87
659.551	30000.81
659.902	30086.68
660.253	30009.39
660.604	30050.07
660.955	29903.41
661.306	30022.05
661.656	29928.49
662.007	30012.33
662.358	29854.82
662.708	29955.84
663.059	29980.47
663.409	29639.23
663.76	29965.33
664.11	29862.05
664.461	29930.98
664.811	29971.66
665.161	29831.55
665.511	29860.25
665.862	29764.2
666.212	29827.7
666.562	29795.39
666.912	29587.94
667.262	29648.95
667.612	29598.11
667.962	29747.48
668.312	29644.21
668.662	29795.84
669.011	29666.35
669.361	29695.73
669.711	29613.02
670.06	29729.18
670.41	29450.09
670.76	29421.16
671.109	29645.56
671.459	29590.87
671.808	29492.8
672.157	29484.44
672.507	29336.87
672.856	29361.5
673.205	29432.91
673.554	29482.4
673.904	29273.82
674.253	29588.84
674.602	29424.1
674.951	29013.94
675.3	28930.78
675.649	29225.23
675.998	29292.35
676.346	29287.83
676.695	29401.73
677.044	29076.99
677.393	29219.13
677.741	29246.48
678.09	29118.8
678.438	29016.2
678.787	29006.94
679.135	29039.7
679.484	28895.07
679.832	29063.2
680.181	28791.8
680.529	28860.27
680.877	28954.06
681.225	28789.09
681.573	28917.9
681.922	28725.36
682.27	28668.41
682.618	28713.61
682.966	28458.25
683.314	28573.5
683.661	28421.64
684.009	28242.21
684.357	28329.66
684.705	28232.49
685.053	28291.93
685.4	28193.17
685.748	28086.96
686.095	27890.13
686.443	27768.55
686.79	27692.62
687.138	27765.84
687.485	27852.84
687.832	27731.71
688.18	27678.61
688.527	27579.4
688.874	27526.75
689.221	27415.34
689.568	27317.94
689.915	27315.68
690.262	27333.31
690.609	27270.94
690.956	27202.24
691.303	27236.13
691.65	27038.17
691.997	26990.49
692.344	26914.56
692.69	26896.26
693.037	26965.41
693.383	26650.84
693.73	26765.64
694.077	26608.13
694.423	26466.21
694.769	26385.08
695.116	26330.62
695.462	26382.6
695.808	26366.1
696.155	26324.97
696.501	26133.56
696.847	26191.87
697.193	25945.55
697.539	25982.83
697.885	25802.73
698.231	25723.86
698.577	25686.34
698.923	25675.5
699.269	25573.8
699.614	25446.58
699.96	25300.14
700.306	25326.58
700.651	25253.14
700.997	25103.99
701.342	25132.23
701.688	25160.93
702.033	24929.53
702.379	24948.74
702.724	24747.16
703.069	24947.83
703.415	24554.17
703.76	24560.27
704.105	24651.8
704.45	24553.04
704.795	24366.83
705.14	24410.67
705.485	24253.16
705.83	24205.03
706.175	24203.45
706.52	24144.92
706.865	24050.23
707.209	24045.48
707.554	23942.44
707.899	24016.33
708.243	23854.08
708.588	23827.41
708.932	23704.93
709.277	23593.29
709.621	23709.45
709.966	23430.13
710.31	23604.82
710.654	23377.48
710.998	23445.95
711.342	23472.84
711.687	23282.34
712.031	23148.78
712.375	23130.03
712.719	23080.99
713.063	23072.85
713.407	23220.42
713.75	22928.22
714.094	22975.23
714.438	22878.06
714.782	22927.77
715.125	22776.14
715.469	22903.14
715.812	22702.24
716.156	22570.72
716.499	22577.27
716.843	22608.91
717.186	22511.29
717.53	22564.17
717.873	22641.23
718.216	22570.72
718.559	22442.14
718.902	22257.73
719.246	22230.84
719.589	22206.44
719.932	22140.9
720.275	22159.43
720.617	22099.55
720.96	22145.65
721.303	21958.53
721.646	22037.63
721.989	21860.23
722.331	21924.64
722.674	21830.4
723.016	21807.8
723.359	21726.67
723.701	21802.83
724.044	21645.32
724.386	21588.15
724.729	21712.44
725.071	21612.33
725.413	21547.02
725.755	21425.89
726.097	21464.08
726.439	21408.26
726.782	21370.07
727.124	21495.49
727.465	21299.34
727.807	21186.12
728.149	21182.28
728.491	21181.38
728.833	21150.19
729.175	20975.06
729.516	21034.49
729.858	21013.47
730.199	20935.96
730.541	20923.98
730.882	20877.43
731.224	20852.57
731.565	20795.85
731.906	20754.72
732.248	20783.42
732.589	20612.58
732.93	20600.38
733.271	20523.09
733.612	20545.69
733.953	20565.58
734.294	20520.6
734.635	20516.08
734.976	20604.44
735.317	20482.41
735.658	20419.14
735.999	20396.54
736.339	20441.51
736.68	20524.67
737.021	20358.12
737.361	20238.58
737.702	20326.71
738.042	20248.07
738.383	20165.59
738.723	20205.58
739.063	20178.47
739.404	20149.54
739.744	20030.9
740.084	19972.82
740.424	20046.94
740.764	19886.27
741.104	19944.57
741.444	19820.28
741.784	19819.15
742.124	19799.72
742.464	19828.87
742.804	19705.71
743.143	19641.98
743.483	19671.14
743.823	19547.52
744.162	19528.09
744.502	19596.56
744.841	19469.56
745.181	19507.52
745.52	19472.95
745.86	19481.54
746.199	19392.72
746.538	19392.27
746.877	19425.94
747.216	19434.08
747.556	19358.83
747.895	19381.88
748.234	19254.42
748.573	19183.24
748.911	19158.38
749.25	19141.21
749.589	19058.5
749.928	19076.8
750.267	19154.99
750.605	18994.99
750.944	19045.62
751.283	18919.06
751.621	18907.31
751.96	18817.82
752.298	18898.05
752.636	18894.88
752.975	18748.45
753.313	18628.68
753.651	18736.02
753.989	18559.53
