Data from foam_black_FLMS001491_00055.txt Node
Date: Wed Feb 08 10:44:08 GMT 2017
User: dcchb
Spectrometer: FLMS00149
Trigger mode: 0
Integration Time (sec): 2.000000E-2
Scans to average: 10
Electric dark correction enabled: true
Nonlinearity correction enabled: false
Boxcar width: 0
XAxis mode: Wavelengths
Number of Pixels in Spectrum: 2048
>>>>>Begin Spectral Data<<<<<
341.393	17.78
341.776	17.78
342.16	17.78
342.543	-61.54
342.927	-70.58
343.31	-64.25
343.693	-59.05
344.077	-55.21
344.46	-73.52
344.843	-45.95
345.226	-57.92
345.61	-31.03
345.993	-12.05
346.376	-12.05
346.759	18.69
347.142	29.53
347.525	44.67
347.908	69.98
348.291	72.92
348.674	70.44
349.057	104.79
349.44	123.09
349.823	146.82
350.206	171
350.588	187.72
350.971	181.85
351.354	236.53
351.737	222.97
352.119	226.14
352.502	272.92
352.884	253.71
353.267	265.23
353.65	280.15
354.032	299.13
354.414	300.94
354.797	312.01
355.179	294.61
355.562	300.49
355.944	336.42
356.326	319.69
356.709	317.66
357.091	328.51
357.473	314.05
357.855	301.84
358.238	336.19
358.62	325.12
359.002	336.64
359.384	329.19
359.766	322.18
360.148	328.51
360.53	330.77
360.912	340.94
361.294	319.47
361.676	315.63
362.057	290.54
362.439	311.11
362.821	328.06
363.203	326.47
363.584	322.63
363.966	308.62
364.348	332.58
364.729	320.15
365.111	332.58
365.493	313.82
365.874	294.38
366.256	307.27
366.637	307.27
367.019	295.29
367.4	304.1
367.781	289.41
368.163	327.38
368.544	297.77
368.925	317.89
369.306	311.11
369.688	307.27
370.069	288.51
370.45	303.42
370.831	298.9
371.212	293.48
371.593	320.6
371.974	311.11
372.355	311.79
372.736	289.87
373.117	291.67
373.498	301.84
373.879	298.9
374.26	309.98
374.641	300.03
375.021	312.01
375.402	313.14
375.783	318.11
376.163	314.72
376.544	306.81
376.925	302.29
377.305	297.77
377.686	310.43
378.066	308.62
378.447	342.07
378.827	319.02
379.208	310.2
379.588	318.11
379.968	317.21
380.349	322.18
380.729	319.69
381.109	312.69
381.489	325.8
381.87	315.85
382.25	330.77
382.63	320.15
383.01	324.44
383.39	314.5
383.77	319.02
384.15	342.97
384.53	338.9
384.91	337.1
385.29	337.55
385.67	344.55
386.049	335.74
386.429	337.1
386.809	344.33
387.189	347.94
387.568	322.41
387.948	340.71
388.328	347.94
388.707	340.49
389.087	354.04
389.466	341.62
389.846	344.78
390.225	345.91
390.605	351.11
390.984	358.11
391.363	348.85
391.743	346.59
392.122	361.73
392.501	370.09
392.881	360.6
393.26	350.65
393.639	361.5
394.018	392.91
394.397	365.12
394.776	375.06
395.155	378.9
395.534	346.59
395.913	364.89
396.292	381.84
396.671	380.48
397.05	374.61
397.429	367.15
397.808	370.54
398.186	370.77
398.565	353.37
398.944	354.27
399.323	358.11
399.701	366.25
400.08	372.8
400.458	374.61
400.837	391.78
401.215	396.3
401.594	399.24
401.972	385
402.351	386.59
402.729	383.65
403.107	386.81
403.486	406.7
403.864	398.56
404.242	397.89
404.62	382.52
404.999	379.58
405.377	410.99
405.755	371.67
406.133	404.44
406.511	415.96
406.889	390.2
407.267	397.21
407.645	418.45
408.023	428.17
408.401	418.45
408.779	422.29
409.156	397.43
409.534	391.78
409.912	451.22
410.29	408.96
410.667	434.95
411.045	416.42
411.422	426.58
411.8	424.1
412.178	447.83
412.555	445.79
412.933	432.69
413.31	447.38
413.687	437.43
414.065	434.72
414.442	436.53
414.819	448.73
415.197	454.15
415.574	437.88
415.951	482.85
416.328	469.07
416.705	467.26
417.082	461.61
417.46	473.59
417.837	487.15
418.214	471.78
418.591	469.75
418.967	480.59
419.344	469.52
419.721	473.14
420.098	458.67
420.475	471.56
420.852	481.95
421.228	486.7
421.605	487.6
421.982	497.32
422.358	481.95
422.735	512.46
423.111	496.64
423.488	502.06
423.864	507.03
424.241	497.77
424.617	520.59
424.994	507.03
425.37	507.49
425.746	518.33
426.123	531.44
426.499	518.56
426.875	508.62
427.251	523.98
427.627	518.79
428.003	507.71
428.379	536.64
428.756	543.42
429.132	533.47
429.507	569.86
429.883	531.21
430.259	554.49
430.635	555.62
431.011	554.94
431.387	560.59
431.763	552.46
432.138	577.54
432.514	593.13
432.89	582.51
433.265	568.95
433.641	573.25
434.016	593.81
434.392	594.26
434.767	613.92
435.143	581.83
435.518	611.66
435.894	610.76
436.269	610.08
436.644	617.77
437.02	646.47
437.395	624.09
437.77	623.42
438.145	634.04
438.52	642.4
438.895	631.55
439.271	628.39
439.646	643.3
440.021	625.45
440.395	648.05
440.77	639.46
441.145	645.11
441.52	676.52
441.895	655.28
442.27	658.44
442.645	653.02
443.019	644.43
443.394	650.53
443.769	673.13
444.143	676.52
444.518	691.66
444.892	678.56
445.267	681.49
445.641	715.84
446.016	694.37
446.39	693.92
446.764	685.79
447.139	718.1
447.513	695.73
447.887	699.12
448.262	708.84
448.636	700.7
449.01	718.78
449.384	715.62
449.758	733.92
450.132	717.2
450.506	699.35
450.88	744.77
451.254	704.54
451.628	762.17
452.002	783.86
452.376	740.7
452.75	769.17
453.123	760.14
453.497	758.78
453.871	765.33
454.244	797.2
454.618	794.26
454.992	786.58
455.365	812.34
455.739	803.98
456.112	827.7
456.486	786.12
456.859	833.81
457.232	823.64
457.606	849.17
457.979	833.13
458.352	845.78
458.725	863.64
459.099	853.69
459.472	908.38
459.845	852.34
460.218	840.81
460.591	861.83
460.964	897.76
461.337	910.41
461.71	911.09
462.083	902.73
462.456	921.04
462.829	914.48
463.201	945.44
463.574	932.11
463.947	940.7
464.32	954.93
464.692	955.84
465.065	954.03
465.438	990.64
465.81	981.82
466.183	988.6
466.555	1023.63
466.928	1024.54
467.3	1026.57
467.672	1042.84
468.045	1046.68
468.417	1055.49
468.789	1061.14
469.161	1058.66
469.534	1068.83
469.906	1093.69
470.278	1084.19
470.65	1093.91
471.022	1122.39
471.394	1138.66
471.766	1136.85
472.138	1163.74
472.51	1170.52
472.882	1187.92
473.253	1201.93
473.625	1191.31
473.997	1199.22
474.369	1197.41
474.74	1248.26
475.112	1243.06
475.484	1277.18
475.855	1291.42
476.227	1290.29
476.598	1327.8
476.97	1318.09
477.341	1366.45
477.713	1385.43
478.084	1368.93
478.455	1403.96
478.827	1424.75
479.198	1428.82
479.569	1454.13
479.94	1482.83
480.311	1476.73
480.682	1527.8
481.053	1525.31
481.424	1554.92
481.795	1581.81
482.166	1591.75
482.537	1606.67
482.908	1636.5
483.279	1660
483.65	1655.71
484.021	1680.56
484.391	1685.53
484.762	1711.97
485.133	1722.37
485.503	1767.79
485.874	1800.33
486.244	1830.62
486.615	1846.66
486.985	1872.87
487.356	1873.1
487.726	1884.17
488.097	1931.4
488.467	1927.56
488.837	1957.39
489.207	1975.92
489.578	2005.3
489.948	2010.05
490.318	2012.98
490.688	2041.68
491.058	2072.64
491.428	2065.41
491.798	2103.15
492.168	2125.75
492.538	2139.76
492.908	2154.67
493.278	2161.45
493.648	2194.22
494.017	2200.78
494.387	2231.51
494.757	2295.69
495.126	2273.09
495.496	2300.43
495.866	2290.49
496.235	2303.82
496.605	2326.42
496.974	2323.48
497.344	2375.23
497.713	2362.81
498.082	2380.66
498.452	2431.05
498.821	2364.84
499.19	2402.8
499.559	2447.32
499.928	2484.38
500.298	2460.2
500.667	2520.32
501.036	2506.98
501.405	2513.31
501.774	2509.02
502.143	2533.2
502.512	2570.71
502.88	2578.17
503.249	2576.58
503.618	2623.36
503.987	2631.95
504.356	2654.77
504.724	2660.88
505.093	2633.98
505.462	2650.71
505.83	2637.83
506.199	2710.14
506.567	2728.22
506.936	2757.6
507.304	2739.29
507.672	2758.27
508.041	2790.14
508.409	2783.13
508.777	2796.92
509.145	2842.34
509.514	2848.44
509.882	2839.18
510.25	2876.69
510.618	2886.63
510.986	2886.63
511.354	2925.5
511.722	2998.04
512.09	2980.64
512.458	2985.61
512.826	3037.14
513.193	3044.14
513.561	3014.99
513.929	3037.59
514.297	3111.03
514.664	3083.01
515.032	3120.3
515.4	3151.26
515.767	3167.98
516.135	3180.41
516.502	3184.93
516.869	3212.27
517.237	3222.22
517.604	3238.04
517.972	3265.61
518.339	3279.39
518.706	3261.54
519.073	3323.68
519.44	3319.62
519.808	3334.3
520.175	3362.55
520.542	3412.27
520.909	3398.48
521.276	3390.35
521.643	3434.87
522.009	3474.64
522.376	3481.42
522.743	3473.96
523.11	3511.7
523.477	3574.98
523.843	3580.85
524.21	3600.74
524.577	3647.07
524.943	3632.83
525.31	3665.14
525.676	3712.6
526.043	3704.69
526.409	3773.62
526.776	3761.64
527.142	3812.03
527.508	3831.24
527.874	3838.92
528.241	3912.14
528.607	3876.44
528.973	3945.14
529.339	3951.69
529.705	3984.91
530.071	4000.95
530.437	3972.03
530.803	4052.48
531.169	4108.75
531.535	4078.01
531.901	4115.75
532.267	4091.57
532.632	4137.45
532.998	4181.97
533.364	4174.06
533.73	4196.88
534.095	4213.6
534.461	4225.36
534.826	4201.17
535.192	4221.51
535.557	4268.52
535.923	4247.5
536.288	4298.35
536.653	4260.16
537.019	4266.48
537.384	4278.46
537.749	4364.56
538.114	4313.71
538.479	4300.83
538.845	4361.17
539.21	4392.36
539.575	4397.33
539.94	4395.75
540.305	4476.2
540.67	4430.77
541.034	4478.68
541.399	4432.13
541.764	4502.18
542.129	4558.91
542.494	4500.83
542.858	4537.44
543.223	4561.84
543.587	4561.84
543.952	4605.23
544.316	4614.5
544.681	4659.47
545.045	4644.78
545.41	4689.07
545.774	4684.55
546.138	4742.63
546.503	4722.29
546.867	4721.84
547.231	4792.57
547.595	4813.14
547.959	4777.43
548.324	4802.74
548.688	4805.23
549.052	4883.19
549.416	4875.06
549.779	4879.35
550.143	4897.65
550.507	4919.12
550.871	4948.95
551.235	4902.63
551.599	4931.78
551.962	4916.86
552.326	4994.83
552.689	4974.71
553.053	5004.32
553.417	5025.79
553.78	5060.36
554.143	5045.45
554.507	5084.77
554.87	5060.81
555.234	5162.96
555.597	5148.27
555.96	5118.44
556.323	5202.28
556.686	5194.14
557.05	5221.94
557.413	5190.3
557.776	5242.28
558.139	5313.24
558.502	5245.22
558.865	5299.68
559.228	5330.86
559.59	5339.45
559.953	5377.42
560.316	5460.12
560.679	5423.06
561.041	5496.06
561.404	5495.15
561.767	5543.06
562.129	5472.78
562.492	5574.25
562.854	5567.24
563.217	5555.04
563.579	5641.59
563.941	5626.67
564.304	5670.29
564.666	5736.95
565.028	5731.76
565.39	5734.24
565.753	5858.08
566.115	5829.83
566.477	5834.13
566.839	5871.41
567.201	5961.35
567.563	5882.94
567.925	5905.31
568.287	6005.2
568.648	5965.87
569.01	6039.77
569.372	5995.48
569.734	6002.26
570.095	6064.63
570.457	6097.4
570.819	6094.01
571.18	6089.71
571.542	6088.36
571.903	6103.95
572.265	6189.15
572.626	6187.79
572.987	6131.97
573.349	6189.82
573.71	6216.72
574.071	6214
574.432	6269.14
574.794	6263.49
575.155	6280.89
575.516	6260.1
575.877	6342.81
576.238	6325.64
576.599	6383.26
576.96	6335.36
577.32	6355.24
577.681	6401.34
578.042	6398.86
578.403	6404.05
578.763	6430.04
579.124	6428.46
579.485	6407.44
579.845	6469.36
580.206	6425.98
580.566	6482.02
580.927	6536.25
581.287	6531.06
581.648	6471.62
582.008	6508.91
582.368	6527.89
582.728	6562.24
583.089	6547.55
583.449	6521.79
583.809	6534.67
584.169	6557.95
584.529	6560.43
584.889	6529.25
585.249	6486.31
585.609	6512.75
585.969	6575.8
586.329	6553.88
586.688	6521.11
587.048	6495.8
587.408	6472.75
587.768	6546.2
588.127	6524.73
588.487	6518.63
588.846	6584.62
589.206	6537.84
589.565	6518.18
589.925	6563.15
590.284	6543.49
590.643	6557.72
591.003	6546.88
591.362	6577.61
591.721	6577.38
592.08	6543.03
592.44	6587.1
592.799	6533.99
593.158	6551.85
593.517	6578.97
593.876	6602.69
594.235	6624.61
594.593	6525.63
594.952	6578.74
595.311	6611.05
595.67	6550.94
596.029	6606.31
596.387	6601.56
596.746	6602.69
597.104	6618.96
597.463	6609.47
597.822	6624.16
598.18	6622.35
598.538	6598.4
598.897	6642.47
599.255	6583.49
599.613	6699.64
599.972	6653.54
600.33	6679.08
600.688	6651.05
601.046	6756.14
601.404	6677.72
601.762	6685.4
602.12	6750.94
602.478	6721.11
602.836	6731.96
603.194	6677.27
603.552	6679.08
603.91	6672.75
604.268	6735.57
604.625	6692.41
604.983	6739.19
605.341	6733.99
605.698	6700.54
606.056	6747.55
606.413	6730.83
606.771	6785.51
607.128	6810.6
607.485	6805.17
607.843	6733.09
608.2	6818.96
608.557	6790.03
608.914	6806.08
609.272	6865.74
609.629	6845.85
609.986	6849.24
610.343	6833.65
610.7	6834.1
611.057	6769.47
611.414	6876.13
611.771	6812.86
612.127	6814.67
612.484	6825.74
612.841	6876.58
613.198	6864.16
613.554	6850.37
613.911	6825.74
614.267	6919.97
614.624	6921.78
614.98	6875.91
615.337	6884.04
615.693	6875.23
616.05	6888.11
616.406	6895.79
616.762	6872.29
617.118	6845.63
617.475	6939.63
617.831	6866.42
618.187	6938.96
618.543	6899.63
618.899	6979.41
619.255	6957.94
619.611	6928.56
619.967	6979.63
620.323	6985.28
620.678	6985.96
621.034	7001.1
621.39	6961.78
621.746	6957.71
622.101	7032.29
622.457	6981.89
622.812	7028.9
623.168	7015.56
623.523	7038.39
623.879	7011.27
624.234	7064.6
624.589	7015.11
624.945	7018.5
625.3	6998.16
625.655	7043.36
626.01	7012.85
626.365	7065.73
626.72	7043.81
627.075	7052.85
627.43	7089.91
627.785	7035.9
628.14	7106.86
628.495	7040.2
628.85	7056.69
629.205	6999.07
629.559	7068.44
629.914	7054.21
630.269	7035.45
630.623	6982.12
630.978	6928.11
631.332	6999.07
631.687	6965.62
632.041	6952.74
632.396	6986.64
632.75	6952.97
633.104	6994.55
633.459	6887.66
633.813	6895.79
634.167	6852.4
634.521	6901.44
634.875	6929.24
635.229	6921.56
635.583	6850.6
635.937	6852.86
636.291	6812.41
636.645	6861.67
636.999	6755.68
637.352	6768.79
637.706	6762.92
638.06	6783.25
638.413	6774.89
638.767	6675.01
639.121	6741.67
639.474	6700.54
639.828	6659.87
640.181	6742.58
640.534	6761.79
640.888	6684.73
641.241	6693.09
641.594	6691.5
641.947	6690.15
642.301	6652.18
642.654	6697.15
643.007	6689.47
643.36	6648.57
643.713	6647.44
644.066	6685.63
644.419	6618.74
644.771	6499.65
645.124	6483.15
645.477	6432.98
645.83	6439.99
646.182	6400.89
646.535	6404.51
646.888	6456.26
647.24	6427.11
647.593	6466.88
647.945	6513.66
648.298	6494
648.65	6432.3
649.002	6444.28
649.355	6398.63
649.707	6425.52
650.059	6414
650.411	6457.84
650.763	6546.88
651.115	6564.73
651.467	6612.64
651.819	6545.97
652.171	6501
652.523	6534.45
652.875	6565.18
653.227	6492.41
653.578	6527.67
653.93	6546.65
654.282	6498.29
654.633	6515.92
654.985	6552.07
655.337	6528.57
655.688	6498.74
656.039	6545.75
656.391	6459.65
656.742	6459.19
657.094	6465.3
657.445	6456.71
657.796	6468.91
658.147	6472.08
658.498	6449.25
658.849	6439.31
659.2	6414.45
659.551	6399.31
659.902	6416.94
660.253	6435.01
660.604	6375.13
660.955	6345.07
661.306	6385.3
661.656	6346.43
662.007	6338.29
662.358	6386.2
662.708	6410.16
663.059	6342.81
663.409	6261.91
663.76	6377.61
664.11	6366.09
664.461	6344.85
664.811	6392.98
665.161	6288.8
665.511	6294.23
665.862	6311.63
666.212	6335.36
666.562	6329.03
666.912	6312.76
667.262	6302.36
667.612	6301.91
667.962	6315.47
668.312	6278.41
668.662	6341.46
669.011	6298.07
669.361	6339.42
669.711	6316.15
670.06	6254.68
670.41	6287.22
670.76	6263.72
671.109	6279.09
671.459	6316.6
671.808	6279.76
672.157	6301.01
672.507	6216.72
672.856	6292.65
673.205	6257.39
673.554	6322.48
673.904	6248.8
674.253	6279.54
674.602	6285.64
674.951	6199.09
675.3	6203.16
675.649	6263.72
675.998	6251.97
676.346	6307.33
676.695	6305.07
677.044	6256.49
677.393	6250.61
677.741	6216.72
678.09	6237.73
678.438	6209.48
678.787	6237.96
679.135	6226.21
679.484	6172.65
679.832	6216.04
680.181	6215.81
680.529	6237.28
680.877	6170.84
681.225	6158.86
681.573	6187.34
681.922	6096.04
682.27	6108.47
682.618	6134.46
682.966	6080.22
683.314	6105.76
683.661	6070.28
684.009	6061.92
684.357	6061.01
684.705	6008.81
685.053	6076.38
685.4	6043.39
685.748	5980.11
686.095	5975.82
686.443	5944.18
686.79	5961.13
687.138	5952.99
687.485	5911.41
687.832	5893.11
688.18	5931.98
688.527	5919.77
688.874	5908.02
689.221	5855.37
689.568	5818.31
689.915	5786.22
690.262	5820.79
690.609	5843.39
690.956	5776.95
691.303	5781.47
691.65	5777.18
691.997	5781.47
692.344	5771.53
692.69	5746.67
693.037	5719.1
693.383	5646.56
693.73	5592.32
694.077	5691.76
694.423	5632.78
694.769	5645.2
695.116	5607.69
695.462	5604.98
695.808	5573.79
696.155	5614.47
696.501	5569.5
696.847	5548.48
697.193	5533.57
697.539	5504.64
697.885	5460.35
698.231	5499.22
698.577	5524.98
698.923	5534.7
699.269	5441.37
699.614	5437.98
699.96	5470.07
700.306	5451.31
700.651	5434.81
700.997	5417.41
701.342	5422.84
701.688	5375.38
702.033	5358.66
702.379	5391.43
702.724	5345.33
703.069	5354.14
703.415	5306.91
703.76	5350.3
704.105	5315.27
704.45	5340.35
704.795	5279.79
705.14	5241.15
705.485	5284.31
705.83	5259
706.175	5226.91
706.52	5205.44
706.865	5198.44
707.209	5253.35
707.554	5196.63
707.899	5233.24
708.243	5160.02
708.588	5130.87
708.932	5158.21
709.277	5107.82
709.621	5099.46
709.966	5087.93
710.31	5125.9
710.654	5046.58
710.998	5083.19
711.342	5040.25
711.687	5080.47
712.031	5000.02
712.375	5037.54
712.719	5057.88
713.063	4979.69
713.407	4963.87
713.75	4984.43
714.094	5007.93
714.438	4945.34
714.782	4980.36
715.125	4899.01
715.469	4986.92
715.812	4898.11
716.156	4895.85
716.499	4906.02
716.843	4908.95
717.186	4860.59
717.53	4841.61
717.873	4885.22
718.216	4857.2
718.559	4841.61
718.902	4851.1
719.246	4842.74
719.589	4822.4
719.932	4737.43
720.275	4843.64
720.617	4762.74
720.96	4804.32
721.303	4806.81
721.646	4789.63
721.989	4732.46
722.331	4771.33
722.674	4719.81
723.016	4740.6
723.359	4742.86
723.701	4726.58
724.044	4696.76
724.386	4685.91
724.729	4694.95
725.071	4638.23
725.413	4695.63
725.755	4652.24
726.097	4691.33
726.439	4609.75
726.782	4626.7
727.124	4667.15
727.465	4657.66
727.807	4650.65
728.149	4590.09
728.491	4601.84
728.833	4599.36
729.175	4558.68
729.516	4585.57
729.858	4548.74
730.199	4593.03
730.541	4560.26
730.882	4545.8
731.224	4552.13
731.565	4548.06
731.906	4546.7
732.248	4532.69
732.589	4535.18
732.93	4508.06
733.271	4523.43
733.612	4482.75
733.953	4526.36
734.294	4508.06
734.635	4482.75
734.976	4531.34
735.317	4452.69
735.658	4482.75
735.999	4488.17
736.339	4499.47
736.68	4485.01
737.021	4477.1
737.361	4467.16
737.702	4427.38
738.042	4371.79
738.383	4427.61
738.723	4469.64
739.063	4398.46
739.404	4447.27
739.744	4368.63
740.084	4368.85
740.424	4360.72
740.764	4364.79
741.104	4397.1
741.444	4341.74
741.784	4352.36
742.124	4382.19
742.464	4378.12
742.804	4324.56
743.143	4332.92
743.483	4327.27
743.823	4313.71
744.162	4279.59
744.502	4296.99
744.841	4277.56
745.181	4275.3
745.52	4185.58
745.86	4236.88
746.199	4241.85
746.538	4242.98
746.877	4259.48
747.216	4257.67
747.556	4196.66
747.895	4183.1
748.234	4221.06
748.573	4174.96
748.911	4182.42
749.25	4183.1
749.589	4166.6
749.928	4182.64
750.267	4180.84
750.605	4115.08
750.944	4157.33
751.283	4164.79
751.621	4148.97
751.96	4156.2
752.298	4095.64
752.636	4159.14
752.975	4086.83
753.313	4117.34
753.651	4091.12
753.989	4092.48
754.327	4063.1
754.666	4098.35
755.004	4080.05
755.342	4047.28
755.679	4046.83
756.017	4046.38
756.355	4024.46
756.693	4038.69
757.031	4001.86
757.368	4012.25
757.706	3991.69
758.044	3972.71
758.381	3963.22
758.719	3952.59
759.056	3954.18
759.394	3976.1
759.731	3935.65
760.068	3920.05
760.405	3911.92
760.743	3899.04
761.08	3964.34
761.417	3913.72
761.754	3911.24
762.091	3897.68
762.428	3870.34
762.765	3820.39
763.102	3855.65
763.438	3809.77
763.775	3811.13
764.112	3808.19
764.449	3795.31
764.785	3778.81
765.122	3783.33
765.458	3773.62
765.795	3730.23
766.131	3710.79
766.467	3762.99
766.804	3742.88
767.14	3734.75
767.476	3729.77
767.812	3665.82
768.148	3668.53
768.485	3656.33
768.821	3653.62
769.157	3604.81
769.492	3663.79
769.828	3636.44
770.164	3585.82
770.5	3603.9
770.836	3582.66
771.171	3536.79
