Data from foam1_polythene_foam_FLMS001491_00048.txt Node
Date: Wed Feb 08 10:54:53 GMT 2017
User: dcchb
Spectrometer: FLMS00149
Trigger mode: 0
Integration Time (sec): 2.000000E-2
Scans to average: 10
Electric dark correction enabled: true
Nonlinearity correction enabled: false
Boxcar width: 0
XAxis mode: Wavelengths
Number of Pixels in Spectrum: 2048
>>>>>Begin Spectral Data<<<<<
341.393	-17.15
341.776	-17.15
342.16	-17.15
342.543	-57.6
342.927	-55.79
343.31	-63.25
343.693	-59.18
344.077	-71.61
344.46	-68.22
344.843	-37.03
345.226	-53.98
345.61	-37.26
345.993	-34.77
346.376	-3.59
346.759	17.88
347.142	30.76
347.525	45.22
347.908	52.91
348.291	83.42
348.674	97.43
349.057	101.27
349.44	123.19
349.823	134.94
350.206	170.65
350.588	191.89
350.971	204.32
351.354	204.32
351.737	219.91
352.119	238.21
352.502	244.77
352.884	257.87
353.267	260.13
353.65	278.66
354.032	270.3
354.414	308.95
354.797	311.88
355.179	303.07
355.562	299.46
355.944	317.53
356.326	311.88
356.709	322.73
357.091	334.48
357.473	313.92
357.855	333.8
358.238	322.51
358.62	344.88
359.002	326.57
359.384	348.04
359.766	330.42
360.148	319.34
360.53	317.08
360.912	308.72
361.294	336.06
361.676	327.25
362.057	327.48
362.439	329.96
362.821	312.11
363.203	307.82
363.584	313.24
363.966	322.96
364.348	308.72
364.729	318.21
365.111	303.75
365.493	315.95
365.874	312.79
366.256	306.46
366.637	301.04
367.019	302.39
367.4	312.11
367.781	307.36
368.163	301.72
368.544	300.81
368.925	278.44
369.306	299.46
369.688	315.27
370.069	296.97
370.45	316.4
370.831	291.09
371.212	310.08
371.593	280.7
371.974	311.66
372.355	295.39
372.736	299
373.117	298.55
373.498	303.3
373.879	308.49
374.26	313.47
374.641	313.92
375.021	305.33
375.402	321.6
375.783	294.26
376.163	306.23
376.544	305.56
376.925	313.01
377.305	303.52
377.686	321.15
378.066	308.04
378.447	301.26
378.827	312.79
379.208	308.27
379.588	340.58
379.968	316.63
380.349	338.55
380.729	315.05
381.109	325.9
381.489	346.46
381.87	339.45
382.25	318.44
382.63	323.86
383.01	320.47
383.39	350.98
383.77	338.32
384.15	344.43
384.53	335.61
384.91	329.51
385.29	337.19
385.67	329.74
386.049	343.97
386.429	360.47
386.809	328.83
387.189	334.48
387.568	358.44
387.948	339.23
388.328	319.57
388.707	337.87
389.087	354.37
389.466	353.01
389.846	345.78
390.225	349.62
390.605	368.83
390.984	342.84
391.363	373.58
391.743	388.04
392.122	361.83
392.501	367.7
392.881	377.65
393.26	363.86
393.639	372.67
394.018	363.18
394.397	384.88
394.776	389.17
395.155	379.45
395.534	425.1
395.913	382.39
396.292	378.55
396.671	384.88
397.05	402.28
397.429	392.79
397.808	399.79
398.186	381.04
398.565	395.05
398.944	404.76
399.323	408.15
399.701	409.28
400.08	390.98
400.458	399.79
400.837	402.05
401.215	387.14
401.594	417.64
401.972	392.11
402.351	406.12
402.729	408.15
403.107	432.11
403.486	432.33
403.864	416.97
404.242	449.96
404.62	434.59
404.999	420.58
405.377	430.98
405.755	428.49
406.133	471.65
406.511	454.03
406.889	437.3
407.267	451.77
407.645	468.49
408.023	444.31
408.401	450.19
408.779	461.03
409.156	457.64
409.534	475.95
409.912	462.39
410.29	460.36
410.667	487.93
411.045	462.61
411.422	494.48
411.8	477.98
412.178	487.7
412.555	475.95
412.933	497.87
413.31	513.24
413.687	509.17
414.065	521.14
414.442	510.52
414.819	513.69
415.197	548.26
415.574	508.72
415.951	512.78
416.328	505.78
416.705	546
417.082	520.24
417.46	538.32
417.837	539
418.214	532.67
418.591	567.02
418.967	561.37
419.344	553.23
419.721	538.32
420.098	560.24
420.475	573.12
420.852	550.75
421.228	572.89
421.605	576.74
421.982	584.42
422.358	593.46
422.735	593.68
423.111	600.92
423.488	592.78
423.864	598.2
424.241	595.94
424.617	614.93
424.994	626.45
425.37	612.44
425.746	618.54
426.123	625.1
426.499	620.58
426.875	637.3
427.251	659.45
427.627	683.85
428.003	650.86
428.379	649.95
428.756	678.65
429.132	708.26
429.507	698.09
429.883	700.8
430.259	699.22
430.635	709.61
431.011	714.59
431.387	730.86
431.763	735.38
432.138	739.67
432.514	757.3
432.89	774.92
433.265	761.59
433.641	790.06
434.016	805.2
434.392	783.51
434.767	803.85
435.143	825.32
435.518	828.71
435.894	830.06
436.269	849.5
436.644	853.57
437.02	843.4
437.395	846.79
437.77	842.94
438.145	864.86
438.52	898.76
438.895	875.94
439.271	890.4
439.646	916.84
440.021	947.57
440.395	911.64
440.77	921.59
441.145	945.09
441.52	970.85
441.895	939.21
442.27	949.38
442.645	960
443.019	973.56
443.394	983.96
443.769	995.93
444.143	993.22
444.518	1017.85
444.892	1005.88
445.267	1026.89
445.641	1010.4
446.016	1018.76
446.39	1059.44
446.764	1033
447.139	1052.43
447.513	1059.44
447.887	1058.76
448.262	1075.71
448.636	1083.62
449.01	1080.68
449.384	1090.62
449.758	1125.65
450.132	1118.87
450.506	1133.56
450.88	1166.78
451.254	1163.16
451.628	1200.9
452.002	1184.18
452.376	1190.05
452.75	1184.4
453.123	1213.78
453.497	1229.83
453.871	1230.28
454.244	1247.45
454.618	1254.01
454.992	1250.39
455.365	1258.3
455.739	1287.45
456.112	1329.48
456.486	1296.27
456.859	1315.7
457.232	1345.98
457.606	1321.35
457.979	1363.83
458.352	1359.99
458.725	1390.05
459.099	1385.53
459.472	1435.7
459.845	1423.04
460.218	1407.45
460.591	1437.28
460.964	1432.31
461.337	1459.42
461.71	1491.74
462.083	1529.48
462.456	1511.85
462.829	1521.8
463.201	1531.74
463.574	1522.93
463.947	1541.46
464.32	1578.97
464.692	1585.3
465.065	1592.75
465.438	1621.23
465.81	1655.13
466.183	1648.8
466.555	1717.27
466.928	1684.73
467.3	1683.83
467.672	1688.12
468.045	1719.53
468.417	1783.03
468.789	1787.55
469.161	1773.54
469.534	1843.37
469.906	1876.14
470.278	1840.21
470.65	1920.66
471.022	1935.34
471.394	1955.46
471.766	1973.31
472.138	1955.23
472.51	2008.56
472.882	2040.88
473.253	2061.89
473.625	2075.45
473.997	2141.89
474.369	2142.12
474.74	2153.19
475.112	2190.71
475.484	2241.33
475.855	2252.17
476.227	2283.58
476.598	2344.37
476.97	2329.23
477.341	2380.08
477.713	2466.4
478.084	2463.92
478.455	2477.7
478.827	2533.97
479.198	2601.77
479.569	2600.86
479.94	2658.04
480.311	2670.92
480.682	2745.72
481.053	2791.82
481.424	2839.05
481.795	2846.28
482.166	2911.59
482.537	2985.26
482.908	3007.63
483.279	2998.14
483.65	3045.82
484.021	3104.35
484.391	3175.54
484.762	3188.42
485.133	3222.99
485.503	3278.59
485.874	3374.18
486.244	3368.3
486.615	3456.43
486.985	3476.55
487.356	3553.61
487.726	3566.04
488.097	3678.12
488.467	3617.79
488.837	3725.13
489.207	3764.68
489.578	3776.43
489.948	3838.57
490.318	3927.83
490.688	3961.51
491.058	3986.14
491.428	4051
491.798	4058.45
492.168	4147.49
492.538	4186.13
492.908	4153.59
493.278	4314.04
493.648	4289.86
494.017	4340.93
494.387	4402.62
494.757	4417.99
495.126	4504.32
495.496	4468.84
495.866	4499.34
496.235	4537.99
496.605	4651.88
496.974	4642.39
497.344	4749.28
497.713	4775.72
498.082	4738.66
498.452	4809.62
498.821	4883.06
499.19	4886.23
499.559	4900.24
499.928	4962.16
500.298	4990.41
500.667	5060.46
501.036	5042.61
501.405	5095.94
501.774	5105.88
502.143	5197.18
502.512	5221.81
502.88	5286.22
503.249	5294.8
503.618	5360.79
503.987	5324.86
504.356	5366.67
504.724	5417.06
505.093	5415.93
505.462	5485.53
505.83	5507.45
506.199	5577.96
506.567	5559.66
506.936	5664.06
507.304	5725.98
507.672	5733.66
508.041	5756.94
508.409	5788.35
508.777	5864.28
509.145	5917.84
509.514	5918.97
509.882	6010.27
510.25	6025.41
510.618	6036.48
510.986	6104.5
511.354	6159.64
511.722	6183.82
512.09	6256.13
512.458	6214.33
512.826	6337.94
513.193	6352.86
513.561	6389.24
513.929	6463.81
514.297	6544.94
514.664	6537.03
515.032	6553.53
515.4	6582.45
515.767	6626.52
516.135	6709.46
516.502	6716.91
516.869	6836.68
517.237	6852.96
517.604	6875.55
517.972	6991.71
518.339	7008.43
518.706	6956
519.073	7066.51
519.44	7139.05
519.808	7190.12
520.175	7277.58
520.542	7321.19
520.909	7322.55
521.276	7347.41
521.643	7466.27
522.009	7530.68
522.376	7558.93
522.743	7562.54
523.11	7711.92
523.477	7785.81
523.843	7786.26
524.21	7862.65
524.577	8035.98
524.943	7979.25
525.31	8139.02
525.676	8094.5
526.043	8113.49
526.409	8243.2
526.776	8280.26
527.142	8361.84
527.508	8406.81
527.874	8530.2
528.241	8546.92
528.607	8572.23
528.973	8604.77
529.339	8652
529.705	8729.97
530.071	8754.15
530.437	8828.5
530.803	8885.9
531.169	8923.41
531.535	8964.09
531.901	8989.4
532.267	8995.95
532.632	9104.87
532.998	9113.69
533.364	9191.65
533.73	9224.64
534.095	9282.72
534.461	9321.37
534.826	9423.74
535.192	9413.57
535.557	9525.88
535.923	9482.49
536.288	9607.91
536.653	9605.43
537.019	9667.8
537.384	9627.8
537.749	9648.81
538.114	9680.23
538.479	9776.95
538.845	9821.46
539.21	9821.24
539.575	9897.4
539.94	9929.48
540.305	9944.63
540.67	9940.56
541.034	9993.21
541.399	10027.11
541.764	10108.91
542.129	10156.37
542.494	10126.99
542.858	10172.42
543.223	10230.27
543.587	10310.72
543.952	10268.91
544.316	10283.83
544.681	10341.68
545.045	10450.6
545.41	10438.4
545.774	10429.81
546.138	10460.77
546.503	10576.25
546.867	10488.57
547.231	10654.89
547.595	10687.66
547.959	10705.06
548.324	10729.92
548.688	10729.69
549.052	10775.11
549.416	10768.11
549.779	10875.22
550.143	10871.38
550.507	10899.85
550.871	10976.01
551.235	10955.67
551.599	11082.22
551.962	11159.06
552.326	11172.62
552.689	11257.13
553.053	11190.47
553.417	11177.36
553.78	11350.92
554.143	11316.79
554.507	11361.76
554.87	11373.51
555.234	11496.68
555.597	11521.08
555.96	11514.98
556.323	11588.2
556.686	11616.22
557.05	11697.57
557.413	11677.01
557.776	11740.06
558.139	11834.07
558.502	11836.1
558.865	12039.71
559.228	12058.92
559.59	12047.62
559.953	12051.01
560.316	12265.69
560.679	12169.88
561.041	12274.51
561.404	12323.32
561.767	12404.22
562.129	12372.58
562.492	12465.92
562.854	12556.76
563.217	12502.98
563.579	12605.35
563.941	12755.63
564.304	12703.42
564.666	12793.82
565.028	12794.04
565.39	12871.1
565.753	12935.06
566.115	12996.07
566.477	13026.8
566.839	13058.44
567.201	13150.42
567.563	13156.07
567.925	13273.58
568.287	13293.69
568.648	13231.77
569.01	13420.24
569.372	13436.96
569.734	13432.9
570.095	13589.5
570.457	13645.32
570.819	13676.5
571.18	13608.71
571.542	13719.44
571.903	13801.47
572.265	13756.95
572.626	13771.64
572.987	13840.34
573.349	13836.27
573.71	13942.71
574.071	13961.92
574.432	14052.99
574.794	14154.46
575.155	14020.9
575.516	14102.03
575.877	14086.66
576.238	14183.38
576.599	14260.44
576.96	14219.77
577.32	14331.63
577.681	14296.38
578.042	14348.58
578.403	14342.02
578.763	14344.28
579.124	14320.56
579.485	14437.39
579.845	14473.32
580.206	14438.74
580.566	14432.64
580.927	14459.54
581.287	14431.74
581.648	14379.31
582.008	14563.94
582.368	14546.54
582.728	14616.14
583.089	14538.4
583.449	14556.93
583.809	14574.33
584.169	14680.77
584.529	14567.78
584.889	14673.09
585.249	14566.65
585.609	14568.23
585.969	14681.45
586.329	14633.54
586.688	14730.71
587.048	14649.81
587.408	14601
587.768	14664.95
588.127	14545.18
588.487	14601.68
588.846	14693.43
589.206	14575.46
589.565	14658.4
589.925	14682.35
590.284	14635.8
590.643	14591.96
591.003	14730.49
591.362	14784.5
591.721	14804.61
592.08	14738.85
592.44	14750.15
592.799	14793.31
593.158	14766.19
593.517	14853.65
593.876	14768
594.235	14735.23
594.593	14795.12
594.952	14835.12
595.311	14674.22
595.67	14756.25
596.029	14972.29
596.387	14952.86
596.746	14932.29
597.104	14838.73
597.463	14843.48
597.822	14862.91
598.18	14734.1
598.538	14838.28
598.897	14944.27
599.255	14815.23
599.613	15035.11
599.972	14954.66
600.33	14944.49
600.688	14853.65
601.046	14979.97
601.404	15029.01
601.762	14920.99
602.12	14914.44
602.478	15038.28
602.836	15104.26
603.194	14998.73
603.552	14999.63
603.91	15012.06
604.268	15064.04
604.625	15082.57
604.983	15113.76
605.341	14993.31
605.698	15155.34
606.056	15087.99
606.413	15142.68
606.771	15132.96
607.128	15215
607.485	15148.1
607.843	15076.92
608.2	15172.74
608.557	15262
608.914	15196.24
609.272	15225.16
609.629	15266.29
609.986	15358.49
610.343	15393.52
610.7	15331.6
611.057	15333.41
611.414	15384.48
611.771	15410.47
612.127	15416.57
612.484	15497.47
612.841	15529.34
613.198	15468.55
613.554	15518.94
613.911	15583.12
614.267	15541.31
614.624	15535.44
614.98	15580.86
615.337	15614.31
615.693	15487.3
616.05	15569.34
616.406	15654.98
616.762	15654.98
617.118	15617.02
617.475	15698.6
617.831	15678.49
618.187	15622.67
618.543	15743.34
618.899	15729.78
619.255	15764.36
619.611	15669.22
619.967	15701.54
620.323	15747.18
620.678	15669.9
621.034	15727.3
621.39	15713.51
621.746	15751.7
622.101	15789.67
622.457	15778.6
622.812	15789.67
623.168	15732.95
623.523	15744.7
623.879	15791.7
624.234	15686.17
624.589	15804.58
624.945	15724.36
625.3	15812.04
625.655	15771.59
626.01	15725.26
626.365	15692.05
626.72	15788.99
627.075	15708.99
627.43	15647.75
627.785	15679.62
628.14	15780.18
628.495	15825.15
628.85	15749.44
629.205	15689.56
629.559	15758.94
629.914	15667.19
630.269	15636.91
630.623	15709.22
630.978	15630.8
631.332	15653.18
631.687	15646.17
632.041	15674.64
632.396	15623.12
632.75	15582.22
633.104	15600.07
633.459	15551.48
633.813	15513.52
634.167	15422.45
634.521	15553.07
634.875	15475.1
635.229	15469.68
635.583	15404.14
635.937	15413.41
636.291	15351.04
636.645	15400.3
636.999	15409.79
637.352	15413.86
637.706	15306.07
638.06	15370.47
638.413	15337.7
638.767	15213.19
639.121	15399.62
639.474	15183.81
639.828	15259.06
640.181	15217.26
640.534	15218.16
640.888	15139.29
641.241	15095.68
641.594	15107.65
641.947	15223.81
642.301	15103.36
642.654	15152.85
643.007	15214.09
643.36	15091.61
643.713	15054.1
644.066	15091.16
644.419	15017.49
644.771	14920.54
645.124	14902.91
645.477	14840.32
645.83	14817.49
646.182	14581.79
646.535	14508.57
646.888	14505.86
647.24	14373.89
647.593	14475.13
647.945	14460.66
648.298	14389.03
648.65	14331.63
649.002	14305.41
649.355	14376.15
649.707	14284.62
650.059	14423.83
650.411	14587.44
650.763	14626.54
651.115	14766.87
651.467	14688
651.819	14798.06
652.171	14723.48
652.523	14627.89
652.875	14645.97
653.227	14653.88
653.578	14653.88
653.93	14662.24
654.282	14547.67
654.633	14493.66
654.985	14547.67
655.337	14520.1
655.688	14516.93
656.039	14584.05
656.391	14407.79
656.742	14500.89
657.094	14456.15
657.445	14478.97
657.796	14452.76
658.147	14409.14
658.498	14490.95
658.849	14436.94
659.2	14471.96
659.551	14391.51
659.902	14501.12
660.253	14383.15
660.604	14424.51
660.955	14276.94
661.306	14323.72
661.656	14427.45
662.007	14334.79
662.358	14281.69
662.708	14322.82
663.059	14278.3
663.409	14184.97
663.76	14278.52
664.11	14230.61
664.461	14249.15
664.811	14310.84
665.161	14315.58
665.511	14222.03
665.862	14359.2
666.212	14256.38
666.562	14363.72
666.912	14258.41
667.262	14167.11
667.612	14218.64
667.962	14191.75
668.312	14200.11
668.662	14299.09
669.011	14216.15
669.361	14179.99
669.711	14174.34
670.06	14219.99
670.41	14132.54
670.76	14085.76
671.109	14142.26
671.459	14049.6
671.808	14213.44
672.157	14158.07
672.507	14056.61
672.856	14069.04
673.205	14088.92
673.554	14160.79
673.904	14064.07
674.253	14103.16
674.602	14083.5
674.951	13893.9
675.3	13881.92
675.649	14059.77
675.998	13981.81
676.346	13970.06
676.695	14043.27
677.044	14013.67
677.393	14036.04
677.741	13968.02
678.09	13998.08
678.438	13909.04
678.787	13968.25
679.135	13810.74
679.484	13888.02
679.832	13839.89
680.181	13795.37
680.529	13855.48
680.877	13803.73
681.225	13761.47
681.573	13844.41
681.922	13796.73
682.27	13703.85
682.618	13667.01
682.966	13691.87
683.314	13649.39
683.661	13664.75
684.009	13565.1
684.357	13487.58
684.705	13537.75
685.053	13634.7
685.4	13531.88
685.748	13440.13
686.095	13507.24
686.443	13417.08
686.79	13422.5
687.138	13555.83
687.485	13439.9
687.832	13417.75
688.18	13398.77
688.527	13280.36
688.874	13313.8
689.221	13305.89
689.568	13207.36
689.915	13190.64
690.262	13167.14
690.609	13193.58
690.956	13118.78
691.303	13104.54
691.65	13067.26
691.997	12982.51
692.344	12867.26
692.69	12917.88
693.037	12902.51
693.383	12806.25
693.73	12795.85
694.077	12819.35
694.423	12801.27
694.769	12688.51
695.116	12668.17
695.462	12648.74
695.808	12603.54
696.155	12660.26
696.501	12548.62
696.847	12553.82
697.193	12472.02
697.539	12556.53
697.885	12451.9
698.231	12400.61
698.577	12432.47
698.923	12366.71
699.269	12260.5
699.614	12292.13
699.96	12300.95
700.306	12251.46
700.651	12216.88
700.997	12191.12
701.342	12113.83
701.688	12139.14
702.033	12118.81
702.379	12119.03
702.724	12080.61
703.069	12047.17
703.415	11872.48
703.76	11905.25
704.105	11912.03
704.45	11800.62
704.795	11803.56
705.14	11806.72
705.485	11818.47
705.83	11745.03
706.175	11754.75
706.52	11680.63
706.865	11571.02
707.209	11597.46
707.554	11531.93
707.899	11638.82
708.243	11558.59
708.588	11470.69
708.932	11503
709.277	11534.87
709.621	11429.11
709.966	11377.81
710.31	11398.6
710.654	11274.76
710.998	11404.47
711.342	11350.92
711.687	11352.72
712.031	11223.91
712.375	11155.67
712.719	11228.89
713.063	11239.96
713.407	11172.16
713.75	11173.75
714.094	11178.72
714.438	11058.49
714.782	11063.01
715.125	11072.96
715.469	11043.13
715.812	11052.17
716.156	11018.04
716.499	10986.86
716.843	10960.19
717.186	10937.82
717.53	10936.01
717.873	10919.52
718.216	10860.31
718.559	10875
718.902	10804.72
719.246	10764.94
719.589	10810.59
719.932	10665.74
720.275	10695.11
720.617	10729.69
720.96	10717.03
721.303	10699.63
721.646	10679.07
721.989	10574.67
722.331	10652.63
722.674	10648.56
723.016	10598.39
723.359	10638.17
723.701	10634.78
724.044	10556.13
724.386	10487.89
724.729	10539.41
725.071	10530.37
725.413	10469.13
725.755	10435.91
726.097	10403.14
726.439	10433.88
726.782	10472.3
727.124	10439.53
727.465	10364.05
727.807	10416.93
728.149	10356.14
728.491	10342.81
728.833	10291.51
729.175	10299.19
729.516	10282.47
729.858	10331.28
730.199	10182.81
730.541	10241.57
730.882	10200.66
731.224	10252.87
731.565	10183.26
731.906	10188.23
732.248	10178.07
732.589	10133.32
732.93	10123.6
733.271	10075.02
733.612	10115.02
733.953	10116.15
734.294	10064.85
734.635	10021.46
734.976	10013.78
735.317	9992.53
735.658	9996.6
735.999	10091.29
736.339	10013.32
736.68	10012.65
737.021	9963.16
737.361	9877.06
737.702	9953.66
738.042	9872.31
738.383	9868.92
738.723	9934.91
739.063	9843.61
739.404	9931.52
739.744	9819.43
740.084	9816.72
740.424	9750.05
740.764	9747.79
741.104	9795.48
741.444	9729.49
741.784	9709.6
742.124	9761.35
742.464	9771.97
742.804	9708.02
743.143	9666.89
743.483	9706.44
743.823	9630.74
744.162	9621.02
744.502	9588.02
744.841	9564.52
745.181	9610.62
745.52	9520
745.86	9536.27
746.199	9521.13
746.538	9550.06
746.877	9557.74
747.216	9541.47
747.556	9504.86
747.895	9519.33
748.234	9466.45
748.573	9444.98
748.911	9438.42
749.25	9415.37
749.589	9427.13
749.928	9340.57
750.267	9445.66
750.605	9347.81
750.944	9435.94
751.283	9335.15
751.621	9308.26
751.96	9286.79
752.298	9275.26
752.636	9319.33
752.975	9212.44
753.313	9174.93
753.651	9285.89
753.989	9182.61
754.327	9189.84
754.666	9086.57
755.004	9142.16
755.342	9077.98
755.679	9107.81
756.017	9029.85
756.355	9072.11
756.693	9018.77
757.031	9051.54
757.368	8957.98
757.706	8938.32
758.044	8832.79
758.381	8905.33
758.719	8933.13
759.056	8875.28
