Data from foam1_polythene_foam_FLMS001491_00038.txt Node
Date: Wed Feb 08 10:54:45 GMT 2017
User: dcchb
Spectrometer: FLMS00149
Trigger mode: 0
Integration Time (sec): 2.000000E-2
Scans to average: 10
Electric dark correction enabled: true
Nonlinearity correction enabled: false
Boxcar width: 0
XAxis mode: Wavelengths
Number of Pixels in Spectrum: 2048
>>>>>Begin Spectral Data<<<<<
341.393	-19.97
341.776	-19.97
342.16	-19.97
342.543	-64.49
342.927	-52.74
343.31	-68.33
343.693	-61.55
344.077	-64.72
344.46	-64.26
344.843	-74.89
345.226	-39.41
345.61	-31.5
345.993	-22.46
346.376	1.27
346.759	19.58
347.142	23.64
347.525	48.73
347.908	64.32
348.291	57.77
348.674	81.04
349.057	130.76
349.44	103.87
349.823	136.86
350.206	154.04
350.588	170.98
350.971	188.61
351.354	206.92
351.737	225.45
352.119	242.85
352.502	263.19
352.884	244.43
353.267	270.87
353.65	281.49
354.032	264.54
354.414	295.95
354.797	297.31
355.179	320.81
355.562	309.06
355.944	318.1
356.326	316.29
356.709	307.48
357.091	311.55
357.473	337.53
357.855	321.26
358.238	343.18
358.62	339.12
359.002	328.27
359.384	308.83
359.766	304.54
360.148	337.76
360.53	314.03
360.912	344.54
361.294	323.97
361.676	324.88
362.057	330.98
362.439	308.38
362.821	316.97
363.203	320.81
363.584	326.91
363.966	303.64
364.348	300.47
364.729	311.77
365.111	326.91
365.493	303.86
365.874	300.02
366.256	293.01
366.637	333.47
367.019	308.83
367.4	310.64
367.781	308.61
368.163	303.86
368.544	313.58
368.925	309.74
369.306	298.44
369.688	282.17
370.069	281.04
370.45	315.84
370.831	274.48
371.212	295.73
371.593	294.82
371.974	297.76
372.355	295.73
372.736	291.88
373.117	295.73
373.498	322.39
373.879	324.2
374.26	301.83
374.641	299.12
375.021	307.93
375.402	277.65
375.783	305.44
376.163	317.65
376.544	312.22
376.925	322.84
377.305	302.51
377.686	319.91
378.066	304.31
378.447	284.43
378.827	337.31
379.208	338.89
379.588	317.42
379.968	316.07
380.349	316.52
380.729	300.02
381.109	316.07
381.489	316.97
381.87	333.01
382.25	317.87
382.63	338.66
383.01	334.6
383.39	325.78
383.77	320.13
384.15	328.95
384.53	329.62
384.91	326.01
385.29	334.6
385.67	313.81
386.049	342.05
386.429	338.44
386.809	340.25
387.189	347.25
387.568	339.57
387.948	345.67
388.328	342.51
388.707	316.52
389.087	312.9
389.466	341.15
389.846	350.19
390.225	339.79
390.605	336.18
390.984	366.91
391.363	350.41
391.743	347.7
392.122	351.09
392.501	356.74
392.881	345.89
393.26	360.58
393.639	349.06
394.018	334.82
394.397	358.55
394.776	341.38
395.155	343.18
395.534	334.6
395.913	382.05
396.292	381.37
396.671	371.66
397.05	355.16
397.429	359.45
397.808	356.06
398.186	372.11
398.565	360.81
398.944	374.14
399.323	341.15
399.701	368.04
400.08	371.66
400.458	344.76
400.837	373.69
401.215	394.03
401.594	394.93
401.972	386.8
402.351	377.08
402.729	381.6
403.107	387.7
403.486	375.72
403.864	398.1
404.242	382.73
404.62	376.18
404.999	400.36
405.377	405.1
405.755	399.23
406.133	407.81
406.511	396.51
406.889	371.43
407.267	409.4
407.645	379.34
408.023	421.6
408.401	396.51
408.779	408.04
409.156	416.4
409.534	383.41
409.912	392.22
410.29	417.98
410.667	400.13
411.045	391.54
411.422	417.08
411.8	403.07
412.178	424.99
412.555	422.95
412.933	414.37
413.31	416.18
413.687	443.52
414.065	448.27
414.442	437.19
414.819	445.55
415.197	421.37
415.574	449.39
415.951	450.52
416.328	450.52
416.705	465.21
417.082	456.63
417.46	447.14
417.837	447.36
418.214	435.61
418.591	429.51
418.967	458.66
419.344	451.2
419.721	476.74
420.098	454.82
420.475	465.89
420.852	448.72
421.228	461.82
421.605	439
421.982	469.28
422.358	488.49
422.735	488.72
423.111	479.68
423.488	473.35
423.864	483.97
424.241	474.48
424.617	453.91
424.994	515.16
425.37	491.43
425.746	490.98
426.123	492.78
426.499	518.09
426.875	503.86
427.251	485.78
427.627	509.05
428.003	526.23
428.379	513.57
428.756	528.49
429.132	540.01
429.507	525.78
429.883	529.39
430.259	539.79
430.635	540.47
431.011	539.56
431.387	544.53
431.763	538.88
432.138	546.57
432.514	557.87
432.89	575.72
433.265	571.2
433.641	572.78
434.016	569.84
434.392	565.1
434.767	583.4
435.143	561.03
435.518	605.32
435.894	571.2
436.269	590.86
436.644	577.3
437.02	603.74
437.395	612.1
437.77	615.04
438.145	610.52
438.52	635.6
438.895	626.11
439.271	615.27
439.646	638.32
440.021	624.76
440.395	653.68
440.77	635.6
441.145	655.04
441.52	641.48
441.895	644.87
442.27	663.4
442.645	657.3
443.019	669.5
443.394	683.51
443.769	681.03
444.143	687.35
444.518	681.03
444.892	667.92
445.267	704.53
445.641	716.73
446.016	690.74
446.39	712.66
446.764	718.54
447.139	736.39
447.513	707.92
447.887	757.86
448.262	740.23
448.636	727.58
449.01	730.29
449.384	744.75
449.758	751.99
450.132	761.7
450.506	755.83
450.88	760.57
451.254	781.59
451.628	791.53
452.002	759.44
452.376	773.91
452.75	809.16
453.123	797.18
453.497	794.92
453.871	809.39
454.244	828.59
454.618	824.3
454.992	836.05
455.365	827.92
455.739	826.79
456.112	843.73
456.486	854.81
456.859	850.74
457.232	848.25
457.606	826.11
457.979	854.58
458.352	865.2
458.725	843.51
459.099	865.88
459.472	889.38
459.845	871.3
460.218	872.43
460.591	895.26
460.964	872.66
461.337	872.89
461.71	905.43
462.083	929.83
462.456	900.91
462.829	917.86
463.201	913.34
463.574	921.7
463.947	913.56
464.32	943.62
464.692	949.27
465.065	967.12
465.438	949.49
465.81	954.69
466.183	970.06
466.555	1011.19
466.928	993.56
467.3	959.44
467.672	989.49
468.045	1019.32
468.417	1020.68
468.789	1015.93
469.161	1010.96
469.534	1056.16
469.906	1041.02
470.278	1068.59
470.65	1076.05
471.022	1072.66
471.394	1074.46
471.766	1071.98
472.138	1097.97
472.51	1114.01
472.882	1116.27
473.253	1144.52
473.625	1151.98
473.997	1189.49
474.369	1181.13
474.74	1163.95
475.112	1173.22
475.484	1205.08
475.855	1210.73
476.227	1211.18
476.598	1255.7
476.97	1216.83
477.341	1282.82
477.713	1289.15
478.084	1289.15
478.455	1325.3
478.827	1288.47
479.198	1330.05
479.569	1325.08
479.94	1378.86
480.311	1398.75
480.682	1380.44
481.053	1429.03
481.424	1455.24
481.795	1449.37
482.166	1478.75
482.537	1488.24
482.908	1486.66
483.279	1516.26
483.65	1556.03
484.021	1583.83
484.391	1577.73
484.762	1584.96
485.133	1613.21
485.503	1623.15
485.874	1655.92
486.244	1674.45
486.615	1672.19
486.985	1683.71
487.356	1728.46
487.726	1711.73
488.097	1736.82
488.467	1761.68
488.837	1801.68
489.207	1805.07
489.578	1825.86
489.948	1868.57
490.318	1879.19
490.688	1857.04
491.058	1883.03
491.428	1927.55
491.798	1917.6
492.168	1963.25
492.538	1956.02
492.908	1982.24
493.278	2006.19
493.648	2011.39
494.017	2045.96
494.387	2083.25
494.757	2062.91
495.126	2079.18
495.496	2080.99
495.866	2075.11
496.235	2111.27
496.605	2146.98
496.974	2145.85
497.344	2161.21
497.713	2195.56
498.082	2203.25
498.452	2211.83
498.821	2206.41
499.19	2236.24
499.559	2282.34
499.928	2280.99
500.298	2300.19
500.667	2274.21
501.036	2286.41
501.405	2330.25
501.774	2342.68
502.143	2333.87
502.512	2359.4
502.88	2375.45
503.249	2380.64
503.618	2408.89
503.987	2423.35
504.356	2417.48
504.724	2473.52
505.093	2494.09
505.462	2484.6
505.83	2466.52
506.199	2488.44
506.567	2494.76
506.936	2490.25
507.304	2543.58
507.672	2568.44
508.041	2563.46
508.409	2560.98
508.777	2619.51
509.145	2660.18
509.514	2640.98
509.882	2653.63
510.25	2667.87
510.618	2681.65
510.986	2690.69
511.354	2711.48
511.722	2719.62
512.09	2752.84
512.458	2753.52
512.826	2761.88
513.193	2805.49
513.561	2797.36
513.929	2817.24
514.297	2824.93
514.664	2863.79
515.032	2868.31
515.4	2892.95
515.767	2906.96
516.135	2949.44
516.502	2953.74
516.869	2958.93
517.237	2985.6
517.604	2972.04
517.972	3007.52
518.339	3023.56
518.706	3012.72
519.073	3057.46
519.44	3075.31
519.808	3151.92
520.175	3105.14
520.542	3167.74
520.909	3191.47
521.276	3209.55
521.643	3206.16
522.009	3242.54
522.376	3268.08
522.743	3266.27
523.11	3289.77
523.477	3308.08
523.843	3331.58
524.21	3399.37
524.577	3362.31
524.943	3414.51
525.31	3431.69
525.676	3509.2
526.043	3453.61
526.409	3446.6
526.776	3494.06
527.142	3499.71
527.508	3540.84
527.874	3589.88
528.241	3574.74
528.607	3558.92
528.973	3592.36
529.339	3628.29
529.705	3693.38
530.071	3696.54
530.437	3716.65
530.803	3750.78
531.169	3713.49
531.535	3717.11
531.901	3769.53
532.267	3807.5
532.632	3803.66
532.998	3811.57
533.364	3835.52
533.73	3866.93
534.095	3873.94
534.461	3842.53
534.826	3887.5
535.192	3941.05
535.557	3976.53
535.923	3950.55
536.288	3945.57
536.653	4005.23
537.019	3955.74
537.384	3995.52
537.749	4026.7
538.114	4040.71
538.479	3993.26
538.845	4025.12
539.21	4029.41
539.575	4081.62
539.94	4088.62
540.305	4087.94
540.67	4113.93
541.034	4138.56
541.399	4146.7
541.764	4168.39
542.129	4113.25
542.494	4228.73
542.858	4197.09
543.223	4190.77
543.587	4167.72
543.952	4222.86
544.316	4195.51
544.681	4234.15
545.045	4276.64
545.41	4271.22
545.774	4246.36
546.138	4270.99
546.503	4335.17
546.867	4330.87
547.231	4360.48
547.595	4346.24
547.959	4349.86
548.324	4401.38
548.688	4391.89
549.052	4396.41
549.416	4441.83
549.779	4431.66
550.143	4408.84
550.507	4474.15
550.871	4503.07
551.235	4475.5
551.599	4515.05
551.962	4533.58
552.326	4505.33
552.689	4582.39
553.053	4521.38
553.417	4546.01
553.78	4627.14
554.143	4615.61
554.507	4575.39
554.87	4656.52
555.234	4728.38
555.597	4681.6
555.96	4689.06
556.323	4715.95
556.686	4750.52
557.05	4774.03
557.413	4783.74
557.776	4825.1
558.139	4809.96
558.502	4813.12
558.865	4802.5
559.228	4855.61
559.59	4866
559.953	4897.19
560.316	4995.94
560.679	4946.68
561.041	4976.96
561.404	5031.2
561.767	5073.23
562.129	4957.3
562.492	5098.99
562.854	5054.25
563.217	5105.09
563.579	5119.33
563.941	5095.83
564.304	5146.67
564.666	5193.68
565.028	5212.43
565.39	5210.63
565.753	5225.09
566.115	5229.83
566.477	5305.54
566.839	5255.37
567.201	5320.91
567.563	5359.77
567.925	5358.64
568.287	5389.38
568.648	5371.3
569.01	5438.64
569.372	5463.27
569.734	5435.25
570.095	5473.44
570.457	5504.86
570.819	5506.21
571.18	5505.76
571.542	5521.58
571.903	5584.85
572.265	5570.39
572.626	5601.35
572.987	5559.09
573.349	5646.09
573.71	5645.19
574.071	5647.9
574.432	5671.18
574.794	5749.82
575.155	5698.97
575.516	5633.21
575.877	5685.87
576.238	5720.22
576.599	5740.56
576.96	5731.29
577.32	5789.82
577.681	5817.39
578.042	5794.11
578.403	5734.91
578.763	5791.85
579.124	5788.46
579.485	5812.64
579.845	5810.84
580.206	5782.36
580.566	5840.44
580.927	5875.92
581.287	5865.3
581.648	5817.16
582.008	5851.29
582.368	5810.61
582.728	5815.13
583.089	5805.41
583.449	5856.94
583.809	5861.23
584.169	5904.39
584.529	5912.3
584.889	5882.02
585.249	5879.99
585.609	5828.91
585.969	5873.21
586.329	5871.17
586.688	5911.85
587.048	5896.94
587.408	5882.7
587.768	5861
588.127	5852.19
588.487	5834.11
588.846	5850.61
589.206	5846.77
589.565	5884.73
589.925	5897.84
590.284	5922.47
590.643	5852.19
591.003	5873.89
591.362	5907.78
591.721	5894.9
592.08	5882.25
592.44	5891.06
592.799	5884.96
593.158	5902.13
593.517	5915.01
593.876	5919.08
594.235	5925.41
594.593	5874.34
594.952	5940.32
595.311	5890.61
595.67	5927.67
596.029	5889.48
596.387	5921.79
596.746	5944.62
597.104	5918.4
597.463	5911.17
597.822	5952.53
598.18	5918.63
598.538	5929.25
598.897	5927.44
599.255	5864.85
599.613	5957.5
599.972	5911.4
600.33	5933.32
600.688	5877.27
601.046	5923.83
601.404	5939.19
601.762	5939.42
602.12	5944.39
602.478	5929.7
602.836	5927.89
603.194	5911.17
603.552	5956.82
603.91	5930.83
604.268	5986.2
604.625	5935.35
604.983	5959.98
605.341	5936.71
605.698	5946.2
606.056	6030.72
606.413	5943.71
606.771	5966.99
607.128	5976.26
607.485	5997.72
607.843	5971.06
608.2	6013.54
608.557	6009.47
608.914	5991.85
609.272	5965.41
609.629	6024.39
609.986	6041.11
610.343	6022.36
610.7	6080.89
611.057	5999.08
611.414	6031.85
611.771	6040.21
612.127	6055.8
612.484	6044.28
612.841	6004.05
613.198	6087.21
613.554	6007.89
613.911	6063.71
614.267	6072.75
614.624	6058.96
614.98	6094.44
615.337	6116.59
615.693	6038.63
616.05	6047.44
616.406	6124.95
616.762	6050.83
617.118	6111.62
617.475	6147.1
617.831	6084.28
618.187	6105.07
618.543	6091.05
618.899	6119.98
619.255	6031.85
619.611	6083.82
619.967	6131.05
620.323	6093.09
620.678	6090.6
621.034	6115.69
621.39	6101.22
621.746	6097.83
622.101	6098.29
622.457	6083.37
622.812	6068.46
623.168	6105.07
623.523	6157.49
623.879	6136.7
624.234	6104.39
624.589	6068.46
624.945	6016.93
625.3	6079.76
625.655	6089.7
626.01	6106.2
626.365	6037.27
626.72	6082.92
627.075	6106.87
627.43	6084.28
627.785	6003.6
628.14	6047.89
628.495	6058.96
628.85	6045.41
629.205	6032.3
629.559	6018.74
629.914	6014.45
630.269	6030.27
630.623	5949.59
630.978	5982.58
631.332	5982.58
631.687	5945.52
632.041	5960.21
632.396	5963.15
632.75	5932.87
633.104	5944.39
633.459	5953.66
633.813	5899.2
634.167	5858.29
634.521	5947.33
634.875	5915.01
635.229	5883.15
635.583	5911.85
635.937	5899.2
636.291	5864.62
636.645	5866.65
636.999	5800.67
637.352	5842.02
637.706	5807.45
638.06	5839.54
638.413	5805.41
638.767	5853.09
639.121	5779.88
639.474	5786.88
639.828	5815.58
640.181	5758.86
640.534	5753.44
640.888	5785.98
641.241	5734.91
641.594	5751.85
641.947	5718.86
642.301	5767.45
642.654	5691.52
643.007	5709.14
643.36	5746.43
643.713	5663.5
644.066	5735.81
644.419	5678.86
644.771	5605.64
645.124	5537.85
645.477	5527.91
645.83	5525.19
646.182	5543.27
646.535	5496.27
646.888	5559.09
647.24	5499.43
647.593	5533.78
647.945	5482.93
648.298	5485.87
648.65	5438.64
649.002	5446.55
649.355	5459.88
649.707	5409.26
650.059	5426.67
650.411	5480.68
650.763	5486.55
651.115	5571.52
651.467	5560
651.819	5509.37
652.171	5507.79
652.523	5470.51
652.875	5492.65
653.227	5499.43
653.578	5506.21
653.93	5472.77
654.282	5482.26
654.633	5477.29
654.985	5458.3
655.337	5457.85
655.688	5449.94
656.039	5506.21
656.391	5430.05
656.742	5415.59
657.094	5407
657.445	5468.7
657.796	5411.75
658.147	5464.63
658.498	5433.9
658.849	5384.41
659.2	5390.73
659.551	5364.97
659.902	5401.81
660.253	5399.1
660.604	5404.07
660.955	5313.45
661.306	5336.72
661.656	5338.08
662.007	5380.56
662.358	5344.41
662.708	5336.27
663.059	5284.75
663.409	5313
663.76	5347.12
664.11	5317.52
664.461	5336.27
664.811	5336.5
665.161	5365.42
665.511	5322.04
665.862	5312.54
666.212	5316.84
666.562	5326.55
666.912	5276.84
667.262	5289.49
667.612	5326.1
667.962	5344.63
668.312	5314.35
668.662	5324.75
669.011	5297.4
669.361	5312.32
669.711	5286.33
670.06	5258.99
670.41	5249.04
670.76	5196.61
671.109	5298.08
671.459	5226.44
671.808	5289.95
672.157	5257.4
672.507	5186.45
672.856	5169.04
673.205	5220.34
673.554	5272.09
673.904	5238.42
674.253	5221.92
674.602	5194.35
674.951	5147.58
675.3	5143.73
675.649	5165.43
675.998	5144.64
676.346	5158.65
676.695	5211.76
677.044	5141.25
677.393	5147.8
677.741	5174.92
678.09	5160.46
678.438	5129.95
678.787	5138.54
679.135	5116.62
679.484	5120.01
679.832	5122.49
680.181	5101.48
680.529	5088.37
680.877	5090.85
681.225	5062.61
681.573	5113.23
681.922	5099.67
682.27	5114.81
682.618	5100.35
682.966	5011.31
683.314	5058.31
683.661	5025.55
684.009	5000.91
684.357	4989.84
684.705	4980.35
685.053	4989.61
685.4	4948.26
685.748	4960.46
686.095	4958.65
686.443	4966.34
686.79	4917.3
687.138	4914.59
687.485	4936.96
687.832	4879.56
688.18	4886.11
688.527	4865.32
688.874	4880.69
689.221	4868.04
689.568	4814.03
689.915	4855.15
690.262	4836.17
690.609	4794.14
690.956	4819.68
691.303	4852.44
691.65	4759.56
691.997	4787.81
692.344	4809.73
692.69	4712.56
693.037	4753.24
693.383	4715.27
693.73	4762.95
694.077	4751.43
694.423	4683.86
694.769	4700.58
695.116	4746.46
695.462	4645.89
695.808	4656.06
696.155	4659.45
696.501	4564.54
696.847	4656.06
697.193	4620.13
697.539	4603.86
697.885	4580.36
698.231	4566.12
698.577	4533.81
698.923	4516.86
699.269	4515.28
699.614	4535.16
699.96	4470.53
700.306	4508.72
700.651	4490.87
700.997	4458.1
701.342	4470.53
701.688	4477.99
702.033	4425.34
702.379	4437.31
702.724	4469.85
703.069	4446.8
703.415	4393.7
703.76	4357.99
704.105	4402.51
704.45	4357.31
704.795	4339.24
705.14	4311.21
705.485	4322.74
705.83	4288.39
706.175	4277.77
706.52	4335.85
706.865	4294.72
707.209	4276.86
707.554	4247.71
707.899	4250.88
708.243	4261.05
708.588	4230.99
708.932	4222.4
709.277	4234.61
709.621	4224.21
709.966	4232.8
710.31	4190.99
710.654	4146.92
710.998	4178.11
711.342	4159.13
711.687	4179.24
712.031	4127.94
712.375	4111.22
712.719	4100.6
713.063	4137.43
713.407	4174.95
713.75	4082.52
714.094	4136.3
714.438	4068.96
714.782	4094.72
715.125	4084.78
715.469	4087.04
715.812	4078
716.156	4029.19
716.499	4029.19
716.843	4044.33
717.186	4058.11
717.53	4021.96
717.873	4022.63
718.216	4023.76
718.559	4013.82
718.902	3982.41
719.246	3978.34
719.589	3985.8
719.932	3932.92
720.275	3975.4
720.617	3940.6
720.96	3903.54
721.303	3973.6
721.646	3930.43
721.989	3917.78
722.331	3908.51
722.674	3924.33
723.016	3944.22
723.359	3888.63
723.701	3900.38
724.044	3881.85
724.386	3877.55
724.729	3852.92
725.071	3859.25
725.413	3856.09
725.755	3873.71
726.097	3833.49
726.439	3777.44
726.782	3784
727.124	3835.29
727.465	3834.62
727.807	3786.26
728.149	3803.21
728.491	3805.92
728.833	3810.44
729.175	3791.68
729.516	3772.7
729.858	3747.61
730.199	3789.87
730.541	3785.35
730.882	3790.55
731.224	3765.69
731.565	3765.69
731.906	3755.07
732.248	3737.67
732.589	3719.14
732.93	3709.87
733.271	3709.65
733.612	3698.8
733.953	3710.55
734.294	3717.11
734.635	3682.53
734.976	3717.56
735.317	3644.57
735.658	3718.24
735.999	3685.02
736.339	3645.7
736.68	3694.51
737.021	3661.51
737.361	3604.79
737.702	3663.1
738.042	3673.04
738.383	3580.39
738.723	3632.59
739.063	3654.73
739.404	3624.45
739.744	3623.32
740.084	3592.59
740.424	3598.46
740.764	3554.17
741.104	3593.04
741.444	3595.53
741.784	3608.18
742.124	3623.77
742.464	3559.37
742.804	3551.69
743.143	3599.82
743.483	3544.23
743.823	3559.82
744.162	3511.01
744.502	3515.3
744.841	3523.66
745.181	3522.31
745.52	3525.92
745.86	3553.27
746.199	3517.79
746.538	3506.04
746.877	3522.31
747.216	3521.4
747.556	3515.53
747.895	3470.78
748.234	3459.26
748.573	3478.69
748.911	3474.4
749.25	3501.52
749.589	3449.32
749.928	3480.05
750.267	3469.2
750.605	3444.34
750.944	3430.11
751.283	3402.76
751.621	3413.84
751.96	3379.26
752.298	3435.31
752.636	3413.61
752.975	3396.21
753.313	3374.06
753.651	3392.37
753.989	3367.96
754.327	3376.78
754.666	3372.03
755.004	3340.84
755.342	3335.42
755.679	3335.65
756.017	3305.37
756.355	3344.91
756.693	3300.39
757.031	3347.62
757.368	3277.8
757.706	3302.65
758.044	3262.65
758.381	3287.29
758.719	3299.72
759.056	3294.07
759.394	3273.73
759.731	3250.45
760.068	3217.23
760.405	3222.66
760.743	3239.38
761.08	3223.79
761.417	3264.24
761.754	3239.6
762.091	3193.5
762.428	3181.3
762.765	3159.83
763.102	3155.31
763.438	3143.11
763.775	3150.57
764.112	3135.2
764.449	3124.58
764.785	3127.74
765.122	3125.26
765.458	3086.84
765.795	3098.59
766.131	3130.91
766.467	3071.25
766.804	3098.59
767.14	3044.35
767.476	3062.89
767.812	3066.95
768.148	3013.4
768.485	3002.1
768.821	2987.41
769.157	3006.62
769.492	3000.51
769.828	2999.84
770.164	2959.61
770.5	2941.53
770.836	2989.89
771.171	2947.86
