Data from foam1_polythene_foam_FLMS001491_00052.txt Node
Date: Wed Feb 08 10:55:03 GMT 2017
User: dcchb
Spectrometer: FLMS00149
Trigger mode: 0
Integration Time (sec): 2.000000E-2
Scans to average: 10
Electric dark correction enabled: true
Nonlinearity correction enabled: false
Boxcar width: 0
XAxis mode: Wavelengths
Number of Pixels in Spectrum: 2048
>>>>>Begin Spectral Data<<<<<
341.393	7.44
341.776	7.44
342.16	7.44
342.543	-59.22
342.927	-59
343.31	-60.58
343.693	-69.62
344.077	-57.64
344.46	-78.88
344.843	-42.5
345.226	-43.18
345.61	-17.64
345.993	-11.54
346.376	4.28
346.759	13.77
347.142	42.24
347.525	27.56
347.908	64.39
348.291	56.03
348.674	87.22
349.057	86.09
349.44	106.88
349.823	131.73
350.206	164.73
350.588	197.49
350.971	210.15
351.354	234.33
351.737	228.91
352.119	233.88
352.502	261.45
352.884	277.49
353.267	271.84
353.65	276.36
354.032	288.79
354.414	302.8
354.797	302.12
355.179	318.17
355.562	312.52
355.944	314.55
356.326	340.54
356.709	340.77
357.091	310.26
357.473	340.54
357.855	319.98
358.238	329.02
358.62	322.01
359.002	322.24
359.384	316.81
359.766	354.1
360.148	330.82
360.53	319.53
360.912	337.38
361.294	334.44
361.676	328.34
362.057	331.95
362.439	342.8
362.821	302.8
363.203	303.93
363.584	322.01
363.966	316.81
364.348	314.1
364.729	298.28
365.111	303.25
365.493	302.8
365.874	322.46
366.256	316.14
366.637	315.91
367.019	322.01
367.4	314.78
367.781	308
368.163	312.52
368.544	307.1
368.925	310.26
369.306	309.36
369.688	307.1
370.069	300.54
370.45	289.02
370.831	311.39
371.212	291.96
371.593	309.81
371.974	323.37
372.355	300.77
372.736	317.27
373.117	307.32
373.498	300.32
373.879	317.49
374.26	305.06
374.641	315.46
375.021	294.89
375.402	323.82
375.783	306.64
376.163	306.42
376.544	326.98
376.925	309.36
377.305	318.4
377.686	332.86
378.066	313.88
378.447	327.21
378.827	333.31
379.208	312.29
379.588	347.77
379.968	338.73
380.349	331.28
380.729	316.81
381.109	319.53
381.489	330.82
381.87	331.05
382.25	334.44
382.63	347.77
383.01	337.15
383.39	329.69
383.77	362.91
384.15	318.17
384.53	342.12
384.91	331.95
385.29	370.37
385.67	345.74
386.049	359.98
386.429	323.37
386.809	347.1
387.189	360.43
387.568	346.64
387.948	354.33
388.328	337.38
388.707	358.62
389.087	356.59
389.466	362.46
389.846	342.35
390.225	363.82
390.605	372.18
390.984	357.49
391.363	372.41
391.743	364.27
392.122	355.23
392.501	375.34
392.881	361.11
393.26	364.27
393.639	346.64
394.018	375.8
394.397	368.11
394.776	391.16
395.155	373.99
395.534	383.03
395.913	381.44
396.292	399.75
396.671	388
397.05	366.08
397.429	397.94
397.808	383.7
398.186	402.01
398.565	402.46
398.944	407.21
399.323	419.41
399.701	378.06
400.08	397.72
400.458	387.09
400.837	420.77
401.215	398.85
401.594	398.39
401.972	408.56
402.351	385.96
402.729	404.04
403.107	431.16
403.486	435
403.864	433.19
404.242	426.64
404.62	437.26
404.999	422.8
405.377	411.5
405.755	429.58
406.133	442.46
406.511	434.78
406.889	435
407.267	437.71
407.645	456.02
408.023	431.39
408.401	445.85
408.779	457.83
409.156	454.66
409.534	450.14
409.912	457.6
410.29	447.66
410.667	478.62
411.045	471.39
411.422	476.58
411.8	493.08
412.178	484.49
412.555	492.85
412.933	508.67
413.31	480.2
413.687	486.75
414.065	496.92
414.442	512.06
414.819	503.48
415.197	525.85
415.574	523.81
415.951	527.2
416.328	499.63
416.705	517.26
417.082	541.67
417.46	522.01
417.837	551.38
418.214	534.21
418.591	559.07
418.967	546.64
419.344	539.63
419.721	547.99
420.098	554.32
420.475	560.65
420.852	558.39
421.228	547.32
421.605	575.79
421.982	585.28
422.358	572.4
422.735	585.73
423.111	584.15
423.488	571.95
423.864	578.73
424.241	585.73
424.617	598.61
424.994	604.26
425.37	598.16
425.746	611.5
426.123	615.11
426.499	581.21
426.875	616.24
427.251	646.75
427.627	637.48
428.003	642.68
428.379	646.07
428.756	644.94
429.132	657.37
429.507	647.65
429.883	652.62
430.259	654.43
430.635	681.55
431.011	663.7
431.387	683.81
431.763	706.63
432.138	710.02
432.514	711.83
432.89	709.8
433.265	724.49
433.641	719.06
434.016	724.49
434.392	760.42
434.767	756.12
435.143	751.6
435.518	741.89
435.894	786.86
436.269	800.87
436.644	779.63
437.02	780.08
437.395	786.86
437.77	816.24
438.145	833.18
438.52	817.59
438.895	831.38
439.271	822.56
439.646	830.02
440.021	861.43
440.395	881.77
440.77	880.64
441.145	888.32
441.52	897.82
441.895	875.67
442.27	879.51
442.645	888.55
443.019	924.48
443.394	895.56
443.769	924.48
444.143	928.55
444.518	942.56
444.892	947.31
445.267	907.76
445.641	970.13
446.016	973.29
446.39	966.74
446.764	976.01
447.139	982.11
447.513	1006.97
447.887	1011.48
448.262	999.73
448.636	1019.85
449.01	1030.24
449.384	1011.94
449.758	1036.34
450.132	1049.68
450.506	1052.16
450.88	1066.17
451.254	1079.51
451.628	1100.52
452.002	1091.93
452.376	1086.28
452.75	1095.32
453.123	1097.81
453.497	1156.34
453.871	1112.5
454.244	1153.85
454.618	1130.8
454.992	1145.04
455.365	1147.07
455.739	1205.15
456.112	1188.2
456.486	1178.03
456.859	1222.55
457.232	1205.83
457.606	1200.63
457.979	1213.06
458.352	1264.36
458.725	1262.55
459.099	1254.42
459.472	1257.58
459.845	1300.06
460.218	1296
460.591	1319.5
460.964	1271.36
461.337	1335.32
461.71	1353.4
462.083	1371.02
462.456	1358.37
462.829	1370.35
463.201	1374.64
463.574	1379.16
463.947	1407.86
464.32	1433.62
464.692	1441.3
465.065	1454.41
465.438	1462.77
465.81	1485.37
466.183	1487.63
466.555	1545.26
466.928	1526.5
467.3	1523.56
467.672	1532.37
468.045	1549.55
468.417	1592.94
468.789	1564.46
469.161	1595.42
469.534	1644.01
469.906	1642.65
470.278	1672.26
470.65	1673.84
471.022	1698.02
471.394	1761.97
471.766	1757.45
472.138	1770.56
472.51	1801.07
472.882	1831.8
473.253	1831.12
473.625	1842.65
473.997	1894.63
474.369	1918.58
474.74	1957.9
475.112	1960.84
475.484	1975.98
475.855	2007.62
476.227	2005.13
476.598	2037.45
476.97	2120.83
477.341	2122.42
477.713	2162.87
478.084	2148.4
478.455	2243.32
478.827	2224.33
479.198	2286.93
479.569	2288.74
479.94	2328.74
480.311	2355.63
480.682	2421.62
481.053	2484.89
481.424	2497.32
481.795	2540.71
482.166	2568.73
482.537	2619.58
482.908	2650.54
483.279	2646.7
483.65	2719.69
484.021	2793.36
484.391	2781.16
484.762	2798.78
485.133	2865.45
485.503	2910.19
485.874	2934.6
486.244	2935.28
486.615	2979.79
486.985	3045.1
487.356	3113.58
487.726	3144.31
488.097	3166.68
488.467	3210.07
488.837	3249.39
489.207	3295.27
489.578	3310.18
489.948	3368.94
490.318	3417.75
490.688	3433.12
491.058	3513.34
491.428	3497.3
491.798	3550.63
492.168	3642.6
492.538	3653.22
492.908	3663.39
493.278	3744.07
493.648	3737.74
494.017	3801.47
494.387	3830.39
494.757	3892.99
495.126	3939.32
495.496	3947.9
495.866	3937.74
496.235	3951.29
496.605	4002.59
496.974	4064.96
497.344	4051.86
497.713	4089.37
498.082	4138.18
498.452	4174.11
498.821	4225.19
499.19	4250.27
499.559	4273.55
499.928	4259.08
500.298	4319.65
500.667	4365.29
501.036	4385.86
501.405	4399.87
501.774	4419.08
502.143	4483.48
502.512	4557.83
502.88	4510.15
503.249	4541.56
503.618	4592.63
503.987	4649.58
504.356	4673.31
504.724	4665.4
505.093	4721.22
505.462	4731.61
505.83	4753.08
506.199	4839.86
506.567	4851.38
506.936	4873.53
507.304	4935.22
507.672	4907.2
508.041	4988.1
508.409	5037.59
508.777	5032.85
509.145	5123.92
509.514	5129.34
509.882	5154.88
510.25	5167.08
510.618	5172.73
510.986	5232.39
511.354	5277.14
511.722	5358.26
512.09	5409.11
512.458	5437.13
512.826	5374.08
513.193	5451.14
513.561	5472.61
513.929	5522.78
514.297	5566.85
514.664	5634.87
515.032	5635.54
515.4	5700.4
515.767	5732.72
516.135	5773.39
516.502	5781.08
516.869	5824.69
517.237	5936.55
517.604	5852.71
517.972	5955.31
518.339	6045.48
518.706	6063.78
519.073	6058.13
519.44	6050
519.808	6157.56
520.175	6187.62
520.542	6225.58
520.909	6324.11
521.276	6316.43
521.643	6356.88
522.009	6405.47
522.376	6423.55
522.743	6519.81
523.11	6580.15
523.477	6663.31
523.843	6685.01
524.21	6745.35
524.577	6835.96
524.943	6854.49
525.31	6871.9
525.676	6910.99
526.043	6989.41
526.409	7008.39
526.776	7062.17
527.142	7145.11
527.508	7145.33
527.874	7240.47
528.241	7219.68
528.607	7315.95
528.973	7322.73
529.339	7427.81
529.705	7473.69
530.071	7486.12
530.437	7533.12
530.803	7559.11
531.169	7609.28
531.535	7600.69
531.901	7684.3
532.267	7702.38
532.632	7793.91
532.998	7825.99
533.364	7865.77
533.73	7872.1
534.095	8004.75
534.461	7974.69
534.826	7994.35
535.192	8078.87
535.557	8088.13
535.923	8107.8
536.288	8089.04
536.653	8222.59
537.019	8166.78
537.384	8234.35
537.749	8254.91
538.114	8325.64
538.479	8368.81
538.845	8318.64
539.21	8391.18
539.575	8417.84
539.94	8397.73
540.305	8422.59
540.67	8430.05
541.034	8488.8
541.399	8523.15
541.764	8609.7
542.129	8672.75
542.494	8622.81
542.858	8707.1
543.223	8753.88
543.587	8733.54
543.952	8758.85
544.316	8736.48
544.681	8797.49
545.045	8873.88
545.41	8947.55
545.774	8896.02
546.138	8886.08
546.503	8935.34
546.867	8916.59
547.231	9073.87
547.595	9060.09
547.959	9118.62
548.324	9084.04
548.688	9056.7
549.052	9229.57
549.416	9220.99
549.779	9217.82
550.143	9260.08
550.507	9367.88
550.871	9326.75
551.235	9380.53
551.599	9371.72
551.962	9447.42
552.326	9445.61
552.689	9528.77
553.053	9541.43
553.417	9503.69
553.78	9699.84
554.143	9670.01
554.507	9671.37
554.87	9697.36
555.234	9828.88
555.597	9796.56
555.96	9777.58
556.323	9820.74
556.686	9856.9
557.05	10026.39
557.413	10017.58
557.776	10039.04
558.139	10105.03
558.502	10140.51
558.865	10088.53
559.228	10201.75
559.59	10207.63
559.953	10237.23
560.316	10313.61
560.679	10406.04
561.041	10425.25
561.404	10482.42
561.767	10558.8
562.129	10425.47
562.492	10672.93
562.854	10683.55
563.217	10658.24
563.579	10700.04
563.941	10712.92
564.304	10766.93
564.666	10926.7
565.028	10871.11
565.39	10911.34
565.753	10988.85
566.115	10997.44
566.477	11130.77
566.839	11200.14
567.201	11203.99
567.563	11294.15
567.925	11378.44
568.287	11297.32
568.648	11337.77
569.01	11353.13
569.372	11489.85
569.734	11495.95
570.095	11479.01
570.457	11558.55
570.819	11589.51
571.18	11608.04
571.542	11691.2
571.903	11670.87
572.265	11741.6
572.626	11822.05
572.987	11698.44
573.349	11794.03
573.71	11882.16
574.071	11908.83
574.432	11903.4
574.794	12020.91
575.155	12015.26
575.516	11941.37
575.877	12079.22
576.238	12075.15
576.599	12177.29
576.96	12267.46
577.32	12147.69
577.681	12129.61
578.042	12256.84
578.403	12217.74
578.763	12224.07
579.124	12223.39
579.485	12278.53
579.845	12319.89
580.206	12325.99
580.566	12332.77
580.927	12438.3
581.287	12523.27
581.648	12380
582.008	12408.25
582.368	12324.86
582.728	12446.44
583.089	12420.45
583.449	12376.38
583.809	12414.35
584.169	12375.71
584.529	12419.32
584.889	12536.15
585.249	12487.34
585.609	12448.92
585.969	12490.5
586.329	12540.45
586.688	12530.96
587.048	12578.86
587.408	12564.63
587.768	12511.52
588.127	12436.04
588.487	12446.89
588.846	12510.62
589.206	12392.43
589.565	12510.84
589.925	12574.57
590.284	12535.93
590.643	12566.21
591.003	12645.3
591.362	12660.22
591.721	12562.59
592.08	12598.75
592.44	12641.24
592.799	12517.17
593.158	12529.15
593.517	12558.75
593.876	12558.07
594.235	12493.22
594.593	12530.73
594.952	12647.34
595.311	12531.18
595.67	12624.96
596.029	12718.52
596.387	12815.47
596.746	12758.75
597.104	12638.3
597.463	12681.23
597.822	12720.1
598.18	12638.3
598.538	12624.74
598.897	12682.59
599.255	12671.07
599.613	12715.81
599.972	12695.47
600.33	12714.91
600.688	12723.27
601.046	12722.14
601.404	12880.55
601.762	12875.13
602.12	12866.09
602.478	12892.08
602.836	12832.64
603.194	12850.95
603.552	12835.81
603.91	12767.56
604.268	12814.34
604.625	12809.37
604.983	12825.41
605.341	12756.03
605.698	12917.61
606.056	12939.08
606.413	13022.24
606.771	13011.85
607.128	13039.19
607.485	12950.15
607.843	12914
608.2	13021.34
608.557	13081.22
608.914	13019.98
609.272	13007.1
609.629	12979.31
609.986	13100.66
610.343	12961.9
610.7	13081.45
611.057	13083.94
611.414	13004.84
611.771	13273.99
612.127	13146.98
612.484	13131.39
612.841	13219.3
613.198	13137.49
613.554	13202.8
613.911	13206.42
614.267	13248.68
614.624	13266.98
614.98	13191.96
615.337	13271.95
615.693	13153.54
616.05	13274.67
616.406	13293.87
616.762	13292.29
617.118	13192.86
617.475	13370.93
617.831	13326.19
618.187	13297.04
618.543	13341.33
618.899	13429.92
619.255	13301.11
619.611	13311.95
619.967	13425.17
620.323	13386.53
620.678	13335
621.034	13410.03
621.39	13378.39
621.746	13379.97
622.101	13532.51
622.457	13346.3
622.812	13412.74
623.168	13440.08
623.523	13469.24
623.879	13495.9
624.234	13376.81
624.589	13383.81
624.945	13428.11
625.3	13426.98
625.655	13434.89
626.01	13427.43
626.365	13349.69
626.72	13390.37
627.075	13398.28
627.43	13403.25
627.785	13379.07
628.14	13406.41
628.495	13394.21
628.85	13387.66
629.205	13372.97
629.559	13367.77
629.914	13358.5
630.269	13349.01
630.623	13256.13
630.978	13291.84
631.332	13320.09
631.687	13379.3
632.041	13296.59
632.396	13279.41
632.75	13218.4
633.104	13171.84
633.459	13161
633.813	13235.8
634.167	13210.71
634.521	13200.99
634.875	13174.78
635.229	13146.31
635.583	13081.9
635.937	13200.32
636.291	13082.35
636.645	13078.29
636.999	13011.4
637.352	13041
637.706	12919.87
638.06	13090.04
638.413	12986.99
638.767	13041.45
639.121	13016.82
639.474	12920.78
639.828	12897.27
640.181	12932.3
640.534	12929.14
640.888	13001
641.241	12879.42
641.594	12873.77
641.947	12914.67
642.301	12880.1
642.654	12882.13
643.007	12871.96
643.36	12862.47
643.713	12834
644.066	12797.39
644.419	12798.07
644.771	12704.96
645.124	12535.25
645.477	12656.83
645.83	12527.79
646.182	12498.19
646.535	12419.77
646.888	12361.02
647.24	12318.76
647.593	12332.09
647.945	12326.22
648.298	12247.8
648.65	12231.98
649.002	12194.69
649.355	12217.52
649.707	12280.11
650.059	12319.21
650.411	12464.29
650.763	12421.81
651.115	12525.53
651.467	12443.5
651.819	12610.5
652.171	12485.99
652.523	12396.95
652.875	12451.86
653.227	12355.82
653.578	12476.72
653.93	12422.48
654.282	12419.09
654.633	12318.53
654.985	12420.22
655.337	12427
655.688	12255.26
656.039	12375.48
656.391	12323.73
656.742	12300.91
657.094	12340.23
657.445	12373.9
657.796	12356.27
658.147	12257.97
658.498	12217.97
658.849	12243.73
659.2	12255.26
659.551	12219.78
659.902	12335.93
660.253	12277.4
660.604	12293.22
660.955	12235.82
661.306	12338.19
661.656	12193.34
662.007	12291.87
662.358	12188.37
662.708	12228.59
663.059	12176.84
663.409	12090.29
663.76	12191.53
664.11	12185.88
664.461	12224.98
664.811	12183.39
665.161	12156.28
665.511	12098.2
665.862	12162.6
666.212	12200.57
666.562	12160.34
666.912	12111.08
667.262	12159.44
667.612	12110.18
667.962	12203.73
668.312	12145.66
668.662	12167.35
669.011	12133.9
669.361	12145.43
669.711	12044.19
670.06	12011.87
670.41	12028.37
670.76	12034.02
671.109	12138.65
671.459	12055.04
671.808	11997.18
672.157	12049.61
672.507	11945.21
672.856	11959.45
673.205	12004.64
673.554	12012.1
673.904	11961.93
674.253	12029.95
674.602	12054.58
674.951	11818.66
675.3	11797.87
675.649	11959.22
675.998	11941.82
676.346	11902.05
676.695	11993.79
677.044	11847.81
677.393	11936.85
677.741	11929.39
678.09	11842.61
678.438	11789.51
678.787	11835.15
679.135	11881.93
679.484	11721.26
679.832	11895.49
680.181	11711.99
680.529	11791.77
680.877	11808.04
681.225	11783.86
681.573	11847.81
681.922	11690.3
682.27	11720.13
682.618	11758.09
682.966	11705.44
683.314	11659.57
683.661	11631.77
684.009	11582.51
684.357	11545.9
684.705	11559.68
685.053	11519.01
685.4	11502.51
685.748	11521.94
686.095	11472.9
686.443	11427.93
686.79	11393.81
687.138	11400.14
687.485	11447.37
687.832	11424.09
688.18	11363.08
688.527	11294.15
688.874	11335.51
689.221	11360.82
689.568	11313.59
689.915	11246.02
690.262	11220.48
690.609	11182.06
690.956	11114.04
691.303	11073.59
691.65	11062.97
691.997	11063.2
692.344	10984.56
692.69	10900.04
693.037	11005.57
693.383	10928.51
693.73	10927.83
694.077	10874.5
694.423	10947.04
694.769	10856.42
695.116	10828.4
695.462	10888.51
695.808	10832.92
696.155	10793.15
696.501	10769.19
696.847	10712.25
697.193	10660.72
697.539	10629.08
697.885	10628.41
698.231	10582.98
698.577	10621.85
698.923	10534.17
699.269	10473.38
699.614	10405.59
699.96	10415.76
700.306	10414.63
700.651	10344.57
700.997	10340.73
701.342	10387.51
701.688	10382.76
702.033	10360.62
702.379	10310
702.724	10211.92
703.069	10356.32
703.415	10131.92
703.76	10229.1
704.105	10169.89
704.45	10163.56
704.795	10042.89
705.14	10088.99
705.485	10028.65
705.83	9964.24
706.175	9973.73
706.52	10008.31
706.865	9949.55
707.209	9990.23
707.554	9945.26
707.899	9966.96
708.243	9922.21
708.588	9903.23
708.932	9837.69
709.277	9837.92
709.621	9838.6
709.966	9791.37
710.31	9772.61
710.654	9761.54
710.998	9747.75
711.342	9647.87
711.687	9584.82
712.031	9576.46
712.375	9482.9
712.719	9534.42
713.063	9561.32
713.407	9541.66
713.75	9546.18
714.094	9491.04
714.438	9457.36
714.782	9523.35
715.125	9439.74
715.469	9454.65
715.812	9453.75
716.156	9394.77
716.499	9397.48
716.843	9390.02
717.186	9412.39
717.53	9449.68
717.873	9399.96
718.216	9329.46
718.559	9265.73
718.902	9172.85
719.246	9242
719.589	9202.68
719.932	9155.68
720.275	9165.39
720.617	9142.8
720.96	9200.42
721.303	9099.63
721.646	9146.86
721.989	9049.24
722.331	9122.91
722.674	9108.45
723.016	9089.24
723.359	9088.79
723.701	9132.85
724.044	9038.84
724.386	8948.68
724.729	9061.67
725.071	9000.88
725.413	9011.95
725.755	9043.36
726.097	8948.23
726.439	8947.55
726.782	8861.22
727.124	8917.27
727.465	8841.11
727.807	8853.09
728.149	8821.9
728.491	8786.87
728.833	8777.16
729.175	8785.07
729.516	8737.38
729.858	8762.69
730.199	8759.76
730.541	8761.79
730.882	8755.01
731.224	8825.74
731.565	8698.06
731.906	8738.06
732.248	8745.07
732.589	8687.89
732.93	8719.08
733.271	8728.34
733.612	8642.47
733.953	8671.4
734.294	8657.16
734.635	8621.23
734.976	8615.8
735.317	8576.71
735.658	8551.85
735.999	8568.57
736.339	8492.64
736.68	8538.07
737.021	8469.37
737.361	8413.55
737.702	8516.6
738.042	8428.46
738.383	8451.97
738.723	8500.78
739.063	8399.54
739.404	8449.48
739.744	8440.89
740.084	8449.03
740.424	8424.85
740.764	8398.18
741.104	8416.94
741.444	8345.53
741.784	8389.82
742.124	8429.37
742.464	8292.88
742.804	8338.98
743.143	8227.11
743.483	8265.08
743.823	8240
744.162	8216.72
744.502	8208.13
744.841	8178.08
745.181	8194.57
745.52	8172.43
745.86	8205.65
746.199	8183.05
746.538	8193.44
746.877	8120.9
747.216	8201.35
747.556	8190.5
747.895	8217.62
748.234	8105.54
748.573	8155.93
748.911	8073.9
749.25	8142.14
749.589	8058.53
749.928	8117.74
750.267	8084.75
750.605	8079.77
750.944	8000.68
751.283	7977.86
751.621	7960.68
751.96	7895.15
752.298	7856.73
752.636	7901.02
752.975	7910.96
753.313	7866.22
753.651	7895.82
753.989	7804.53
754.327	7829.84
754.666	7767.47
755.004	7839.78
755.342	7920.46
755.679	7833.23
756.017	7744.42
756.355	7774.47
756.693	7799.33
757.031	7773.79
757.368	7777.63
757.706	7703.51
758.044	7625.32
758.381	7718.88
758.719	7672.1
759.056	7655.83
759.394	7574.48
759.731	7583.29
760.068	7546.68
760.405	7480.24
760.743	7459
761.08	7522.05
761.417	7384.65
761.754	7488.15
762.091	7328.83
762.428	7354.59
