Data from foam2_polystyrene_foam_FLMS001491_00043.txt Node
Date: Wed Feb 08 10:58:00 GMT 2017
User: dcchb
Spectrometer: FLMS00149
Trigger mode: 0
Integration Time (sec): 2.000000E-2
Scans to average: 10
Electric dark correction enabled: true
Nonlinearity correction enabled: false
Boxcar width: 0
XAxis mode: Wavelengths
Number of Pixels in Spectrum: 2048
>>>>>Begin Spectral Data<<<<<
341.393	-4.7
341.776	-4.7
342.16	-4.7
342.543	-50.35
342.927	-85.61
343.31	-71.82
343.693	-75.21
344.077	-61.65
344.46	-43.57
344.843	-58.94
345.226	-44.93
345.61	-34.31
345.993	-12.61
346.376	0.95
346.759	-0.18
347.142	19.02
347.525	39.36
347.908	69.19
348.291	67.84
348.674	92.47
349.057	114.39
349.44	133.37
349.823	148.51
350.206	148.29
350.588	217.21
350.971	209.75
351.354	226.7
351.737	251.79
352.119	271.67
352.502	277.55
352.884	297.66
353.267	284.33
353.65	309.64
354.032	332.01
354.414	313.03
354.797	327.49
355.179	343.76
355.562	328.62
355.944	352.58
356.326	364.55
356.709	349.86
357.091	381.28
357.473	371.56
357.855	371.56
358.238	378.34
358.62	379.69
359.002	374.5
359.384	346.02
359.766	359.13
360.148	363.65
360.53	350.77
360.912	360.03
361.294	348.73
361.676	381.5
362.057	334.5
362.439	362.97
362.821	369.52
363.203	355.06
363.584	362.07
363.966	373.14
364.348	337.43
364.729	361.61
365.111	348.06
365.493	366.81
365.874	364.55
366.256	362.52
366.637	361.84
367.019	370.65
367.4	339.69
367.781	361.84
368.163	360.03
368.544	358
368.925	373.59
369.306	370.2
369.688	351.22
370.069	369.3
370.45	370.43
370.831	346.02
371.212	374.04
371.593	376.76
371.974	359.81
372.355	367.94
372.736	362.97
373.117	358.45
373.498	370.43
373.879	370.2
374.26	374.95
374.641	369.3
375.021	390.54
375.402	377.66
375.783	380.82
376.163	395.96
376.544	385.34
376.925	392.57
377.305	408.62
377.686	394.83
378.066	404.1
378.447	402.07
378.827	402.07
379.208	412.46
379.588	422.86
379.968	402.74
380.349	423.76
380.729	418.34
381.109	430.99
381.489	428.51
381.87	428.28
382.25	441.16
382.63	447.26
383.01	440.03
383.39	436.19
383.77	453.36
384.15	465.79
384.53	491.33
384.91	484.1
385.29	489.07
385.67	479.13
386.049	479.58
386.429	474.38
386.809	504.21
387.189	476.87
387.568	502.4
387.948	476.87
388.328	507.83
388.707	499.01
389.087	506.24
389.466	505.57
389.846	520.93
390.225	514.38
390.605	515.06
390.984	520.03
391.363	509.41
391.743	553.25
392.122	549.86
392.501	529.75
392.881	546.47
393.26	563.19
393.639	559.8
394.018	543.76
394.397	554.6
394.776	581.5
395.155	565.23
395.534	578.56
395.913	582.17
396.292	575.62
396.671	595.96
397.05	610.42
397.429	594.38
397.808	602.96
398.186	627.6
398.565	631.89
398.944	612.91
399.323	635.51
399.701	648.61
400.08	650.65
400.458	657.2
400.837	671.66
401.215	680.7
401.594	664.66
401.972	688.16
402.351	677.09
402.729	649.52
403.107	702.4
403.486	686.8
403.864	698.33
404.242	699.46
404.62	725.45
404.999	732.9
405.377	722.51
405.755	735.16
406.133	726.58
406.511	725
406.889	751.66
407.267	769.29
407.645	774.03
408.023	782.39
408.401	802.51
408.779	795.05
409.156	799.12
409.534	813.35
409.912	817.87
410.29	826.46
410.667	855.16
411.045	866.69
411.422	888.83
411.8	910.53
412.178	903.52
412.555	913.24
412.933	918.66
413.31	923.63
413.687	938.32
414.065	948.94
414.442	944.2
414.819	965.67
415.197	986.01
415.574	1016.29
415.951	1013.58
416.328	1009.73
416.705	1009.51
417.082	1013.12
417.46	1029.62
417.837	1066.68
418.214	1098.54
418.591	1050.64
418.967	1055.61
419.344	1077.08
419.721	1069.39
420.098	1089.96
420.475	1101.26
420.852	1137.64
421.228	1148.49
421.605	1176.28
421.982	1156.85
422.358	1148.94
422.735	1193.46
423.111	1206.56
423.488	1200.01
423.864	1236.39
424.241	1242.04
424.617	1240.91
424.994	1264.64
425.37	1288.14
425.746	1266.9
426.123	1309.61
426.499	1311.65
426.875	1297.41
427.251	1357.52
427.627	1384.64
428.003	1397.75
428.379	1384.41
428.756	1405.43
429.132	1459.44
429.507	1427.12
429.883	1495.14
430.259	1486.33
430.635	1495.6
431.011	1510.51
431.387	1577.4
431.763	1603.16
432.138	1581.02
432.514	1596.16
432.89	1617.85
433.265	1684.74
433.641	1681.35
434.016	1725.42
434.392	1732.65
434.767	1749.6
435.143	1760.22
435.518	1759.09
435.894	1799.09
436.269	1816.49
436.644	1865.98
437.02	1845.87
437.395	1879.99
437.77	1896.26
438.145	1920.22
438.52	1936.04
438.895	1991.63
439.271	1985.53
439.646	2025.98
440.021	2015.81
440.395	2047.45
440.77	2014.23
441.145	2041.8
441.52	2085.19
441.895	2115.92
442.27	2112.98
442.645	2126.09
443.019	2173.54
443.394	2188.01
443.769	2144.84
444.143	2182.36
444.518	2209.93
444.892	2244.28
445.267	2258.29
445.641	2298.51
446.016	2286.54
446.39	2353.2
446.764	2346.65
447.139	2324.95
447.513	2367.66
447.887	2403.59
448.262	2400.21
448.636	2394.56
449.01	2465.06
449.384	2481.56
449.758	2516.36
450.132	2518.85
450.506	2545.74
450.88	2558.85
451.254	2546.19
451.628	2623.25
452.002	2604.49
452.376	2658.73
452.75	2672.74
453.123	2696.47
453.497	2740.76
453.871	2791.38
454.244	2820.08
454.618	2823.02
454.992	2866.63
455.365	2865.96
455.739	2979.4
456.112	3059.4
456.486	3023.47
456.859	3021.66
457.232	3105.95
457.606	3102.79
457.979	3108.89
458.352	3203.57
458.725	3260.52
459.099	3251.48
459.472	3318.15
459.845	3342.55
460.218	3410.57
460.591	3383
460.964	3383.68
461.337	3501.65
461.71	3549.55
462.083	3610.12
462.456	3619.16
462.829	3659.16
463.201	3695.09
463.574	3664.35
463.947	3715.2
464.32	3854.63
464.692	3842.43
465.065	3911.13
465.438	4004.46
465.81	4027.73
466.183	4041.07
466.555	4167.62
466.928	4187.05
467.3	4158.8
467.672	4235.64
468.045	4346.82
468.417	4343.43
468.789	4391.57
469.161	4474.95
469.534	4518.12
469.906	4566.93
470.278	4649.86
470.65	4654.84
471.022	4800.14
471.394	4847.37
471.766	4919.69
472.138	4978.89
472.51	5133.47
472.882	5134.37
473.253	5239.45
473.625	5319.45
473.997	5399.22
474.369	5456.85
474.74	5487.81
475.112	5654.81
475.484	5749.72
475.855	5803.51
476.227	5868.59
476.598	5978.87
476.97	6064.97
477.341	6164.17
477.713	6213.89
478.084	6375.02
478.455	6552.19
478.827	6599.87
479.198	6722.13
479.569	6760.09
479.94	6922.35
480.311	7010.71
480.682	7150.59
481.053	7353.97
481.424	7463.57
481.795	7487.08
482.166	7633.74
482.537	7787.41
482.908	7946.73
483.279	7992.37
483.65	8129.55
484.021	8364.79
484.391	8454.96
484.762	8534.51
485.133	8608.4
485.503	8708.51
485.874	8867.61
486.244	8970.2
486.615	9148.95
486.985	9265.34
487.356	9452
487.726	9480.47
488.097	9707.58
488.467	9769.95
488.837	9979.89
489.207	10078.42
489.578	10190.06
489.948	10377.85
490.318	10430.05
490.688	10472.31
491.058	10734.22
491.428	10840.21
491.798	10933.54
492.168	11161.78
492.538	11133.08
492.908	11339.86
493.278	11450.14
493.648	11477.25
494.017	11684.71
494.387	11798.83
494.757	11886.51
495.126	12102.77
495.496	12111.36
495.866	12192.04
496.235	12351.13
496.605	12457.34
496.974	12518.58
497.344	12672.48
497.713	12730.78
498.082	12861.85
498.452	13011.68
498.821	13019.59
499.19	13110.88
499.559	13308.39
499.928	13428.16
500.298	13471.33
500.667	13572.11
501.036	13596.52
501.405	13749.74
501.774	13724.65
502.143	13899.79
502.512	13975.49
502.88	14163.96
503.249	14207.58
503.618	14283.73
503.987	14341.81
504.356	14402.6
504.724	14529.6
505.093	14580.68
505.462	14692.09
505.83	14838.07
506.199	14950.38
506.567	15136.14
506.936	15146.76
507.304	15408.9
507.672	15400.54
508.041	15556.7
508.409	15698.84
508.777	15793.3
509.145	15914.43
509.514	15891.15
509.882	16044.59
510.25	16139.28
510.618	16252.5
510.986	16427.18
511.354	16532.04
511.722	16756.21
512.09	16845.48
512.458	16899.71
512.826	17088.86
513.193	17088.63
513.561	17268.97
513.929	17439.81
514.297	17548.96
514.664	17594.83
515.032	17844.09
515.4	17977.2
515.767	18015.84
516.135	18094.48
516.502	18147.59
516.869	18484.98
517.237	18473.91
517.604	18483.4
517.972	18751.64
518.339	18886.1
518.706	18784.41
519.073	19009.49
519.44	19148.01
519.808	19376.03
520.175	19396.82
520.542	19671.62
520.909	19728.79
521.276	19919.97
521.643	20148.21
522.009	20246.52
522.376	20365.38
522.743	20450.58
523.11	20762.66
523.477	20970.11
523.843	21208.75
524.21	21329.65
524.577	21383.89
524.943	21639.7
525.31	21695.97
525.676	21985
526.043	22144.54
526.409	22210.08
526.776	22366.91
527.142	22413.24
527.508	22644.19
527.874	22771.42
528.241	22977.97
528.607	23104.29
528.973	23398.52
529.339	23325.76
529.705	23539.99
530.071	23930.49
530.437	23883.48
530.803	24096.13
531.169	24289.12
531.535	24285.96
531.901	24340.87
532.267	24482.34
532.632	24696.57
532.998	24776.57
533.364	24956
533.73	25037.58
534.095	25123.45
534.461	25350.11
534.826	25612.48
535.192	25443.67
535.557	25694.96
535.923	25747.61
536.288	25849.08
536.653	26038.68
537.019	25914.16
537.384	26061.96
537.749	26296.3
538.114	26271.89
538.479	26401.61
538.845	26461.04
539.21	26534.26
539.575	26566.8
539.94	26757.53
540.305	26915.27
540.67	27035.94
541.034	27175.82
541.399	27188.48
541.764	27232.09
542.129	27581.92
542.494	27494.91
542.858	27663.95
543.223	27725.19
543.587	27837.05
543.952	27790.95
544.316	27855.13
544.681	27897.84
545.045	28023.49
545.41	28264.16
545.774	28274.55
546.138	28350.26
546.503	28600.65
546.867	28496.69
547.231	28748.44
547.595	28824.82
547.959	28954.76
548.324	29010.35
548.688	29108.43
549.052	29183.68
549.416	29319.27
549.779	29318.59
550.143	29448.53
550.507	29671.58
550.871	29709.32
551.235	29625.03
551.599	29940.95
551.962	29958.58
552.326	30072.25
552.689	30221.85
553.053	30134.62
553.417	30336.42
553.78	30590.65
554.143	30562.4
554.507	30783.64
554.87	30781.83
555.234	31124.2
555.597	31022.05
555.96	31192.22
556.323	31376.62
556.686	31294.36
557.05	31556.5
557.413	31749.49
557.776	31715.37
558.139	31977.05
558.502	32080.33
558.865	32233.55
559.228	32490.71
559.59	32562.35
559.953	32619.98
560.316	32957.14
560.679	33003.69
561.041	33189.45
561.404	33281.65
561.767	33540.86
562.129	33554.19
562.492	33935.2
562.854	33882.54
563.217	34126.6
563.579	34229.42
563.941	34421.28
564.304	34481.17
564.666	34636.65
565.028	34612.47
565.39	34834.83
565.753	34890.2
566.115	35186.69
566.477	35252
566.839	35497.64
567.201	35642.27
567.563	35662.16
567.925	36000
568.287	35885.2
568.648	36047.23
569.01	36133.33
569.372	36479.54
569.734	36343.72
570.095	36621.9
570.457	36713.65
570.819	36846.08
571.18	36811.5
571.542	37199.06
571.903	37039.97
572.265	37301.43
572.626	37469.79
572.987	37469.34
573.349	37602.9
573.71	37619.39
574.071	37813.06
574.432	37928.08
574.794	38327.17
575.155	38196.1
575.516	38043.11
575.877	38255.08
576.238	38411.46
576.599	38466.83
576.96	38428.86
577.32	38503.44
577.681	38601.97
578.042	38834.73
578.403	38770.1
578.763	38867.04
579.124	38962.41
579.485	39003.31
579.845	39033.59
580.206	38983.88
580.566	39012.35
580.927	39219.35
581.287	39144.32
581.648	39162.4
582.008	39468.16
582.368	39286.92
582.728	39269.97
583.089	39308.61
583.449	39280.14
583.809	39369.63
584.169	39523.3
584.529	39387.26
584.889	39756.96
585.249	39257.09
585.609	39461.6
585.969	39677.64
586.329	39561.49
586.688	39549.96
587.048	39627.7
587.408	39487.82
587.768	39529.17
588.127	39628.6
588.487	39458.44
588.846	39725.1
589.206	39614.82
589.565	39507.25
589.925	39694.59
590.284	39569.4
590.643	39638.77
591.003	39698.89
591.362	39918.54
591.721	39779.11
592.08	39807.36
592.44	39890.52
592.799	39809.62
593.158	39773.91
593.517	39753.35
593.876	39913.34
594.235	39810.3
594.593	39774.14
594.952	39919.67
595.311	39733.23
595.67	39821.37
596.029	40014.36
596.387	39936.62
596.746	40053.9
597.104	39818.88
597.463	39853.91
597.822	40063.4
598.18	39868.15
598.538	39930.29
598.897	40113.11
599.255	39965.77
599.613	40358.53
599.972	40089.84
600.33	40278.31
600.688	40202.15
601.046	40309.94
601.404	40423.16
601.762	40250.51
602.12	40674.45
602.478	40618.64
602.836	40562.59
603.194	40261.81
603.552	40390.17
603.91	40333.67
604.268	40534.57
604.625	40308.36
604.983	40452.09
605.341	40368.25
605.698	40589.26
606.056	40755.58
606.413	40601.01
606.771	40709.03
607.128	40764.62
607.485	40656.83
607.843	40765.3
608.2	41064.05
608.557	41233.31
608.914	41052.07
609.272	41332.97
609.629	41184.95
609.986	41389.01
610.343	41250.71
610.7	41440.53
611.057	41226.53
611.414	41296.81
611.771	41401.67
612.127	41603.24
612.484	41545.62
612.841	41592.17
613.198	41459.74
613.554	41520.98
613.911	41723.47
614.267	41719.17
614.624	41593.98
614.98	41682.56
615.337	41811.6
615.693	41797.14
616.05	41888.43
616.406	42086.39
616.762	41937.24
617.118	42034.64
617.475	41977.24
617.831	42053.85
618.187	42113.74
618.543	42054.3
618.899	42301.53
619.255	42284.13
619.611	42074.87
619.967	42344.01
620.323	42361.19
620.678	42200.29
621.034	42184.92
621.39	42220.18
621.746	42057.02
622.101	42690.45
622.457	42032.61
622.812	42226.05
623.168	42352.15
623.523	42251.81
623.879	42350.79
624.234	42216.79
624.589	42340.62
624.945	42412.71
625.3	42536.1
625.655	42370.91
626.01	42440.51
626.365	42488.64
626.72	42330.23
627.075	42265.15
627.43	42264.47
627.785	42249.78
628.14	42332.26
628.495	42341.3
628.85	42233.51
629.205	42035.1
629.559	42372.71
629.914	42113.96
630.269	42173.4
630.623	42147.63
630.978	42080.97
631.332	42108.77
631.687	42147.18
632.041	41973.85
632.396	42174.98
632.75	42096.56
633.104	41920.07
633.459	41779.73
633.813	41920.97
634.167	41779.28
634.521	41696.57
634.875	41776.57
635.229	41813.63
635.583	41661.32
635.937	41654.31
636.291	41389.24
636.645	41527.09
636.999	41448.67
637.352	41550.36
637.706	41321.67
638.06	41416.35
638.413	41409.12
638.767	41228.79
639.121	41292.06
639.474	41071.05
639.828	41026.76
640.181	40976.82
640.534	41001.9
640.888	40892.07
641.241	40672.19
641.594	40793.32
641.947	40894.11
642.301	40889.81
642.654	40786.54
643.007	40825.18
643.36	40654.79
643.713	40570.95
644.066	40768.69
644.419	40400.79
644.771	40236.72
645.124	39768.26
645.477	39751.09
645.83	39478.1
646.182	39328.95
646.535	39365.56
646.888	39103.19
647.24	39037.66
647.593	39142.06
647.945	39032.91
648.298	38942.3
648.65	38839.7
649.002	38793.6
649.355	38760.38
649.707	38796.08
650.059	38870.66
650.411	39365.79
650.763	39427.48
651.115	39904.98
651.467	39739.11
651.819	39754.48
652.171	39570.98
652.523	39619.11
652.875	39534.14
653.227	39366.92
653.578	39616.4
653.93	39427.25
654.282	39172.8
654.633	38975.97
654.985	39189.29
655.337	39349.29
655.688	39138.67
656.039	39269.07
656.391	38905.23
656.742	39069.52
657.094	39083.08
657.445	39178.9
657.796	39047.38
658.147	38929.41
658.498	38869.98
658.849	39032.91
659.2	38878.57
659.551	38809.19
659.902	39063.87
660.253	38990.88
660.604	38913.6
660.955	38876.08
661.306	38860.94
661.656	38870.21
662.007	38928.51
662.358	38906.59
662.708	38812.81
663.059	38906.36
663.409	38655.75
663.76	38716.54
664.11	38727.84
664.461	38797.21
664.811	38747.72
665.161	38654.17
665.511	38578.46
665.862	38516.09
666.212	38656.43
666.562	38545.92
666.912	38578.24
667.262	38491.91
667.612	38524.91
667.962	38528.52
668.312	38573.04
668.662	38622.98
669.011	38420.5
669.361	38434.74
669.711	38410.33
670.06	38448.3
670.41	38311.35
670.76	38336.21
671.109	38639.03
671.459	38445.59
671.808	38204.24
672.157	38399.03
672.507	38205.59
672.856	38164.91
673.205	38413.04
673.554	38459.82
673.904	38347.51
674.253	38419.82
674.602	38142.54
674.951	37664.14
675.3	37336.69
675.649	38082.2
675.998	38052.15
676.346	38136.44
676.695	38227.29
677.044	37935.77
677.393	38031.36
677.741	38006.95
678.09	37876.56
678.438	37825.94
678.787	37812.83
679.135	37676.34
679.484	37525.84
679.832	37679.96
680.181	37393.86
680.529	37648.32
680.877	37442.22
681.225	37371.94
681.573	37783
681.922	37383.01
682.27	37396.12
682.618	37407.42
682.966	37271.6
683.314	37361.09
683.661	37136.92
684.009	37061.89
684.357	36908.45
684.705	36886.53
685.053	36837.72
685.4	36761.79
685.748	36602.47
686.095	36557.95
686.443	36515.47
686.79	36418.07
687.138	36484.05
687.485	36419.88
687.832	36339.88
688.18	36210.62
688.527	35996.38
688.874	36007.01
689.221	36047.91
689.568	35919.55
689.915	35712.32
690.262	35790.29
690.609	35767.46
690.956	35608.37
691.303	35473.23
691.65	35346.46
691.997	35374.25
692.344	35131.77
692.69	35051.78
693.037	35200.25
693.383	34896.07
693.73	34955.96
694.077	34776.98
694.423	34744.44
694.769	34639.36
695.116	34580.15
695.462	34567.72
695.808	34341.29
696.155	34483.66
696.501	34111.01
696.847	34129.31
697.193	33985.59
697.539	34063.33
697.885	33869.43
698.231	33681.19
698.577	33834.63
698.923	33797.35
699.269	33605.26
699.614	33463.57
699.96	33339.96
700.306	33391.25
700.651	33259.28
700.997	33008.67
701.342	33099.74
701.688	33065.61
702.033	32831.5
702.379	32950.36
702.724	32713.53
703.069	32852.96
703.415	32549.47
703.76	32521.45
704.105	32594.67
704.45	32542.46
704.795	32282.13
705.14	32301.34
705.485	32203.49
705.83	31990.84
706.175	32150.16
706.52	31895.93
706.865	31685.54
707.209	31676.95
707.554	31490.74
707.899	31650.96
708.243	31411.19
708.588	31469.05
708.932	31165.32
709.277	31175.49
709.621	31285.1
709.966	31053.46
710.31	30956.97
710.654	30854.15
710.998	30971.88
711.342	30943.86
711.687	30827.93
712.031	30718.1
712.375	30634.49
712.719	30669.52
713.063	30543.42
713.407	30617.77
713.75	30611.89
714.094	30409.86
714.438	30310.88
714.782	30280.83
715.125	30136.88
715.469	30354.72
715.812	30066.6
716.156	29886.26
716.499	29876.54
716.843	29967.84
717.186	29816.66
717.53	29820.05
717.873	29853.95
718.216	29693.05
718.559	29526.72
718.902	29399.04
719.246	29515.2
719.589	29395.2
719.932	29188.65
720.275	29230.23
720.617	29240.18
720.96	29240.86
721.303	29150.24
721.646	29105.94
721.989	28999.96
722.331	28962.22
722.674	28893.75
723.016	28799.29
723.359	28854.88
723.701	28911.6
724.044	28736.91
724.386	28629.57
724.729	28747.76
725.071	28533.08
725.413	28595.9
725.755	28474.55
726.097	28452.63
726.439	28232.75
726.782	28331.73
727.124	28428.22
727.465	28237.72
727.807	28145.97
728.149	28153.88
728.491	28039.31
728.833	28119.08
729.175	28000.66
729.516	27896.71
729.858	27825.3
730.199	27825.98
730.541	27771.97
730.882	27810.16
731.224	27731.06
731.565	27618.3
731.906	27583.72
732.248	27619.88
732.589	27484.52
732.93	27396.16
733.271	27439.09
733.612	27461.92
733.953	27439.09
734.294	27311.87
734.635	27212.89
734.976	27338.98
735.317	27219.21
735.658	27088.14
735.999	27122.49
736.339	27017.41
736.68	27099.89
737.021	26867.36
737.361	26849.05
737.702	26978.99
738.042	26925.89
738.383	26762.05
738.723	26777.64
739.063	26651.09
739.404	26750.98
739.744	26576.97
740.084	26588.72
740.424	26731.09
740.764	26536.29
741.104	26532.23
741.444	26391.21
741.784	26216.53
742.124	26439.57
742.464	26398.22
742.804	26327.49
743.143	26256.53
743.483	26360.03
743.823	26090.88
744.162	26119.58
744.502	26204.33
744.841	26021.28
745.181	26095.4
745.52	25910.55
745.86	25995.52
746.199	25858.57
746.538	25854.73
746.877	25905.58
747.216	25805.01
747.556	25668.97
747.895	25732.7
748.234	25668.07
748.573	25574.51
748.911	25535.64
749.25	25609.09
749.589	25488.19
749.928	25429.2
750.267	25446.83
750.605	25425.81
750.944	25355.99
751.283	25185.14
751.621	25197.57
751.96	25079.38
752.298	25115.31
752.636	25018.82
752.975	24876.68
753.313	24929.1
753.651	25084.58
