Data from foam1_polythene_foam_FLMS001491_00096.txt Node
Date: Wed Feb 08 10:55:40 GMT 2017
User: dcchb
Spectrometer: FLMS00149
Trigger mode: 0
Integration Time (sec): 2.000000E-2
Scans to average: 10
Electric dark correction enabled: true
Nonlinearity correction enabled: false
Boxcar width: 0
XAxis mode: Wavelengths
Number of Pixels in Spectrum: 2048
>>>>>Begin Spectral Data<<<<<
341.393	-12.51
341.776	-12.51
342.16	-12.51
342.543	-65.85
342.927	-56.58
343.31	-95
343.693	-52.74
344.077	-63.59
344.46	-66.98
344.843	-49.35
345.226	-30.59
345.61	-27.2
345.993	-29.46
346.376	-18.84
346.759	10.76
347.142	25
347.525	62.74
347.908	53.25
348.291	81.95
348.674	97.54
349.057	102.51
349.44	131.66
349.823	152
350.206	167.59
350.588	182.96
350.971	182.96
351.354	214.6
351.737	220.93
352.119	231.77
352.502	242.85
352.884	241.26
353.267	269.96
353.65	262.96
354.032	259.34
354.414	286.91
354.797	299.57
355.179	293.69
355.562	299.34
355.944	303.86
356.326	323.07
356.709	323.97
357.091	323.97
357.473	340.25
357.855	312.22
358.238	310.64
358.62	331.21
359.002	327.82
359.384	335.5
359.766	321.71
360.148	315.84
360.53	322.62
360.912	299.79
361.294	323.97
361.676	328.72
362.057	291.66
362.439	333.01
362.821	299.34
363.203	303.18
363.584	311.32
363.966	309.74
364.348	311.09
364.729	298.21
365.111	302.96
365.493	317.87
365.874	316.74
366.256	310.87
366.637	297.99
367.019	295.95
367.4	313.35
367.781	301.38
368.163	300.02
368.544	287.14
368.925	302.96
369.306	321.04
369.688	303.18
370.069	296.18
370.45	296.4
370.831	296.4
371.212	285.56
371.593	301.15
371.974	301.38
372.355	290.98
372.736	288.5
373.117	295.5
373.498	304.09
373.879	294.14
374.26	303.18
374.641	312.9
375.021	283.3
375.402	307.25
375.783	296.63
376.163	319.23
376.544	327.14
376.925	313.58
377.305	313.35
377.686	294.37
378.066	315.61
378.447	338.89
378.827	332.79
379.208	321.71
379.588	322.39
379.968	330.53
380.349	330.3
380.729	316.74
381.109	318.1
381.489	319.45
381.87	326.23
382.25	303.86
382.63	333.47
383.01	320.13
383.39	314.48
383.77	330.3
384.15	315.39
384.53	323.3
384.91	327.59
385.29	325.56
385.67	323.97
386.049	341.38
386.429	325.56
386.809	356.74
387.189	355.61
387.568	355.39
387.948	299.79
388.328	343.86
388.707	345.67
389.087	346.8
389.466	347.25
389.846	347.48
390.225	365.1
390.605	359
390.984	355.16
391.363	350.41
391.743	372.56
392.122	376.85
392.501	352.22
392.881	372.11
393.26	368.27
393.639	348.61
394.018	356.74
394.397	373.92
394.776	353.35
395.155	374.82
395.534	363.97
395.913	378.66
396.292	388.15
396.671	371.88
397.05	357.65
397.429	374.14
397.808	371.2
398.186	358.78
398.565	391.09
398.944	373.24
399.323	384.99
399.701	402.39
400.08	391.32
400.458	379.57
400.837	391.32
401.215	382.73
401.594	398.55
401.972	417.98
402.351	390.87
402.729	398.32
403.107	413.24
403.486	406.68
403.864	404.88
404.242	401.71
404.62	417.31
404.999	406.46
405.377	404.2
405.755	420.7
406.133	418.21
406.511	438.55
406.889	429.96
407.267	434.93
407.645	440.58
408.023	444.65
408.401	414.82
408.779	434.71
409.156	432.22
409.534	441.49
409.912	448.72
410.29	425.67
410.667	451.88
411.045	441.26
411.422	460.69
411.8	456.4
412.178	455.72
412.555	466.57
412.933	470.64
413.31	464.76
413.687	471.09
414.065	486
414.442	490.3
414.819	489.85
415.197	490.52
415.574	483.07
415.951	505.44
416.328	507.7
416.705	475.61
417.082	481.71
417.46	488.72
417.837	497.08
418.214	491.2
418.591	486.91
418.967	508.38
419.344	515.83
419.721	523.97
420.098	525.55
420.475	529.17
420.852	527.81
421.228	531.2
421.605	521.94
421.982	532.33
422.358	553.12
422.735	547.92
423.111	556.96
423.488	555.83
423.864	566.68
424.241	565.55
424.617	566.68
424.994	561.93
425.37	561.48
425.746	581.59
426.123	584.08
426.499	595.15
426.875	596.96
427.251	614.59
427.627	584.53
428.003	588.37
428.379	619.56
428.756	625.66
429.132	607.13
429.507	612.55
429.883	601.48
430.259	626.79
430.635	631.99
431.011	630.18
431.387	645.1
431.763	648.49
432.138	674.02
432.514	660.69
432.89	665.21
433.265	680.35
433.641	684.19
434.016	683.29
434.392	708.6
434.767	711.99
435.143	714.92
435.518	693.91
435.894	748.6
436.269	741.14
436.644	742.49
437.02	744.3
437.395	736.85
437.77	748.6
438.145	757.64
438.52	751.31
438.895	773.68
439.271	764.41
439.646	783.4
440.021	799.67
440.395	779.56
440.77	812.78
441.145	799.44
441.52	808.93
441.895	823.85
442.27	818.88
442.645	810.52
443.019	826.33
443.394	821.59
443.769	832.21
444.143	860.01
444.518	867.24
444.892	886.45
445.267	891.42
445.641	894.13
446.016	870.63
446.39	933.45
446.764	914.69
447.139	879.21
447.513	905.2
447.887	923.28
448.262	941.13
448.636	943.39
449.01	933.22
449.384	945.65
449.758	977.97
450.132	977.29
450.506	954.47
450.88	972.32
451.254	969.61
451.628	991.98
452.002	1006.44
452.376	1017.52
452.75	1016.39
453.123	1048.48
453.497	1058.19
453.871	1033.79
454.244	1064.75
454.618	1043.96
454.992	1071.3
455.365	1068.36
455.739	1088.93
456.112	1095.93
456.486	1093.67
456.859	1110.17
457.232	1109.94
457.606	1106.78
457.979	1118.76
458.352	1144.07
458.725	1171.64
459.099	1162.14
459.472	1173.22
459.845	1168.7
460.218	1196.04
460.591	1204.86
460.964	1170.96
461.337	1207.57
461.71	1220.67
462.083	1240.79
462.456	1242.37
462.829	1245.31
463.201	1244.18
463.574	1256.83
463.947	1254.8
464.32	1295.47
464.692	1306.1
465.065	1302.93
465.438	1318.3
465.81	1344.06
466.183	1358.07
466.555	1348.35
466.928	1383.61
467.3	1373.89
467.672	1389.48
468.045	1430.16
468.417	1426.77
468.789	1395.58
469.161	1448.01
469.534	1470.84
469.906	1504.51
470.278	1502.47
470.65	1478.75
471.022	1507.45
471.394	1521.91
471.766	1574.56
472.138	1576.37
472.51	1579.76
472.882	1644.17
473.253	1671.96
473.625	1671.96
473.997	1692.07
474.369	1703.83
474.74	1715.8
475.112	1739.76
475.484	1745.41
475.855	1800.55
476.227	1800.55
476.598	1855.23
476.97	1865.85
477.341	1872.18
477.713	1911.5
478.084	1926.19
478.455	1991.05
478.827	1996.47
479.198	2038.05
479.569	2051.39
479.94	2091.16
480.311	2091.84
480.682	2128.67
481.053	2157.15
481.424	2189.46
481.795	2247.54
482.166	2262
482.537	2286.18
482.908	2308.1
483.279	2342.68
483.65	2423.35
484.021	2452.51
484.391	2425.39
484.762	2465.39
485.133	2466.52
485.503	2518.49
485.874	2593.52
486.244	2584.93
486.615	2647.08
486.985	2663.35
487.356	2688.43
487.726	2734.53
488.097	2820.86
488.467	2809.78
488.837	2849.56
489.207	2903.79
489.578	2934.08
489.948	2924.13
490.318	2945.37
490.688	2966.62
491.058	3054.3
491.428	3106.05
491.798	3111.02
492.168	3175.2
492.538	3132.04
492.908	3182.66
493.278	3238.25
493.648	3229.66
494.017	3303.56
494.387	3361.18
494.757	3345.59
495.126	3404.8
495.496	3378.81
495.866	3441.41
496.235	3488.86
496.605	3490.67
496.974	3512.82
497.344	3552.59
497.713	3551.91
498.082	3556.43
498.452	3631.46
498.821	3641.4
499.19	3653.6
499.559	3715.3
499.928	3708.07
500.298	3707.61
500.667	3808.4
501.036	3769.99
501.405	3795.75
501.774	3843.88
502.143	3884.33
502.512	3883.65
502.88	3932.69
503.249	3956.42
503.618	3969.98
503.987	3954.61
504.356	3988.96
504.724	4048.4
505.093	4020.15
505.462	4118.68
505.83	4140.15
506.199	4142.86
506.567	4182.63
506.936	4201.39
507.304	4242.97
507.672	4231.44
508.041	4272.57
508.409	4373.36
508.777	4366.81
509.145	4420.59
509.514	4367.26
509.882	4428.95
510.25	4445.45
510.618	4514.37
510.986	4504.43
511.354	4527.48
511.722	4576.52
512.09	4642.28
512.458	4603.64
512.826	4710.07
513.193	4704.42
513.561	4740.58
513.929	4762.28
514.297	4840.24
514.664	4835.72
515.032	4870.97
515.4	4873.23
515.767	4971.99
516.135	5035.04
516.502	4951.42
516.869	5036.84
517.237	5035.49
517.604	5038.2
517.972	5112.78
518.339	5131.98
518.706	5168.37
519.073	5155.03
519.44	5270.06
519.808	5282.71
520.175	5343.05
520.542	5367.68
520.909	5395.71
521.276	5459.43
521.643	5461.47
522.009	5528.13
522.376	5590.95
522.743	5589.6
523.11	5673.66
523.477	5703.72
523.843	5737.84
524.21	5761.57
524.577	5827.56
524.943	5886.54
525.31	5884.96
525.676	5935.58
526.043	6019.64
526.409	6010.38
526.776	6096.93
527.142	6140.54
527.508	6178.96
527.874	6240.2
528.241	6204.5
528.607	6224.84
528.973	6316.13
529.339	6313.2
529.705	6374.66
530.071	6433.64
530.437	6455.79
530.803	6461.89
531.169	6502.34
531.535	6504.83
531.901	6548.9
532.267	6590.7
532.632	6609.46
532.998	6647.88
533.364	6716.57
533.73	6791.6
534.095	6795.89
534.461	6832.5
534.826	6766.29
535.192	6923.8
535.557	6949.79
535.923	6911.37
536.288	6988.88
536.653	6994.76
537.019	7033.85
537.384	7025.49
537.749	7075.66
538.114	7083.57
538.479	7106.85
538.845	7214.64
539.21	7192.95
539.575	7226.17
539.94	7181.87
540.305	7228.88
540.67	7188.65
541.034	7248.54
541.399	7338.71
541.764	7312.72
542.129	7410.12
542.494	7349.55
542.858	7453.28
543.223	7416.22
543.587	7467.06
543.952	7470
544.316	7493.5
544.681	7559.26
545.045	7576.21
545.41	7646.27
545.774	7630.45
546.138	7655.31
546.503	7710.45
546.867	7682.2
547.231	7732.14
547.595	7861.4
547.959	7848.07
548.324	7828.64
548.688	7835.64
549.052	7937.56
549.416	7888.52
549.779	7892.82
550.143	7853.49
550.507	8012.36
550.871	8070.21
551.235	8055.07
551.599	8118.57
551.962	8119.48
552.326	8094.62
552.689	8175.07
553.053	8185.01
553.417	8223.88
553.78	8318.11
554.143	8330.09
554.507	8387.04
554.87	8349.3
555.234	8466.13
555.597	8317.89
555.96	8410.54
556.323	8458.22
556.686	8475.62
557.05	8585.45
557.413	8632.68
557.776	8641.27
558.139	8676.75
558.502	8725.11
558.865	8738.44
559.228	8764.43
559.59	8805.56
559.953	8798.78
560.316	8962.62
560.679	8971.43
561.041	8973.24
561.404	9066.8
561.767	9012.33
562.129	8970.98
562.492	9092.11
562.854	9106.57
563.217	9167.58
563.579	9208.26
563.941	9326.45
564.304	9264.08
564.666	9327.58
565.028	9334.36
565.39	9367.8
565.753	9407.35
566.115	9421.59
566.477	9519.89
566.839	9621.36
567.201	9680.56
567.563	9639.89
567.925	9661.36
568.287	9746.33
568.648	9693.67
569.01	9708.13
569.372	9849.83
569.734	9827.23
570.095	9966.21
570.457	9910.62
570.819	9953.33
571.18	9922.82
571.542	10019.09
571.903	9963.27
572.265	10066.32
572.626	10062.48
572.987	10121.01
573.349	10158.52
573.71	10173.89
574.071	10208.46
574.432	10255.24
574.794	10296.37
575.155	10261.34
575.516	10241.23
575.877	10341.56
576.238	10337.95
576.599	10466.08
576.96	10447.78
577.32	10359.87
577.681	10469.02
578.042	10517.15
578.403	10487.1
578.763	10496.36
579.124	10470.15
579.485	10524.84
579.845	10565.06
580.206	10509.7
580.566	10521.22
580.927	10597.6
581.287	10637.38
581.648	10565.29
582.008	10612.29
582.368	10575
582.728	10633.76
583.089	10758.5
583.449	10602.57
583.809	10640.99
584.169	10750.14
584.529	10736.13
584.889	10760.76
585.249	10619.07
585.609	10551.28
585.969	10645.74
586.329	10691.84
586.688	10735.23
587.048	10681.67
587.408	10692.29
587.768	10668.56
588.127	10690.48
588.487	10644.61
588.846	10693.42
589.206	10606.42
589.565	10599.18
589.925	10663.36
590.284	10719.63
590.643	10776.81
591.003	10826.52
591.362	10788.78
591.721	10696.13
592.08	10678.28
592.44	10697.71
592.799	10792.85
593.158	10736.81
593.517	10739.97
593.876	10726.19
594.235	10802.8
594.593	10722.8
594.952	10825.17
595.311	10662.69
595.67	10803.02
596.029	10855
596.387	10820.2
596.746	10857.03
597.104	10768.45
597.463	10772.74
597.822	10864.04
598.18	10791.72
598.538	10693.42
598.897	10860.65
599.255	10790.59
599.613	10904.26
599.972	10764.83
600.33	10902.45
600.688	10776.13
601.046	10879.4
601.404	10957.59
601.762	10950.36
602.12	10927.09
602.478	11001.21
602.836	10926.63
603.194	10843.92
603.552	10957.59
603.91	10848.9
604.268	10920.53
604.625	10893.87
604.983	10964.37
605.341	10942.45
605.698	10991.49
606.056	11034.43
606.413	10978.84
606.771	11048.89
607.128	10930.93
607.485	10885.73
607.843	11003.02
608.2	11048.89
608.557	11137.02
608.914	11077.36
609.272	11096.57
609.629	11112.62
609.986	11152.84
610.343	11134.31
610.7	11153.75
611.057	11055.44
611.414	11169.57
611.771	11188.77
612.127	11198.04
612.484	11178.38
612.841	11226.96
613.198	11132.05
613.554	11182.45
613.911	11291.82
614.267	11335.44
614.624	11257.47
614.98	11245.72
615.337	11278.71
615.693	11196.68
616.05	11267.87
616.406	11305.38
616.762	11307.87
617.118	11285.27
617.475	11225.38
617.831	11378.15
618.187	11390.12
618.543	11374.53
618.899	11343.57
619.255	11348.77
619.611	11385.6
619.967	11354.87
620.323	11407.75
620.678	11378.37
621.034	11396.23
621.39	11416.56
621.746	11400.07
622.101	11494.3
622.457	11255.66
622.812	11356
623.168	11383.34
623.523	11358.49
623.879	11368.66
624.234	11346.06
624.589	11370.01
624.945	11426.73
625.3	11374.08
625.655	11358.49
626.01	11356.9
626.365	11422.44
626.72	11314.65
627.075	11336.79
627.43	11357.13
627.785	11308.09
628.14	11362.55
628.495	11386.73
628.85	11372.95
629.205	11280.75
629.559	11398.03
629.914	11290.92
630.269	11330.69
630.623	11284.82
630.978	11198.49
631.332	11230.58
631.687	11238.49
632.041	11246.4
632.396	11282.56
632.75	11157.81
633.104	11229.9
633.459	11148.32
633.813	11145.61
634.167	11146.74
634.521	11077.14
634.875	11213.86
635.229	11150.13
635.583	11036.69
635.937	11100.64
636.291	11075.1
636.645	11066.97
636.999	11070.36
637.352	11122.33
637.706	10961.21
638.06	11026.29
638.413	10977.03
638.767	10934.99
639.121	11071.04
639.474	10952.62
639.828	10868.78
640.181	10943.36
640.534	10901.1
640.888	10943.58
641.241	10854.32
641.594	10904.94
641.947	10890.93
642.301	10871.72
642.654	10851.61
643.007	10814.77
643.36	10829.24
643.713	10756.47
644.066	10875.56
644.419	10781.55
644.771	10736.81
645.124	10668.79
645.477	10682.57
645.83	10614.1
646.182	10529.13
646.535	10385.63
646.888	10422.24
647.24	10362.58
647.593	10489.81
647.945	10302.24
648.298	10371.17
648.65	10298.63
649.002	10291.17
649.355	10409.81
649.707	10331.62
650.059	10375.46
650.411	10515.34
650.763	10489.81
651.115	10569.58
651.467	10532.29
651.819	10541.33
652.171	10463.59
652.523	10523.71
652.875	10430.15
653.227	10389.7
653.578	10522.8
653.93	10471.5
654.282	10450.26
654.633	10355.58
654.985	10376.37
655.337	10389.47
655.688	10326.2
656.039	10381.11
656.391	10314.67
656.742	10324.84
657.094	10317.16
657.445	10369.36
657.796	10390.83
658.147	10352.41
658.498	10280.32
658.849	10333.43
659.2	10304.05
659.551	10273.09
659.902	10292.75
660.253	10291.62
660.604	10332.3
660.955	10187.9
661.306	10231.96
661.656	10283.71
662.007	10287.1
662.358	10264.5
662.708	10251.17
663.059	10215.01
663.409	10239.65
663.76	10262.92
664.11	10228.57
664.461	10181.79
664.811	10236.71
665.161	10171.85
665.511	10101.34
665.862	10158.74
666.212	10188.57
666.562	10190.83
666.912	10132.53
667.262	10127.11
667.612	10203.94
667.962	10163.04
668.312	10131.63
668.662	10139.31
669.011	10149.7
669.361	10080.33
669.711	10091.63
670.06	10055.24
670.41	10067.45
670.76	10064.96
671.109	10054.34
671.459	10116.26
671.808	10058.86
672.157	10078.75
672.507	10093.66
672.856	10082.59
673.205	10028.13
673.554	10019.31
673.904	10007.79
674.253	10070.16
674.602	9979.77
674.951	9935.02
675.3	9752.88
675.649	9932.54
675.998	9944.06
676.346	9983.38
676.695	9978.18
677.044	9918.52
677.393	9979.09
677.741	9939.54
678.09	9934.34
678.438	9949.94
678.787	9905.64
679.135	9893.44
679.484	9868.81
679.832	9869.94
680.181	9818.87
680.529	9792.88
680.877	9833.78
681.225	9857.96
681.573	9903.16
681.922	9811.18
682.27	9771.64
682.618	9786.78
682.966	9780.9
683.314	9753.11
683.661	9682.82
684.009	9697.29
684.357	9617.29
684.705	9675.37
685.053	9670.4
685.4	9688.47
685.748	9581.13
686.095	9603.05
686.443	9572.09
686.79	9636.95
687.138	9617.97
687.485	9605.54
687.832	9524.64
688.18	9490.29
688.527	9457.75
688.874	9457.52
689.221	9384.53
689.568	9394.92
689.915	9380.01
690.262	9347.24
690.609	9340.23
690.956	9310.4
691.303	9265.66
691.65	9266.11
691.997	9323.29
692.344	9185.89
692.69	9230.63
693.037	9216.17
693.383	9174.14
693.73	9168.49
694.077	9112.22
694.423	9056.17
694.769	9034.25
695.116	8973.69
695.462	9055.72
695.808	9026.8
696.155	9001.26
696.501	8966.69
696.847	8974.59
697.193	8907.25
697.539	8944.09
697.885	8859.57
698.231	8839.46
698.577	8785.67
698.923	8800.36
699.269	8691.66
699.614	8704.55
699.96	8633.59
700.306	8686.47
700.651	8682.17
700.997	8702.51
701.342	8632.23
701.688	8677.2
702.033	8548.39
702.379	8611.67
702.724	8590.65
703.069	8560.59
703.415	8326.7
703.76	8443.54
704.105	8430.88
704.45	8436.08
704.795	8420.48
705.14	8359.47
705.485	8371.45
705.83	8366.7
706.175	8411.67
706.52	8318.79
706.865	8360.83
707.209	8317.66
707.554	8241.05
707.899	8298.23
708.243	8229.08
708.588	8227.27
708.932	8152.47
709.277	8126.71
709.621	8088.29
709.966	8103.88
710.31	8066.82
710.654	8035.86
710.998	8058.23
711.342	8111.57
711.687	8076.54
712.031	7975.3
712.375	7963.55
712.719	7998.35
713.063	8005.58
713.407	8002.42
713.75	7971.01
714.094	7868.41
714.438	7842.42
714.782	7907.05
715.125	7846.94
715.469	7826.83
715.812	7812.14
716.156	7795.64
716.499	7865.25
716.843	7810.56
717.186	7803.78
717.53	7826.38
717.873	7787.96
718.216	7785.93
718.559	7786.38
718.902	7717.23
719.246	7725.36
719.589	7675.87
719.932	7637
720.275	7585.7
720.617	7630.9
720.96	7594.29
721.303	7626.16
721.646	7604.91
721.989	7599.72
722.331	7597.23
722.674	7574.63
723.016	7549.32
723.359	7593.84
723.701	7518.14
724.044	7477.68
724.386	7488.31
724.729	7451.92
725.071	7518.36
725.413	7495.31
725.755	7446.27
726.097	7411.02
726.439	7411.02
726.782	7437.01
727.124	7384.35
727.465	7348.65
727.807	7372.38
728.149	7360.85
728.491	7302.1
728.833	7303.45
729.175	7275.88
729.516	7340.74
729.858	7278.82
730.199	7285.15
730.541	7306.62
730.882	7246.96
731.224	7206.05
731.565	7247.41
731.906	7246.96
732.248	7219.39
732.589	7197.47
732.93	7157.02
733.271	7155.66
733.612	7161.08
733.953	7201.76
734.294	7186.84
734.635	7129.22
734.976	7116.11
735.317	7113.85
735.658	7051.93
735.999	7071.82
736.339	7085.6
736.68	7075.44
737.021	7055.32
737.361	6998.38
737.702	7152.5
738.042	7034.98
738.383	6981.65
738.723	7007.64
739.063	6956.12
739.404	6978.71
739.744	7031.37
740.084	7028.21
740.424	7052.39
740.764	6937.59
741.104	6976.68
741.444	6926.29
741.784	6881.54
742.124	6945.04
742.464	6893.97
742.804	6817.14
743.143	6864.37
743.483	6894.65
743.823	6801.32
744.162	6818.72
744.502	6842.45
744.841	6757.25
745.181	6808.55
745.52	6772.62
745.86	6857.59
746.199	6781.43
746.538	6752.05
746.877	6766.97
747.216	6739.4
747.556	6731.26
747.895	6690.81
748.234	6683.36
748.573	6730.59
748.911	6676.8
749.25	6650.14
749.589	6653.3
749.928	6705.95
750.267	6583.92
750.605	6598.84
750.944	6672.51
751.283	6569.23
751.621	6606.75
751.96	6557.71
752.298	6547.77
752.636	6583.02
752.975	6547.77
753.313	6527.2
753.651	6539.4
753.989	6501.67
754.327	6445.17
754.666	6446.75
755.004	6437.26
755.342	6459.63
755.679	6421.44
756.017	6367.88
756.355	6454.89
756.693	6380.54
757.031	6370.37
757.368	6355.23
757.706	6413.53
758.044	6332.18
758.381	6334.21
758.719	6311.84
759.056	6344.38
759.394	6288.56
759.731	6167.66
760.068	6247.66
760.405	6227.55
760.743	6169.92
761.08	6174.44
761.417	6082.02
761.754	6068.23
762.091	6139.87
762.428	6085.4
762.765	6088.34
763.102	6136.25
763.438	6075.46
763.775	6040.66
764.112	6100.77
764.449	6056.93
764.785	5990.49
