Data from foam_black_FLMS001491_00058.txt Node
Date: Wed Feb 08 10:44:09 GMT 2017
User: dcchb
Spectrometer: FLMS00149
Trigger mode: 0
Integration Time (sec): 2.000000E-2
Scans to average: 10
Electric dark correction enabled: true
Nonlinearity correction enabled: false
Boxcar width: 0
XAxis mode: Wavelengths
Number of Pixels in Spectrum: 2048
>>>>>Begin Spectral Data<<<<<
341.393	-12.08
341.776	-12.08
342.16	-12.08
342.543	-69.7
342.927	-56.14
343.31	-53.88
343.693	-55.24
344.077	-69.7
344.46	-65.63
344.843	-44.84
345.226	-50.72
345.61	-24.73
345.993	-20.21
346.376	-8.69
346.759	-2.36
347.142	31.54
347.525	36.06
347.908	71.99
348.291	76.74
348.674	78.54
349.057	101.14
349.44	122.84
349.823	131.2
350.206	149.28
350.588	171.2
350.971	161.25
351.354	196.96
351.737	218.2
352.119	211.65
352.502	231.08
352.884	241.48
353.267	250.97
353.65	268.14
354.032	274.24
354.414	289.61
354.797	296.16
355.179	304.98
355.562	317.18
355.944	302.04
356.326	288.26
356.709	303.85
357.091	309.72
357.473	323.51
357.855	322.38
358.238	326.22
358.62	319.44
359.002	309.72
359.384	306.33
359.766	306.79
360.148	302.94
360.53	311.31
360.912	305.43
361.294	312.66
361.676	311.53
362.057	304.3
362.439	314.47
362.821	309.05
363.203	280.35
363.584	302.49
363.966	306.11
364.348	311.53
364.729	290.29
365.111	298.65
365.493	282.15
365.874	284.87
366.256	283.51
366.637	288.71
367.019	299.78
367.4	283.96
367.781	273.11
368.163	295.71
368.544	293.9
368.925	293.45
369.306	274.02
369.688	281.93
370.069	284.19
370.45	284.19
370.831	303.4
371.212	300.91
371.593	290.29
371.974	306.33
372.355	271.08
372.736	288.03
373.117	273.57
373.498	286.9
373.879	288.03
374.26	283.51
374.641	311.76
375.021	293.23
375.402	297.97
375.783	296.62
376.163	305.43
376.544	294.81
376.925	304.3
377.305	306.11
377.686	303.85
378.066	302.72
378.447	319.89
378.827	319.44
379.208	288.71
379.588	300.23
379.968	318.54
380.349	309.05
380.729	328.25
381.109	321.47
381.489	310.4
381.87	302.49
382.25	311.53
382.63	306.56
383.01	330.97
383.39	304.53
383.77	318.31
384.15	311.31
384.53	330.97
384.91	327.35
385.29	342.27
385.67	317.18
386.049	338.65
386.429	321.25
386.809	317.18
387.189	314.47
387.568	333.68
387.948	333
388.328	341.81
388.707	318.76
389.087	341.81
389.466	326.22
389.846	341.36
390.225	320.12
390.605	332.32
390.984	330.74
391.363	309.72
391.743	359.67
392.122	354.47
392.501	344.3
392.881	345.2
393.26	363.51
393.639	343.39
394.018	368.25
394.397	345.43
394.776	339.78
395.155	359.44
395.534	361.47
395.913	357.41
396.292	343.17
396.671	371.42
397.05	363.96
397.429	367.8
397.808	379.1
398.186	368.48
398.565	365.32
398.944	371.42
399.323	371.87
399.701	367.12
400.08	344.3
400.458	375.48
400.837	375.03
401.215	356.28
401.594	377.97
401.972	358.54
402.351	368.48
402.729	382.94
403.107	392.43
403.486	378.2
403.864	379.1
404.242	366.67
404.62	388.82
404.999	383.39
405.377	380
405.755	403.05
406.133	384.75
406.511	404.64
406.889	395.37
407.267	381.13
407.645	369.16
408.023	396.95
408.401	404.64
408.779	400.12
409.156	399.89
409.534	401.25
409.912	426.56
410.29	407.57
410.667	427.23
411.045	424.97
411.422	410.06
411.8	416.16
412.178	405.77
412.555	438.53
412.933	427.01
413.31	431.08
413.687	421.13
414.065	431.53
414.442	430.85
414.819	433.34
415.197	462.94
415.574	447.57
415.951	446.9
416.328	446.44
416.705	462.94
417.082	467.23
417.46	438.76
417.837	469.04
418.214	460
418.591	454.35
418.967	481.7
419.344	464.07
419.721	455.93
420.098	475.82
420.475	456.84
420.852	461.58
421.228	458.87
421.605	467.01
421.982	470.4
422.358	487.8
422.735	467.69
423.111	490.96
423.488	485.31
423.864	476.05
424.241	504.07
424.617	466.33
424.994	504.52
425.37	508.59
425.746	484.63
426.123	473.11
426.499	509.04
426.875	499.32
427.251	524.86
427.627	530.73
428.003	534.12
428.379	509.94
428.756	536.16
429.132	520.57
429.507	536.38
429.883	516.5
430.259	554.91
430.635	537.06
431.011	551.75
431.387	548.59
431.763	556.27
432.138	558.98
432.514	554.69
432.89	559.66
433.265	568.7
433.641	573.67
434.016	581.58
434.392	602.82
434.767	580.45
435.143	577.06
435.518	566.67
435.894	603.5
436.269	604.41
436.644	616.16
437.02	588.59
437.395	606.66
437.77	612.77
438.145	634.01
438.52	619.32
438.895	620
439.271	613.9
439.646	665.87
440.021	662.03
440.395	641.01
440.77	629.94
441.145	643.95
441.52	640.79
441.895	654.12
442.27	644.86
442.645	672.88
443.019	678.53
443.394	670.84
443.769	656.83
444.143	670.39
444.518	684.63
444.892	694.12
445.267	674.46
445.641	695.7
446.016	670.62
446.39	651.64
446.764	698.41
447.139	695.7
447.513	688.24
447.887	697.51
448.262	687.11
448.636	689.37
449.01	680.56
449.384	699.77
449.758	705.42
450.132	725.76
450.506	707
450.88	700.22
451.254	732.76
451.628	725.31
452.002	742.93
452.376	734.57
452.75	726.66
453.123	755.59
453.497	746.77
453.871	761.91
454.244	775.7
454.618	777.73
454.992	793.78
455.365	771.41
455.739	795.13
456.112	801.01
456.486	796.49
456.859	817.05
457.232	830.61
457.606	817.28
457.979	812.99
458.352	849.37
458.725	824.96
459.099	852.31
459.472	868.58
459.845	865.87
460.218	840.11
460.591	876.49
460.964	862.03
461.337	874.68
461.71	889.6
462.083	901.8
462.456	906.54
462.829	933.21
463.201	935.47
463.574	915.58
463.947	898.41
464.32	951.51
464.692	957.62
465.065	963.94
465.438	972.98
465.81	954.23
466.183	984.96
466.555	993.32
466.928	996.26
467.3	993.1
467.672	1017.73
468.045	1014.11
468.417	1024.73
468.789	1022.25
469.161	1062.47
469.534	1090.49
469.906	1070.83
470.278	1092.53
470.65	1077.39
471.022	1097.73
471.394	1121.68
471.766	1127.78
472.138	1143.6
472.51	1162.36
472.882	1173.43
473.253	1168.01
473.625	1189.93
473.997	1203.03
474.369	1213.43
474.74	1216.82
475.112	1252.52
475.484	1261.56
475.855	1256.59
476.227	1278.06
476.598	1323.03
476.97	1323.48
477.341	1323.48
477.713	1379.75
478.084	1362.58
478.455	1360.77
478.827	1379.53
479.198	1418.17
479.569	1429.02
479.94	1437.6
480.311	1481.9
480.682	1500.65
481.053	1504.27
481.424	1536.36
481.795	1536.81
482.166	1582.23
482.537	1588.56
482.908	1626.98
483.279	1632.4
483.65	1655.9
484.021	1684.15
484.391	1684.38
484.762	1714.88
485.133	1725.73
485.503	1725.96
485.874	1781.1
486.244	1807.76
486.615	1814.09
486.985	1844.82
487.356	1847.76
487.726	1858.61
488.097	1888.21
488.467	1906.52
488.837	1932.05
489.207	1947.42
489.578	1973.18
489.948	2002.33
490.318	2020.64
490.688	2017.02
491.058	2055.44
491.428	2073.29
491.798	2075.1
492.168	2144.48
492.538	2124.82
492.908	2142.67
493.278	2187.19
493.648	2142.44
494.017	2208.2
494.387	2204.59
494.757	2243.68
495.126	2259.5
495.496	2284.59
495.866	2298.15
496.235	2331.37
496.605	2296.56
496.974	2343.79
497.344	2327.3
497.713	2392.61
498.082	2331.59
498.452	2386.05
498.821	2411.82
499.19	2428.31
499.559	2414.75
499.928	2442.32
500.298	2464.24
500.667	2457.01
501.036	2483.45
501.405	2510.12
501.774	2491.81
502.143	2551.02
502.512	2549.89
502.88	2575.88
503.249	2563
503.618	2555.99
503.987	2600.51
504.356	2618.36
504.724	2622.21
505.093	2603.45
505.462	2666.72
505.83	2706.27
506.199	2645.03
506.567	2720.51
506.936	2666.05
507.304	2744.01
507.672	2760.05
508.041	2771.81
508.409	2743.78
508.777	2769.09
509.145	2796.89
509.514	2819.26
509.882	2879.15
510.25	2848.64
510.618	2852.03
510.986	2898.58
511.354	2896.1
511.722	2920.5
512.09	2966.6
512.458	2977.9
512.826	2986.94
513.193	2988.3
513.561	3040.05
513.929	3017.45
514.297	3034.62
514.664	3068.52
515.032	3101.06
515.4	3083.89
515.767	3131.12
516.135	3163.43
516.502	3126.15
516.869	3216.31
517.237	3207.5
517.604	3172.93
517.972	3211.12
518.339	3261.74
518.706	3252.24
519.073	3268.29
519.44	3333.37
519.808	3290.21
520.175	3342.64
520.542	3369.08
520.909	3372.69
521.276	3364.11
521.643	3424.44
522.009	3428.06
522.376	3466.48
522.743	3506.93
523.11	3519.58
523.477	3534.05
523.843	3596.19
524.21	3614.95
524.577	3624.66
524.943	3590.77
525.31	3656.75
525.676	3678.45
526.043	3735.4
526.409	3752.8
526.776	3814.04
527.142	3758.9
527.508	3827.6
527.874	3812
528.241	3824.43
528.607	3848.61
528.973	3927.48
529.339	3943.3
529.705	3958.67
530.071	3974.03
530.437	4006.12
530.803	3993.02
531.169	4055.84
531.535	4044.09
531.901	4071.66
532.267	4144.2
532.632	4122.73
532.998	4127.02
533.364	4150.3
533.73	4162.28
534.095	4194.82
534.461	4177.87
534.826	4205.67
535.192	4238.21
535.557	4256.06
535.923	4254.25
536.288	4254.03
536.653	4258.77
537.019	4226.23
537.384	4264.87
537.749	4294.93
538.114	4325.89
538.479	4330.86
538.845	4339.45
539.21	4340.8
539.575	4387.81
539.94	4372.89
540.305	4431.42
540.67	4468.71
541.034	4503.29
541.399	4448.15
541.764	4450.86
542.129	4544.64
542.494	4467.81
542.858	4532.44
543.223	4535.6
543.587	4596.62
543.952	4543.51
544.316	4550.52
544.681	4629.61
545.045	4648.14
545.41	4677.52
545.774	4739.89
546.138	4712.09
546.503	4671.64
546.867	4755.48
547.231	4753.45
547.595	4754.35
547.959	4781.02
548.324	4790.28
548.688	4790.96
549.052	4822.37
549.416	4850.17
549.779	4866.21
550.143	4834.12
550.507	4844.52
550.871	4903.73
551.235	4883.61
551.599	4967.68
551.962	4895.14
552.326	4936.95
552.689	4973.1
553.053	4985.98
553.417	4992.09
553.78	5055.36
554.143	4982.82
554.507	5041.8
554.87	5058.75
555.234	5047.45
555.597	5103.72
555.96	5104.4
556.323	5147.79
556.686	5150.27
557.05	5131.07
557.413	5148.69
557.776	5209.26
558.139	5238.41
558.502	5235.02
558.865	5283.15
559.228	5272.53
559.59	5329.48
559.953	5331.96
560.316	5414.22
560.679	5378.52
561.041	5443.6
561.404	5450.38
561.767	5534.44
562.129	5490.6
562.492	5572.41
562.854	5573.09
563.217	5587.32
563.579	5528.12
563.941	5615.35
564.304	5671.84
564.666	5689.47
565.028	5682.69
565.39	5749.58
565.753	5738.06
566.115	5772.86
566.477	5828.67
566.839	5849.24
567.201	5824.83
567.563	5864.38
567.925	5876.58
568.287	5947.77
568.648	5900.76
569.01	5970.14
569.372	6006.75
569.734	5994.09
570.095	6036.13
570.457	6022.57
570.819	6100.08
571.18	6056.92
571.542	6063.24
571.903	6082.91
572.265	6102.57
572.626	6124.26
572.987	6139.17
573.349	6101.66
573.71	6176.46
574.071	6143.02
574.432	6226.4
574.794	6224.6
575.155	6274.76
575.516	6206.07
575.877	6275.44
576.238	6300.98
576.599	6233.41
576.96	6267.08
577.32	6299.85
577.681	6326.51
578.042	6385.04
578.403	6381.43
578.763	6351.37
579.124	6383.24
579.485	6352.5
579.845	6345.27
580.206	6450.13
580.566	6453.74
580.927	6435.89
581.287	6428.88
581.648	6408.32
582.008	6510.01
582.368	6474.99
582.728	6514.53
583.089	6492.39
583.449	6434.31
583.809	6466.62
584.169	6479.96
584.529	6500.97
584.889	6521.31
585.249	6466.62
585.609	6475.44
585.969	6482.67
586.329	6491.48
586.688	6484.48
587.048	6518.37
587.408	6501.65
587.768	6411.48
588.127	6473.18
588.487	6479.96
588.846	6518.15
589.206	6502.1
589.565	6463.01
589.925	6538.71
590.284	6512.05
590.643	6522.44
591.003	6498.94
591.362	6482.22
591.721	6550.01
592.08	6533.97
592.44	6538.03
592.799	6517.47
593.158	6485.15
593.517	6518.15
593.876	6500.97
594.235	6497.58
594.593	6482.67
594.952	6562.21
595.311	6552.5
595.67	6556.11
596.029	6519.73
596.387	6570.35
596.746	6591.14
597.104	6516.57
597.463	6518.6
597.822	6623
598.18	6542.78
598.538	6612.16
598.897	6575.32
599.255	6563.12
599.613	6624.59
599.972	6587.75
600.33	6593.63
600.688	6600.18
601.046	6637.69
601.404	6692.83
601.762	6668.2
602.12	6689.89
602.478	6679.95
602.836	6709.78
603.194	6680.4
603.552	6696.22
603.91	6664.81
604.268	6726.05
604.625	6674.53
604.983	6709.56
605.341	6688.54
605.698	6700.74
606.056	6717.24
606.413	6687.41
606.771	6724.7
607.128	6782.77
607.485	6727.86
607.843	6763.57
608.2	6740.06
608.557	6812.15
608.914	6767.18
609.272	6806.5
609.629	6802.89
609.986	6835.43
610.343	6787.07
610.7	6816.22
611.057	6878.59
611.414	6756.56
611.771	6778.48
612.127	6806.73
612.484	6813.06
612.841	6822.55
613.198	6788.65
613.554	6770.57
613.911	6808.08
614.267	6799.27
614.624	6819.38
614.98	6801.76
615.337	6819.61
615.693	6841.08
616.05	6796.56
616.406	6821.87
616.762	6879.95
617.118	6872.71
617.475	6869.78
617.831	6859.61
618.187	6875.88
618.543	6875.65
618.899	6904.58
619.255	6951.13
619.611	6877.91
619.967	6920.17
620.323	6972.6
620.678	6923.56
621.034	6912.04
621.39	6869.1
621.746	6917.91
622.101	7023.9
622.457	6971.7
622.812	6964.92
623.168	6963.56
623.523	6990.68
623.879	6998.14
624.234	6946.84
624.589	6977.57
624.945	7012.15
625.3	6938.25
625.655	6998.81
626.01	7006.95
626.365	7021.86
626.72	7020.73
627.075	7057.79
627.43	7007.85
627.785	6957.01
628.14	7024.8
628.495	6988.87
628.85	7046.27
629.205	6980.73
629.559	7029.77
629.914	7001.75
630.269	6949.55
630.623	6907.06
630.978	6964.69
631.332	6939.15
631.687	7059.6
632.041	6923.79
632.396	6980.73
632.75	6896.67
633.104	6948.64
633.459	6847.86
633.813	6841.76
634.167	6890.34
634.521	6846.27
634.875	6862.55
635.229	6835.2
635.583	6777.35
635.937	6800.4
636.291	6790.91
636.645	6809.67
636.999	6793.85
637.352	6765.82
637.706	6729.22
638.06	6723.57
638.413	6699.84
638.767	6677.01
639.121	6709.56
639.474	6623
639.828	6696.67
640.181	6641.76
640.534	6689.89
640.888	6612.83
641.241	6630.46
641.594	6609.44
641.947	6643.57
642.301	6598.15
642.654	6644.47
643.007	6618.71
643.36	6625.26
643.713	6600.86
644.066	6611.93
644.419	6585.49
644.771	6514.08
645.124	6488.32
645.477	6408.55
645.83	6380.75
646.182	6415.78
646.535	6373.07
646.888	6449.22
647.24	6397.7
647.593	6427.75
647.945	6417.13
648.298	6391.82
648.65	6356.34
649.002	6447.42
649.355	6384.59
649.707	6341.2
650.059	6416
650.411	6421.88
650.763	6427.53
651.115	6541.88
651.467	6481.99
651.819	6535.1
652.171	6495.78
652.523	6512.95
652.875	6449.9
653.227	6444.48
653.578	6540.52
653.93	6499.62
654.282	6492.39
654.633	6420.07
654.985	6500.75
655.337	6439.73
655.688	6472.73
656.039	6409.9
656.391	6401.31
656.742	6404.03
657.094	6444.25
657.445	6404.7
657.796	6448.09
658.147	6439.05
658.498	6410.35
658.849	6416
659.2	6384.14
659.551	6353.86
659.902	6333.07
660.253	6384.37
660.604	6338.72
660.955	6301.66
661.306	6376.46
661.656	6265.27
662.007	6283.8
662.358	6302.56
662.708	6300.3
663.059	6347.76
663.409	6270.02
663.76	6276.12
664.11	6286.06
664.461	6253.07
664.811	6291.04
665.161	6296.68
665.511	6261.88
665.862	6247.87
666.212	6248.78
666.562	6258.95
666.912	6296.23
667.262	6291.49
667.612	6297.59
667.962	6273.63
668.312	6261.43
668.662	6317.48
669.011	6313.86
669.361	6262.34
669.711	6263.69
670.06	6260.98
670.41	6251.04
670.76	6213.52
671.109	6228.66
671.459	6236.12
671.808	6231.6
672.157	6325.16
672.507	6206.97
672.856	6198.16
673.205	6255.56
673.554	6194.54
673.904	6233.64
674.253	6237.48
674.602	6293.29
674.951	6122.23
675.3	6152.51
675.649	6185.28
675.998	6231.15
676.346	6239.51
676.695	6299.62
677.044	6166.74
677.393	6207.42
677.741	6239.06
678.09	6187.54
678.438	6214.2
678.787	6190.92
679.135	6192.51
679.484	6190.7
679.832	6170.59
680.181	6134.43
680.529	6126.52
680.877	6140.08
681.225	6135.78
681.573	6146.18
681.922	6117.93
682.27	6030.48
682.618	6067.99
682.966	6046.52
683.314	6059.63
683.661	6031.15
684.009	6025.96
684.357	6009.91
684.705	5960.42
685.053	6004.04
685.4	5937.6
685.748	5985.96
686.095	5924.49
686.443	5898.05
686.79	5874.32
687.138	5900.54
687.485	5888.33
687.832	5841.56
688.18	5851.27
688.527	5896.7
688.874	5825.06
689.221	5793.2
689.568	5833.65
689.915	5709.36
690.262	5825.51
690.609	5787.55
690.956	5763.82
691.303	5715.46
691.65	5703.71
691.997	5703.48
692.344	5715.46
692.69	5675.23
693.037	5694.89
693.383	5573.09
693.73	5640.2
694.077	5614.22
694.423	5661.9
694.769	5615.35
695.116	5572.18
695.462	5595.69
695.808	5552.98
696.155	5575.8
696.501	5485.86
696.847	5508.91
697.193	5501.23
697.539	5453.09
697.885	5485.86
698.231	5440.89
698.577	5490.83
698.923	5462.36
699.269	5468.23
699.614	5428.46
699.96	5405.63
700.306	5403.37
700.651	5396.14
700.997	5369.93
701.342	5344.85
701.688	5390.95
702.033	5368.35
702.379	5305.75
702.724	5348.69
703.069	5322.25
703.415	5248.8
703.76	5294.45
704.105	5255.58
704.45	5325.41
704.795	5248.8
705.14	5228.69
705.485	5278.63
705.83	5232.31
706.175	5201.12
706.52	5228.01
706.865	5158.18
707.209	5168.35
707.554	5145.53
707.899	5156.83
708.243	5113.89
708.588	5182.82
708.932	5104.85
709.277	5071.41
709.621	5058.3
709.966	5051.97
710.31	5033.89
710.654	5039.09
710.998	5022.37
711.342	4980.79
711.687	4969.71
712.031	4999.09
712.375	4991.18
712.719	4971.97
713.063	5027.11
713.407	4981.01
713.75	4936.49
714.094	4962.71
714.438	4928.36
714.782	4904.63
715.125	4903.73
715.469	4907.12
715.812	4831.86
716.156	4892.88
716.499	4913.9
716.843	4870.51
717.186	4817.85
717.53	4842.49
717.873	4856.5
718.216	4841.36
718.559	4861.24
718.902	4728.82
719.246	4774.46
719.589	4781.7
719.932	4776.5
720.275	4774.24
720.617	4772.43
720.96	4729.72
721.303	4744.64
721.646	4688.59
721.989	4735.6
722.331	4730.62
722.674	4735.14
723.016	4694.24
723.359	4712.32
723.701	4762.94
724.044	4670.74
724.386	4693.11
724.729	4686.11
725.071	4690.17
725.413	4597.52
725.755	4649.04
726.097	4612.66
726.439	4651.53
726.782	4645.88
727.124	4689.27
727.465	4574.24
727.807	4557.97
728.149	4617.18
728.491	4553
728.833	4595.49
729.175	4577.41
729.516	4543.74
729.858	4539.67
730.199	4560.01
730.541	4506.9
730.882	4558.88
731.224	4483.85
731.565	4467.81
731.906	4486.56
732.248	4522.04
732.589	4478.65
732.93	4481.59
733.271	4463.29
733.612	4464.42
733.953	4497.86
734.294	4458.31
734.635	4450.41
734.976	4468.71
735.317	4473.91
735.658	4458.54
735.999	4420.8
736.339	4387.36
736.68	4444.3
737.021	4417.41
737.361	4453.57
737.702	4461.25
738.042	4411.54
738.383	4365.89
738.723	4424.19
739.063	4383.51
739.404	4390.52
739.744	4344.19
740.084	4372.89
740.424	4382.38
740.764	4377.87
741.104	4345.55
741.444	4346.68
741.784	4341.71
742.124	4318.21
742.464	4346
742.804	4289.51
743.143	4280.69
743.483	4301.93
743.823	4244.76
744.162	4235.27
744.502	4294.48
744.841	4254.7
745.181	4257.87
745.52	4220.13
745.86	4221.94
746.199	4245.44
746.538	4188.49
746.877	4207.7
747.216	4222.84
747.556	4193.24
747.895	4169.06
748.234	4145.78
748.573	4183.29
748.911	4183.97
749.25	4157.31
749.589	4173.35
749.928	4136.29
750.267	4143.07
750.605	4167.7
750.944	4095.16
751.283	4129.28
751.621	4125.89
751.96	4088.38
752.298	4072.34
752.636	4129.74
752.975	4061.26
753.313	4024.2
753.651	4046.35
753.989	4033.47
754.327	4065.33
754.666	4015.39
755.004	4050.42
755.342	4026.91
755.679	4036.86
756.017	4013.58
756.355	3973.81
756.693	3998.44
757.031	3998.21
757.368	3990.3
757.706	3955.05
758.044	3968.16
758.381	3950.31
758.719	3956.41
759.056	3983.98
759.394	3907.82
759.731	3920.93
760.068	3886.8
760.405	3881.61
760.743	3886.8
761.08	3918.89
761.417	3860.14
761.754	3858.56
762.091	3847.03
762.428	3842.06
762.765	3835.96
763.102	3805.45
763.438	3778.78
763.775	3775.17
764.112	3772.68
764.449	3753.25
764.785	3720.03
765.122	3700.82
765.458	3727.26
765.795	3725
766.131	3731.55
766.467	3709.86
766.804	3690.43
767.14	3645.91
767.476	3654.72
767.812	3663.76
768.148	3675.74
768.485	3619.02
768.821	3584.44
769.157	3600.71
769.492	3593.25
769.828	3562.97
770.164	3532.69
770.5	3569.75
770.836	3560.26
771.171	3500.83
771.507	3541.05
771.842	3471.45
