Data from foam1_polythene_foam_FLMS001491_00069.txt Node
Date: Wed Feb 08 10:55:14 GMT 2017
User: dcchb
Spectrometer: FLMS00149
Trigger mode: 0
Integration Time (sec): 2.000000E-2
Scans to average: 10
Electric dark correction enabled: true
Nonlinearity correction enabled: false
Boxcar width: 0
XAxis mode: Wavelengths
Number of Pixels in Spectrum: 2048
>>>>>Begin Spectral Data<<<<<
341.393	-10.76
341.776	-10.76
342.16	-10.76
342.543	-69.52
342.927	-65.22
343.31	-76.07
343.693	-63.87
344.077	-62.74
344.46	-65.68
344.843	-27.71
345.226	-33.59
345.61	-30.87
345.993	-21.38
346.376	-10.54
346.759	4.38
347.142	11.16
347.525	49.12
347.908	58.84
348.291	74.66
348.674	87.54
349.057	106.75
349.44	125.73
349.823	133.87
350.206	163.92
350.588	179.06
350.971	173.19
351.354	172.74
351.737	225.62
352.119	223.13
352.502	271.94
352.884	252.28
353.267	256.35
353.65	275.11
354.032	291.6
354.414	278.95
354.797	279.85
355.179	282.11
355.562	306.97
355.944	302
356.326	290.92
356.709	310.81
357.091	317.36
357.473	326.86
357.855	317.36
358.238	318.95
358.62	306.74
359.002	313.75
359.384	293.41
359.766	328.89
360.148	329.57
360.53	314.88
360.912	300.87
361.294	312.84
361.676	302.22
362.057	312.39
362.439	303.81
362.821	297.03
363.203	312.17
363.584	312.39
363.966	304.71
364.348	301.55
364.729	316.23
365.111	290.92
365.493	283.47
365.874	314.88
366.256	290.92
366.637	289.12
367.019	296.35
367.4	294.77
367.781	288.21
368.163	291.15
368.544	306.07
368.925	268.33
369.306	284.82
369.688	275.33
370.069	295.67
370.45	272.85
370.831	297.03
371.212	285.05
371.593	294.54
371.974	293.41
372.355	295.22
372.736	289.12
373.117	285.5
373.498	308.55
373.879	282.11
374.26	286.18
374.641	284.37
375.021	285.5
375.402	293.41
375.783	296.35
376.163	297.93
376.544	283.24
376.925	297.48
377.305	292.96
377.686	296.57
378.066	303.35
378.447	300.42
378.827	310.36
379.208	301.55
379.588	304.94
379.968	285.73
380.349	287.53
380.729	318.49
381.109	302.9
381.489	305.84
381.87	282.34
382.25	319.85
382.63	317.59
383.01	311.71
383.39	316.69
383.77	291.15
384.15	284.6
384.53	281.89
384.91	297.25
385.29	312.62
385.67	321.43
386.049	318.95
386.429	308.78
386.809	314.43
387.189	326.63
387.568	321.43
387.948	324.14
388.328	304.94
388.707	338.15
389.087	315.1
389.466	303.35
389.846	316.69
390.225	325.05
390.605	314.43
390.984	340.41
391.363	311.04
391.743	330.92
392.122	323.47
392.501	325.5
392.881	347.19
393.26	340.64
393.639	355.78
394.018	332.05
394.397	310.13
394.776	346.06
395.155	344.26
395.534	314.2
395.913	348.1
396.292	341.54
396.671	316.01
397.05	331.83
397.429	344.48
397.808	356.91
398.186	361.88
398.565	339.96
398.944	345.61
399.323	343.8
399.701	344.93
400.08	329.79
400.458	346.06
400.837	361.21
401.215	350.36
401.594	351.26
401.972	356.23
402.351	353.3
402.729	349.68
403.107	350.58
403.486	344.03
403.864	331.38
404.242	353.3
404.62	350.36
404.999	334.54
405.377	361.21
405.755	373.18
406.133	374.09
406.511	347.42
406.889	362.56
407.267	360.75
407.645	370.7
408.023	374.76
408.401	366.18
408.779	344.03
409.156	379.28
409.534	361.88
409.912	353.3
410.29	363.01
410.667	368.21
411.045	365.5
411.422	381.77
411.8	377.7
412.178	388.1
412.555	386.97
412.933	392.39
413.31	372.96
413.687	370.02
414.065	368.21
414.442	398.94
414.819	391.26
415.197	381.77
415.574	393.97
415.951	375.89
416.328	395.1
416.705	401.88
417.082	409.57
417.46	392.39
417.837	395.78
418.214	384.48
418.591	388.78
418.967	411.83
419.344	414.99
419.721	417.47
420.098	412.73
420.475	418.15
420.852	410.24
421.228	427.87
421.605	421.54
421.982	407.98
422.358	423.35
422.735	423.8
423.111	424.03
423.488	402.33
423.864	435.33
424.241	414.54
424.617	422.9
424.994	415.67
425.37	412.05
425.746	433.07
426.123	438.27
426.499	431.49
426.875	433.52
427.251	438.27
427.627	441.88
428.003	426.06
428.379	459.73
428.756	437.59
429.132	452.05
429.507	458.6
429.883	455.44
430.259	452.05
430.635	452.05
431.011	463.8
431.387	469.9
431.763	442.33
432.138	477.59
432.514	491.82
432.89	478.94
433.265	492.95
433.641	470.35
434.016	468.55
434.392	496.79
434.767	495.44
435.143	502.67
435.518	489.56
435.894	508.09
436.269	517.36
436.644	496.57
437.02	517.81
437.395	521.88
437.77	538.6
438.145	499.73
438.52	518.04
438.895	526.4
439.271	534.08
439.646	528.21
440.021	572.05
440.395	549.9
440.77	546.74
441.145	558.71
441.52	546.51
441.895	557.58
442.27	560.97
442.645	586.06
443.019	557.58
443.394	577.92
443.769	573.63
444.143	581.31
444.518	587.41
444.892	566.62
445.267	587.87
445.641	595.32
446.016	609.79
446.39	592.61
446.764	596
447.139	608.88
447.513	599.84
447.887	629.45
448.262	635.1
448.636	611.59
449.01	619.73
449.384	650.69
449.758	624.48
450.132	623.35
450.506	669.9
450.88	659.28
451.254	659.05
451.628	655.66
452.002	655.21
452.376	672.38
452.75	658.6
453.123	669.67
453.497	652.5
453.871	673.29
454.244	683.23
454.618	685.04
454.992	666.96
455.365	667.19
455.739	704.7
456.112	699.73
456.486	715.55
456.859	696.11
457.232	707.64
457.606	680.52
457.979	697.69
458.352	716.45
458.725	688.65
459.099	725.49
459.472	731.82
459.845	710.8
460.218	717.35
460.591	717.58
460.964	708.54
461.337	744.02
461.71	745.83
462.083	755.55
462.456	727.75
462.829	744.47
463.201	753.06
463.574	759.16
463.947	741.08
464.32	737.92
464.692	766.17
465.065	763
465.438	778.14
465.81	792.15
466.183	777.69
466.555	789.44
466.928	782.44
467.3	789.89
467.672	782.89
468.045	809.1
468.417	812.27
468.789	790.35
469.161	779.73
469.534	835.77
469.906	832.38
470.278	827.63
470.65	823.11
471.022	851.59
471.394	853.62
471.766	831.48
472.138	841.87
472.51	877.12
472.882	861.76
473.253	878.03
473.625	881.87
473.997	898.37
474.369	891.13
474.74	906.28
475.112	923.68
475.484	929.78
475.855	918.7
476.227	945.14
476.598	992.83
476.97	979.72
477.341	954.18
477.713	1005.26
478.084	993.96
478.455	1003
478.827	1004.8
479.198	1014.97
479.569	1034.41
479.94	1030.79
480.311	1058.81
480.682	1077.12
481.053	1060.4
481.424	1097.01
481.795	1087.29
482.166	1118.7
482.537	1117.8
482.908	1140.85
483.279	1155.31
483.65	1169.55
484.021	1182.2
484.391	1184.01
484.762	1196.66
485.133	1191.92
485.503	1224.01
485.874	1231.46
486.244	1257.23
486.615	1242.54
486.985	1283.67
487.356	1282.99
487.726	1293.38
488.097	1298.81
488.467	1319.37
488.837	1317.34
489.207	1361.63
489.578	1361.63
489.948	1366.15
490.318	1382.65
490.688	1379.48
491.058	1417.67
491.428	1404.79
491.798	1450.67
492.168	1458.8
492.538	1459.26
492.908	1474.85
493.278	1487.73
493.648	1483.66
494.017	1533.15
494.387	1518.01
494.757	1547.16
495.126	1567.28
495.496	1539.03
495.866	1563.66
496.235	1582.19
496.605	1578.57
496.974	1586.94
497.344	1608.63
497.713	1602.08
498.082	1614.51
498.452	1632.81
498.821	1638.69
499.19	1650.66
499.559	1655.18
499.928	1678.91
500.298	1666.48
500.667	1720.49
501.036	1711
501.405	1741.06
501.774	1736.99
502.143	1734.73
502.512	1732.92
502.88	1739.02
503.249	1768.4
503.618	1782.86
503.987	1797.33
504.356	1791.22
504.724	1806.82
505.093	1798.68
505.462	1833.03
505.83	1815.63
506.199	1834.61
506.567	1869.19
506.936	1852.24
507.304	1860.37
507.672	1900.83
508.041	1925.91
508.409	1910.99
508.777	1913.48
509.145	1933.59
509.514	1946.7
509.882	1969.07
510.25	1964.1
510.618	1969.75
510.986	1990.77
511.354	1993.48
511.722	1989.41
512.09	2026.25
512.458	1993.93
512.826	2068.73
513.193	2065.12
513.561	2062.18
513.929	2082.97
514.297	2114.61
514.664	2057.88
515.032	2122.97
515.4	2139.24
515.767	2129.29
516.135	2169.52
516.502	2152.8
516.869	2168.62
517.237	2198.9
517.604	2175.85
517.972	2211.55
518.339	2217.65
518.706	2243.64
519.073	2259.01
519.44	2263.98
519.808	2273.25
520.175	2263.3
520.542	2292
520.909	2326.58
521.276	2301.95
521.643	2346.24
522.009	2356.41
522.376	2364.99
522.743	2419.23
523.11	2409.74
523.477	2425.11
523.843	2434.37
524.21	2452.45
524.577	2468.72
524.943	2473.69
525.31	2545.1
525.676	2494.93
526.043	2516.63
526.409	2563.86
526.776	2581.26
527.142	2576.29
527.508	2595.5
527.874	2578.77
528.241	2624.42
528.607	2638.21
528.973	2646.34
529.339	2645.21
529.705	2662.61
530.071	2688.38
530.437	2704.87
530.803	2684.99
531.169	2703.74
531.535	2736.74
531.901	2769.05
532.267	2717.98
532.632	2807.02
532.998	2811.76
533.364	2834.36
533.73	2819.9
534.095	2825.32
534.461	2850.86
534.826	2852.44
535.192	2872.78
535.557	2898.99
535.923	2869.39
536.288	2845.43
536.653	2879.78
537.019	2852.21
537.384	2888.6
537.749	2930.63
538.114	2927.01
538.479	2942.83
538.845	2956.62
539.21	2949.16
539.575	2938.54
539.94	2933.34
540.305	3019.89
540.67	2997.29
541.034	2978.76
541.399	3032.55
541.764	2995.94
542.129	3021.93
542.494	3033.45
542.858	3058.54
543.223	3050.85
543.587	3065.99
543.952	3064.18
544.316	3095.82
544.681	3065.54
545.045	3071.64
545.41	3113.45
545.774	3112.55
546.138	3100.34
546.503	3154.8
546.867	3101.7
547.231	3176.95
547.595	3170.4
547.959	3155.48
548.324	3157.74
548.688	3156.61
549.052	3188.02
549.416	3206.33
549.779	3228.02
550.143	3222.37
550.507	3206.78
550.871	3240.45
551.235	3246.55
551.599	3260.11
551.962	3278.87
552.326	3304.63
552.689	3322.03
553.053	3302.37
553.417	3295.37
553.78	3349.15
554.143	3307.79
554.507	3320.9
554.87	3345.53
555.234	3377.85
555.597	3371.52
555.96	3345.99
556.323	3386.44
556.686	3430.73
557.05	3432.76
557.413	3452.88
557.776	3463.04
558.139	3462.59
558.502	3481.58
558.865	3523.38
559.228	3534.68
559.59	3527.68
559.953	3538.97
560.316	3573.1
560.679	3539.88
561.041	3597.73
561.404	3579.88
561.767	3617.16
562.129	3597.28
562.492	3660.78
562.854	3664.17
563.217	3651.97
563.579	3654.68
563.941	3679.99
564.304	3663.27
564.666	3710.27
565.028	3755.01
565.39	3686.32
565.753	3736.26
566.115	3757.73
566.477	3797.27
566.839	3794.56
567.201	3829.36
567.563	3840.89
567.925	3866.42
568.287	3855.8
568.648	3886.08
569.01	3915.01
569.372	3858.06
569.734	3921.79
570.095	3910.49
570.457	3949.36
570.819	3970.6
571.18	3971.51
571.542	3935.57
571.903	3959.75
572.265	3973.31
572.626	3990.94
572.987	4022.13
573.349	4013.09
573.71	4048.57
574.071	4041.56
574.432	4047.66
574.794	4078.17
575.155	4097.38
575.516	4050.83
575.877	4110.71
576.238	4093.31
576.599	4118.85
576.96	4127.21
577.32	4138.73
577.681	4103.93
578.042	4079.98
578.403	4104.84
578.763	4118.39
579.124	4135.57
579.485	4141.67
579.845	4141.9
580.206	4152.29
580.566	4147.55
580.927	4147.32
581.287	4174.44
581.648	4142.57
582.008	4184.38
582.368	4166.98
582.728	4218.96
583.089	4193.65
583.449	4182.12
583.809	4155
584.169	4176.7
584.529	4195.45
584.889	4235.23
585.249	4195
585.609	4175.34
585.969	4203.59
586.329	4180.77
586.688	4167.21
587.048	4178.05
587.408	4145.74
587.768	4177.15
588.127	4167.66
588.487	4192.52
588.846	4194.78
589.206	4139.64
589.565	4158.17
589.925	4203.82
590.284	4168.79
590.643	4178.96
591.003	4151.61
591.362	4232.52
591.721	4143.03
592.08	4186.42
592.44	4218.5
592.799	4199.07
593.158	4158.85
593.517	4177.83
593.876	4194.32
594.235	4188.68
594.593	4239.52
594.952	4171.5
595.311	4197.71
595.67	4198.84
596.029	4192.97
596.387	4204.95
596.746	4231.39
597.104	4145.06
597.463	4204.27
597.822	4209.24
598.18	4160.65
598.538	4156.36
598.897	4231.16
599.255	4157.72
599.613	4176.92
599.972	4205.62
600.33	4210.14
600.688	4180.77
601.046	4191.16
601.404	4188.9
601.762	4248.33
602.12	4211.95
602.478	4180.99
602.836	4254.66
603.194	4233.19
603.552	4197.04
603.91	4171.05
604.268	4224.61
604.625	4147.32
604.983	4230.93
605.341	4223.93
605.698	4250.37
606.056	4252.85
606.413	4212.86
606.771	4242.91
607.128	4245.62
607.485	4207.66
607.843	4256.47
608.2	4217.83
608.557	4228.45
608.914	4235.45
609.272	4269.8
609.629	4287.66
609.986	4272.97
610.343	4234.78
610.7	4292.4
611.057	4225.96
611.414	4278.62
611.771	4236.36
612.127	4307.77
612.484	4268.45
612.841	4240.65
613.198	4264.15
613.554	4206.53
613.911	4268.67
614.267	4270.48
614.624	4294.44
614.98	4273.42
615.337	4264.61
615.693	4271.61
616.05	4326.52
616.406	4286.53
616.762	4293.98
617.118	4291.95
617.475	4302.8
617.831	4262.57
618.187	4279.52
618.543	4314.77
618.899	4295.11
619.255	4283.81
619.611	4259.41
619.967	4267.09
620.323	4246.98
620.678	4234.78
621.034	4293.98
621.39	4268.45
621.746	4248.11
622.101	4330.82
622.457	4322.46
622.812	4269.58
623.168	4262.57
623.523	4271.84
623.879	4336.47
624.234	4241.56
624.589	4260.09
624.945	4274.1
625.3	4258.05
625.655	4234.78
626.01	4263.7
626.365	4218.5
626.72	4247.66
627.075	4230.71
627.43	4262.8
627.785	4259.41
628.14	4260.09
628.495	4242.01
628.85	4227.54
629.205	4214.89
629.559	4257.83
629.914	4200.88
630.269	4195.45
630.623	4214.44
630.978	4193.87
631.332	4197.04
631.687	4233.65
632.041	4188.68
632.396	4160.43
632.75	4182.57
633.104	4206.3
633.459	4128.34
633.813	4144.16
634.167	4175.12
634.521	4133.99
634.875	4154.55
635.229	4149.58
635.583	4147.77
635.937	4108.9
636.291	4124.27
636.645	4088.79
636.999	4073.2
637.352	4095.34
637.706	4033.88
638.06	4063.25
638.413	4052.41
638.767	4047.21
639.121	4040.43
639.474	4049.47
639.828	4099.19
640.181	4064.16
640.534	4015.35
640.888	4022.58
641.241	3993.65
641.594	3992.75
641.947	3990.04
642.301	4002.01
642.654	3986.42
643.007	4001.11
643.36	3931.96
643.713	3969.7
644.066	3955.69
644.419	3928.34
644.771	3907.78
645.124	3838.63
645.477	3893.99
645.83	3853.09
646.182	3833.66
646.535	3847.44
646.888	3861.45
647.24	3824.84
647.593	3849.48
647.945	3861.9
648.298	3813.09
648.65	3802.24
649.002	3789.82
649.355	3805.18
649.707	3739.2
650.059	3799.08
650.411	3803.83
650.763	3827.55
651.115	3884.28
651.467	3843.15
651.819	3767.9
652.171	3847.22
652.523	3796.14
652.875	3862.13
653.227	3763.15
653.578	3838.63
653.93	3811.96
654.282	3781.68
654.633	3771.51
654.985	3767.9
655.337	3787.33
655.688	3721.12
656.039	3754.11
656.391	3727.22
656.742	3752.08
657.094	3768.8
657.445	3769.25
657.796	3747.56
658.147	3761.79
658.498	3752.98
658.849	3719.08
659.2	3698.52
659.551	3719.76
659.902	3749.59
660.253	3728.35
660.604	3689.25
660.955	3701.23
661.306	3695.81
661.656	3669.59
662.007	3693.55
662.358	3703.72
662.708	3696.03
663.059	3686.09
663.409	3663.49
663.76	3726.31
664.11	3688.12
664.461	3695.13
664.811	3689.25
665.161	3692.64
665.511	3703.94
665.862	3656.71
666.212	3703.04
666.562	3719.31
666.912	3673.66
667.262	3654.45
667.612	3647.67
667.962	3668.24
668.312	3639.99
668.662	3676.82
669.011	3616.26
669.361	3621.91
669.711	3606.77
670.06	3598.41
670.41	3584.85
670.76	3637.73
671.109	3626.2
671.459	3639.76
671.808	3600.67
672.157	3622.14
672.507	3555.25
672.856	3588.24
673.205	3598.41
673.554	3589.59
673.904	3641.12
674.253	3559.77
674.602	3574.91
674.951	3545.08
675.3	3519.77
675.649	3567.45
675.998	3569.71
676.346	3532.42
676.695	3545.3
677.044	3565.19
677.393	3549.82
677.741	3555.47
678.09	3560.67
678.438	3529.26
678.787	3559.54
679.135	3511.63
679.484	3526.77
679.832	3521.35
680.181	3463.5
680.529	3496.72
680.877	3466.89
681.225	3506.43
681.573	3491.52
681.922	3494.91
682.27	3495.36
682.618	3477.73
682.966	3440.22
683.314	3488.58
683.661	3486.77
684.009	3402.48
684.357	3415.14
684.705	3420.11
685.053	3455.59
685.4	3398.64
685.748	3421.01
686.095	3424.85
686.443	3392.54
686.79	3395.02
687.138	3403.61
687.485	3383.72
687.832	3369.26
688.18	3393.22
688.527	3333.1
688.874	3384.4
689.221	3309.6
689.568	3341.01
689.915	3285.65
690.262	3307.34
690.609	3306.21
690.956	3297.17
691.303	3312.99
691.65	3258.08
691.997	3268.47
692.344	3289.26
692.69	3278.42
693.037	3302.37
693.383	3222.6
693.73	3195.03
694.077	3209.27
694.423	3217.4
694.769	3217.18
695.116	3210.62
695.462	3218.98
695.808	3192.77
696.155	3148.93
696.501	3135.6
696.847	3181.02
697.193	3145.09
697.539	3103.96
697.885	3108.7
698.231	3135.82
698.577	3136.5
698.923	3109.83
699.269	3105.77
699.614	3077.74
699.96	3065.09
700.306	3116.39
700.651	3082.49
700.997	3066.9
701.342	3064.64
701.688	3090.62
702.033	3058.31
702.379	3036.84
702.724	3052.66
703.069	3046.11
703.415	2975.37
703.76	2999.55
704.105	3027.12
704.45	2966.79
704.795	2979.22
705.14	2957.3
705.485	2956.84
705.83	2972.44
706.175	2958.65
706.52	2963.85
706.865	2926.34
707.209	2955.04
707.554	2912.55
707.899	2935.37
708.243	2894.7
708.588	2935.15
708.932	2908.71
709.277	2885.88
709.621	2885.88
709.966	2827.81
710.31	2934.7
710.654	2858.31
710.998	2855.15
711.342	2866.22
711.687	2888.14
712.031	2846.56
712.375	2835.72
712.719	2851.76
713.063	2823.97
713.407	2860.12
713.75	2851.54
714.094	2811.08
714.438	2804.08
714.782	2781.03
715.125	2837.75
715.469	2783.29
715.812	2829.16
716.156	2767.47
716.499	2767.92
716.843	2766.34
717.186	2760.69
717.53	2722.73
717.873	2763.85
718.216	2772.89
718.559	2758.66
718.902	2721.6
719.246	2755.72
719.589	2707.36
719.932	2709.39
720.275	2747.81
720.617	2718.66
720.96	2723.18
721.303	2733.8
721.646	2701.71
721.989	2712.78
722.331	2695.61
722.674	2654.03
723.016	2686.12
723.359	2678.66
723.701	2720.24
724.044	2663.07
724.386	2642.73
724.729	2668.49
725.071	2683.4
725.413	2659.68
725.755	2635.04
726.097	2654.7
726.439	2669.17
726.782	2632.78
727.124	2614.48
727.465	2601.15
727.807	2599.56
728.149	2654.93
728.491	2605.89
728.833	2618.77
729.175	2630.3
729.516	2593.01
729.858	2576.97
730.199	2601.82
730.541	2600.24
730.882	2601.82
731.224	2556.63
731.565	2565.89
731.906	2568.83
732.248	2578.77
732.589	2566.8
732.93	2574.25
733.271	2531.54
733.612	2535.84
733.953	2565.89
734.294	2547.36
734.635	2550.07
734.976	2539
735.317	2569.73
735.658	2535.84
735.999	2519.57
736.339	2528.15
736.68	2521.37
737.021	2524.99
737.361	2495.61
737.702	2519.79
738.042	2490.41
738.383	2532.9
738.723	2490.41
739.063	2522.5
739.404	2481.38
739.744	2479.12
740.084	2484.09
740.424	2475.05
740.764	2471.21
741.104	2478.89
741.444	2473.47
741.784	2450.64
742.124	2471.66
742.464	2498.78
742.804	2494.26
743.143	2452.68
743.483	2407.25
743.823	2442.05
744.162	2419.46
744.502	2417.2
744.841	2418.55
745.181	2467.59
745.52	2414.26
745.86	2416.97
746.199	2417.2
746.538	2427.59
746.877	2409.96
747.216	2386.01
747.556	2411.77
747.895	2414.03
748.234	2404.77
748.573	2407.93
748.911	2383.07
749.25	2379.46
749.589	2342.62
749.928	2382.85
750.267	2346.01
750.605	2350.31
750.944	2320.25
751.283	2362.73
751.621	2364.54
751.96	2328.16
752.298	2334.49
752.636	2321.61
752.975	2317.99
753.313	2341.94
753.651	2322.96
753.989	2312.57
754.327	2322.96
754.666	2308.27
755.004	2326.35
755.342	2288.84
755.679	2326.13
756.017	2290.42
756.355	2304.88
756.693	2310.08
757.031	2285.45
757.368	2249.74
757.706	2289.29
758.044	2254.94
758.381	2265.11
758.719	2255.84
759.056	2253.36
759.394	2221.72
759.731	2225.79
760.068	2223.76
760.405	2231.66
760.743	2228.5
761.08	2206.58
761.417	2196.64
761.754	2248.16
762.091	2227.14
762.428	2200.03
762.765	2190.99
763.102	2218.56
763.438	2162.51
763.775	2190.99
764.112	2184.21
764.449	2179.01
764.785	2122.51
765.122	2138.79
765.458	2164.77
765.795	2174.49
766.131	2144.21
766.467	2119.13
766.804	2092.69
767.14	2101.5
767.476	2141.72
767.812	2051.1
768.148	2106.24
768.485	2085.45
768.821	2077.54
769.157	2064.89
769.492	2073.48
769.828	2078
770.164	2030.54
770.5	2025.79
770.836	2032.12
771.171	2044.32
771.507	2029.86
771.842	2027.83
