Data from foam2_polystyrene_foam_FLMS001491_00093.txt Node
Date: Wed Feb 08 10:58:47 GMT 2017
User: dcchb
Spectrometer: FLMS00149
Trigger mode: 0
Integration Time (sec): 2.000000E-2
Scans to average: 10
Electric dark correction enabled: true
Nonlinearity correction enabled: false
Boxcar width: 0
XAxis mode: Wavelengths
Number of Pixels in Spectrum: 2048
>>>>>Begin Spectral Data<<<<<
341.393	-15.31
341.776	-15.31
342.16	-15.31
342.543	-58.25
342.927	-64.35
343.31	-73.61
343.693	-84.01
344.077	-56.44
344.46	-68.64
344.843	-48.08
345.226	-54.86
345.61	-52.15
345.993	-15.76
346.376	7.97
346.759	18.14
347.142	36.44
347.525	47.51
347.908	53.84
348.291	94.52
348.674	102.2
349.057	92.94
349.44	117.79
349.823	137.68
350.206	151.69
350.588	203.21
350.971	201.41
351.354	232.14
351.737	244.57
352.119	238.47
352.502	260.84
352.884	275.08
353.267	290.22
353.65	280.28
354.032	297.9
354.414	301.97
354.797	313.95
355.179	324.12
355.562	314.62
355.944	355.75
356.326	334.74
356.709	328.18
357.091	349.65
357.473	342.19
357.855	354.4
358.238	358.92
358.62	374.51
359.002	341.06
359.384	364.11
359.766	350.56
360.148	356.66
360.53	346.49
360.912	337.67
361.294	344
361.676	347.17
362.057	360.05
362.439	350.78
362.821	327.51
363.203	340.84
363.584	334.28
363.966	336.09
364.348	358.47
364.729	331.35
365.111	334.74
365.493	333.16
365.874	352.14
366.256	332.48
366.637	331.35
367.019	331.8
367.4	323.21
367.781	348.07
368.163	327.96
368.544	339.03
368.925	351.01
369.306	329.54
369.688	330.22
370.069	336.32
370.45	325.47
370.831	326.15
371.212	337.22
371.593	326.83
371.974	345.81
372.355	329.77
372.736	341.06
373.117	353.49
373.498	332.03
373.879	335.19
374.26	336.54
374.641	337.45
375.021	363.21
375.402	346.04
375.783	350.78
376.163	369.99
376.544	367.96
376.925	364.57
377.305	364.34
377.686	357.11
378.066	368.41
378.447	362.98
378.827	370.89
379.208	384
379.588	348.75
379.968	368.63
380.349	362.98
380.729	376.09
381.109	382.87
381.489	398.46
381.87	387.16
382.25	383.1
382.63	364.34
383.01	388.97
383.39	403.89
383.77	387.62
384.15	390.1
384.53	414.73
384.91	413.6
385.29	409.54
385.67	409.09
386.049	414.73
386.429	417.67
386.809	414.73
387.189	416.32
387.568	420.38
387.948	410.44
388.328	422.42
388.707	432.14
389.087	432.59
389.466	420.38
389.846	426.71
390.225	438.46
390.605	448.86
390.984	467.39
391.363	454.96
391.743	461.74
392.122	460.61
392.501	468.29
392.881	470.33
393.26	470.55
393.639	474.85
394.018	475.07
394.397	492.25
394.776	487.05
395.155	476.88
395.534	471.46
395.913	473.49
396.292	510.33
396.671	494.05
397.05	498.35
397.429	512.36
397.808	523.43
398.186	523.66
398.565	515.98
398.944	510.55
399.323	504.22
399.701	513.49
400.08	524.34
400.458	542.19
400.837	543.77
401.215	552.58
401.594	540.38
401.972	545.58
402.351	538.35
402.729	576.99
403.107	575.18
403.486	565.24
403.864	554.39
404.242	572.02
404.62	569.31
404.999	595.97
405.377	617.67
405.755	570.89
406.133	606.37
406.511	600.49
406.889	638.91
407.267	606.14
407.645	599.59
408.023	620.15
408.401	644.56
408.779	626.71
409.156	648.4
409.534	648.63
409.912	666.48
410.29	666.48
410.667	677.55
411.045	689.08
411.422	696.08
411.8	692.47
412.178	695.41
412.555	717.55
412.933	710.77
413.31	730.21
413.687	712.58
414.065	738.12
414.442	728.4
414.819	776.31
415.197	753.93
415.574	795.52
415.951	765.46
416.328	788.74
416.705	778.12
417.082	783.99
417.46	789.64
417.837	786.25
418.214	810.2
418.591	810.66
418.967	816.98
419.344	814.27
419.721	860.6
420.098	835.97
420.475	840.03
420.852	840.71
421.228	869.64
421.605	882.52
421.982	911.44
422.358	893.14
422.735	872.58
423.111	902.41
423.488	916.42
423.864	916.64
424.241	925.91
424.617	903.76
424.994	918.45
425.37	962.97
425.746	946.25
426.123	960.71
426.499	987.38
426.875	985.79
427.251	996.41
427.627	1022.18
428.003	1015.62
428.379	1025.34
428.756	1019.46
429.132	1046.13
429.507	1085.23
429.883	1085
430.259	1107.82
430.635	1130.2
431.011	1112.12
431.387	1136.98
431.763	1174.26
432.138	1153.92
432.514	1156.41
432.89	1190.76
433.265	1202.51
433.641	1220.14
434.016	1233.24
434.392	1234.83
434.767	1266.24
435.143	1255.16
435.518	1276.18
435.894	1306.46
436.269	1304.2
436.644	1342.62
437.02	1324.54
437.395	1358.66
437.77	1381.26
438.145	1401.38
438.52	1428.72
438.895	1394.37
439.271	1423.52
439.646	1477.08
440.021	1458.55
440.395	1468.49
440.77	1454.26
441.145	1477.53
441.52	1504.2
441.895	1488.15
442.27	1496.29
442.645	1524.54
443.019	1547.36
443.394	1557.53
443.769	1554.37
444.143	1552.33
444.518	1576.06
444.892	1597.98
445.267	1611.54
445.641	1620.35
446.016	1640.69
446.39	1650.86
446.764	1656.28
447.139	1667.58
447.513	1664.42
447.887	1681.14
448.262	1678.43
448.636	1714.81
449.01	1763.63
449.384	1722.72
449.758	1763.4
450.132	1786.45
450.506	1775.38
450.88	1835.71
451.254	1816.28
451.628	1844.08
452.002	1838.43
452.376	1869.16
452.75	1864.19
453.123	1902.38
453.497	1927.01
453.871	1939.21
454.244	1951.64
454.618	1987.57
454.992	2020.79
455.365	2015.37
455.739	2046.78
456.112	2056.27
456.486	2071.64
456.859	2084.52
457.232	2146.89
457.606	2151.19
457.979	2139.66
458.352	2234.12
458.725	2190.28
459.099	2228.47
459.472	2261.01
459.845	2256.95
460.218	2294.01
460.591	2321.13
460.964	2320
461.337	2394.12
461.71	2378.53
462.083	2422.82
462.456	2467.11
462.829	2449.94
463.201	2456.94
463.574	2471.63
463.947	2546.66
464.32	2592.98
464.692	2618.29
465.065	2612.42
465.438	2639.99
465.81	2621.23
466.183	2703.94
466.555	2760.89
466.928	2793.66
467.3	2787.78
467.672	2809.47
468.045	2897.16
468.417	2897.38
468.789	2908.68
469.161	2944.61
469.534	2994.33
469.906	3037.94
470.278	3081.56
470.65	3113.19
471.022	3149.58
471.394	3236.13
471.766	3250.82
472.138	3282.46
472.51	3357.03
472.882	3400.65
473.253	3392.51
473.625	3443.81
473.997	3514.99
474.369	3543.92
474.74	3585.5
475.112	3640.64
475.484	3702.11
475.855	3786.17
476.227	3792.27
476.598	3895.1
476.97	3895.55
477.341	3997.92
477.713	4075.43
478.084	4054.41
478.455	4165.14
478.827	4265.93
479.198	4361.3
479.569	4335.99
479.94	4462.76
480.311	4531.69
480.682	4589.77
481.053	4699.59
481.424	4769.2
481.795	4862.53
482.166	4872.92
482.537	4994.95
482.908	5033.6
483.279	5090.32
483.65	5186.13
484.021	5257.55
484.391	5315.62
484.762	5366.92
485.133	5441.95
485.503	5517.88
485.874	5615.5
486.244	5659.12
486.615	5777.76
486.985	5867.02
487.356	5976.17
487.726	6074.7
488.097	6141.36
488.467	6207.12
488.837	6276.05
489.207	6296.61
489.578	6483.5
489.948	6546.33
490.318	6613.67
490.688	6626.32
491.058	6696.38
491.428	6801.01
491.798	6851.63
492.168	6983.38
492.538	7017.73
492.908	7127.78
493.278	7200.09
493.648	7212.52
494.017	7310.82
494.387	7362.12
494.757	7506.07
495.126	7589.01
495.496	7535.68
495.866	7654.32
496.235	7715.33
496.605	7735.22
496.974	7862.9
497.344	7913.07
497.713	8000.3
498.082	8076.91
498.452	8081.65
498.821	8187.64
499.19	8176.34
499.559	8283.68
499.928	8308.09
500.298	8470.12
500.667	8476.67
501.036	8483.22
501.405	8538.14
501.774	8525.71
502.143	8697.45
502.512	8680.96
502.88	8744.69
503.249	8851.8
503.618	8881.86
503.987	8928.41
504.356	8981.97
504.724	9023.1
505.093	9100.38
505.462	9156.43
505.83	9207.05
506.199	9306.03
506.567	9509.18
506.936	9369.75
507.304	9543.99
507.672	9622.63
508.041	9629.63
508.409	9703.53
508.777	9827.37
509.145	9875.05
509.514	9889.51
509.882	10011.09
510.25	9998.66
510.618	10097.64
510.986	10165.66
511.354	10298.09
511.722	10340.58
512.09	10395.72
512.458	10407.24
512.826	10498.31
513.193	10617.63
513.561	10647.23
513.929	10729.04
514.297	10867.34
514.664	10872.99
515.032	10944.18
515.4	11030.73
515.767	11066.21
516.135	11145.75
516.502	11123.15
516.869	11320.66
517.237	11353.66
517.604	11379.19
517.972	11479.98
518.339	11606.98
518.706	11696.02
519.073	11731.95
519.44	11804.49
519.808	11888.56
520.175	11906.41
520.542	12082.9
520.909	12124.71
521.276	12258.94
521.643	12358.83
522.009	12463.46
522.376	12508.2
522.743	12615.32
523.11	12743
523.477	12875.65
523.843	12856.67
524.21	12964.01
524.577	13128.3
524.943	13228.41
525.31	13236.09
525.676	13379.59
526.043	13489.87
526.409	13461.4
526.776	13640.15
527.142	13699.13
527.508	13777.55
527.874	13894.61
528.241	13999.46
528.607	13854.83
528.973	14156.52
529.339	14184.77
529.705	14358.1
530.071	14459.79
530.437	14419.11
530.803	14508.6
531.169	14637.41
531.535	14628.15
531.901	14754.24
532.267	14868.14
532.632	14825.2
532.998	14942.94
533.364	15050.28
533.73	15161.47
534.095	15184.29
534.461	15300.45
534.826	15304.06
535.192	15377.51
535.557	15533.66
535.923	15536.6
536.288	15572.08
536.653	15682.58
537.019	15666.09
537.384	15784.73
537.749	15876.7
538.114	15835.35
538.479	15817.49
538.845	15950.6
539.21	16000.77
539.575	15990.14
539.94	16142.46
540.305	16284.83
540.67	16139.52
541.034	16344.49
541.399	16373.64
541.764	16448.66
542.129	16480.3
542.494	16491.83
542.858	16620.64
543.223	16641.88
543.587	16801.65
543.952	16728.2
544.316	16825.38
544.681	16870.12
545.045	16901.31
545.41	16990.8
545.774	16965.03
546.138	17030.57
546.503	17158.48
546.867	17190.11
547.231	17242.77
547.595	17301.97
547.959	17413.38
548.324	17343.78
548.688	17493.83
549.052	17593.49
549.416	17635.3
549.779	17641.85
550.143	17743.32
550.507	17840.94
550.871	17887.95
551.235	17955.29
551.599	18038.45
551.962	18072.58
552.326	18099.69
552.689	18235.06
553.053	18159.8
553.417	18163.42
553.78	18616.29
554.143	18459.91
554.507	18593.24
554.87	18576.07
555.234	18845.21
555.597	18724.08
555.96	18859.9
556.323	18895.38
556.686	18901.25
557.05	19146.67
557.413	19250.85
557.776	19206.33
558.139	19354.12
558.502	19385.08
558.865	19542.14
559.228	19574.01
559.59	19563.16
559.953	19700.78
560.316	19944.39
560.679	19847.44
561.041	20020.1
561.404	20149.81
561.767	20294.66
562.129	20265.96
562.492	20490.14
562.854	20476.58
563.217	20550.02
563.579	20620.98
563.941	20746.4
564.304	20863.46
564.666	21005.83
565.028	21034.53
565.39	21126.28
565.753	21404.47
566.115	21432.04
566.477	21344.81
566.839	21510.23
567.201	21645.14
567.563	21636.32
567.925	21842.42
568.287	21928.07
568.648	21911.57
569.01	22039.25
569.372	22141.4
569.734	21974.62
570.095	22255.97
570.457	22324.22
570.819	22333.93
571.18	22364.67
571.542	22596.07
571.903	22596.3
572.265	22696.86
572.626	22797.65
572.987	22851.43
573.349	22982.05
573.71	23003.97
574.071	22994.25
574.432	23178.66
574.794	23277.41
575.155	23256.85
575.516	23216.4
575.877	23341.14
576.238	23470.4
576.599	23460
576.96	23549.72
577.32	23563.96
577.681	23650.96
578.042	23636.95
578.403	23692.99
578.763	23666.1
579.124	23715.14
579.485	23938.41
579.845	23976.38
580.206	23966.21
580.566	23972.08
580.927	23967.79
581.287	23999.2
581.648	23911.74
582.008	23960.33
582.368	23961.69
582.728	24040.78
583.089	23972.53
583.449	24034.23
583.809	24103.15
584.169	24187.9
584.529	24136.15
584.889	24302.69
585.249	24179.99
585.609	24008.46
585.969	24288.46
586.329	24215.92
586.688	24235.8
587.048	24216.59
587.408	24356.7
587.768	24313.09
588.127	24231.28
588.487	24206.43
588.846	24433.09
589.206	24232.87
589.565	24247.1
589.925	24291.4
590.284	24410.04
590.643	24409.36
591.003	24447.1
591.362	24515.12
591.721	24387.89
592.08	24377.72
592.44	24405.74
592.799	24487.1
593.158	24385.86
593.517	24360.09
593.876	24432.86
594.235	24438.28
594.593	24401.45
594.952	24629.69
595.311	24463.59
595.67	24552.41
596.029	24679.63
596.387	24632.18
596.746	24725.73
597.104	24597.38
597.463	24494.55
597.822	24644.83
598.18	24529.81
598.538	24490.03
598.897	24704.04
599.255	24455.91
599.613	24931.38
599.972	24638.5
600.33	24830.36
600.688	24664.72
601.046	24749.46
601.404	24944.71
601.762	24826.75
602.12	24927.99
602.478	24981.09
602.836	24954.88
603.194	24807.31
603.552	24936.58
603.91	24829.23
604.268	24936.12
604.625	24903.36
604.983	25033.75
605.341	24898.84
605.698	24955.56
606.056	25027.65
606.413	24946.52
606.771	25051.38
607.128	25082.33
607.485	24962.11
607.843	24998.04
608.2	25111.71
608.557	25149.45
608.914	25169.11
609.272	25221.31
609.629	25312.84
609.986	25482.55
610.343	25342.22
610.7	25546.96
611.057	25335.66
611.414	25486.84
611.771	25369.56
612.127	25458.14
612.484	25494.98
612.841	25603
613.198	25433.51
613.554	25493.62
613.911	25651.36
614.267	25608.87
614.624	25612.72
614.98	25562.55
615.337	25721.87
615.693	25691.36
616.05	25720.74
616.406	25765.25
616.762	25725.93
617.118	25594.41
617.475	25575.43
617.831	25691.13
618.187	25662.21
618.543	25702.66
618.899	25807.06
619.255	25800.28
619.611	25867.85
619.967	25900.62
620.323	25941.3
620.678	25773.84
621.034	25683
621.39	25738.81
621.746	25691.81
622.101	26044.8
622.457	25853.39
622.812	25940.17
623.168	25922.31
623.523	25928.19
623.879	26011.35
624.234	25702.21
624.589	25876.89
624.945	25872.37
625.3	25883.44
625.655	25937.23
626.01	25801.64
626.365	25871.92
626.72	25862.88
627.075	25847.06
627.43	25815.42
627.785	25677.35
628.14	25640.74
628.495	25776.33
628.85	25594.86
629.205	25507.86
629.559	25671.7
629.914	25635.09
630.269	25539.72
630.623	25578.14
630.978	25511.48
631.332	25660.85
631.687	25632.83
632.041	25475.77
632.396	25614.3
632.75	25433.06
633.104	25485.26
633.459	25329.56
633.813	25218.38
634.167	25311.03
634.521	25195.33
634.875	25310.58
635.229	25201.88
635.583	25097.7
635.937	25079.17
636.291	25133.86
636.645	25104.03
636.999	25079.4
637.352	25144.25
637.706	24875.56
638.06	24979.29
638.413	24978.16
638.767	24931.38
639.121	24957.82
639.474	24772.96
639.828	24790.59
640.181	24887.31
640.534	24769.35
640.888	24683.48
641.241	24744.49
641.594	24627.43
641.947	24605.06
642.301	24495.46
642.654	24537.94
643.007	24462.24
643.36	24510.82
643.713	24473.31
644.066	24527.32
644.419	24343.15
644.771	24163.04
645.124	23918.75
645.477	23839.88
645.83	23801.01
646.182	23693.9
646.535	23574.13
646.888	23643.73
647.24	23477.63
647.593	23531.64
647.945	23483.05
648.298	23371.42
648.65	23395.37
649.002	23262.95
649.355	23481.25
649.707	23307.47
650.059	23431.98
650.411	23688.25
650.763	23695.93
651.115	23944.06
651.467	23920.11
651.819	23876.26
652.171	23882.14
652.523	23824.06
652.875	23737.74
653.227	23592.2
653.578	23811.63
653.93	23695.25
654.282	23585.2
654.633	23543.17
654.985	23580
655.337	23590.17
655.688	23510.85
656.039	23653.9
656.391	23513.11
656.742	23470.4
657.094	23478.54
657.445	23606.22
657.796	23420.68
658.147	23447.35
658.498	23460.23
658.849	23452.77
659.2	23243.06
659.551	23385.43
659.902	23314.02
660.253	23325.54
660.604	23286.22
660.955	23265.43
661.306	23386.11
661.656	23218.2
662.007	23309.73
662.358	23302.27
662.708	23248.94
663.059	23259.78
663.409	23157.41
663.76	23208.49
664.11	23213.46
664.461	23237.86
664.811	23264.76
665.161	23162.61
665.511	23145.44
665.862	23099.34
666.212	23172.55
666.562	23245.32
666.912	23199.67
667.262	23116.28
667.612	23088.04
667.962	23115.83
668.312	23078.32
668.662	23289.84
669.011	23074.93
669.361	23040.81
669.711	22967.36
670.06	23013.69
670.41	23018.43
670.76	23000.58
671.109	23044.42
671.459	22971.66
671.808	22929.62
672.157	23022.95
672.507	22791.77
672.856	22790.87
673.205	22974.82
673.554	22881.04
673.904	22873.81
674.253	22933.92
674.602	22713.36
674.951	22538.22
675.3	22458
675.649	22742.51
675.998	22725.56
676.346	22811.66
676.695	22868.16
677.044	22621.61
677.393	22697.31
677.741	22789.51
678.09	22716.3
678.438	22642.62
678.787	22700.7
679.135	22646.24
679.484	22508.17
679.832	22672.91
680.181	22528.05
680.529	22617.99
680.877	22546.81
681.225	22414.38
681.573	22562.63
681.922	22411.67
682.27	22280.83
682.618	22330.77
682.966	22267.72
683.314	22386.36
683.661	22243.99
684.009	22113.83
684.357	22057.56
684.705	21956.77
685.053	22050.32
685.4	21972.59
685.748	21923.55
686.095	21944.11
686.443	21869.31
686.79	21833.83
687.138	21889.65
687.485	21857.56
687.832	21829.09
688.18	21828.86
688.527	21700.5
688.874	21741.41
689.221	21643.78
689.568	21621.86
689.915	21523.11
690.262	21594.74
690.609	21446.72
690.956	21415.54
691.303	21327.63
691.65	21323.79
691.997	21244.7
692.344	21004.25
692.69	21005.15
693.037	21180.74
693.383	21019.16
693.73	21051.03
694.077	20871.82
694.423	20830.7
694.769	20804.03
695.116	20712.05
695.462	20592.51
695.808	20669.34
696.155	20709.12
696.501	20566.52
696.847	20610.14
697.193	20338.73
697.539	20552.51
697.885	20337.15
698.231	20255.34
698.577	20271.84
698.923	20222.58
699.269	20087.44
699.614	19883.15
699.96	20027.1
700.306	19969.93
700.651	19965.63
700.997	19933.32
701.342	19969.25
701.688	19844.96
702.033	19776.03
702.379	19805.64
702.724	19723.83
703.069	19748.01
703.415	19480.9
703.76	19554.8
704.105	19466.66
704.45	19431.64
704.795	19364.07
705.14	19257.18
705.485	19289.27
705.83	19146.67
706.175	19106.22
706.52	19084.75
706.865	18955.04
707.209	18986.9
707.554	18906.68
707.899	18908.26
708.243	18827.13
708.588	18825.32
708.932	18925.21
709.277	18711.2
709.621	18735.16
709.966	18581.94
710.31	18720.69
710.654	18562.05
710.998	18468.72
711.342	18490.64
711.687	18459.23
712.031	18356.41
712.375	18318.44
712.719	18281.61
713.063	18304.89
713.407	18391.66
713.75	18242.06
714.094	18229.63
714.438	18254.72
714.782	18221.27
715.125	18117.77
715.469	18041.16
715.812	18078.68
716.156	17881.85
716.499	17953.03
716.843	17951.22
717.186	17791.23
717.53	17936.31
717.873	17787.39
718.216	17709.65
718.559	17610.89
718.902	17594.85
719.246	17508.3
719.589	17461.29
719.932	17560.95
720.275	17520.27
720.617	17515.75
720.96	17511.69
721.303	17431.01
721.646	17441.41
721.989	17299.26
722.331	17478.24
722.674	17403.44
723.016	17423.78
723.359	17261.07
723.701	17327.74
724.044	17187.18
724.386	17089.55
724.729	17156.67
725.071	17085.03
725.413	17081.19
725.755	17133.62
726.097	16962.1
726.439	16938.59
726.782	16951.02
727.124	16936.33
727.465	16953.06
727.807	16847.98
728.149	16876.9
728.491	16789.45
728.833	16895.88
729.175	16849.78
729.516	16678.71
729.858	16741.76
730.199	16753.29
730.541	16563.24
730.882	16650.92
731.224	16606.63
731.565	16560.53
731.906	16584.48
732.248	16498.15
732.589	16402.56
732.93	16411.83
733.271	16440.08
733.612	16271.95
733.953	16408.66
734.294	16261.1
734.635	16299.51
734.976	16351.04
735.317	16193.3
735.658	16201.66
735.999	16134.55
736.339	16075.34
736.68	16216.35
737.021	16102.01
737.361	16061.78
737.702	16066.07
738.042	16066.53
738.383	15989.92
738.723	16046.64
739.063	15972.74
739.404	15947.43
739.744	15938.85
740.084	15799.42
740.424	15902.24
740.764	15783.14
741.104	15881.9
741.444	15741.34
741.784	15657.72
742.124	15726.42
742.464	15672.86
742.804	15649.14
743.143	15575.24
743.483	15576.37
743.823	15543.38
744.162	15472.64
744.502	15472.42
744.841	15524.85
745.181	15504.73
745.52	15436.03
745.86	15508.58
746.199	15421.8
746.538	15379.99
746.877	15404.62
747.216	15376.38
747.556	15262.48
747.895	15294.8
748.234	15184.74
748.573	15161.69
748.911	15117.17
749.25	15148.58
749.589	15067.91
749.928	15061.81
750.267	15097.29
750.605	14977.29
750.944	14930.74
751.283	14917.4
751.621	14952.66
751.96	14863.17
752.298	14897.52
752.636	14869.5
752.975	14727.8
753.313	14701.36
753.651	14704.75
753.989	14600.58
754.327	14638.09
754.666	14559.67
755.004	14578.88
