Data from foam_black_FLMS001491_00009.txt Node
Date: Wed Feb 08 10:43:26 GMT 2017
User: dcchb
Spectrometer: FLMS00149
Trigger mode: 0
Integration Time (sec): 2.000000E-2
Scans to average: 10
Electric dark correction enabled: true
Nonlinearity correction enabled: false
Boxcar width: 0
XAxis mode: Wavelengths
Number of Pixels in Spectrum: 2048
>>>>>Begin Spectral Data<<<<<
341.393	-6.33
341.776	-6.33
342.16	-6.33
342.543	-53.56
342.927	-89.72
343.31	-66.21
343.693	-68.92
344.077	-51.52
344.46	-55.82
344.843	-73.44
345.226	-52.2
345.61	-23.95
345.993	-25.31
346.376	-9.94
346.759	3.62
347.142	18.76
347.525	58.76
347.908	71.18
348.291	69.38
348.674	98.75
349.057	106.89
349.44	129.49
349.823	135.59
350.206	162.71
350.588	195.48
350.971	193.67
351.354	240.9
351.737	224.4
352.119	247.23
352.502	258.3
352.884	265.76
353.267	269.82
353.65	276.83
354.032	295.81
354.414	303.04
354.797	305.75
355.179	318.64
355.562	338.3
355.944	329.03
356.326	353.21
356.709	323.16
357.091	337.39
357.473	338.07
357.855	343.95
358.238	354.57
358.62	355.02
359.002	347.11
359.384	353.66
359.766	360.67
360.148	332.65
360.53	344.62
360.912	345.53
361.294	354.57
361.676	337.62
362.057	344.4
362.439	354.57
362.821	334.23
363.203	324.51
363.584	338.3
363.966	326.77
364.348	343.27
364.729	329.71
365.111	322.03
365.493	359.09
365.874	334.23
366.256	337.17
366.637	350.27
367.019	350.05
367.4	336.71
367.781	311.86
368.163	315.25
368.544	330.84
368.925	320.44
369.306	336.04
369.688	329.26
370.069	327
370.45	327.45
370.831	339.88
371.212	325.19
371.593	327.22
371.974	316.83
372.355	343.27
372.736	338.3
373.117	335.36
373.498	336.94
373.879	350.73
374.26	343.95
374.641	315.25
375.021	331.06
375.402	357.5
375.783	353.44
376.163	362.48
376.544	362.02
376.925	352.53
377.305	358.86
377.686	357.96
378.066	367.22
378.447	348.69
378.827	352.53
379.208	383.49
379.588	378.3
379.968	383.94
380.349	361.12
380.729	371.06
381.109	386.2
381.489	385.98
381.87	381.01
382.25	363.61
382.63	377.84
383.01	387.33
383.39	384.4
383.77	387.79
384.15	391.63
384.53	388.01
384.91	384.62
385.29	417.16
385.67	393.21
386.049	428.46
386.429	402.48
386.809	406.54
387.189	401.8
387.568	424.85
387.948	397.5
388.328	413.77
388.707	402.02
389.087	415.36
389.466	430.27
389.846	441.12
390.225	428.92
390.605	436.15
390.984	418.52
391.363	422.14
391.743	436.15
392.122	450.61
392.501	449.03
392.881	437.05
393.26	455.58
393.639	451.74
394.018	467.11
394.397	459.2
394.776	480.67
395.155	465.75
395.534	451.51
395.913	480.21
396.292	466.43
396.671	467.11
397.05	491.51
397.429	507.33
397.808	495.13
398.186	482.47
398.565	499.87
398.944	497.16
399.323	498.52
399.701	526.54
400.08	515.69
400.458	519.31
400.837	514.11
401.215	516.6
401.594	539.19
401.972	511.17
402.351	513.66
402.729	528.8
403.107	536.03
403.486	557.73
403.864	529.7
404.242	553.66
404.62	547.1
404.999	549.82
405.377	565.41
405.755	557.05
406.133	549.59
406.511	576.71
406.889	558.4
407.267	566.54
407.645	581.45
408.023	598.4
408.401	598.4
408.779	581.68
409.156	608.57
409.534	617.38
409.912	620.1
410.29	599.98
410.667	618.97
411.045	633.2
411.422	615.58
411.8	643.82
412.178	669.36
412.555	662.13
412.933	635.24
413.31	678.17
413.687	695.57
414.065	675.24
414.442	679.98
414.819	696.48
415.197	687.44
415.574	729.7
415.951	722.92
416.328	717.04
416.705	693.99
417.082	723.37
417.46	752.3
417.837	722.69
418.214	728.57
418.591	744.84
418.967	763.14
419.344	753.88
419.721	758.62
420.098	781.9
420.475	793.2
420.852	784.16
421.228	772.86
421.605	817.83
421.982	808.11
422.358	805.63
422.735	823.48
423.111	798.62
423.488	813.99
423.864	836.14
424.241	851.28
424.617	847.21
424.994	883.14
425.37	875.91
425.746	849.7
426.123	849.92
426.499	877.04
426.875	894.21
427.251	933.99
427.627	955.91
428.003	919.98
428.379	920.43
428.756	956.36
429.132	919.52
429.507	967.66
429.883	935.79
430.259	965.85
430.635	986.41
431.011	1012.63
431.387	1001.56
431.763	1033.42
432.138	1035.9
432.514	1056.47
432.89	1031.16
433.265	1078.39
433.641	1069.12
434.016	1065.51
434.392	1081.78
434.767	1126.07
435.143	1090.82
435.518	1106.86
435.894	1138.73
436.269	1141.21
436.644	1173.3
437.02	1134.43
437.395	1159.74
437.77	1190.25
438.145	1204.71
438.52	1182.12
438.895	1208.78
439.271	1218.05
439.646	1238.39
440.021	1217.6
440.395	1216.92
440.77	1239.06
441.145	1239.74
441.52	1267.76
441.895	1251.49
442.27	1287.2
442.645	1293.3
443.019	1314.77
443.394	1290.36
443.769	1316.8
444.143	1306.18
444.518	1319.51
444.892	1303.47
445.267	1337.59
445.641	1334.65
446.016	1340.76
446.39	1360.19
446.764	1392.73
447.139	1383.01
447.513	1376.91
447.887	1386.86
448.262	1397.7
448.636	1396.8
449.01	1409
449.384	1430.47
449.758	1428.89
450.132	1480.87
450.506	1447.19
450.88	1468.66
451.254	1477.93
451.628	1477.48
452.002	1503.69
452.376	1531.26
452.75	1523.8
453.123	1555.44
453.497	1558.6
453.871	1573.07
454.244	1595.66
454.618	1628.88
454.992	1661.2
455.365	1612.39
455.739	1661.88
456.112	1689.45
456.486	1711.37
456.859	1691.71
457.232	1732.38
457.606	1755.21
457.979	1743.68
458.352	1793.4
458.725	1801.53
459.099	1805.15
459.472	1860.52
459.845	1859.84
460.218	1846.51
460.591	1902.77
460.964	1889.44
461.337	1944.13
461.71	1964.92
462.083	1977.8
462.456	1990.46
462.829	2026.84
463.201	2045.14
463.574	2039.27
463.947	2075.43
464.32	2078.82
464.692	2130.57
465.065	2146.84
465.438	2142.77
465.81	2177.57
466.183	2197.91
466.555	2259.83
466.928	2257.34
467.3	2281.07
467.672	2265.93
468.045	2329.43
468.417	2344.57
468.789	2384.8
469.161	2398.81
469.534	2436.09
469.906	2468.86
470.278	2484.23
470.65	2517.67
471.022	2557.67
471.394	2611
471.766	2647.16
472.138	2642.42
472.51	2719.7
472.882	2768.74
473.253	2807.61
473.625	2783.88
473.997	2877.66
474.369	2877.66
474.74	2945.01
475.112	2958.34
475.484	3005.12
475.855	3076.3
476.227	3140.03
476.598	3181.16
476.97	3165.57
477.341	3245.79
477.713	3307.71
478.084	3324.66
478.455	3392.91
478.827	3436.97
479.198	3547.7
479.569	3554.03
479.94	3632.67
480.311	3641.71
480.682	3723.07
481.053	3797.87
481.424	3831.54
481.795	3913.57
482.166	3951.99
482.537	3990.86
482.908	4053
483.279	4117.18
483.65	4243.96
484.021	4271.3
484.391	4258.42
484.762	4352.65
485.133	4371.64
485.503	4465.87
485.874	4524.17
486.244	4576.15
486.615	4659.09
486.985	4699.99
487.356	4768.46
487.726	4765.75
488.097	4939.98
488.467	4937.27
488.837	5006.87
489.207	5011.62
489.578	5127.55
489.948	5185.63
490.318	5288.45
490.688	5267.88
491.058	5376.36
491.428	5441.44
491.798	5452.06
492.168	5558.27
492.538	5573.41
492.908	5670.59
493.278	5684.37
493.648	5712.39
494.017	5776.8
494.387	5834.65
494.757	5901.09
495.126	5900.41
495.496	5978.37
495.866	6068.99
496.235	6033.74
496.605	6102.66
496.974	6104.47
497.344	6179.95
497.713	6208.2
498.082	6281.64
498.452	6345.82
498.821	6348.53
499.19	6396.22
499.559	6423.56
499.928	6487.74
500.298	6518.47
500.667	6592.82
501.036	6626.04
501.405	6746.04
501.774	6700.16
502.143	6698.58
502.512	6772.93
502.88	6874.17
503.249	6842.08
503.618	6958.01
503.987	6949.65
504.356	7021.28
504.724	7076.42
505.093	7044.56
505.462	7095.18
505.83	7161.17
506.199	7240.49
506.567	7325.01
506.936	7283.2
507.304	7405.68
507.672	7462.85
508.041	7476.41
508.409	7515.96
508.777	7593.7
509.145	7627.82
509.514	7629.4
509.882	7753.69
510.25	7746.01
510.618	7858.1
510.986	7831.66
511.354	7929.06
511.722	7981.94
512.09	8107.36
512.458	8047.92
512.826	8116.4
513.193	8147.58
513.561	8216.51
513.929	8249.05
514.297	8282.04
514.664	8366.11
515.032	8428.7
515.4	8596.61
515.767	8615.37
516.135	8584.41
516.502	8628.47
516.869	8738.53
517.237	8811.52
517.604	8816.04
517.972	8907.34
518.339	9004.28
518.706	8935.36
519.073	9049.93
519.44	9103.49
519.808	9158.63
520.175	9224.16
520.542	9323.14
520.909	9371.28
521.276	9314.11
521.643	9411.28
522.009	9616.7
522.376	9616.24
522.743	9680.2
523.11	9735.11
523.477	9834.77
523.843	9980.53
524.21	10046.52
524.577	10069.57
524.943	10203.35
525.31	10254.42
525.676	10377.13
526.043	10397.69
526.409	10454.64
526.776	10481.53
527.142	10565.82
527.508	10582.55
527.874	10670.91
528.241	10846.95
528.607	10812.37
528.973	10962.2
529.339	10957
529.705	11061.4
530.071	11091.69
530.437	11168.29
530.803	11245.81
531.169	11316.76
531.535	11311.12
531.901	11368.97
532.267	11421.17
532.632	11549.75
532.998	11636.3
533.364	11697.32
533.73	11690.77
534.095	11730.31
534.461	11808.05
534.826	11854.6
535.192	11915.62
535.557	11963.98
535.923	12029.97
536.288	12100.92
536.653	12161.26
537.019	12224.09
537.384	12219.57
537.749	12301.6
538.114	12362.39
538.479	12286.46
538.845	12392.44
539.21	12468.82
539.575	12485.55
539.94	12544.08
540.305	12622.04
540.67	12605.77
541.034	12713.11
541.399	12755.82
541.764	12749.95
542.129	12820
542.494	12863.39
542.858	12861.36
543.223	12961.47
543.587	13021.58
543.952	12980.45
544.316	13025.19
544.681	13035.36
545.045	13147.9
545.41	13268.13
545.774	13208.47
546.138	13255.24
546.503	13349.71
546.867	13365.52
547.231	13494.56
547.595	13471.06
547.959	13515.8
548.324	13567.1
548.688	13586.54
549.052	13575.69
549.416	13767.77
549.779	13776.36
550.143	13766.19
550.507	13913.76
550.871	13909.46
551.235	13958.05
551.599	14079.63
551.962	14076.24
552.326	14140.65
552.689	14219.06
553.053	14186.97
553.417	14248.44
553.78	14386.06
554.143	14395.33
554.507	14443.69
554.87	14489.79
555.234	14642.1
555.597	14586.51
555.96	14798.48
556.323	14803.45
556.686	14853.62
557.05	14948.99
557.413	14965.93
557.776	15033.28
558.139	15038.47
558.502	15133.16
558.865	15179.04
559.228	15301.97
559.59	15341.52
559.953	15369.09
560.316	15546.71
560.679	15538.8
561.041	15687.27
561.404	15772.01
561.767	15869.64
562.129	15789.42
562.492	16019.01
562.854	16018.34
563.217	16012.23
563.579	16066.02
563.941	16242.74
564.304	16227.82
564.666	16378.78
565.028	16385.56
565.39	16494.26
565.753	16620.81
566.115	16656.74
566.477	16711.88
566.839	16765.89
567.201	16893.12
567.563	16983.06
567.925	17014.92
568.287	17017.18
568.648	17061.02
569.01	17141.24
569.372	17301.47
569.734	17263.27
570.095	17256.04
570.457	17434.34
570.819	17460.33
571.18	17436.83
571.542	17745.52
571.903	17646.32
572.265	17721.57
572.626	17741.45
572.987	17795.24
573.349	17850.6
573.71	17982.13
574.071	17931.73
574.432	17935.57
574.794	18128.79
575.155	18022.12
575.516	18107.09
575.877	18157.26
576.238	18220.31
576.599	18222.12
576.96	18260.99
577.32	18343.47
577.681	18350.93
578.042	18423.02
578.403	18413.08
578.763	18414.88
579.124	18561.32
579.485	18528.55
579.845	18563.81
580.206	18541.43
580.566	18607.42
580.927	18566.97
581.287	18610.81
581.648	18548.89
582.008	18705.04
582.368	18590.25
582.728	18610.81
583.089	18645.39
583.449	18553.41
583.809	18678.83
584.169	18714.76
584.529	18720.64
584.889	18853.52
585.249	18699.4
585.609	18720.41
585.969	18892.84
586.329	18809.9
586.688	18836.34
587.048	18748.43
587.408	18742.33
587.768	18794.76
588.127	18734.87
588.487	18700.3
588.846	18888.09
589.206	18765.83
589.565	18829.56
589.925	18939.39
590.284	18935.32
590.643	18983.46
591.003	18951.37
591.362	18934.42
591.721	18957.47
592.08	18974.64
592.44	19013.29
592.799	19020.29
593.158	18965.83
593.517	19027.97
593.876	19097.8
594.235	19126.05
594.593	19127.41
594.952	19150.46
595.311	19113.85
595.67	19147.97
596.029	19262.77
596.387	19265.93
596.746	19297.35
597.104	19242.21
597.463	19294.41
597.822	19290.57
598.18	19312.49
598.538	19312.71
598.897	19526.94
599.255	19246.95
599.613	19464.57
599.972	19374.18
600.33	19432.03
600.688	19521.29
601.046	19532.82
601.404	19626.83
601.762	19521.97
602.12	19543.21
602.478	19593.16
602.836	19629.54
603.194	19435.87
603.552	19568.53
603.91	19535.08
604.268	19514.29
604.625	19559.94
604.983	19634.06
605.341	19577.79
605.698	19632.48
606.056	19745.24
606.413	19655.3
606.771	19674.51
607.128	19792.47
607.485	19618.02
607.843	19767.62
608.2	19762.87
608.557	19830.21
608.914	19794.28
609.272	19921.28
609.629	19896.2
609.986	19941.17
610.343	19844.68
610.7	20017.1
611.057	19960.38
611.414	19905.69
611.771	19965.58
612.127	20050.32
612.484	19992.69
612.841	20067.72
613.198	20017.78
613.554	19942.3
613.911	20096.19
614.267	20023.2
614.624	20075.86
614.98	20088.29
615.337	20147.94
615.693	20163.99
616.05	20081.05
616.406	20176.42
616.762	20065.01
617.118	20119.02
617.475	20161.73
617.831	20137.78
618.187	20117.21
618.543	20198.11
618.899	20304.78
619.255	20254.38
619.611	20324.89
619.967	20307.71
620.323	20326.92
620.678	20222.75
621.034	20224.1
621.39	20169.64
621.746	20267.94
622.101	20343.42
622.457	20161.05
622.812	20193.59
623.168	20289.18
623.523	20235.4
623.879	20323.99
624.234	20168.96
624.589	20239.47
624.945	20192.92
625.3	20205.8
625.655	20191.56
626.01	20297.77
626.365	20212.12
626.72	20249.64
627.075	20217.55
627.43	20212.58
627.785	20122.18
628.14	20184.55
628.495	20180.26
628.85	20173.48
629.205	20146.81
629.559	20267.94
629.914	20086.7
630.269	20204.21
630.623	20127.61
630.978	20016.65
631.332	20155.63
631.687	20148.4
632.041	20062.75
632.396	20083.09
632.75	20014.84
633.104	19968.06
633.459	19973.71
633.813	19859.82
634.167	19779.37
634.521	19828.86
634.875	19915.63
635.229	19781.63
635.583	19752.7
635.937	19773.04
636.291	19768.75
636.645	19874.05
636.999	19590.22
637.352	19821.85
637.706	19682.19
638.06	19746.37
638.413	19653.95
638.767	19584.57
639.121	19579.37
639.474	19433.16
639.828	19593.16
640.181	19645.81
640.534	19598.35
640.888	19554.97
641.241	19496.89
641.594	19481.07
641.947	19552.71
642.301	19444.23
642.654	19549.54
643.007	19651.91
643.36	19551.35
643.713	19511.13
644.066	19559.03
644.419	19418.47
644.771	19353.84
645.124	19151.81
645.477	19023
645.83	19111.14
646.182	18976
646.535	18857.81
646.888	19013.96
647.24	18842.67
647.593	18931.03
647.945	18903.01
648.298	18959.73
648.65	18914.53
649.002	18783.01
649.355	18822.33
649.707	18766.06
650.059	18846.28
650.411	19013.51
650.763	19026.62
651.115	19233.39
651.467	19219.83
651.819	19243.56
652.171	19128.99
652.523	19092.83
652.875	19156.11
653.227	19038.6
653.578	19090.12
653.93	19166.95
654.282	18995.43
654.633	19043.57
654.985	19061.19
655.337	19086.5
655.688	19086.28
656.039	19172.38
656.391	18901.42
656.742	18952.04
657.094	18940.07
657.445	19085.83
657.796	18941.42
658.147	18870.01
658.498	18968.77
658.849	18978.26
659.2	18846.74
659.551	18883.57
659.902	18922.44
660.253	18936.9
660.604	18928.54
660.955	18724.48
661.306	18874.98
661.656	18722.22
662.007	18750.02
662.358	18776
662.708	18719.06
663.059	18772.16
663.409	18622.56
663.76	18770.13
664.11	18760.86
664.461	18753.41
664.811	18704.59
665.161	18645.84
665.511	18671.83
665.862	18660.3
666.212	18696.01
666.562	18590.47
666.912	18558.83
667.262	18574.2
667.612	18580.53
667.962	18723.8
668.312	18552.05
668.662	18606.97
669.011	18567.65
669.361	18468.89
669.711	18439.52
670.06	18401.78
670.41	18387.77
670.76	18354.32
671.109	18484.71
671.459	18355.68
671.808	18248.56
672.157	18405.17
672.507	18208.33
672.856	18269.58
673.205	18378.05
673.554	18296.92
673.904	18190.71
674.253	18235.45
674.602	18182.35
674.951	17922.47
675.3	17898.74
675.649	18171.27
675.998	18057.83
676.346	17992.97
676.695	18186.41
677.044	18096.25
677.393	17985.29
677.741	18056.47
678.09	17966.76
678.438	17884.95
678.787	17986.65
679.135	17928.57
679.484	17855.35
679.832	17874.33
680.181	17723.38
680.529	17857.84
680.877	17853.99
681.225	17716.6
681.573	17794.11
681.922	17649.93
682.27	17647.67
682.618	17599.76
682.966	17594.57
683.314	17548.24
683.661	17585.3
684.009	17463.72
684.357	17468.24
684.705	17432.31
685.053	17433.21
685.4	17427.56
685.748	17274.35
686.095	17359.09
686.443	17334.01
686.79	17133.33
687.138	17218.76
687.485	17267.57
687.832	17172.88
688.18	17268.92
688.527	17096.95
688.874	17180.57
689.221	17071.64
689.568	16981.47
689.915	16960.68
690.262	17017.86
690.609	16963.85
690.956	16997.97
691.303	17008.82
691.65	16818.31
691.997	16856.96
692.344	16773.57
692.69	16738.32
693.037	16810.41
693.383	16612.22
693.73	16636.85
694.077	16585.33
694.423	16632.78
694.769	16485.67
695.116	16404.09
695.462	16428.72
695.808	16369.29
696.155	16458.55
696.501	16277.54
696.847	16386.69
697.193	16141.27
697.539	16270.53
697.885	16117.09
698.231	16166.81
698.577	16106.92
698.923	16077.32
699.269	16058.33
699.614	15966.13
699.96	15965.46
700.306	16020.82
700.651	15902.41
700.997	15838.68
701.342	15892.69
701.688	15835.52
702.033	15818.12
702.379	15792.35
702.724	15728.4
703.069	15802.3
703.415	15485.92
703.76	15492.25
704.105	15602.98
704.45	15512.59
704.795	15388.52
705.14	15389.2
705.485	15445.24
705.83	15431.68
706.175	15351.01
706.52	15240.28
706.865	15297.22
707.209	15212.48
707.554	15285.25
707.899	15210.45
708.243	15153.5
708.588	15084.58
708.932	14922.77
709.277	14993.5
709.621	14977.01
709.966	14920.29
710.31	14871.47
710.654	14802.77
710.998	14888.2
711.342	14832.38
711.687	14842.55
712.031	14675.32
712.375	14713.51
712.719	14755.77
713.063	14698.82
713.407	14680.97
713.75	14628.09
714.094	14555.78
714.438	14533.18
714.782	14627.64
715.125	14503.8
715.469	14449.79
715.812	14423.35
716.156	14384.25
716.499	14294.99
716.843	14378.38
717.186	14334.09
717.53	14369.57
717.873	14324.14
718.216	14249.79
718.559	14168.67
718.902	14122.34
719.246	14134.32
719.589	14079.63
719.932	13977.49
720.275	14089.12
720.617	13945.85
720.96	13974.32
721.303	13966.41
721.646	14009.35
721.989	13890.71
722.331	13856.81
722.674	13889.35
723.016	13867.43
723.359	13787.66
723.701	13848
724.044	13704.27
724.386	13599.42
724.729	13708.11
725.071	13687.32
725.413	13676.02
725.755	13622.47
726.097	13528.01
726.439	13598.51
726.782	13667.21
727.124	13609.59
727.465	13465.18
727.807	13478.06
728.149	13487.1
728.491	13399.87
728.833	13328.24
729.175	13393.77
729.516	13376.82
729.858	13347.22
730.199	13310.61
730.541	13283.49
730.882	13252.53
731.224	13258.63
731.565	13129.6
731.906	13157.85
732.248	13186.77
732.589	13181.35
732.93	13093.22
733.271	13166.89
733.612	13084.63
733.953	13173.21
734.294	13064.52
734.635	12949.04
734.976	13062.71
735.317	12966.66
735.658	12961.47
735.999	12881.7
736.339	12906.1
736.68	12931.86
737.021	12862.49
737.361	12811.41
737.702	12923.5
738.042	12737.97
738.383	12771.42
738.723	12784.75
739.063	12788.14
739.404	12795.82
739.744	12673.57
740.084	12629.05
740.424	12654.13
740.764	12546.56
741.104	12718.76
741.444	12625.2
741.784	12539.56
742.124	12517.64
742.464	12563.06
742.804	12525.55
743.143	12492.1
743.483	12467.69
743.823	12344.08
744.162	12359.22
744.502	12400.35
744.841	12320.35
745.181	12363.29
745.52	12359.68
745.86	12410.3
746.199	12308.38
746.538	12240.58
746.877	12290.3
747.216	12245.55
747.556	12207.59
747.895	12255.72
748.234	12179.57
748.573	12123.75
748.911	12103.64
749.25	12098.44
749.589	11993.36
749.928	12031.55
750.267	12077.87
750.605	12039.68
750.944	12024.09
751.283	12016.63
751.621	12014.6
751.96	11930.53
752.298	11911.78
752.636	11838.78
752.975	11845.11
753.313	11775.06
753.651	11781.16
753.989	11725.57
754.327	11748.17
754.666	11627.26
755.004	11638.11
755.342	11662.29
755.679	11601.05
756.017	11532.13
756.355	11532.13
