Data from foam_black_FLMS001491_00020.txt Node
Date: Wed Feb 08 10:43:36 GMT 2017
User: dcchb
Spectrometer: FLMS00149
Trigger mode: 0
Integration Time (sec): 2.000000E-2
Scans to average: 10
Electric dark correction enabled: true
Nonlinearity correction enabled: false
Boxcar width: 0
XAxis mode: Wavelengths
Number of Pixels in Spectrum: 2048
>>>>>Begin Spectral Data<<<<<
341.393	-18.33
341.776	-18.33
342.16	-18.33
342.543	-61.72
342.927	-69.4
343.31	-47.48
343.693	-64.89
344.077	-60.14
344.46	-80.7
344.843	-59.24
345.226	-42.96
345.61	-26.24
345.993	-35.96
346.376	7.66
346.759	8.33
347.142	13.98
347.525	51.95
347.908	65.51
348.291	74.77
348.674	84.04
349.057	111.38
349.44	117.03
349.823	121.32
350.206	159.52
350.588	192.51
350.971	182.79
351.354	216.92
351.737	218.72
352.119	252.85
352.502	265.28
352.884	258.95
353.267	254.88
353.65	272.28
354.032	302.79
354.414	293.75
354.797	294.88
355.179	307.76
355.562	311.83
355.944	317.93
356.326	330.36
356.709	331.71
357.091	326.06
357.473	343.47
357.855	335.33
358.238	315.44
358.62	337.59
359.002	345.05
359.384	331.49
359.766	326.52
360.148	340.53
360.53	342.34
360.912	322.9
361.294	330.13
361.676	338.49
362.057	329.91
362.439	300.75
362.821	320.19
363.203	312.51
363.584	321.55
363.966	342.79
364.348	311.15
364.729	298.49
365.111	319.29
365.493	317.48
365.874	295.78
366.256	308.89
366.637	329.45
367.019	308.44
367.4	314.99
367.781	302.79
368.163	312.73
368.544	309.34
368.925	317.48
369.306	351.83
369.688	304.37
370.069	305.05
370.45	298.27
370.831	309.79
371.212	323.58
371.593	303.69
371.974	336.01
372.355	317.48
372.736	322
373.117	327.42
373.498	302.11
373.879	307.53
374.26	315.22
374.641	322.45
375.021	307.76
375.402	310.7
375.783	333.07
376.163	340.98
376.544	305.5
376.925	326.74
377.305	344.37
377.686	339.4
378.066	321.09
378.447	326.29
378.827	353.86
379.208	344.14
379.588	333.3
379.968	331.49
380.349	352.28
380.729	327.19
381.109	319.51
381.489	346.86
381.87	326.06
382.25	350.02
382.63	355.89
383.01	345.5
383.39	359.74
383.77	371.26
384.15	361.54
384.53	357.93
384.91	380.98
385.29	375.33
385.67	377.36
386.049	378.04
386.429	378.27
386.809	364.48
387.189	367.65
387.568	369.45
387.948	383.24
388.328	370.13
388.707	386.18
389.087	374.65
389.466	392.28
389.846	378.49
390.225	402.22
390.605	386.4
390.984	377.14
391.363	406.06
391.743	394.54
392.122	392.5
392.501	406.74
392.881	401.09
393.26	410.36
393.639	410.36
394.018	414.2
394.397	396.8
394.776	408.1
395.155	397.7
395.534	405.61
395.913	403.12
396.292	420.75
396.671	409.45
397.05	419.62
397.429	425.95
397.808	431.37
398.186	417.36
398.565	432.73
398.944	444.03
399.323	426.4
399.701	422.11
400.08	449
400.458	429.11
400.837	434.31
401.215	439.28
401.594	437.93
401.972	465.27
402.351	451.26
402.729	475.67
403.107	443.12
403.486	482.22
403.864	460.98
404.242	477.93
404.62	462.56
404.999	479.06
405.377	479.51
405.755	478.15
406.133	485.83
406.511	485.61
406.889	468.89
407.267	495.1
407.645	471.6
408.023	498.94
408.401	509.56
408.779	517.25
409.156	529.9
409.534	523.8
409.912	515.66
410.29	524.7
410.667	528.32
411.045	544.14
411.422	526.74
411.8	509.79
412.178	550.92
412.555	525.38
412.933	559.05
413.31	557.92
413.687	573.52
414.065	569
414.442	553.4
414.819	573.97
415.197	573.06
415.574	576.68
415.951	585.95
416.328	583.46
416.705	591.82
417.082	581.88
417.46	609.67
417.837	622.78
418.214	596.57
418.591	616
418.967	613.51
419.344	616.23
419.721	627.75
420.098	627.98
420.475	620.75
420.852	638.37
421.228	632.5
421.605	639.95
421.982	640.41
422.358	643.34
422.735	647.41
423.111	639.28
423.488	673.63
423.864	659.39
424.241	697.81
424.617	681.76
424.994	682.89
425.37	678.6
425.746	674.98
426.123	702.33
426.499	690.12
426.875	712.5
427.251	696.9
427.627	736.68
428.003	729.67
428.379	759.5
428.756	743.23
429.132	757.01
429.507	712.04
429.883	776.45
430.259	780.52
430.635	806.05
431.011	782.78
431.387	785.04
431.763	805.6
432.138	827.97
432.514	816.67
432.89	834.98
433.265	839.05
433.641	851.47
434.016	840.4
434.392	839.05
434.767	866.39
435.143	843.57
435.518	891.02
435.894	883.34
436.269	895.09
436.644	901.19
437.02	898.93
437.395	928.76
437.77	919.5
438.145	921.08
438.52	949.33
438.895	941.64
439.271	964.69
439.646	980.06
440.021	953.84
440.395	953.39
440.77	949.78
441.145	1004.01
441.52	979.83
441.895	988.65
442.27	998.14
442.645	986.39
443.019	986.39
443.394	1015.76
443.769	1012.15
444.143	1009.66
444.518	1026.16
444.892	1007.4
445.267	1041.3
445.641	1038.14
446.016	1036.33
446.39	1062.77
446.764	1052.15
447.139	1043.79
447.513	1036.78
447.887	1079.04
448.262	1084.91
448.636	1074.07
449.01	1104.8
449.384	1110.23
449.758	1084.69
450.132	1122.88
450.506	1116.1
450.88	1136.67
451.254	1157.68
451.628	1173.05
452.002	1155.42
452.376	1142.54
452.75	1182.09
453.123	1184.12
453.497	1173.95
453.871	1208.98
454.244	1236.32
454.618	1242.88
454.992	1250.79
455.365	1208.08
455.739	1268.64
456.112	1274.51
456.486	1282.42
456.859	1292.59
457.232	1322.2
457.606	1287.85
457.979	1320.16
458.352	1366.04
458.725	1351.57
459.099	1375.98
459.472	1411.23
459.845	1426.6
460.218	1411.91
460.591	1420.95
460.964	1448.3
461.337	1457.11
461.71	1481.97
462.083	1505.02
462.456	1485.58
462.829	1486.03
463.201	1513.15
463.574	1505.02
463.947	1554.06
464.32	1586.82
464.692	1582.75
465.065	1615.52
465.438	1599.48
465.81	1668.85
466.183	1651.68
466.555	1683.32
466.928	1699.59
467.3	1732.36
467.672	1739.36
468.045	1780.49
468.417	1788.4
468.789	1752.24
469.161	1791.79
469.534	1821.62
469.906	1837.89
470.278	1855.74
470.65	1901.16
471.022	1910.2
471.394	1925.57
471.766	1959.47
472.138	1964.67
472.51	2006.02
472.882	2025.91
473.253	2055.28
473.625	2099.58
473.997	2118.33
474.369	2113.59
474.74	2163.98
475.112	2201.27
475.484	2196.98
475.855	2259.57
476.227	2311.1
476.598	2347.71
476.97	2351.1
477.341	2366.24
477.713	2464.09
478.084	2465.9
478.455	2487.14
478.827	2494.6
479.198	2594.48
479.569	2579.34
479.94	2678.55
480.311	2655.27
480.682	2728.71
481.053	2758.54
481.424	2817.07
481.795	2873.79
482.166	2882.61
482.537	2909.5
482.908	2960.8
483.279	3015.94
483.65	3064.3
484.021	3100.91
484.391	3121.92
484.762	3150.17
485.133	3158.76
485.503	3211.41
485.874	3282.6
486.244	3294.57
486.615	3369.37
486.985	3387.45
487.356	3435.36
487.726	3441.01
488.097	3524.62
488.467	3538.41
488.837	3628.35
489.207	3657.05
489.578	3699.08
489.948	3744.28
490.318	3797.39
490.688	3822.24
491.058	3901.79
491.428	3910.6
491.798	3918.06
492.168	4016.82
492.538	4008.91
492.908	4128.9
493.278	4116.25
493.648	4102.69
494.017	4200.31
494.387	4219.97
494.757	4204.61
495.126	4284.83
495.496	4326.19
495.866	4399.4
496.235	4428.78
496.605	4427.65
496.974	4445.5
497.344	4470.14
497.713	4536.35
498.082	4549.46
498.452	4610.47
498.821	4632.17
499.19	4642.56
499.559	4651.15
499.928	4704.25
500.298	4732.05
500.667	4750.13
501.036	4794.42
501.405	4816.34
501.774	4815.66
502.143	4894.53
502.512	4913.29
502.88	4908.32
503.249	4903.57
503.618	4965.04
503.987	4988.54
504.356	5054.3
504.724	5086.39
505.093	5089.33
505.462	5122.55
505.83	5151.47
506.199	5196.45
506.567	5233.73
506.936	5276.9
507.304	5314.41
507.672	5358.7
508.041	5390.56
508.409	5462.65
508.777	5476.21
509.145	5550.11
509.514	5526.15
509.882	5565.7
510.25	5592.59
510.618	5637.34
510.986	5697.22
511.354	5675.08
511.722	5724.12
512.09	5767.5
512.458	5815.86
512.826	5842.98
513.193	5807.95
513.561	5831.91
513.929	5910.1
514.297	5954.84
514.664	6013.6
515.032	6035.97
515.4	6055.18
515.767	6139.47
516.135	6172.46
516.502	6146.48
516.869	6257.66
517.237	6337.66
517.604	6324.78
517.972	6392.35
518.339	6445.23
518.706	6430.76
519.073	6560.48
519.44	6583.75
519.808	6638.22
520.175	6664.66
520.542	6813.35
520.909	6787.82
521.276	6802.5
521.643	6866.23
522.009	6890.19
522.376	6946.91
522.743	6990.75
523.11	7003.63
523.477	7121.82
523.843	7108.49
524.21	7134.02
524.577	7187.35
524.943	7230.06
525.31	7291.08
525.676	7391.42
526.043	7358.2
526.409	7481.13
526.776	7501.7
527.142	7581.92
527.508	7658.53
527.874	7765.87
528.241	7797.28
528.607	7870.27
528.973	7916.83
529.339	7922.7
529.705	8059.65
530.071	8093.32
530.437	8096.03
530.803	8190.94
531.169	8173.54
531.535	8248.12
531.901	8293.09
532.267	8350.49
532.632	8390.03
532.998	8439.75
533.364	8410.6
533.73	8409.24
534.095	8514.55
534.461	8560.65
534.826	8490.37
535.192	8597.94
535.557	8610.82
535.923	8618.95
536.288	8649.69
536.653	8692.17
537.019	8658.95
537.384	8775.33
537.749	8756.58
538.114	8855.33
538.479	8849.46
538.845	8913.64
539.21	8932.62
539.575	9023.46
539.94	9046.74
540.305	9131.94
540.67	9156.57
541.034	9222.78
541.399	9245.15
541.764	9313.17
542.129	9431.59
542.494	9304.81
542.858	9399.05
543.223	9449.67
543.587	9452.15
543.952	9418.93
544.316	9516.56
544.681	9475.2
545.045	9529.66
545.41	9562.88
545.774	9548.2
546.138	9557.69
546.503	9590.91
546.867	9667.06
547.231	9682.66
547.595	9663.67
547.959	9746.16
548.324	9818.7
548.688	9815.76
549.052	9855.53
549.416	9935.53
549.779	9958.13
550.143	9970.11
550.507	9997.67
550.871	10100.27
551.235	10177.56
551.599	10211
551.962	10264.79
552.326	10312.24
552.689	10337.55
553.053	10346.14
553.417	10438.12
553.78	10528.06
554.143	10515.63
554.507	10589.75
554.87	10646.7
555.234	10702.06
555.597	10639.01
555.96	10723.08
556.323	10764.66
556.686	10760.82
557.05	10792.68
557.413	10846.24
557.776	10822.51
558.139	10909.52
558.502	10930.76
558.865	10961.49
559.228	10992
559.59	11110.87
559.953	11142.5
560.316	11257.3
560.679	11288.94
561.041	11400.58
561.404	11421.59
561.767	11568.93
562.129	11513.12
562.492	11690.96
562.854	11625.88
563.217	11655.26
563.579	11703.39
563.941	11852.99
564.304	11822.94
564.666	11899.77
565.028	11951.97
565.39	12071.07
565.753	12140.22
566.115	12125.75
566.477	12211.4
566.839	12248.69
567.201	12391.51
567.563	12223.83
567.925	12447.1
568.287	12469.47
568.648	12454.11
569.01	12571.62
569.372	12606.65
569.734	12594.44
570.095	12674.21
570.457	12756.47
570.819	12751.95
571.18	12820.88
571.542	12902.23
571.903	12813.65
572.265	12998.27
572.626	12984.04
572.987	13061.55
573.349	13079.63
573.71	13228.32
574.071	13220.42
574.432	13306.29
574.794	13319.17
575.155	13267.65
575.516	13251.6
575.877	13374.76
576.238	13358.26
576.599	13435.55
576.96	13423.35
577.32	13517.81
577.681	13584.7
578.042	13563.68
578.403	13619.95
578.763	13577.92
579.124	13579.28
579.485	13689.1
579.845	13751.47
580.206	13659.73
580.566	13711.48
580.927	13781.3
581.287	13823.11
581.648	13676.45
582.008	13813.39
582.368	13804.35
582.728	13924.8
583.089	13809.33
583.449	13837.12
583.809	13850.23
584.169	13927.29
584.529	13828.53
584.889	13960.28
585.249	13935.65
585.609	13819.04
585.969	13891.58
586.329	13820.85
586.688	13928.42
587.048	13990.56
587.408	13883.67
587.768	13852.49
588.127	13808.2
588.487	13825.6
588.846	13834.41
589.206	13835.54
589.565	13804.35
589.925	13853.84
590.284	13810.68
590.643	13844.13
591.003	13964.12
591.362	13933.62
591.721	13969.55
592.08	14021.52
592.44	13985.37
592.799	14113.05
593.158	14031.24
593.517	14046.38
593.876	14137.68
594.235	14081.64
594.593	14223.1
594.952	14164.35
595.311	14057.68
595.67	14256.09
596.029	14243.21
596.387	14307.84
596.746	14354.17
597.104	14246.38
597.463	14285.47
597.822	14347.84
598.18	14327.05
598.538	14279.6
598.897	14370.44
599.255	14225.36
599.613	14465.58
599.972	14251.12
600.33	14305.13
600.688	14218.81
601.046	14336.77
601.404	14303.55
601.762	14245.47
602.12	14330.89
602.478	14287.28
602.836	14239.37
603.194	14090.22
603.552	14250.67
603.91	14192.59
604.268	14263.55
604.625	14239.37
604.983	14397.11
605.341	14183.55
605.698	14319.82
606.056	14351.23
606.413	14403.43
606.771	14342.87
607.128	14477.11
607.485	14328.63
607.843	14381.74
608.2	14511.68
608.557	14614.95
608.914	14577.67
609.272	14707.38
609.629	14675.07
609.986	14851.78
610.343	14763.2
610.7	14872.35
611.057	14824.44
611.414	14751
611.771	14881.84
612.127	14899.02
612.484	14863.54
612.841	14933.82
613.198	14873.93
613.554	14887.94
613.911	14838.9
614.267	14857.89
614.624	14892.01
614.98	14847.04
615.337	14928.39
615.693	15000.03
616.05	14823.99
616.406	14876.42
616.762	14856.53
617.118	14858.56
617.475	14849.52
617.831	14940.6
618.187	14902.18
618.543	14844.78
618.899	14966.81
619.255	14971.1
619.611	15023.53
619.967	14982.85
620.323	15071.89
620.678	15020.37
621.034	15071.21
621.39	15021.72
621.746	15079.58
622.101	15275.05
622.457	15181.27
622.812	15112.57
623.168	15248.61
623.523	15291.1
623.879	15366.57
624.234	15230.53
624.589	15374.03
624.945	15364.99
625.3	15300.81
625.655	15360.25
626.01	15392.56
626.365	15330.19
626.72	15327.25
627.075	15402.5
627.43	15365.44
627.785	15350.98
628.14	15370.19
628.495	15319.12
628.85	15256.07
629.205	15232.34
629.559	15304.2
629.914	15261.27
630.269	15167.71
630.623	15047.49
630.978	14990.31
631.332	15098.56
631.687	15055.62
632.041	15009.07
632.396	14981.72
632.75	14963.65
633.104	14987.6
633.459	14795.51
633.813	14939.01
634.167	14816.53
634.521	14834.61
634.875	14868.06
635.229	14810.66
635.583	14762.07
635.937	14767.95
636.291	14783.76
636.645	14751.9
636.999	14844.55
637.352	14886.13
637.706	14643.65
638.06	14753.26
638.413	14696.31
638.767	14761.62
639.121	14745.12
639.474	14632.58
639.828	14708.29
640.181	14678.91
640.534	14781.5
640.888	14677.55
641.241	14608.18
641.594	14672.58
641.947	14696.53
642.301	14650.43
642.654	14592.36
643.007	14572.47
643.36	14639.13
643.713	14614.73
644.066	14662.19
644.419	14578.12
644.771	14430.78
645.124	14310.56
645.477	14245.47
645.83	14156.66
646.182	14143.55
646.535	14154.4
646.888	14223.55
647.24	14118.7
647.593	14239.82
647.945	14233.27
648.298	14182.2
648.65	14002.54
649.002	14004.12
649.355	14111.47
649.707	13998.93
650.059	13986.04
650.411	14113.5
650.763	14164.57
651.115	14357.33
651.467	14182.2
651.819	14276.21
652.171	14134.97
652.523	14185.14
652.875	14181.52
653.227	14100.62
653.578	14264.46
653.93	14154.18
654.282	14098.13
654.633	14021.52
654.985	14161.63
655.337	14101.97
655.688	14074.18
656.039	14041.18
656.391	14010.22
656.742	14101.07
657.094	14005.48
657.445	14039.6
657.796	13978.14
658.147	14088.19
658.498	14067.4
658.849	14021.3
659.2	14026.95
659.551	13994.86
659.902	14086.61
660.253	13968.87
660.604	14083.67
660.955	13975.88
661.306	14035.31
661.656	14077.34
662.007	14020.39
662.358	14016.78
662.708	13999.6
663.059	14137.91
663.409	13965.71
663.76	14021.3
664.11	14123.67
664.461	14090
664.811	14029.66
665.161	14125.93
665.511	14021.07
665.862	13972.71
666.212	14028.98
666.562	14063.78
666.912	14090
667.262	14017.23
667.612	14102.2
667.962	14037.12
668.312	13908.76
668.662	14038.7
669.011	13934.29
669.361	13871.02
669.711	13927.74
670.06	13885.48
670.41	13795.54
670.76	13725.94
671.109	13783.34
671.459	13839.83
671.808	13774.07
672.157	13782.89
672.507	13711.7
672.856	13776.56
673.205	13831.92
673.554	13716.45
673.904	13657.01
674.253	13740.63
674.602	13703.11
674.951	13452.95
675.3	13393.29
675.649	13583.12
675.998	13641.87
676.346	13600.52
676.695	13555.32
677.044	13517.81
677.393	13607.3
677.741	13601.2
678.09	13604.36
678.438	13595.09
678.787	13607.07
679.135	13571.37
679.484	13572.5
679.832	13626.05
680.181	13582.44
680.529	13543.57
680.877	13530.01
681.225	13553.51
681.573	13552.16
681.922	13546.51
682.27	13498.83
682.618	13501.99
682.966	13521.42
683.314	13534.53
683.661	13530.69
684.009	13395.33
684.357	13362.33
684.705	13327.08
685.053	13358.49
685.4	13346.06
685.748	13264.71
686.095	13284.37
686.443	13176.8
686.79	13169.57
687.138	13167.31
687.485	13269.45
687.832	13116.01
688.18	13115.79
688.527	12984.94
688.874	13004.15
689.221	12920.99
689.568	12850.71
689.915	12878.05
690.262	12842.8
690.609	12776.58
690.956	12775.91
691.303	12720.09
691.65	12629.02
691.997	12664.72
692.344	12626.98
692.69	12641.45
693.037	12676.93
693.383	12511.51
693.73	12596.93
694.077	12529.81
694.423	12527.55
694.769	12488.46
695.116	12459.08
695.462	12419.53
695.808	12365.07
696.155	12387.89
696.501	12315.58
696.847	12325.3
697.193	12192.87
697.539	12237.62
697.885	12182.93
698.231	12152.65
698.577	12218.18
698.923	12138.41
699.269	12163.72
699.614	12058.64
699.96	12064.97
700.306	12013.67
700.651	11941.58
700.997	12000.56
701.342	11972.09
701.688	11882.6
702.033	11841.47
702.379	11860.22
702.724	11862.71
703.069	11825.42
703.415	11696.16
703.76	11793.56
704.105	11671.3
704.45	11637.41
704.795	11635.82
705.14	11531.42
705.485	11545.66
705.83	11481.48
706.175	11461.59
706.52	11455.49
706.865	11456.85
707.209	11442.61
707.554	11355.15
707.899	11265.44
708.243	11289.84
708.588	11225.44
708.932	11223.86
709.277	11230.41
709.621	11265.44
709.966	11106.12
710.31	11191.77
710.654	11063.64
710.998	11158.77
711.342	11110.41
711.687	11096.4
712.031	11003.3
712.375	10867.71
712.719	11039.23
713.063	11006.46
713.407	11004.43
713.75	11027.48
714.094	10984.99
714.438	10895.96
714.782	10883.98
715.125	10889.4
715.469	10925.33
715.812	10874.94
716.156	10807.6
716.499	10832.46
716.843	10831.33
717.186	10870.19
717.53	10790.2
717.873	10851.66
718.216	10767.15
718.559	10786.13
718.902	10775.96
719.246	10751.33
719.589	10657.09
719.932	10591.56
720.275	10629.3
720.617	10628.17
720.96	10582.74
721.303	10603.31
721.646	10574.16
721.989	10518.79
722.331	10538
722.674	10534.84
723.016	10502.52
723.359	10473.59
723.701	10501.62
724.044	10392.01
724.386	10377.1
724.729	10386.59
725.071	10352.24
725.413	10322.19
725.755	10379.59
726.097	10246.26
726.439	10210.78
726.782	10299.14
727.124	10260.04
727.465	10186.14
727.807	10142.76
728.149	10205.58
728.491	10122.19
728.833	10132.59
729.175	10158.8
729.516	10084.68
729.858	10091.91
730.199	10033.83
730.541	10096.66
730.882	10025.92
731.224	10058.46
731.565	9965.81
731.906	10049.43
732.248	10026.83
732.589	9988.64
732.93	9927.85
733.271	9943.67
733.612	9942.31
733.953	9944.57
734.294	9963.78
734.635	9883.55
734.976	9968.52
735.317	9885.14
735.658	9912.48
735.999	9910.22
736.339	9865.93
736.68	9783.22
737.021	9792.93
737.361	9808.75
737.702	9865.93
738.042	9859.15
738.383	9871.12
738.723	9857.34
739.063	9758.81
739.404	9764.91
739.744	9813.73
740.084	9750.68
740.424	9704.8
740.764	9763.1
741.104	9733.05
741.444	9674.07
741.784	9580.28
742.124	9710.22
742.464	9660.96
742.804	9599.95
743.143	9601.75
743.483	9649.66
743.823	9561.75
744.162	9539.83
744.502	9565.82
744.841	9542.77
745.181	9576.9
745.52	9512.04
745.86	9503.68
746.199	9513.62
746.538	9471.14
746.877	9458.48
747.216	9467.75
747.556	9486.05
747.895	9375.77
748.234	9402.44
748.573	9370.35
748.911	9375.32
749.25	9394.08
749.589	9347.07
749.928	9355.43
750.267	9360.63
750.605	9278.15
750.944	9185.49
751.283	9207.41
751.621	9317.92
751.96	9235.44
752.298	9185.94
752.636	9250.58
752.975	9107.75
753.313	9111.14
753.651	9201.31
753.989	9102.56
754.327	9077.93
754.666	8971.49
755.004	9006.06
755.342	8954.99
755.679	8933.07
756.017	8954.09
756.355	8959.96
756.693	8902.34
757.031	8869.34
757.368	8892.17
757.706	8766.07
758.044	8838.61
758.381	8760.65
758.719	8759.29
759.056	8749.35
759.394	8685.85
759.731	8720.65
760.068	8672.06
