Data from foam2_polystyrene_foam_FLMS001491_00098.txt Node
Date: Wed Feb 08 10:58:48 GMT 2017
User: dcchb
Spectrometer: FLMS00149
Trigger mode: 0
Integration Time (sec): 2.000000E-2
Scans to average: 10
Electric dark correction enabled: true
Nonlinearity correction enabled: false
Boxcar width: 0
XAxis mode: Wavelengths
Number of Pixels in Spectrum: 2048
>>>>>Begin Spectral Data<<<<<
341.393	-21.1
341.776	-21.1
342.16	-21.1
342.543	-64.72
342.927	-63.36
343.31	-53.87
343.693	-57.71
344.077	-56.13
344.46	-60.65
344.843	-68.78
345.226	-54.32
345.61	-22.46
345.993	-1.21
346.376	-30.14
346.759	-4.38
347.142	29.29
347.525	53.02
347.908	64.55
348.291	75.62
348.674	79.01
349.057	108.16
349.44	128.73
349.823	151.1
350.206	171.21
350.588	201.72
350.971	196.52
351.354	219.57
351.737	235.62
352.119	248.5
352.502	264.99
352.884	280.36
353.267	277.42
353.65	301.6
354.032	304.09
354.414	285.11
354.797	302.28
355.179	320.58
355.562	314.48
355.944	327.36
356.326	349.28
356.709	333.92
357.091	330.75
357.473	349.28
357.855	327.59
358.238	356.97
358.62	331.21
359.002	338.89
359.384	345.67
359.766	331.88
360.148	344.09
360.53	333.24
360.912	338.44
361.294	346.35
361.676	352.22
362.057	333.69
362.439	354.71
362.821	355.39
363.203	323.07
363.584	322.17
363.966	351.77
364.348	337.53
364.729	333.92
365.111	326.46
365.493	335.27
365.874	321.49
366.256	335.05
366.637	349.06
367.019	319.68
367.4	321.94
367.781	334.14
368.163	307.7
368.544	357.42
368.925	345.22
369.306	335.73
369.688	335.95
370.069	320.13
370.45	341.6
370.831	323.97
371.212	341.83
371.593	328.95
371.974	339.57
372.355	334.14
372.736	338.66
373.117	333.69
373.498	346.8
373.879	362.62
374.26	339.34
374.641	348.61
375.021	332.11
375.402	352.67
375.783	367.14
376.163	364.88
376.544	345.22
376.925	351.09
377.305	367.82
377.686	372.11
378.066	370.98
378.447	382.73
378.827	362.62
379.208	359.23
379.588	349.51
379.968	365.33
380.349	399
380.729	379.79
381.109	372.33
381.489	395.16
381.87	377.53
382.25	364.88
382.63	382.28
383.01	380.7
383.39	389.96
383.77	397.19
384.15	409.62
384.53	403.07
384.91	399.45
385.29	414.37
385.67	409.85
386.049	416.63
386.429	438.55
386.809	425.89
387.189	417.76
387.568	437.19
387.948	436.51
388.328	439
388.707	421.37
389.087	442.16
389.466	441.49
389.846	459.11
390.225	442.16
390.605	448.72
390.984	458.21
391.363	445.33
391.743	445.55
392.122	475.61
392.501	474.25
392.881	473.8
393.26	460.69
393.639	478.09
394.018	467.93
394.397	484.2
394.776	475.83
395.155	475.38
395.534	490.75
395.913	497.3
396.292	507.92
396.671	486
397.05	495.95
397.429	518.32
397.808	541.37
398.186	512.44
398.565	521.71
398.944	530.3
399.323	524.87
399.701	507.7
400.08	495.95
400.458	526.46
400.837	548.38
401.215	550.86
401.594	554.25
401.972	570.3
402.351	532.1
402.729	576.85
403.107	577.3
403.486	577.08
403.864	587.92
404.242	595.61
404.62	590.86
404.999	601.48
405.377	590.86
405.755	589.5
406.133	590.18
406.511	595.15
406.889	608.26
407.267	617.3
407.645	618.2
408.023	645.55
408.401	653.68
408.779	627.7
409.156	649.62
409.534	658.43
409.912	668.37
410.29	663.85
410.667	677.41
411.045	660.91
411.422	667.47
411.8	690.97
412.178	694.59
412.555	710.41
412.933	723.51
413.31	713.34
413.687	722.61
414.065	749.5
414.442	761.7
414.819	767.35
415.197	768.26
415.574	759.9
415.951	768.48
416.328	765.54
416.705	770.52
417.082	772.1
417.46	774.36
417.837	804.41
418.214	791.53
418.591	835.15
418.967	822.27
419.344	815.26
419.721	840.35
420.098	833.11
420.475	857.29
420.852	854.81
421.228	853
421.605	893.9
421.982	883.73
422.358	880.8
422.735	901.36
423.111	898.2
423.488	887.12
423.864	898.65
424.241	930.06
424.617	939.78
424.994	924.18
425.37	961.02
425.746	951.75
426.123	938.42
426.499	965.54
426.875	982.49
427.251	995.14
427.627	1012.77
428.003	1027.68
428.379	1017.52
428.756	1044.63
429.132	1036.95
429.507	1059.55
429.883	1082.15
430.259	1104.29
430.635	1096.84
431.011	1115.82
431.387	1122.82
431.763	1152.2
432.138	1167.12
432.514	1197.62
432.89	1205.76
433.265	1188.13
433.641	1197.17
434.016	1237.4
434.392	1252.31
434.767	1272.42
435.143	1267.9
435.518	1285.31
435.894	1264.97
436.269	1309.94
436.644	1333.21
437.02	1336.38
437.395	1338.19
437.77	1382.25
438.145	1381.8
438.52	1382.25
438.895	1449.37
439.271	1410.05
439.646	1431.06
440.021	1453.44
440.395	1424.51
440.77	1470.61
441.145	1464.28
441.52	1485.98
441.895	1503.83
442.27	1519.2
442.645	1506.09
443.019	1553.77
443.394	1542.47
443.769	1568.46
444.143	1557.84
444.518	1591.96
444.892	1597.39
445.267	1603.71
445.641	1622.02
446.016	1646.88
446.39	1676.26
446.764	1658.18
447.139	1673.54
447.513	1685.29
447.887	1701.79
448.262	1705.41
448.636	1710.83
449.01	1717.38
449.384	1730.72
449.758	1742.47
450.132	1795.57
450.506	1795.57
450.88	1831.73
451.254	1805.97
451.628	1824.05
452.002	1883.03
452.376	1862.24
452.75	1896.81
453.123	1893.88
453.497	1930.71
453.871	1941.56
454.244	1969.13
454.618	1999.86
454.992	2008.68
455.365	2028.11
455.739	2061.1
456.112	2069.47
456.486	2091.16
456.859	2109.69
457.232	2128.22
457.606	2126.64
457.979	2129.35
458.352	2220.2
458.725	2189.24
459.099	2234.43
459.472	2302.91
459.845	2304.71
460.218	2300.87
460.591	2346.07
460.964	2333.19
461.337	2351.72
461.71	2386.75
462.083	2417.25
462.456	2412.96
462.829	2438.95
463.201	2497.93
463.574	2454.09
463.947	2540.87
464.32	2589.68
464.692	2601.43
465.065	2629.9
465.438	2664.93
465.81	2694.99
466.183	2723.01
466.555	2772.27
466.928	2778.6
467.3	2795.77
467.672	2808.65
468.045	2907.86
468.417	2899.5
468.789	2913.28
469.161	2957.8
469.534	3008.65
469.906	3064.02
470.278	3062.21
470.65	3091.36
471.022	3174.97
471.394	3241.41
471.766	3287.29
472.138	3255.42
472.51	3325.25
472.882	3438.69
473.253	3407.06
473.625	3442.54
473.997	3504.23
474.369	3578.35
474.74	3605.7
475.112	3656.54
475.484	3727.05
475.855	3771.57
476.227	3801.62
476.598	3903.09
476.97	3921.62
477.341	4032.8
477.713	4065.8
478.084	4069.41
478.455	4198.9
478.827	4206.58
479.198	4349.63
479.569	4343.3
479.94	4485.22
480.311	4522.51
480.682	4606.8
481.053	4723.63
481.424	4780.35
481.795	4785.78
482.166	4899.9
482.537	4938.32
482.908	5053.57
483.279	5094.24
483.65	5167.01
484.021	5247.01
484.391	5314.35
484.762	5376.5
485.133	5468.47
485.503	5482.71
485.874	5690.84
486.244	5664.63
486.615	5775.58
486.985	5857.39
487.356	5924.05
487.726	5986.2
488.097	6155.23
488.467	6163.37
488.837	6296.47
489.207	6374.44
489.578	6424.15
489.948	6515.22
490.318	6540.08
490.688	6565.17
491.058	6673.64
491.428	6787.76
491.798	6854.2
492.168	7037.24
492.538	7037.7
492.908	7064.14
493.278	7198.14
493.648	7193.85
494.017	7387.74
494.387	7394.75
494.757	7524.46
495.126	7630
495.496	7556.55
495.866	7606.27
496.235	7716.1
496.605	7835.64
496.974	7890.33
497.344	7920.84
497.713	8000.83
498.082	8082.19
498.452	8159.25
498.821	8157.67
499.19	8232.47
499.559	8280.15
499.928	8354.05
500.298	8422.74
500.667	8493.48
501.036	8454.83
501.405	8582.51
501.774	8587.26
502.143	8712.23
502.512	8707.71
502.88	8818.21
503.249	8800.36
503.618	8944.09
503.987	8908.38
504.356	8986.35
504.724	9068.15
505.093	9136.4
505.462	9201.26
505.83	9205.55
506.199	9349.73
506.567	9418.42
506.936	9445.77
507.304	9601.47
507.672	9563.51
508.041	9673.79
508.409	9721.47
508.777	9829.94
509.145	9881.92
509.514	9980.22
509.882	9925.08
510.25	10084.62
510.618	10151.29
510.986	10078.07
511.354	10249.36
511.722	10305.41
512.09	10403.26
512.458	10422.24
512.826	10537.49
513.193	10547.89
513.561	10678.96
513.929	10720.76
514.297	10841.44
514.664	10831.27
515.032	11010.7
515.4	11060.19
515.767	11048.44
516.135	11221.32
516.502	11080.75
516.869	11387.19
517.237	11364.59
517.604	11336.57
517.972	11598.71
518.339	11561.19
518.706	11668.31
519.073	11652.49
519.44	11688.2
519.808	11824.01
520.175	11920.51
520.542	12037.56
520.909	12160.95
521.276	12186.94
521.643	12421.51
522.009	12359.82
522.376	12505.35
522.743	12600.94
523.11	12693.82
523.477	12761.39
523.843	12909.41
524.21	13020.36
524.577	13059.46
524.943	13089.29
525.31	13332.67
525.676	13361.15
526.043	13447.02
526.409	13484.53
526.776	13681.14
527.142	13630.07
527.508	13776.5
527.874	13945.31
528.241	14018.76
528.607	14035.93
528.973	14217.39
529.339	14102.6
529.705	14364.74
530.071	14384.85
530.437	14519.76
530.803	14503.71
531.169	14584.62
531.535	14640.89
531.901	14755.69
532.267	14806.76
532.632	14941.9
532.998	14976.92
533.364	15082.68
533.73	15060.76
534.095	15288.1
534.461	15294.2
534.826	15297.37
535.192	15487.19
535.557	15480.86
535.923	15531.26
536.288	15531.48
536.653	15733.06
537.019	15601.09
537.384	15708.43
537.749	15778.03
538.114	15863
538.479	15960.4
538.845	15955.2
539.21	15941.87
539.575	16087.4
539.94	16041.08
540.305	16288.3
540.67	16241.07
541.034	16350.67
541.399	16432.03
541.764	16419.14
542.129	16438.35
542.494	16561.51
542.858	16592.93
543.223	16667.5
543.587	16760.38
543.952	16713.15
544.316	16792.02
544.681	16802.41
545.045	16907.49
545.41	16984.33
545.774	17063.42
546.138	17079.24
546.503	17074.27
546.867	17127.83
547.231	17290.31
547.595	17383.19
547.959	17464.99
548.324	17457.08
548.688	17523.3
549.052	17464.09
549.416	17550.41
549.779	17629.06
550.143	17741.6
550.507	17813.23
550.871	17780.24
551.235	17893.46
551.599	18081.93
551.962	18084.19
552.326	18104.3
552.689	18293.9
553.053	18187.23
553.417	18275.14
553.78	18565.3
554.143	18466.1
554.507	18578.64
554.87	18641.68
555.234	18893.2
555.597	18859.53
555.96	18832.64
556.323	18851.62
556.686	18998.51
557.05	19097.04
557.413	19095.01
557.776	19172.52
558.139	19321.67
558.502	19444.83
558.865	19435.79
559.228	19607.76
559.59	19682.56
559.953	19735.89
560.316	19926.62
560.679	19944.48
561.041	20129.78
561.404	20302.88
561.767	20354.63
562.129	20367.97
562.492	20479.83
562.854	20471.47
563.217	20439.38
563.579	20584.68
563.941	20695.87
564.304	20846.6
564.666	20996.43
565.028	21006.14
565.39	21161.39
565.753	21247.04
566.115	21332.01
566.477	21445.91
566.839	21569.52
567.201	21579.23
567.563	21567.94
567.925	21746.01
568.287	21842.05
568.648	21944.65
569.01	22028.26
569.372	22096.51
569.734	22164.76
570.095	22335.37
570.457	22382.6
570.819	22383.06
571.18	22522.94
571.542	22535.59
571.903	22662.82
572.265	22653.1
572.626	22802.25
572.987	22883.83
573.349	22875.7
573.71	22997.73
574.071	23046.77
574.432	23079.99
574.794	23294.67
575.155	23261
575.516	23227.1
575.877	23362.01
576.238	23334.44
576.599	23455.12
576.96	23500.77
577.32	23498.28
577.681	23636.58
578.042	23642.68
578.403	23619.86
578.763	23649.69
579.124	23619.41
579.485	23900.3
579.845	23877.03
580.206	23829.57
580.566	23939.4
580.927	23931.26
581.287	23981.21
581.648	23896.69
582.008	24053.97
582.368	23900.08
582.728	24083.12
583.089	24101.2
583.449	24080.19
583.809	24126.96
584.169	24060.3
584.529	24219.39
584.889	24282.44
585.249	24157.02
585.609	24069.34
585.969	24213.29
586.329	24185.27
586.688	24299.62
587.048	24230.24
587.408	24359.95
587.768	24333.96
588.127	24281.08
588.487	24207.64
588.846	24390.46
589.206	24265.49
589.565	24277.69
589.925	24402.44
590.284	24376.68
590.643	24443.11
591.003	24392.95
591.362	24440.85
591.721	24436.56
592.08	24359.95
592.44	24436.11
592.799	24475.43
593.158	24432.95
593.517	24416.22
593.876	24499.84
594.235	24377.58
594.593	24539.83
594.952	24502.77
595.311	24400.18
595.67	24551.81
596.029	24660.51
596.387	24667.52
596.746	24665.71
597.104	24414.64
597.463	24521.08
597.822	24742.32
598.18	24595.65
598.538	24585.71
598.897	24825.7
599.255	24482.66
599.613	24891.46
599.972	24684.69
600.33	24816.44
600.688	24734.41
601.046	24767.17
601.404	24846.95
601.762	24873.61
602.12	24900.96
602.478	24906.38
602.836	24968.75
603.194	24802.65
603.552	24904.12
603.91	24792.26
604.268	24962.87
604.625	24877.23
604.983	25034.96
605.341	24900.28
605.698	24947.06
606.056	25106.6
606.413	24909.32
606.771	25062.76
607.128	25151.12
607.485	24831.8
607.843	25034.06
608.2	25187.05
608.557	25230.44
608.914	25238.12
609.272	25192.47
609.629	25326.93
609.986	25424.56
610.343	25253.49
610.7	25428.4
611.057	25349.76
611.414	25355.86
611.771	25384.11
612.127	25456.42
612.484	25404.45
612.841	25452.13
613.198	25417.1
613.554	25534.61
613.911	25498
614.267	25579.13
614.624	25620.26
614.98	25696.87
615.337	25796.75
615.693	25732.57
616.05	25557.66
616.406	25793.36
616.762	25642.18
617.118	25685.79
617.475	25664.78
617.831	25698.67
618.187	25852.12
618.543	25775.51
618.899	25867.26
619.255	25889.86
619.611	25863.42
619.967	25859.8
620.323	25948.61
620.678	25835.17
621.034	25659.13
621.39	25690.77
621.746	25686.47
622.101	26100.92
622.457	25864.55
622.812	25830.42
623.168	25919.23
623.523	25911.55
623.879	26023.86
624.234	25790.42
624.589	25927.14
624.945	25872.23
625.3	25954.04
625.655	25802.85
626.01	25787.94
626.365	25793.36
626.72	25744.1
627.075	25727.15
627.43	25681.05
627.785	25608.28
628.14	25745.45
628.495	25650.31
628.85	25654.16
629.205	25586.14
629.559	25751.33
629.914	25547.72
630.269	25581.16
630.623	25547.27
630.978	25511.33
631.332	25603.99
631.687	25605.8
632.041	25538.9
632.396	25576.64
632.75	25371.9
633.104	25506.82
633.459	25321.06
633.813	25311.79
634.167	25261.17
634.521	25164.68
634.875	25307.27
635.229	25240.83
635.583	25084.45
635.937	25190.21
636.291	25139.82
636.645	25202.87
636.999	24987.73
637.352	25114.74
637.706	24949.32
638.06	25132.59
638.413	24890.56
638.767	24876.55
639.121	24888.75
639.474	24720.17
639.828	24668.87
640.181	24874.29
640.534	24672.71
640.888	24618.25
641.241	24575.99
641.594	24571.25
641.947	24713.84
642.301	24566.27
642.654	24593.84
643.007	24462.77
643.36	24449.44
643.713	24493.96
644.066	24575.54
644.419	24286.51
644.771	24132.84
645.124	23940.98
645.477	23919.51
645.83	23775.56
646.182	23585.06
646.535	23556.58
646.888	23567.66
647.24	23383.93
647.593	23506.64
647.945	23452.63
648.298	23345.97
648.65	23341.45
649.002	23295.35
649.355	23446.08
649.707	23372.41
650.059	23416.7
650.411	23714.32
650.763	23842.9
651.115	23985.27
651.467	23894.65
651.819	23781.44
652.171	23749.8
652.523	23769.91
652.875	23828.22
653.227	23658.28
653.578	23653.98
653.93	23652.63
654.282	23591.39
654.633	23507.32
654.985	23624.38
655.337	23567.21
655.688	23573.08
656.039	23508.22
656.391	23327.21
656.742	23311.62
657.094	23418.06
657.445	23513.87
657.796	23468.22
658.147	23396.36
658.498	23428.23
658.849	23432.75
659.2	23434.55
659.551	23319.3
659.902	23376.7
660.253	23316.59
660.604	23304.16
660.955	23185.75
661.306	23346.19
661.656	23245.86
662.007	23257.38
662.358	23268
662.708	23194.33
663.059	23253.99
663.409	23010.38
663.76	23275.46
664.11	23131.74
664.461	23173.09
664.811	23203.37
665.161	23258.29
665.511	23133.32
665.862	23133.09
666.212	23172.19
666.562	23206.54
666.912	23094.45
667.262	23070.72
667.612	23045.86
667.962	23194.56
668.312	23122.47
668.662	23176.26
669.011	23168.12
669.361	23043.6
669.711	23095.35
670.06	22945.98
670.41	22996.15
670.76	22867.11
671.109	22909.37
671.459	22964.74
671.808	22981.01
672.157	22903.04
672.507	22821.01
672.856	22802.25
673.205	22949.59
673.554	22931.74
673.904	22828.24
674.253	22848.81
674.602	22785.3
674.951	22516.39
675.3	22397.07
675.649	22830.05
675.998	22778.07
676.346	22777.62
676.695	22795.7
677.044	22655.14
677.393	22838.41
677.741	22775.81
678.09	22706.44
678.438	22684.74
678.787	22671.64
679.135	22656.04
679.484	22478.65
679.832	22613.33
680.181	22459.66
680.529	22515.93
680.877	22510.74
681.225	22453.34
681.573	22590.06
681.922	22405.88
682.27	22316.84
682.618	22359.33
682.966	22340.57
683.314	22319.55
683.661	22223.74
684.009	22038.88
684.357	22006.79
684.705	22059.22
685.053	22057.19
685.4	22002.73
685.748	21994.37
686.095	21900.58
686.443	21737.2
686.79	21772
687.138	21859.91
687.485	21844.99
687.832	21738.1
688.18	21819.91
688.527	21686.8
688.874	21653.81
689.221	21564.32
689.568	21619.91
689.915	21564.77
690.262	21480.03
690.609	21529.74
690.956	21341.05
691.303	21358.68
691.65	21174.05
691.997	21176.08
692.344	21069.42
692.69	20981.51
693.037	21021.51
693.383	20887.05
693.73	20888.86
694.077	20900.61
694.423	20864.23
694.769	20761.63
695.116	20772.25
695.462	20752.14
695.808	20591.92
696.155	20654.97
696.501	20477.12
696.847	20481.64
697.193	20406.84
697.539	20396.89
697.885	20249.78
698.231	20233.06
698.577	20279.38
698.923	20251.13
699.269	20188.54
699.614	20057.92
699.96	19959.84
700.306	20025.38
700.651	19965.27
700.997	19891.37
701.342	19941.76
701.688	19962.78
702.033	19729.57
702.379	19776.12
702.724	19684.14
703.069	19732.96
703.415	19424.49
703.76	19462
704.105	19435.34
704.45	19399.86
704.795	19317.6
705.14	19187.66
705.485	19190.15
705.83	19231.95
706.175	19141.78
706.52	19097.94
706.865	18974.78
707.209	19029.25
707.554	18880.77
707.899	18941.11
708.243	18867.44
708.588	18942.69
708.932	18704.28
709.277	18715.36
709.621	18794.68
709.966	18647.11
710.31	18635.36
710.654	18488.02
710.998	18502.25
711.342	18451.86
711.687	18472.65
712.031	18285.08
712.375	18261.58
712.719	18350.39
713.063	18369.38
713.407	18243.5
713.75	18268.81
714.094	18222.94
714.438	18143.39
714.782	18196.72
715.125	18046.9
715.469	18123.28
715.812	18029.5
716.156	17933.23
716.499	17874.02
716.843	17939.78
717.186	17756.74
717.53	17895.49
717.873	17784.53
718.216	17770.3
718.559	17737.75
718.902	17523.75
719.246	17548.15
719.589	17602.16
719.932	17441.04
720.275	17550.19
720.617	17566.46
720.96	17462.28
721.303	17412.79
721.646	17467.25
721.989	17411.89
722.331	17346.8
722.674	17386.12
723.016	17415.05
723.359	17328.5
723.701	17269.07
724.044	17109.52
724.386	17074.72
724.729	17190.88
725.071	17175.06
725.413	17076.53
725.755	16985.91
726.097	16937.55
726.439	16876.99
726.782	16950.88
727.124	16983.2
727.465	16843.54
727.807	16843.77
728.149	16792.92
728.491	16886.48
728.833	16808.29
729.175	16819.81
729.516	16758.34
729.858	16689.42
730.199	16666.6
730.541	16589.08
730.882	16644
731.224	16601.29
731.565	16575.98
731.906	16482.19
732.248	16580.5
732.589	16326.49
732.93	16310.22
733.271	16308.19
733.612	16421.63
733.953	16441.97
734.294	16286.49
734.635	16335.53
734.976	16326.04
735.317	16266.38
735.658	16182.77
735.999	16178.7
736.339	16140.96
736.68	16159.94
737.021	16074.52
737.361	16058.48
737.702	16106.38
738.042	16040.62
738.383	15971.92
738.723	15948.42
739.063	16003.34
739.404	16001.08
739.744	15879.5
740.084	15859.16
740.424	15919.95
740.764	15719.73
741.104	15752.27
741.444	15674.98
741.784	15653.06
742.124	15643.35
742.464	15638.83
742.804	15669.11
743.143	15607.87
743.483	15598.83
743.823	15535.78
744.162	15472.95
744.502	15463.01
744.841	15501.43
745.181	15585.95
745.52	15459.17
745.86	15467.08
746.199	15386.18
746.538	15445.38
746.877	15396.57
747.216	15355.9
747.556	15282.9
747.895	15253.75
748.234	15215.33
748.573	15154.77
748.911	15139.63
749.25	15153.87
749.589	15004.04
749.928	15060.99
750.267	15110.48
750.605	15096.92
750.944	14997.94
751.283	14904.16
751.621	14931.5
751.96	14857.83
752.298	14826.87
752.636	14815.12
752.975	14824.38
753.313	14811.96
753.651	14770.83
753.989	14712.3
754.327	14675.91
754.666	14619.87
755.004	14591.62
755.342	14642.02
755.679	14477.05
