Data from foam2_polystyrene_foam_FLMS001491_00086.txt Node
Date: Wed Feb 08 10:58:37 GMT 2017
User: dcchb
Spectrometer: FLMS00149
Trigger mode: 0
Integration Time (sec): 2.000000E-2
Scans to average: 10
Electric dark correction enabled: true
Nonlinearity correction enabled: false
Boxcar width: 0
XAxis mode: Wavelengths
Number of Pixels in Spectrum: 2048
>>>>>Begin Spectral Data<<<<<
341.393	-12.16
341.776	-12.16
342.16	-12.16
342.543	-67.75
342.927	-60.3
343.31	-73.85
343.693	-67.3
344.077	-65.72
344.46	-54.42
344.843	-50.8
345.226	-48.09
345.61	-14.42
345.993	-31.6
346.376	7.5
346.759	20.38
347.142	11.57
347.525	48.18
347.908	59.48
348.291	68.29
348.674	68.52
349.057	122.3
349.44	109.87
349.823	134.05
350.206	165.01
350.588	224.67
350.971	228.51
351.354	250.88
351.737	255.63
352.119	260.6
352.502	284.1
352.884	282.29
353.267	299.24
353.65	314.84
354.032	314.61
354.414	301.96
354.797	323.42
355.179	313.93
355.562	339.47
355.944	343.76
356.326	336.76
356.709	352.58
357.091	336.08
357.473	360.48
357.855	355.06
358.238	357.77
358.62	350.32
359.002	361.84
359.384	353.71
359.766	338.34
360.148	369.75
360.53	350.99
360.912	378.34
361.294	357.32
361.676	363.87
362.057	348.73
362.439	367.49
362.821	352.8
363.203	351.45
363.584	336.3
363.966	364.55
364.348	356.42
364.729	363.42
365.111	369.98
365.493	367.72
365.874	335.4
366.256	353.03
366.637	342.41
367.019	353.93
367.4	323.88
367.781	358.68
368.163	367.49
368.544	366.59
368.925	329.3
369.306	369.75
369.688	347.15
370.069	354.38
370.45	366.13
370.831	343.08
371.212	360.26
371.593	348.73
371.974	378.11
372.355	379.02
372.736	364.1
373.117	382.18
373.498	369.07
373.879	352.8
374.26	374.95
374.641	382.86
375.021	346.02
375.402	378.11
375.783	375.63
376.163	393.03
376.544	377.21
376.925	404.55
377.305	405.23
377.686	405.68
378.066	388.05
378.447	395.51
378.827	409.75
379.208	404.78
379.588	399.81
379.968	409.52
380.349	427.6
380.729	402.74
381.109	446.36
381.489	421.05
381.87	399.35
382.25	432.8
382.63	439.58
383.01	416.75
383.39	447.26
383.77	441.84
384.15	441.84
384.53	453.59
384.91	462.18
385.29	454.95
385.67	454.04
386.049	454.49
386.429	455.62
386.809	475.06
387.189	456.3
387.568	485.23
387.948	481.84
388.328	479.13
388.707	496.3
389.087	485.91
389.466	503.98
389.846	509.86
390.225	513.48
390.605	538.56
390.984	501.5
391.363	495.4
391.743	509.63
392.122	540.82
392.501	533.81
392.881	532.68
393.26	535.4
393.639	539.92
394.018	548.95
394.397	543.98
394.776	574.94
395.155	545.11
395.534	559.8
395.913	563.64
396.292	576.98
396.671	583.53
397.05	591.67
397.429	574.72
397.808	576.07
398.186	595.96
398.565	584.21
398.944	615.17
399.323	615.17
399.701	617.2
400.08	609.07
400.458	618.56
400.837	635.73
401.215	643.42
401.594	631.21
401.972	663.98
402.351	631.21
402.729	656.07
403.107	670.76
403.486	663.98
403.864	668.73
404.242	667.82
404.62	696.97
404.999	703.3
405.377	709.4
405.755	714.37
406.133	707.37
406.511	697.88
406.889	747.37
407.267	734.94
407.645	748.5
408.023	761.38
408.401	764.32
408.779	757.99
409.156	757.76
409.534	764.54
409.912	776.75
410.29	826.69
410.667	821.94
411.045	826.46
411.422	833.69
411.8	815.39
412.178	848.61
412.555	867.82
412.933	881.15
413.31	878.21
413.687	887.48
414.065	894.48
414.442	906.91
414.819	927.48
415.197	927.7
415.574	907.82
415.951	945.33
416.328	957.08
416.705	964.76
417.082	973.8
417.46	960.24
417.837	980.81
418.214	990.75
418.591	1001.15
418.967	1004.08
419.344	1032.11
419.721	1039.11
420.098	1019.22
420.475	1067.81
420.852	1065.78
421.228	1070.3
421.605	1097.41
421.982	1089.28
422.358	1088.83
422.735	1126.34
423.111	1135.38
423.488	1138.54
423.864	1166.34
424.241	1171.54
424.617	1177.19
424.994	1178.09
425.37	1190.75
425.746	1191.2
426.123	1201.82
426.499	1230.74
426.875	1276.39
427.251	1249.73
427.627	1292.21
428.003	1298.31
428.379	1326.11
428.756	1291.53
429.132	1339.44
429.507	1361.59
429.883	1369.5
430.259	1420.8
430.635	1401.81
431.011	1420.34
431.387	1435.26
431.763	1448.82
432.138	1486.56
432.514	1507.57
432.89	1539.89
433.265	1543.73
433.641	1573.33
434.016	1592.54
434.392	1603.16
434.767	1611.75
435.143	1605.88
435.518	1635.48
435.894	1649.49
436.269	1686.78
436.644	1685.65
437.02	1685.42
437.395	1706.44
437.77	1735.14
438.145	1772.65
438.52	1766.1
438.895	1804.06
439.271	1809.71
439.646	1858.75
440.021	1869.15
440.395	1893.33
440.77	1857.85
441.145	1856.26
441.52	1914.12
441.895	1977.84
442.27	1952.53
442.645	1950.27
443.019	1995.24
443.394	2017.62
443.769	2025.3
444.143	1968.8
444.518	2060.78
444.892	2060.33
445.267	2066.88
445.641	2087.67
446.016	2125.18
446.39	2118.18
446.764	2157.5
447.139	2169.02
447.513	2152.98
447.887	2189.14
448.262	2213.09
448.636	2217.61
449.01	2222.13
449.384	2259.42
449.758	2279.98
450.132	2292.41
450.506	2324.28
450.88	2349.59
451.254	2376.03
451.628	2371.28
452.002	2364.95
452.376	2411.28
452.75	2472.75
453.123	2465.51
453.497	2516.81
453.871	2548.22
454.244	2542.35
454.618	2561.78
454.992	2615.57
455.365	2619.86
455.739	2696.24
456.112	2707.54
456.486	2700.54
456.859	2777.6
457.232	2806.97
457.606	2776.92
457.979	2829.12
458.352	2886.29
458.725	2907.08
459.099	2911.38
459.472	2957.48
459.845	3018.49
460.218	3019.4
460.591	3060.53
460.964	3066.18
461.337	3170.13
461.71	3194.53
462.083	3265.72
462.456	3225.95
462.829	3214.42
463.201	3310.92
463.574	3319.73
463.947	3348.65
464.32	3435.88
464.692	3489.67
465.065	3490.8
465.438	3560.85
465.81	3575.32
466.183	3642.66
466.555	3696.22
466.928	3729.44
467.3	3734.41
467.672	3773.05
468.045	3878.81
468.417	3879.04
468.789	3918.36
469.161	3999.49
469.534	4039.26
469.906	4101.18
470.278	4109.76
470.65	4156.32
471.022	4241.96
471.394	4349.08
471.766	4401.73
472.138	4456.2
472.51	4493.94
472.882	4591.33
473.253	4627.72
473.625	4718.56
473.997	4796.75
474.369	4784.32
474.74	4880.37
475.112	4967.37
475.484	5064.99
475.855	5088.04
476.227	5162.84
476.598	5336.17
476.97	5367.13
477.341	5507.92
477.713	5502.72
478.084	5577.3
478.455	5761.02
478.827	5806.22
479.198	5993.56
479.569	5980
479.94	6126.21
480.311	6203.95
480.682	6337.5
481.053	6460.44
481.424	6553.09
481.795	6651.39
482.166	6684.61
482.537	6825.17
482.908	6908.11
483.279	6970.25
483.65	7142.68
484.021	7292.96
484.391	7361.66
484.762	7390.81
485.133	7466.96
485.503	7654.98
485.874	7850.68
486.244	7914.18
486.615	7983.34
486.985	8133.16
487.356	8319.6
487.726	8374.51
488.097	8546.94
488.467	8553.49
488.837	8706.93
489.207	8810.21
489.578	8944.89
489.948	9014.04
490.318	9141.27
490.688	9186.02
491.058	9350.98
491.428	9413.81
491.798	9586.23
492.168	9671.65
492.538	9787.13
492.908	9967.46
493.278	10052.89
493.648	10037.97
494.017	10143.96
494.387	10310.73
494.757	10453.55
495.126	10456.04
495.496	10489.03
495.866	10585.98
496.235	10723.38
496.605	10848.57
496.974	10876.14
497.344	10986.42
497.713	11056.25
498.082	11174.44
498.452	11242.23
498.821	11271.61
499.19	11345.73
499.559	11507.76
499.928	11587.08
500.298	11625.05
500.667	11722.9
501.036	11758.83
501.405	11894.42
501.774	11909.56
502.143	12055.32
502.512	12140.29
502.88	12320.17
503.249	12234.3
503.618	12394.74
503.987	12447.85
504.356	12560.16
504.724	12613.04
505.093	12650.78
505.462	12700.05
505.83	12814.17
506.199	12878.12
506.567	13089.64
506.936	13102.07
507.304	13300.71
507.672	13324.89
508.041	13345
508.409	13519.46
508.777	13670.42
509.145	13689.85
509.514	13727.37
509.882	13897.76
510.25	13882.39
510.618	13989.96
510.986	14048.49
511.354	14144.98
511.722	14332.55
512.09	14490.51
512.458	14459.55
512.826	14616.38
513.193	14806.66
513.561	14842.14
513.929	14841.91
514.297	15059.31
514.664	15170.04
515.032	15216.59
515.4	15368.9
515.767	15401.22
516.135	15509.69
516.502	15451.61
516.869	15791.27
517.237	15772.51
517.604	15815.9
517.972	16101.09
518.339	16224.02
518.706	16131.82
519.073	16295.66
519.44	16398.93
519.808	16676.44
520.175	16605.93
520.542	16927.28
520.909	16991.01
521.276	16988.97
521.643	17284.11
522.009	17257.67
522.376	17480.94
522.743	17558
523.11	17834.83
523.477	17942.4
523.843	18108.49
524.21	18295.15
524.577	18522.72
524.943	18483.85
525.31	18576.73
525.676	18773.11
526.043	18967.68
526.409	19031.63
526.776	19296.94
527.142	19196.83
527.508	19383.71
527.874	19661.22
528.241	19753.65
528.607	19813.08
528.973	20014.66
529.339	20025.28
529.705	20167.65
530.071	20397.92
530.437	20480.41
530.803	20649.22
531.169	20735.99
531.535	20738.25
531.901	20912.26
532.267	20985.71
532.632	21019.83
532.998	21154.74
533.364	21230.44
533.73	21414.39
534.095	21670.43
534.461	21753.59
534.826	21758.79
535.192	21895.74
535.557	21888.96
535.923	22038.11
536.288	22125.34
536.653	22192.23
537.019	22204.43
537.384	22260.93
537.749	22399
538.114	22464.76
538.479	22523.52
538.845	22609.17
539.21	22692.1
539.575	22752.89
539.94	22800.12
540.305	23005.54
540.67	23075.37
541.034	23186.33
541.399	23268.58
541.764	23246.21
542.129	23415.7
542.494	23576.37
542.858	23677.39
543.223	23642.36
543.587	23819.53
543.952	23817.04
544.316	23954.89
544.681	23943.59
545.045	24200.31
545.41	24183.14
545.774	24330.25
546.138	24320.98
546.503	24500.42
546.867	24429.46
547.231	24711.48
547.595	24743.35
547.959	24841.88
548.324	24769.11
548.688	24913.74
549.052	24928.65
549.416	25035.54
549.779	25132.26
550.143	25159.61
550.507	25313.5
550.871	25438.7
551.235	25475.08
551.599	25636.2
551.962	25811.57
552.326	25751.68
552.689	25902.19
553.053	25816.54
553.417	25954.39
553.78	26279.13
554.143	26229.64
554.507	26415.39
554.87	26520.47
555.234	26831.2
555.597	26617.65
555.96	26809.73
556.323	26960.24
556.686	26898.54
557.05	27157.52
557.413	27204.75
557.776	27277.52
558.139	27413.33
558.502	27577.4
558.865	27630.28
559.228	27948.01
559.59	28003.6
559.953	28000.89
560.316	28458.28
560.679	28409.24
561.041	28497.6
561.404	28566.07
561.767	28846.06
562.129	28652.62
562.492	29108.2
562.854	29024.59
563.217	29110.46
563.579	29265.26
563.941	29402.89
564.304	29593.39
564.666	29721.75
565.028	29735.31
565.39	29861.18
565.753	30182.75
566.115	30230.43
566.477	30325.12
566.839	30200.38
567.201	30526.47
567.563	30660.71
567.925	30717.2
568.287	30821.6
568.648	30735.05
569.01	31253.23
569.372	31239.9
569.734	31220.01
570.095	31439.89
570.457	31464.07
570.819	31615.71
571.18	31588.59
571.542	31795.36
571.903	31815.03
572.265	31965.3
572.626	31967.34
572.987	32129.82
573.349	32180.89
573.71	32293.66
574.071	32503.14
574.432	32415.46
574.794	32621.33
575.155	32674.21
575.516	32466.53
575.877	32750.82
576.238	32870.82
576.599	32970.93
576.96	33029
577.32	32954.2
577.681	33249.56
578.042	33177.7
578.403	33180.41
578.763	33226.74
579.124	33300.18
579.485	33449.78
579.845	33533.85
580.206	33432.38
580.566	33672.83
580.927	33568.43
581.287	33671.7
581.648	33465.6
582.008	33757.57
582.368	33642.77
582.728	33626.5
583.089	33619.95
583.449	33684.35
583.809	33612.27
584.169	33753.05
584.529	33653.62
584.889	33804.8
585.249	33738.82
585.609	33595.54
585.969	33899.04
586.329	33638.93
586.688	33786.27
587.048	33791.92
587.408	33617.01
587.768	33706.73
588.127	33704.01
588.487	33688.65
588.846	33814.29
589.206	33642.1
589.565	33618.59
589.925	33890.68
590.284	33730.45
590.643	33720.96
591.003	33879.83
591.362	33977.68
591.721	33937.68
592.08	33878.93
592.44	33858.36
592.799	33973.61
593.158	33758.25
593.517	33959.83
593.876	34004.57
594.235	33965.03
594.593	33956.44
594.952	34107.39
595.311	33967.51
595.67	33943.78
596.029	34128.86
596.387	34142.42
596.746	34153.04
597.104	33949.21
597.463	34089.77
597.822	34126.83
598.18	33990.56
598.538	33934.07
598.897	34195.08
599.255	34051.35
599.613	34355.3
599.972	34215.41
600.33	34391.68
600.688	34331.34
601.046	34305.81
601.404	34503.09
601.762	34395.97
602.12	34518.46
602.478	34669.87
602.836	34497.67
603.194	34484.11
603.552	34464.9
603.91	34603.88
604.268	34718
604.625	34532.24
604.983	34843.87
605.341	34625.12
605.698	34783.53
606.056	34855.62
606.413	34760.71
606.771	34978.33
607.128	34957.77
607.485	34729.75
607.843	34878.9
608.2	34932.23
608.557	34946.69
608.914	34887.94
609.272	35084.77
609.629	35076.41
609.986	35218.55
610.343	35110.31
610.7	35246.35
611.057	35253.58
611.414	35222.62
611.771	35243.64
612.127	35426
612.484	35403.63
612.841	35439.79
613.198	35338.77
613.554	35390.98
613.911	35653.57
614.267	35534.7
614.624	35452.44
614.98	35687.01
615.337	35699.89
615.693	35750.29
616.05	35717.52
616.406	35887.69
616.762	35835.71
617.118	35913.22
617.475	35903.96
617.831	35982.37
618.187	36136.49
618.543	36068.02
618.899	36141.46
619.255	36104.4
619.611	36068.47
619.967	36267.11
620.323	36227.79
620.678	36106.44
621.034	35920.23
621.39	36138.53
621.746	36064.86
622.101	36434.79
622.457	36198.64
622.812	36322.93
623.168	36340.78
623.523	36369.03
623.879	36497.61
624.234	36313.66
624.589	36369.48
624.945	36275.92
625.3	36320.67
625.655	36357.05
626.01	36326.09
626.365	36372.19
626.72	36487.9
627.075	36232.08
627.43	36248.81
627.785	36162.48
628.14	36384.4
628.495	36359.99
628.85	36360.22
629.205	36193.44
629.559	36209.94
629.914	36127
630.269	36185.53
630.623	36057.17
630.978	36064.4
631.332	36183.72
631.687	36144.63
632.041	35955.93
632.396	36023.28
632.75	35892.43
633.104	36064.18
633.459	35626.68
633.813	35861.02
634.167	35714.58
634.521	35760.46
634.875	35780.57
635.229	35565.89
635.583	35381.94
635.937	35478.66
636.291	35446.57
636.645	35455.83
636.999	35397.53
637.352	35515.72
637.706	35276.18
638.06	35450.86
638.413	35291.54
638.767	35329.73
639.121	35236.4
639.474	35132.68
639.828	35123.41
640.181	35152.34
640.534	35030.76
640.888	34986.24
641.241	34856.98
641.594	34718.23
641.947	34996.18
642.301	34839.58
642.654	34892.01
643.007	34819.24
643.36	34656.76
643.713	34627.15
644.066	34729.75
644.419	34547.38
644.771	34367.05
645.124	34087.51
645.477	33873.95
645.83	33526.62
646.182	33584.02
646.535	33438.26
646.888	33559.39
647.24	33331.14
647.593	33514.64
647.945	33403.23
648.298	33275.55
648.65	33041.89
649.002	33105.61
649.355	33154.88
649.707	33081.43
650.059	33305.83
650.411	33605.49
650.763	33667.41
651.115	34011.8
651.467	33968.19
651.819	33847.97
652.171	33699.27
652.523	33662.89
652.875	33609.78
653.227	33538.37
653.578	33887.51
653.93	33682.55
654.282	33463.34
654.633	33454.98
654.985	33612.27
655.337	33520.29
655.688	33525.94
656.039	33628.31
656.391	33200.75
656.742	33368.66
657.094	33402.33
657.445	33459.5
657.796	33210.69
658.147	33307.87
658.498	33224.48
658.849	33282.11
659.2	33236.23
659.551	33122.34
659.902	33342.89
660.253	33039.63
660.604	33269.9
660.955	32915.11
661.306	33054.31
661.656	32956.69
662.007	33027.2
662.358	32984.26
662.708	32979.97
663.059	32956.69
663.409	32729.35
663.76	32974.99
664.11	33001.89
664.461	33010.47
664.811	32947.65
665.161	32819.52
665.511	32759.41
665.862	32757.83
666.212	32836.02
666.562	32752.85
666.912	32866.52
667.262	32699.52
667.612	32784.27
667.962	32645.29
668.312	32646.42
668.662	32824.04
669.011	32626.98
669.361	32702.23
669.711	32619.98
670.06	32558.51
670.41	32474.67
670.76	32493.88
671.109	32569.81
671.459	32587.89
671.808	32333.88
672.157	32642.57
672.507	32294.79
672.856	32312.87
673.205	32334.56
673.554	32364.16
673.904	32096.37
674.253	32367.1
674.602	32228.8
674.951	31892.31
675.3	31658.87
675.649	32156.48
675.998	31997.39
676.346	32114.23
676.695	32090.95
677.044	31764.63
677.393	31998.3
677.741	31963.5
678.09	31925.53
678.438	31685.76
678.787	31851.63
679.135	31884.85
679.484	31610.74
679.832	31825.87
680.181	31535.94
680.529	31684.18
680.877	31560.79
681.225	31420.69
681.573	31768.02
681.922	31369.39
682.27	31337.52
682.618	31309.5
682.966	31186.34
683.314	31311.08
683.661	31120.58
684.009	31125.1
684.357	31067.02
684.705	30973.01
685.053	31109.28
685.4	30850.98
685.748	30777.31
686.095	30821.83
686.443	30672.23
686.79	30602.4
687.138	30582.06
687.485	30612.34
687.832	30321.28
688.18	30349.07
688.527	30265.46
688.874	30236.31
689.221	30172.36
689.568	30065.24
689.915	30016.2
690.262	30020.5
690.609	29951.12
690.956	29809.88
691.303	29815.08
691.65	29673.84
691.997	29602.2
692.344	29339.38
692.69	29380.74
693.037	29407.4
693.383	29132.61
693.73	29190.46
694.077	29094.87
694.423	29089.22
694.769	28858.49
695.116	28958.38
695.462	28937.36
695.808	28730.59
696.155	28818.72
696.501	28616.01
696.847	28567.65
697.193	28369.69
697.539	28508.45
697.885	28167.66
698.231	28090.6
698.577	28117.72
698.923	28193.2
699.269	27955.47
699.614	27864.17
699.96	27748.47
700.306	27832.53
700.651	27593.67
700.997	27584.4
701.342	27579.66
701.688	27605.64
702.033	27472.99
702.379	27353.45
702.724	27440
703.069	27397.06
703.415	27133.57
703.76	27166.11
704.105	27095.15
704.45	27129.72
704.795	26905.55
705.14	26780.58
705.485	26804.54
705.83	26684.54
706.175	26787.59
706.52	26735.16
706.865	26544.66
707.209	26477.76
707.554	26338.11
707.899	26454.26
708.243	26282.29
708.588	26207.04
708.932	26144.44
709.277	26148.06
709.621	26153.03
709.966	25921.62
710.31	25965.01
710.654	25688.63
710.998	25825.8
711.342	25765.47
711.687	25748.29
712.031	25595.3
712.375	25602.08
712.719	25552.59
713.063	25391.92
713.407	25556.66
713.75	25447.06
714.094	25518.47
714.438	25395.08
714.782	25302.43
715.125	25202.54
715.469	25121.42
715.812	25192.15
716.156	24946.51
716.499	25045.26
716.843	24966.84
717.186	24901.08
717.53	24950.12
717.873	24961.42
718.216	24728.43
718.559	24722.33
718.902	24557.59
719.246	24586.29
719.589	24617.93
719.932	24484.37
720.275	24376.58
720.617	24342.68
720.96	24385.39
721.303	24272.85
721.646	24311.95
721.989	24165.73
722.331	24320.53
722.674	24175
723.016	24219.52
723.359	24101.78
723.701	24244.38
724.044	24003.48
724.386	23889.13
724.729	23976.36
725.071	23953.76
725.413	24005.51
725.755	23796.25
726.097	23735.24
726.439	23633.32
726.782	23653.21
727.124	23755.58
727.465	23619.08
727.807	23618.63
728.149	23516.03
728.491	23410.27
728.833	23438.52
729.175	23375.47
729.516	23347
729.858	23258.19
730.199	23326.66
730.541	23347
730.882	23188.81
731.224	23315.14
731.565	23218.64
731.906	23159.21
732.248	23256.61
732.589	23144.07
732.93	22867.69
733.271	23024.97
733.612	23066.55
733.953	23034.92
734.294	22949.5
734.635	22806.45
734.976	23009.15
735.317	22804.87
735.658	22752.21
735.999	22793.34
736.339	22649.39
736.68	22766.68
737.021	22655.94
737.361	22537.08
737.702	22702.5
738.042	22575.04
738.383	22506.57
738.723	22464.54
739.063	22501.82
739.404	22488.49
739.744	22291.89
740.084	22393.35
740.424	22240.14
740.764	22312.68
741.104	22327.59
741.444	22177.31
741.784	22095.05
742.124	22196.07
742.464	22047.15
742.804	22121.27
743.143	21991.55
743.483	21888.28
743.823	21891.22
744.162	21849.19
744.502	21956.75
744.841	21879.24
745.181	21972.12
745.52	21800.37
745.86	21755.85
746.199	21743.2
746.538	21794.5
746.877	21786.81
747.216	21685.57
747.556	21564
747.895	21698.45
748.234	21479.48
748.573	21564.22
748.911	21393.6
749.25	21387.05
749.589	21295.53
749.928	21429.31
750.267	21361.51
750.605	21339.59
750.944	21288.97
751.283	21239.94
751.621	21274.74
751.96	21213.5
752.298	21186.83
752.636	21037.91
752.975	21032.94
753.313	20897.35
753.651	21058.02
753.989	20873.39
