Data from foam1_polythene_foam_FLMS001491_00008.txt Node
Date: Wed Feb 08 10:54:18 GMT 2017
User: dcchb
Spectrometer: FLMS00149
Trigger mode: 0
Integration Time (sec): 2.000000E-2
Scans to average: 10
Electric dark correction enabled: true
Nonlinearity correction enabled: false
Boxcar width: 0
XAxis mode: Wavelengths
Number of Pixels in Spectrum: 2048
>>>>>Begin Spectral Data<<<<<
341.393	3.3
341.776	3.3
342.16	3.3
342.543	-58.16
342.927	-74.43
343.31	-60.42
343.693	-70.59
344.077	-66.07
344.46	-41.89
344.843	-56.13
345.226	-34.89
345.61	-25.62
345.993	-32.63
346.376	-6.64
346.759	-5.96
347.142	30.2
347.525	39.01
347.908	55.28
348.291	89.86
348.674	85.79
349.057	100.7
349.44	117.65
349.823	146.8
350.206	155.17
350.588	191.55
350.971	187.71
351.354	191.55
351.737	210.31
352.119	231.77
352.502	231.77
352.884	249.63
353.267	268.16
353.65	294.37
354.032	266.35
354.414	277.65
354.797	281.04
355.179	292.79
355.562	316.07
355.944	289.4
356.326	305.9
356.709	325.1
357.091	330.75
357.473	323.97
357.855	334.37
358.238	333.69
358.62	307.7
359.002	323.07
359.384	321.71
359.766	320.36
360.148	305.9
360.53	345.67
360.912	318.78
361.294	313.35
361.676	308.61
362.057	314.94
362.439	322.84
362.821	309.29
363.203	323.07
363.584	312.22
363.966	291.66
364.348	307.7
364.729	308.38
365.111	311.09
365.493	320.81
365.874	296.63
366.256	290.98
366.637	274.71
367.019	291.66
367.4	298.44
367.781	288.72
368.163	299.79
368.544	283.07
368.925	292.56
369.306	294.6
369.688	276.07
370.069	277.65
370.45	298.21
370.831	308.38
371.212	279.68
371.593	292.11
371.974	302.73
372.355	273.58
372.736	292.56
373.117	289.63
373.498	308.83
373.879	292.56
374.26	294.82
374.641	302.73
375.021	287.14
375.402	305.22
375.783	316.29
376.163	308.83
376.544	300.7
376.925	304.77
377.305	310.87
377.686	298.21
378.066	302.73
378.447	297.99
378.827	294.82
379.208	284.65
379.588	319
379.968	291.43
380.349	301.83
380.729	326.23
381.109	304.31
381.489	295.27
381.87	292.56
382.25	304.77
382.63	314.94
383.01	321.71
383.39	333.24
383.77	309.74
384.15	309.29
384.53	308.83
384.91	346.35
385.29	313.58
385.67	330.75
386.049	314.03
386.429	318.55
386.809	331.21
387.189	342.96
387.568	335.5
387.948	337.99
388.328	333.47
388.707	304.31
389.087	336.4
389.466	336.63
389.846	333.92
390.225	336.63
390.605	332.79
390.984	338.44
391.363	335.27
391.743	312
392.122	334.82
392.501	346.12
392.881	317.42
393.26	341.83
393.639	349.28
394.018	352.9
394.397	343.41
394.776	352.22
395.155	347.7
395.534	341.83
395.913	367.82
396.292	357.65
396.671	362.62
397.05	361.71
397.429	346.12
397.808	364.88
398.186	371.43
398.565	353.8
398.944	343.41
399.323	370.3
399.701	359.91
400.08	370.3
400.458	360.36
400.837	361.26
401.215	359.45
401.594	370.53
401.972	368.04
402.351	380.92
402.729	352.9
403.107	364.2
403.486	370.53
403.864	372.79
404.242	361.94
404.62	382.96
404.999	368.04
405.377	379.57
405.755	388.61
406.133	382.05
406.511	385.44
406.889	392.9
407.267	399
407.645	394.48
408.023	388.61
408.401	377.76
408.779	400.13
409.156	384.76
409.534	383.86
409.912	408.04
410.29	404.65
410.667	405.33
411.045	396.51
411.422	408.94
411.8	415.95
412.178	403.75
412.555	415.05
412.933	431.54
413.31	410.3
413.687	422.28
414.065	435.61
414.442	415.95
414.819	439.9
415.197	421.15
415.574	437.42
415.951	408.72
416.328	419.34
416.705	438.1
417.082	425.67
417.46	445.55
417.837	451.88
418.214	451.88
418.591	443.97
418.967	439.23
419.344	438.77
419.721	453.69
420.098	437.87
420.475	441.26
420.852	441.03
421.228	460.47
421.605	464.54
421.982	483.29
422.358	473.35
422.735	468.6
423.111	472.9
423.488	478.32
423.864	478.55
424.241	471.54
424.617	486.91
424.994	495.72
425.37	501.6
425.746	490.52
426.123	501.6
426.499	486.46
426.875	495.27
427.251	499.56
427.627	510.86
428.003	508.83
428.379	514.03
428.756	511.54
429.132	504.08
429.507	535.27
429.883	520.58
430.259	521.94
430.635	531.88
431.011	526.23
431.387	538.88
431.763	540.24
432.138	543.86
432.514	540.69
432.89	554.7
433.265	570.97
433.641	570.75
434.016	566.91
434.392	579.11
434.767	595.61
435.143	584.76
435.518	583.85
435.894	598.54
436.269	601.71
436.644	599.9
437.02	607.81
437.395	616.4
437.77	628.37
438.145	622.5
438.52	614.14
438.895	612.78
439.271	627.24
439.646	651.65
440.021	663.85
440.395	651.42
440.77	637.41
441.145	674.02
441.52	681.25
441.895	658.88
442.27	667.24
442.645	681.71
443.019	716.96
443.394	693.23
443.769	707.69
444.143	698.2
444.518	706.79
444.892	717.18
445.267	709.95
445.641	716.73
446.016	719.67
446.39	740.23
446.764	730.52
447.139	745.21
447.513	750.18
447.887	747.69
448.262	752.21
448.636	761.93
449.01	780.91
449.384	790.4
449.758	786.11
450.132	772.78
450.506	772.1
450.88	798.31
451.254	807.13
451.628	792.21
452.002	785.88
452.376	808.48
452.75	821.36
453.123	783.4
453.497	821.36
453.871	815.49
454.244	831.08
454.618	849.38
454.992	838.76
455.365	853.23
455.739	862.94
456.112	845.32
456.486	861.36
456.859	848.93
457.232	896.61
457.606	878.54
457.979	867.24
458.352	854.81
458.725	859.55
459.099	890.06
459.472	876.05
459.845	899.33
460.218	916.95
460.591	917.63
460.964	924.64
461.337	940.46
461.71	926.44
462.083	942.94
462.456	947.23
462.829	942.04
463.201	948.59
463.574	940.23
463.947	991.3
464.32	952.21
464.692	972.32
465.065	995.82
465.438	974.8
465.81	1015.71
466.183	992.88
466.555	1043.05
466.928	1052.32
467.3	1030.85
467.672	1017.52
468.045	1045.09
468.417	1052.09
468.789	1098.87
469.161	1086.21
469.534	1087.12
469.906	1124.41
470.278	1121.24
470.65	1112.88
471.022	1100.9
471.394	1153.78
471.766	1172.31
472.138	1136.38
472.51	1158.53
472.882	1189.26
473.253	1211.41
473.625	1215.93
473.997	1206.44
474.369	1236.94
474.74	1226.78
475.112	1271.97
475.484	1302.71
475.855	1277.17
476.227	1273.78
476.598	1315.36
476.97	1289.15
477.341	1320.78
477.713	1387.9
478.084	1360.78
478.455	1399.2
478.827	1401.23
479.198	1424.28
479.569	1467.22
479.94	1457.05
480.311	1477.84
480.682	1530.72
481.053	1560.55
481.424	1581.57
481.795	1551.29
482.166	1572.98
482.537	1590.38
482.908	1618.18
483.279	1638.52
483.65	1650.95
484.021	1686.65
484.391	1709.47
484.762	1703.15
485.133	1739.98
485.503	1743.37
485.874	1774.78
486.244	1814.56
486.615	1826.31
486.985	1856.59
487.356	1881
487.726	1890.49
488.097	1918.96
488.467	1925.29
488.837	1955.57
489.207	1965.29
489.578	1992.63
489.948	2023.82
490.318	2057.26
490.688	2047.32
491.058	2058.39
491.428	2110.37
491.798	2076.47
492.168	2153.53
492.538	2137.03
492.908	2161.21
493.278	2183.59
493.648	2219.74
494.017	2275.56
494.387	2242.79
494.757	2296.35
495.126	2303.36
495.496	2306.97
495.866	2317.82
496.235	2338.61
496.605	2351.27
496.974	2371.6
497.344	2407.99
497.713	2424.03
498.082	2430.36
498.452	2431.49
498.821	2435.33
499.19	2492.96
499.559	2508.32
499.928	2516.46
500.298	2530.47
500.667	2536.57
501.036	2558.04
501.405	2586.06
501.774	2580.41
502.143	2589
502.512	2593.07
502.88	2642.56
503.249	2653.86
503.618	2665.38
503.987	2668.77
504.356	2685.72
504.724	2694.76
505.093	2738.6
505.462	2743.35
505.83	2776.57
506.199	2777.47
506.567	2821.76
506.936	2810.91
507.304	2883
507.672	2864.7
508.041	2867.64
508.409	2894.98
508.777	2956.67
509.145	2946.5
509.514	2942.44
509.882	2986.73
510.25	2993.28
510.618	2997.35
510.986	3031.25
511.354	3045.26
511.722	3105.6
512.09	3143.11
512.458	3097.23
512.826	3126.39
513.193	3168.65
513.561	3202.99
513.929	3207.29
514.297	3215.88
514.664	3229.21
515.032	3225.37
515.4	3288.42
515.767	3286.38
516.135	3344.46
516.502	3309.21
516.869	3384.23
517.237	3330
517.604	3386.27
517.972	3418.13
518.339	3455.19
518.706	3417.68
519.073	3482.76
519.44	3553.95
519.808	3505.81
520.175	3532.48
520.542	3548.52
520.909	3534.96
521.276	3620.61
521.643	3629.42
522.009	3665.58
522.376	3677.11
522.743	3691.34
523.11	3733.38
523.477	3755.3
523.843	3773.38
524.21	3844.79
524.577	3840.49
524.943	3919.36
525.31	3902.86
525.676	3950.55
526.043	3998.23
526.409	4003.65
526.776	4036.87
527.142	4013.14
527.508	4031.9
527.874	4111.22
528.241	4110.77
528.607	4144.21
528.973	4152.57
529.339	4166.36
529.705	4241.84
530.071	4272.57
530.437	4310.54
530.803	4316.41
531.169	4292.46
531.535	4310.08
531.901	4317.09
532.267	4361.83
532.632	4451.32
532.998	4415.84
533.364	4454.49
533.73	4424.66
534.095	4479.8
534.461	4486.35
534.826	4550.98
535.192	4559.12
535.557	4519.57
535.923	4542.17
536.288	4591.66
536.653	4584.65
537.019	4591.88
537.384	4647.25
537.749	4622.84
538.114	4679.57
538.479	4704.2
538.845	4702.84
539.21	4734.03
539.575	4711.43
539.94	4770.41
540.305	4767.7
540.67	4789.39
541.034	4864.42
541.399	4854.25
541.764	4861.93
542.129	4891.99
542.494	4894.25
542.858	4857.64
543.223	4910.97
543.587	4911.42
543.952	4952.55
544.316	4973.12
544.681	4922.05
545.045	4945.55
545.41	5051.31
545.774	5022.16
546.138	5044.98
546.503	5064.87
546.867	5071.65
547.231	5095.37
547.595	5078.43
547.959	5138.31
548.324	5140.12
548.688	5157.29
549.052	5204.07
549.416	5179.44
549.779	5235.94
550.143	5253.34
550.507	5300.57
550.871	5277.52
551.235	5266.44
551.599	5276.84
551.962	5354.58
552.326	5344.41
552.689	5361.58
553.053	5325.88
553.417	5386.21
553.78	5463.73
554.143	5470.73
554.507	5458.98
554.87	5453.33
555.234	5508.47
555.597	5517.74
555.96	5551.41
556.323	5550.73
556.686	5545.08
557.05	5645.42
557.413	5610.39
557.776	5703.49
558.139	5693.1
558.502	5726.09
558.865	5753.21
559.228	5797.95
559.59	5813.1
559.953	5806.77
560.316	5845.19
560.679	5865.98
561.041	5884.51
561.404	5916.14
561.767	5918.63
562.129	5929.25
562.492	5975.58
562.854	6040.66
563.217	5987.1
563.579	6049.7
563.941	6054.67
564.304	6135.35
564.666	6170.6
565.028	6159.08
565.39	6215.12
565.753	6189.13
566.115	6271.39
566.477	6280.2
566.839	6300.54
567.201	6322.69
567.563	6345.96
567.925	6394.32
568.287	6422.8
568.648	6399.52
569.01	6390.48
569.372	6442.91
569.734	6470.71
570.095	6514.32
570.457	6543.02
570.819	6580.76
571.18	6579.4
571.542	6662.56
571.903	6662.56
572.265	6653.07
572.626	6676.35
572.987	6636.35
573.349	6675.9
573.71	6725.39
574.071	6697.59
574.432	6765.16
574.794	6754.99
575.155	6828.21
575.516	6792.05
575.877	6845.38
576.238	6840.87
576.599	6795.67
576.96	6867.53
577.32	6870.7
577.681	6949.79
578.042	6873.18
578.403	6909.56
578.763	6900.07
579.124	6960.86
579.485	6896.01
579.845	6955.89
580.206	6934.65
580.566	6859.4
580.927	6967.19
581.287	7030.24
581.648	6966.06
582.008	7002.22
582.368	7003.57
582.728	6994.99
583.089	6930.58
583.449	6965.16
583.809	6960.86
584.169	7026.4
584.529	6964.93
584.889	7018.26
585.249	7087.41
585.609	6961.77
585.969	7071.82
586.329	7041.31
586.688	6997.47
587.048	7065.27
587.408	7041.31
587.768	7035.66
588.127	7047.64
588.487	7002.44
588.846	7054.42
589.206	7007.19
589.565	6994.31
589.925	7039.28
590.284	7057.58
590.643	7040.86
591.003	7065.94
591.362	7071.14
591.721	7094.42
592.08	7068.43
592.44	7044.25
592.799	7102.33
593.158	7068.88
593.517	7066.62
593.876	7122.44
594.235	7044.02
594.593	7101.88
594.952	7105.27
595.311	7035.89
595.67	7044.7
596.029	7147.07
596.387	7120.41
596.746	7162.21
597.104	7084.02
597.463	7117.24
597.822	7114.3
598.18	7082.21
598.538	7090.58
598.897	7091.93
599.255	7112.72
599.613	7157.69
599.972	7149.11
600.33	7110.24
600.688	7084.47
601.046	7115.43
601.404	7183.91
601.762	7154.08
602.12	7180.97
602.478	7217.58
602.836	7157.47
603.194	7170.12
603.552	7108.88
603.91	7091.71
604.268	7203.57
604.625	7155.21
604.983	7218.71
605.341	7167.41
605.698	7134.87
606.056	7210.35
606.413	7180.52
606.771	7206.05
607.128	7218.26
607.485	7211.48
607.843	7192.49
608.2	7165.83
608.557	7267.75
608.914	7214.64
609.272	7264.58
609.629	7264.58
609.986	7320.17
610.343	7287.86
610.7	7311.36
611.057	7328.76
611.414	7315.88
611.771	7318.59
612.127	7364.92
612.484	7375.99
612.841	7423.22
613.198	7344.58
613.554	7306.62
613.911	7363.34
614.267	7359.04
614.624	7370.57
614.98	7373.73
615.337	7394.52
615.693	7370.34
616.05	7318.37
616.406	7390.91
616.762	7350.91
617.118	7373.28
617.475	7445.82
617.831	7437.01
618.187	7374.64
618.543	7413.51
618.899	7438.59
619.255	7459.83
619.611	7430.91
619.967	7413.73
620.323	7392.94
620.678	7398.14
621.034	7401.53
621.39	7366.95
621.746	7361.53
622.101	7480.62
622.457	7431.13
622.812	7400.17
623.168	7496.22
623.523	7460.06
623.879	7474.52
624.234	7364.02
624.589	7451.7
624.945	7394.52
625.3	7417.57
625.655	7464.13
626.01	7418.7
626.365	7381.42
626.72	7436.1
627.075	7382.77
627.43	7348.87
627.785	7401.08
628.14	7454.86
628.495	7403.11
628.85	7387.07
629.205	7357.01
629.559	7392.94
629.914	7396.1
630.269	7409.66
630.623	7336.67
630.978	7253.06
631.332	7356.78
631.687	7353.39
632.041	7317.24
632.396	7276.11
632.75	7278.14
633.104	7272.94
633.459	7251.25
633.813	7258.93
634.167	7331.02
634.521	7279.95
634.875	7310.01
635.229	7236.56
635.583	7243.11
635.937	7205.6
636.291	7210.35
636.645	7218.03
636.999	7237.69
637.352	7199.27
637.706	7185.94
638.06	7151.82
638.413	7171.25
638.767	7125.6
639.121	7125.38
639.474	7115.89
639.828	7122.67
640.181	7133.74
640.534	7128.32
640.888	7152.5
641.241	7094.64
641.594	7095.77
641.947	7105.27
642.301	7078.15
642.654	7049.9
643.007	7024.59
643.36	6990.92
643.713	7009.22
644.066	7004.7
644.419	7026.62
644.771	6920.64
645.124	6865.27
645.477	6926.51
645.83	6834.31
646.182	6790.92
646.535	6736.91
646.888	6822.33
647.24	6782.11
647.593	6830.47
647.945	6752.73
648.298	6737.82
648.65	6766.52
649.002	6740.53
649.355	6661.21
649.707	6687.65
650.059	6714.77
650.411	6789.79
650.763	6765.39
651.115	6901.65
651.467	6863.69
651.819	6830.24
652.171	6897.14
652.523	6851.49
652.875	6844.03
653.227	6810.13
653.578	6803.13
653.93	6829.11
654.282	6754.09
654.633	6712.06
654.985	6714.31
655.337	6732.17
655.688	6689.23
656.039	6764.26
656.391	6709.34
656.742	6697.37
657.094	6714.31
657.445	6743.24
657.796	6699.63
658.147	6740.98
658.498	6700.98
658.849	6731.94
659.2	6754.09
659.551	6638.84
659.902	6686.52
660.253	6664.82
660.604	6671.83
660.955	6651.94
661.306	6666.18
661.656	6590.7
662.007	6661.66
662.358	6627.09
662.708	6592.06
663.059	6619.85
663.409	6564.26
663.76	6633.41
664.11	6637.03
664.461	6557.71
664.811	6609.01
665.161	6611.04
665.511	6586.18
665.862	6602
666.212	6616.69
666.562	6625.28
666.912	6587.54
667.262	6549.8
667.612	6595.45
667.962	6538.95
668.312	6529.69
668.662	6590.93
669.011	6514.77
669.361	6526.3
669.711	6572.4
670.06	6561.1
670.41	6582.12
670.76	6453.98
671.109	6580.76
671.459	6569.23
671.808	6534.66
672.157	6551.61
672.507	6516.13
672.856	6524.94
673.205	6492.17
673.554	6496.02
673.904	6538.5
674.253	6497.37
674.602	6477.71
674.951	6358.39
675.3	6288.79
675.649	6458.5
675.998	6405.17
676.346	6423.93
676.695	6463.47
677.044	6395.68
677.393	6427.54
677.741	6396.13
678.09	6385.74
678.438	6418.96
678.787	6448.11
679.135	6460.31
679.484	6464.83
679.832	6477.03
680.181	6444.94
680.529	6345.96
680.877	6376.24
681.225	6333.31
681.573	6405.4
681.922	6324.72
682.27	6310.71
682.618	6291.73
682.966	6243.82
683.314	6251.5
683.661	6276.81
684.009	6246.3
684.357	6226.42
684.705	6235.46
685.053	6263.48
685.4	6227.77
685.748	6240.43
686.095	6288.79
686.443	6212.86
686.79	6176.25
687.138	6214.44
687.485	6194.78
687.832	6105.74
688.18	6115.69
688.527	6088.12
688.874	6076.37
689.221	6034.56
689.568	6064.61
689.915	6071.85
690.262	6063.94
690.609	6038.85
690.956	6015.8
691.303	6018.51
691.65	5994.33
691.997	6042.24
692.344	5978.52
692.69	6028.91
693.037	5995.92
693.383	5930.38
693.73	5995.01
694.077	5946.2
694.423	5905.97
694.769	5873.66
695.116	5891.51
695.462	5867.56
695.808	5804.96
696.155	5792.53
696.501	5748.24
696.847	5757.05
697.193	5718.86
697.539	5711.63
697.885	5756.83
698.231	5705.75
698.577	5718.86
698.923	5709.14
699.269	5712.31
699.614	5676.6
699.96	5701.46
700.306	5717.73
700.651	5647.68
700.997	5582.14
701.342	5628.92
701.688	5620.78
702.033	5581.92
702.379	5551.41
702.724	5460.34
703.069	5501.01
703.415	5500.56
703.76	5462.6
704.105	5422.37
704.45	5466.66
704.795	5458.08
705.14	5449.49
705.485	5444.29
705.83	5436.83
706.175	5424.18
706.52	5462.82
706.865	5432.99
707.209	5409.94
707.554	5387.57
707.899	5351.86
708.243	5335.14
708.588	5374.01
708.932	5261.25
709.277	5232.32
709.621	5263.96
709.966	5199.33
710.31	5236.61
710.654	5242.94
710.998	5166.79
711.342	5224.41
711.687	5214.47
712.031	5191.87
712.375	5181.47
712.719	5188.71
713.063	5210.63
713.407	5252.88
713.75	5208.59
714.094	5182.83
714.438	5175.37
714.782	5158.65
715.125	5168.14
715.469	5093.11
715.812	5132.89
716.156	5062.61
716.499	5029.39
716.843	5031.2
717.186	4977.41
717.53	5007.02
717.873	5017.18
718.216	4965.21
718.559	4927.02
718.902	4942.84
719.246	4967.24
719.589	4959.33
719.932	4986.68
720.275	4969.95
720.617	5028.03
720.96	5026
721.303	5020.12
721.646	4994.13
721.989	4952.55
722.331	4910.97
722.674	4952.1
723.016	4918.88
723.359	4927.47
723.701	4891.09
724.044	4827.58
724.386	4813.57
724.729	4776.29
725.071	4825.55
725.413	4805.44
725.755	4827.13
726.097	4773.35
726.439	4790.3
726.782	4819.68
727.124	4835.49
727.465	4845.21
727.807	4823.52
728.149	4828.94
728.491	4856.96
728.833	4848.83
729.175	4767.47
729.516	4800.24
729.858	4807.47
730.199	4782.39
730.541	4709.4
730.882	4725.67
731.224	4731.32
731.565	4663.97
731.906	4681.6
732.248	4656.29
732.589	4620.81
732.93	4631.43
733.271	4640.25
733.612	4669.17
733.953	4670.07
734.294	4662.84
734.635	4637.08
734.976	4708.94
735.317	4622.17
735.658	4687.25
735.999	4661.26
736.339	4645.89
736.68	4670.75
737.021	4647.02
737.361	4622.17
737.702	4617.42
738.042	4620.13
738.383	4621.94
738.723	4626.01
739.063	4534.03
739.404	4557.99
739.744	4531.55
740.084	4497.42
740.424	4511.21
740.764	4474.83
741.104	4509.85
741.444	4519.57
741.784	4495.84
742.124	4499.91
742.464	4558.21
742.804	4474.15
743.143	4504.88
743.483	4535.84
743.823	4523.19
744.162	4523.64
744.502	4479.35
744.841	4499.23
745.181	4484.54
745.52	4481.15
745.86	4453.13
746.199	4434.83
746.538	4366.81
746.877	4391.21
747.216	4412.68
747.556	4355.73
747.895	4347.37
748.234	4360.03
748.573	4329.74
748.911	4336.07
749.25	4355.96
749.589	4345.79
749.928	4394.83
750.267	4361.16
750.605	4350.76
750.944	4376.3
751.283	4358.22
751.621	4395.28
751.96	4325.45
752.298	4341.27
752.636	4338.33
752.975	4330.42
753.313	4263.08
753.651	4360.7
753.989	4237.32
754.327	4249.97
754.666	4188.05
755.004	4200.93
755.342	4171.33
755.679	4182.86
756.017	4126.36
756.355	4155.96
756.693	4139.69
757.031	4141.73
757.368	4134.72
757.706	4140.37
758.044	4187.6
758.381	4184.89
758.719	4143.99
759.056	4214.49
759.394	4130.88
759.731	4181.5
760.068	4145.12
760.405	4155.51
760.743	4102.18
761.08	4091.56
761.417	4023.99
761.754	4048.4
762.091	4042.52
762.428	4002.07
762.765	4001.39
763.102	3968.17
763.438	3932.24
763.775	3912.35
764.112	3928.4
764.449	3939.92
764.785	3911.45
765.122	3902.19
765.458	3866.48
765.795	3887.95
766.131	3863.09
766.467	3894.05
766.804	3862.41
767.14	3852.24
767.476	3880.94
767.812	3850.66
768.148	3864.67
768.485	3834.39
768.821	3839.59
769.157	3789.42
769.492	3842.98
769.828	3825.8
770.164	3724.79
770.5	3756.2
770.836	3696.99
771.171	3689.08
