Data from foam1_polythene_foam_FLMS001491_00099.txt Node
Date: Wed Feb 08 10:55:40 GMT 2017
User: dcchb
Spectrometer: FLMS00149
Trigger mode: 0
Integration Time (sec): 2.000000E-2
Scans to average: 10
Electric dark correction enabled: true
Nonlinearity correction enabled: false
Boxcar width: 0
XAxis mode: Wavelengths
Number of Pixels in Spectrum: 2048
>>>>>Begin Spectral Data<<<<<
341.393	4.24
341.776	4.24
342.16	4.24
342.543	-61.07
342.927	-76.89
343.31	-86.16
343.693	-67.4
344.077	-60.62
344.46	-45.25
344.843	-53.16
345.226	-55.87
345.61	-28.3
345.993	-12.94
346.376	-15.88
346.759	18.02
347.142	44.69
347.525	21.41
347.908	58.47
348.291	80.62
348.674	101.86
349.057	100.51
349.44	121.75
349.823	136.66
350.206	141.86
350.588	170.33
350.971	181.86
351.354	206.49
351.737	232.48
352.119	221.41
352.502	240.39
352.884	241.52
353.267	268.19
353.65	258.24
354.032	297.11
354.414	307.73
354.797	299.37
355.179	302.08
355.562	316.55
355.944	322.87
356.326	316.55
356.709	296.66
357.091	312.7
357.473	327.62
357.855	336.21
358.238	326.26
358.62	326.49
359.002	324.23
359.384	330.78
359.766	303.66
360.148	322.42
360.53	312.03
360.912	295.08
361.294	317.22
361.676	306.15
362.057	314.74
362.439	304.12
362.821	305.25
363.203	328.07
363.584	303.66
363.966	312.93
364.348	295.08
364.729	297.34
365.111	309.99
365.493	315.19
365.874	297.11
366.256	302.99
366.637	298.69
367.019	302.99
367.4	285.36
367.781	296.88
368.163	294.85
368.544	305.02
368.925	298.01
369.306	291.46
369.688	294.85
370.069	293.27
370.45	290.33
370.831	303.21
371.212	308.64
371.593	303.89
371.974	307.73
372.355	294.17
372.736	305.02
373.117	293.27
373.498	290.33
373.879	312.03
374.26	293.95
374.641	280.84
375.021	307.51
375.402	321.29
375.783	299.6
376.163	293.72
376.544	308.64
376.925	300.73
377.305	316.09
377.686	308.41
378.066	300.27
378.447	316.55
378.827	318.81
379.208	321.52
379.588	320.84
379.968	311.35
380.349	312.25
380.729	335.3
381.109	322.42
381.489	303.21
381.87	353.61
382.25	337.79
382.63	327.39
383.01	328.52
383.39	319.48
383.77	335.53
384.15	343.66
384.53	331.91
384.91	341.18
385.29	345.47
385.67	327.39
386.049	333.27
386.429	347.96
386.809	337.56
387.189	325.81
387.568	339.82
387.948	321.52
388.328	342.76
388.707	334.62
389.087	361.97
389.466	350.89
389.846	336.21
390.225	345.92
390.605	352.93
390.984	349.99
391.363	341.86
391.743	326.94
392.122	367.39
392.501	339.14
392.881	372.59
393.26	360.84
393.639	368.75
394.018	357.45
394.397	379.37
394.776	354.51
395.155	369.88
395.534	378.01
395.913	368.75
396.292	370.33
396.671	382.53
397.05	376.2
397.429	360.84
397.808	370.56
398.186	383.44
398.565	386.6
398.944	377.56
399.323	376.66
399.701	380.95
400.08	372.14
400.458	389.31
400.837	410.78
401.215	387.28
401.594	404.68
401.972	397
402.351	399.71
402.729	408.07
403.107	412.36
403.486	390.67
403.864	392.7
404.242	396.54
404.62	390.89
404.999	414.4
405.377	402.87
405.755	410.78
406.133	416.43
406.511	415.3
406.889	432.93
407.267	438.12
407.645	435.64
408.023	434.06
408.401	429.76
408.779	440.16
409.156	441.51
409.534	428.18
409.912	459.59
410.29	452.14
410.667	451.68
411.045	467.05
411.422	466.37
411.8	447.84
412.178	455.52
412.555	471.34
412.933	465.69
413.31	443.77
413.687	481.29
414.065	496.2
414.442	461.63
414.819	485.13
415.197	477.22
415.574	491.68
415.951	484
416.328	485.58
416.705	502.3
417.082	468.18
417.46	511.79
417.837	506.37
418.214	513.83
418.591	504.56
418.967	518.35
419.344	538.91
419.721	511.79
420.098	518.12
420.475	530.33
420.852	526.48
421.228	526.26
421.605	529.65
421.982	552.7
422.358	529.42
422.735	561.96
423.111	549.31
423.488	568.52
423.864	560.15
424.241	558.8
424.617	559.7
424.994	568.29
425.37	569.42
425.746	565.8
426.123	578.01
426.499	591.11
426.875	600.15
427.251	585.46
427.627	613.49
428.003	610.55
428.379	597.22
428.756	603.32
429.132	608.97
429.507	620.49
429.883	618.01
430.259	625.92
430.635	650.77
431.011	626.59
431.387	660.49
431.763	662.3
432.138	643.09
432.514	646.25
432.89	666.37
433.265	690.55
433.641	707.5
434.016	680.38
434.392	698.91
434.767	704.56
435.143	700.04
435.518	705.69
435.894	699.36
436.269	724.9
436.644	739.81
437.02	742.3
437.395	749.53
437.77	752.69
438.145	770.77
438.52	764.9
438.895	782.75
439.271	782.75
439.646	777.55
440.021	792.47
440.395	800.6
440.77	792.47
441.145	816.19
441.52	809.41
441.895	848.06
442.27	828.85
442.645	853.48
443.019	832.24
443.394	842.63
443.769	846.93
444.143	857.1
444.518	860.03
444.892	892.35
445.267	891.67
445.641	876.53
446.016	906.36
446.39	917.89
446.764	913.37
447.139	910.43
447.513	903.2
447.887	900.26
448.262	914.5
448.636	924.89
449.01	962.18
449.384	965.57
449.758	965.57
450.132	967.6
450.506	977.09
450.88	985
451.254	966.25
451.628	999.47
452.002	1018.9
452.376	1024.1
452.75	1009.41
453.123	1029.29
453.497	1040.14
453.871	1004.89
454.244	1081.95
454.618	1058.45
454.992	1052.35
455.365	1062.06
455.739	1085.34
456.112	1090.54
456.486	1073.81
456.859	1088.28
457.232	1115.85
457.606	1110.42
457.979	1122.17
458.352	1126.24
458.725	1145
459.099	1167.37
459.472	1180.93
459.845	1171.66
460.218	1178.67
460.591	1191.32
460.964	1138.9
461.337	1211.21
461.71	1223.64
462.083	1228.84
462.456	1219.12
462.829	1227.26
463.201	1277.2
463.574	1271.32
463.947	1272.45
464.32	1283.75
464.692	1307.93
465.065	1313.13
465.438	1320.13
465.81	1345.9
466.183	1346.35
466.555	1379.34
466.928	1375.5
467.3	1373.92
467.672	1414.14
468.045	1419.57
468.417	1429.06
468.789	1441.26
469.161	1430.64
469.534	1466.57
469.906	1484.88
470.278	1520.36
470.65	1511.54
471.022	1499.57
471.394	1543.41
471.766	1568.04
472.138	1573.69
472.51	1605.1
472.882	1622.5
473.253	1617.53
473.625	1638.54
473.997	1646
474.369	1684.64
474.74	1691.65
475.112	1733.91
475.484	1756.28
475.855	1787.02
476.227	1804.42
476.598	1858.43
476.97	1853.91
477.341	1869.95
477.713	1909.05
478.084	1905.2
478.455	1957.63
478.827	1957.63
479.198	2016.39
479.569	1997.18
479.94	2074.47
480.311	2088.48
480.682	2128.02
481.053	2160.56
481.424	2192.88
481.795	2197.85
482.166	2249.38
482.537	2288.02
482.908	2309.71
483.279	2318.75
483.65	2366.66
484.021	2434.68
484.391	2458.64
484.762	2487.11
485.133	2473.1
485.503	2514.68
485.874	2526.88
486.244	2579.08
486.615	2637.61
486.985	2668.57
487.356	2697.27
487.726	2727.78
488.097	2777.5
488.467	2758.52
488.837	2819.08
489.207	2861.56
489.578	2879.87
489.948	2930.26
490.318	2930.71
490.688	3021.11
491.058	3039.64
491.428	3098.39
491.798	3053.42
492.168	3140.43
492.538	3170.71
492.908	3172.52
493.278	3207.09
493.648	3233.76
494.017	3325.51
494.387	3335.22
494.757	3328.67
495.126	3384.94
495.496	3385.84
495.866	3432.85
496.235	3422.23
496.605	3486.63
496.974	3527.99
497.344	3525.73
497.713	3518.72
498.082	3557.82
498.452	3616.12
498.821	3615.89
499.19	3687.53
499.559	3701.54
499.928	3686.85
500.298	3724.59
500.667	3800.07
501.036	3761.43
501.405	3803.91
501.774	3796.68
502.143	3841.88
502.512	3919.16
502.88	3873.29
503.249	3898.82
503.618	3989.9
503.987	4008.2
504.356	3981.53
504.724	4030.57
505.093	4044.36
505.462	4054.98
505.83	4109.21
506.199	4151.7
506.567	4188.76
506.936	4205.48
507.304	4224.92
507.672	4260.17
508.041	4324.8
508.409	4337.91
508.777	4357.34
509.145	4400.73
509.514	4418.58
509.882	4431.24
510.25	4457.23
510.618	4480.73
510.986	4516.21
511.354	4542.2
511.722	4559.15
512.09	4630.56
512.458	4658.8
512.826	4692.25
513.193	4707.62
513.561	4699.25
513.929	4808.4
514.297	4810.89
514.664	4779.48
515.032	4910.1
515.4	4892.02
515.767	4905.13
516.135	4967.5
516.502	4913.71
516.869	5041.62
517.237	5052.92
517.604	5046.36
517.972	5120.49
518.339	5136.08
518.706	5145.8
519.073	5148.73
519.44	5205.68
519.808	5283.19
520.175	5262.18
520.542	5381.5
520.909	5412.91
521.276	5384.89
521.643	5421.5
522.009	5477.77
522.376	5527.71
522.743	5605.9
523.11	5640.47
523.477	5707.14
523.843	5710.98
524.21	5733.58
524.577	5824.42
524.943	5873.69
525.31	5869.62
525.676	5942.16
526.043	5940.8
526.409	6012.44
526.776	6051.31
527.142	6052.44
527.508	6106.9
527.874	6211.31
528.241	6251.53
528.607	6277.74
528.973	6258.31
529.339	6268.48
529.705	6323.17
530.071	6395.48
530.437	6421.02
530.803	6424.63
531.169	6531.75
531.535	6509.15
531.901	6522.03
532.267	6587.79
532.632	6608.36
532.998	6674.57
533.364	6731.97
533.73	6694.23
534.095	6836.15
534.461	6763.61
534.826	6820.33
535.192	6853.55
535.557	6906.88
535.923	6920.44
536.288	6910.72
536.653	6974.68
537.019	6938.52
537.384	7007.89
537.749	7024.62
538.114	7025.97
538.479	7122.24
538.845	7138.96
539.21	7192.3
539.575	7208.34
539.94	7209.92
540.305	7235.46
540.67	7261.45
541.034	7280.88
541.399	7324.95
541.764	7332.18
542.129	7399.75
542.494	7378.28
542.858	7377.83
543.223	7381.22
543.587	7432.97
543.952	7471.61
544.316	7515
544.681	7532.85
545.045	7555.45
545.41	7559.07
545.774	7636.13
546.138	7640.65
546.503	7673.87
546.867	7693.75
547.231	7695.11
547.595	7803.35
547.959	7758.84
548.324	7841.32
548.688	7845.39
549.052	7898.49
549.416	7915.67
549.779	7927.19
550.143	7897.14
550.507	7958.6
550.871	7995.21
551.235	8051.26
551.599	8098.71
551.962	8098.49
552.326	8097.81
552.689	8134.87
553.053	8103.46
553.417	8146.85
553.78	8308.2
554.143	8240.86
554.507	8308.88
554.87	8369.67
555.234	8402.21
555.597	8365.15
555.96	8382.55
556.323	8406.28
556.686	8466.16
557.05	8543
557.413	8578.93
557.776	8570.11
558.139	8686.27
558.502	8679.94
558.865	8679.72
559.228	8705.25
559.59	8733.27
559.953	8824.8
560.316	8944.79
560.679	8891.46
561.041	8957.9
561.404	9034.06
561.767	9031.34
562.129	8993.61
562.492	9073.38
562.854	9107.05
563.217	9126.94
563.579	9183.66
563.941	9236.08
564.304	9288.74
564.666	9265.01
565.028	9330.77
565.39	9333.48
565.753	9366.93
566.115	9434.27
566.477	9496.42
566.839	9552.01
567.201	9661.61
567.563	9608.28
567.925	9707.26
568.287	9671.1
568.648	9713.13
569.01	9722.85
569.372	9871.1
569.734	9808.27
570.095	9893.02
570.457	9909.74
570.819	9937.54
571.18	9935.95
571.542	9992.45
571.903	10030.19
572.265	9942.28
572.626	10029.96
572.987	10114.71
573.349	10077.42
573.71	10234.02
574.071	10217.08
574.432	10179.34
574.794	10301.37
575.155	10255.49
575.516	10239
575.877	10337.52
576.238	10316.06
576.599	10373.91
576.96	10429.73
577.32	10373.68
577.681	10408.94
578.042	10403.06
578.403	10379.56
578.763	10389.27
579.124	10464.75
579.485	10530.74
579.845	10594.02
580.206	10580
580.566	10550.63
580.927	10573.68
581.287	10631.08
581.648	10545.43
582.008	10540.01
582.368	10548.59
582.728	10590.85
583.089	10607.12
583.449	10657.74
583.809	10596.73
584.169	10672.21
584.529	10645.77
584.889	10754.91
585.249	10600.57
585.609	10601.47
585.969	10625.65
586.329	10547.91
586.688	10632.66
587.048	10695.93
587.408	10656.16
587.768	10707.46
588.127	10576.84
588.487	10585.43
588.846	10685.76
589.206	10596.73
589.565	10623.17
589.925	10673.34
590.284	10644.86
590.643	10737.06
591.003	10755.59
591.362	10718.53
591.721	10709.27
592.08	10684.41
592.44	10702.71
592.799	10664.07
593.158	10711.75
593.517	10713.79
593.876	10688.93
594.235	10747.46
594.593	10710.17
594.952	10727.12
595.311	10758.76
595.67	10711.3
596.029	10708.14
596.387	10830.17
596.746	10788.81
597.104	10784.29
597.463	10811.18
597.822	10817.51
598.18	10769.6
598.538	10761.69
598.897	10863.84
599.255	10748.14
599.613	10894.35
599.972	10828.36
600.33	10796.04
600.688	10836.72
601.046	10885.76
601.404	10862.71
601.762	10904.52
602.12	10950.16
602.478	10971.86
602.836	10928.24
603.194	10829.04
603.552	10911.97
603.91	10826.78
604.268	10897.74
604.625	10845.53
604.983	10891.63
605.341	10922.59
605.698	10950.84
606.056	10945.87
606.413	10925.98
606.771	10949.94
607.128	10941.8
607.485	10860.45
607.843	10934.12
608.2	11019.31
608.557	11134.79
608.914	10949.26
609.272	11062.48
609.629	11125.53
609.986	11092.76
610.343	11057.05
610.7	11144.28
611.057	11141.8
611.414	11099.99
611.771	11121.23
612.127	11168.92
612.484	11209.14
612.841	11223.83
613.198	11219.08
613.554	11178.41
613.911	11213.66
614.267	11188.58
614.624	11201
614.98	11134.11
615.337	11243.94
615.693	11195.13
616.05	11179.54
616.406	11317.16
616.762	11258.63
617.118	11220.67
617.475	11256.82
617.831	11278.97
618.187	11276.94
618.543	11325.97
618.899	11316.48
619.255	11331.62
619.611	11218.63
619.967	11436.48
620.323	11398.29
620.678	11307.22
621.034	11421.11
621.39	11361
621.746	11271.74
622.101	11481
622.457	11296.82
622.812	11375.46
623.168	11331.85
623.523	11365.97
623.879	11375.69
624.234	11291.85
624.589	11303.83
624.945	11428.8
625.3	11357.61
625.655	11338.85
626.01	11359.87
626.365	11415.24
626.72	11302.25
627.075	11259.31
627.43	11246.43
627.785	11285.3
628.14	11350.38
628.495	11328.91
628.85	11284.62
629.205	11216.6
629.559	11311.96
629.914	11284.84
630.269	11257.5
630.623	11191.74
630.978	11139.09
631.332	11239.87
631.687	11238.74
632.041	11126.66
632.396	11118.07
632.75	11150.61
633.104	11222.02
633.459	11124.4
633.813	11148.35
634.167	11153.77
634.521	11070.84
634.875	11111.74
635.229	11041.69
635.583	11074.23
635.937	10988.36
636.291	11023.61
636.645	11003.72
636.999	11059.99
637.352	11072.42
637.706	10951.75
638.06	11001.01
638.413	10971.41
638.767	10923.72
639.121	10973.67
639.474	10889.15
639.828	10808.02
640.181	10837.4
640.534	10861.13
640.888	10825.42
641.241	10841.24
641.594	10882.82
641.947	10826.33
642.301	10834.69
642.654	10848.47
643.007	10801.92
643.36	10797.63
643.713	10740.9
644.066	10753.11
644.419	10702.49
644.771	10670.17
645.124	10608.48
645.477	10572.77
645.83	10458.2
646.182	10453.23
646.535	10371.2
646.888	10366
647.24	10329.62
647.593	10379.33
647.945	10268.83
648.298	10278.54
648.65	10296.4
649.002	10239.9
649.355	10290.75
649.707	10288.94
650.059	10336.17
650.411	10418.2
650.763	10445.32
651.115	10546.11
651.467	10491.87
651.819	10485.09
652.171	10511.08
652.523	10387.24
652.875	10435.38
653.227	10387.47
653.578	10463.85
653.93	10427.47
654.282	10415.94
654.633	10468.82
654.985	10381.82
655.337	10368.48
655.688	10316.06
656.039	10344.53
656.391	10241.71
656.742	10347.24
657.094	10341.37
657.445	10351.54
657.796	10337.3
658.147	10308.37
658.498	10307.47
658.849	10317.64
659.2	10256.85
659.551	10294.81
659.902	10331.2
660.253	10242.61
660.604	10279.9
660.955	10215.49
661.306	10309.95
661.656	10255.72
662.007	10235.15
662.358	10203.52
662.708	10219.79
663.059	10203.07
663.409	10102.28
663.76	10224.99
664.11	10209.62
664.461	10231.99
664.811	10175.5
665.161	10141.15
665.511	10094.14
665.862	10123.07
666.212	10173.01
666.562	10180.69
666.912	10188.15
667.262	10093.24
667.612	10189.51
667.962	10151.32
668.312	10069.74
668.662	10124.88
669.011	10172.78
669.361	10121.49
669.711	10121.49
670.06	10005.33
670.41	10044.65
670.76	9991.09
671.109	10092.33
671.459	10070.87
671.808	10011.66
672.157	10070.19
672.507	10055.5
672.856	10045.56
673.205	10027.25
673.554	9959.46
673.904	9968.27
674.253	9991.32
674.602	9944.99
674.951	9890.53
675.3	9820.93
675.649	9924.88
675.998	9975.27
676.346	9965.78
676.695	9985.44
677.044	9907.25
677.393	9949.74
677.741	9947.48
678.09	9917.42
678.438	9900.02
678.787	9834.94
679.135	9910.19
679.484	9831.32
679.832	9897.54
680.181	9789.06
680.529	9803.08
680.877	9798.1
681.225	9762.62
681.573	9816.63
681.922	9759.01
682.27	9735.73
682.618	9804.88
682.966	9746.58
683.314	9768.5
683.661	9664.55
684.009	9633.81
684.357	9579.8
684.705	9661.38
685.053	9626.13
685.4	9682.85
685.748	9581.39
686.095	9609.63
686.443	9567.15
686.79	9573.93
687.138	9553.59
687.485	9546.13
687.832	9543.65
688.18	9481.05
688.527	9441.05
688.874	9428.62
689.221	9389.53
689.568	9357.66
689.915	9301.17
690.262	9337.1
690.609	9303.43
690.956	9333.71
691.303	9281.73
691.65	9255.52
691.997	9248.29
692.344	9208.74
692.69	9167.16
693.037	9155.41
693.383	9135.97
693.73	9122.19
694.077	9046.94
694.423	9059.37
694.769	9021.18
695.116	9003.32
695.462	9024.79
695.808	8932.36
696.155	9024.56
696.501	8948.63
696.847	8949.99
697.193	8886.72
697.539	8940.27
697.885	8843.55
698.231	8805.14
698.577	8756.32
698.923	8715.42
699.269	8695.31
699.614	8699.83
699.96	8662.09
700.306	8723.56
700.651	8631.35
700.997	8593.62
701.342	8665.7
701.688	8585.93
702.033	8589.32
702.379	8640.39
702.724	8508.87
703.069	8562.2
703.415	8405.82
703.76	8419.16
704.105	8413.06
704.45	8411.02
704.795	8314.75
705.14	8326.28
705.485	8324.92
705.83	8350.68
706.175	8366.73
706.52	8311.82
706.865	8263.23
707.209	8300.29
707.554	8246.51
707.899	8191.14
708.243	8176.68
708.588	8182.1
708.932	8096.45
709.277	8086.28
709.621	8099.39
709.966	8052.16
710.31	8104.36
710.654	8012.39
710.998	8054.87
711.342	8008.55
711.687	8027.3
712.031	8015.33
712.375	7955.44
712.719	7982.56
713.063	7914.54
713.407	7997.25
713.75	7844.93
714.094	7887.65
714.438	7861.21
714.782	7856.91
715.125	7732.85
715.469	7768.55
715.812	7836.35
716.156	7767.2
716.499	7779.85
716.843	7829.34
717.186	7730.36
717.53	7817.14
717.873	7746.63
718.216	7740.08
718.559	7630.93
718.902	7645.84
719.246	7645.39
719.589	7614.43
719.932	7546.64
720.275	7633.64
720.617	7611.95
720.96	7621.66
721.303	7593.19
721.646	7560.65
721.989	7577.15
722.331	7627.09
722.674	7541.21
723.016	7596.13
723.359	7566.52
723.701	7523.81
724.044	7477.71
724.386	7410.6
724.729	7408.34
725.071	7502.35
725.413	7509.35
725.755	7406.53
726.097	7342.58
726.439	7414.44
726.782	7346.87
727.124	7377.6
727.465	7368.11
727.807	7327.66
728.149	7370.82
728.491	7281.56
728.833	7349.13
729.175	7250.15
729.516	7217.61
729.858	7193.43
730.199	7269.81
730.541	7229.13
730.882	7260.32
731.224	7228.91
731.565	7152.3
731.906	7211.51
732.248	7198.17
732.589	7169.25
732.93	7170.6
733.271	7117.95
733.612	7169.7
733.953	7186.65
734.294	7145.52
734.635	7162.47
734.976	7144.39
735.317	7080.66
735.658	7139.64
735.999	7123.15
736.339	7024.17
736.68	7051.06
737.021	7006.09
737.361	7015.58
737.702	7016.48
738.042	7064.84
738.383	7001.79
738.723	6974.45
739.063	6925.86
739.404	6981.45
739.744	7011.74
740.084	6965.86
740.424	6941.91
740.764	6953.66
741.104	6934.9
741.444	6866.43
741.784	6874.34
742.124	6899.65
742.464	6862.81
742.804	6815.36
743.143	6865.53
743.483	6838.63
743.823	6754.12
744.162	6730.16
744.502	6784.85
744.841	6796.6
745.181	6776.49
745.52	6763.16
745.86	6790.05
746.199	6803.83
746.538	6757.05
746.877	6771.74
747.216	6774.68
747.556	6758.86
747.895	6722.25
748.234	6678.41
748.573	6646.32
748.911	6690.39
749.25	6687
749.589	6626.66
749.928	6623.05
750.267	6592.09
750.605	6573.1
750.944	6531.07
751.283	6585.76
751.621	6551.41
751.96	6549.38
752.298	6583.27
752.636	6546.89
752.975	6517.74
753.313	6492.2
753.651	6537.4
753.989	6515.7
754.327	6481.36
754.666	6437.06
755.004	6430.51
755.342	6430.73
755.679	6373.56
756.017	6349.61
756.355	6407.68
756.693	6360.91
757.031	6362.49
757.368	6268.71
757.706	6349.61
758.044	6277.07
758.381	6314.58
758.719	6289.5
759.056	6270.97
759.394	6255.82
759.731	6183.51
760.068	6181.02
760.405	6162.95
760.743	6152.78
761.08	6111.42
761.417	6094.02
761.754	6055.83
762.091	6062.61
762.428	6070.07
762.765	6038.2
763.102	6118.43
763.438	6016.06
763.775	6094.7
764.112	6108.26
764.449	6027.13
764.785	6033.91
765.122	5946.45
