Data from foam1_polythene_foam_FLMS001491_00030.txt Node
Date: Wed Feb 08 10:54:37 GMT 2017
User: dcchb
Spectrometer: FLMS00149
Trigger mode: 0
Integration Time (sec): 2.000000E-2
Scans to average: 10
Electric dark correction enabled: true
Nonlinearity correction enabled: false
Boxcar width: 0
XAxis mode: Wavelengths
Number of Pixels in Spectrum: 2048
>>>>>Begin Spectral Data<<<<<
341.393	-28.88
341.776	-28.88
342.16	-28.88
342.543	-63.68
342.927	-68.43
343.31	-66.4
343.693	-79.05
344.077	-83.35
344.46	-59.17
344.843	-33.4
345.226	-46.96
345.61	-37.02
345.993	-26.4
346.376	-27.98
346.759	11.34
347.142	37.56
347.525	60.15
347.908	66.93
348.291	75.75
348.674	84.33
349.057	123.65
349.44	128.85
349.823	138.8
350.206	157.33
350.588	158
350.971	167.72
351.354	198.68
351.737	229.87
352.119	224.22
352.502	248.17
352.884	260.83
353.267	281.16
353.65	263.31
354.032	265.8
354.414	274.16
354.797	297.44
355.179	313.71
355.562	315.74
355.944	305.57
356.326	288.85
356.709	306.7
357.091	308.51
357.473	318.9
357.855	312.12
358.238	335.63
358.62	319.36
359.002	318.45
359.384	328.17
359.766	329.3
360.148	308.28
360.53	313.25
360.912	313.48
361.294	323.88
361.676	340.37
362.057	324.78
362.439	305.57
362.821	310.32
363.203	299.02
363.584	315.06
363.966	307.38
364.348	314.16
364.729	302.86
365.111	296.53
365.493	284.55
365.874	304.89
366.256	316.42
366.637	292.92
367.019	306.02
367.4	292.46
367.781	285.46
368.163	307.38
368.544	287.27
368.925	281.62
369.306	311.45
369.688	311.67
370.069	283.42
370.45	301.5
370.831	281.84
371.212	292.24
371.593	280.26
371.974	292.46
372.355	289.07
372.736	314.38
373.117	296.98
373.498	294.27
373.879	302.18
374.26	291.79
374.641	298.79
375.021	299.92
375.402	298.57
375.783	305.12
376.163	293.14
376.544	313.71
376.925	306.7
377.305	317.1
377.686	291.11
378.066	283.88
378.447	306.47
378.827	300.6
379.208	322.75
379.588	294.5
379.968	299.24
380.349	315.29
380.729	307.38
381.109	334.27
381.489	314.16
381.87	322.52
382.25	316.42
382.63	320.71
383.01	326.81
383.39	339.02
383.77	317.32
384.15	339.47
384.53	342.63
384.91	314.84
385.29	312.12
385.67	315.06
386.049	324.1
386.429	343.31
386.809	333.82
387.189	343.54
387.568	317.77
387.948	327.49
388.328	320.03
388.707	347.83
389.087	344.67
389.466	336.53
389.846	341.5
390.225	356.87
390.605	369.98
390.984	361.39
391.363	339.24
391.743	352.12
392.122	343.31
392.501	379.24
392.881	379.24
393.26	342.86
393.639	353.71
394.018	370.2
394.397	365.91
394.776	360.71
395.155	373.14
395.534	367.49
395.913	353.25
396.292	367.94
396.671	367.49
397.05	381.28
397.429	370.65
397.808	355.06
398.186	376.98
398.565	364.78
398.944	367.49
399.323	357.1
399.701	365.23
400.08	377.21
400.458	382.41
400.837	408.39
401.215	392.8
401.594	375.17
401.972	384.44
402.351	396.42
402.729	390.09
403.107	410.2
403.486	376.3
403.864	388.05
404.242	399.81
404.62	397.55
404.999	421.27
405.377	404.1
405.755	405.46
406.133	413.82
406.511	399.35
406.889	394.16
407.267	403.42
407.645	398.68
408.023	426.25
408.401	425.57
408.779	415.85
409.156	417.43
409.534	441.39
409.912	437.54
410.29	457.43
410.667	410.43
411.045	421.27
411.422	436.64
411.8	459.01
412.178	459.01
412.555	469.63
412.933	463.76
413.31	467.15
413.687	473.02
414.065	453.59
414.442	475.28
414.819	461.73
415.197	452.46
415.574	479.58
415.951	475.28
416.328	511.22
416.705	480.03
417.082	475.96
417.46	486.13
417.837	501.72
418.214	491.33
418.591	512.8
418.967	497.43
419.344	487.71
419.721	499.01
420.098	539.92
420.475	505.57
420.852	513.93
421.228	499.69
421.605	514.83
421.982	516.41
422.358	511.89
422.735	527.49
423.111	530.2
423.488	531.33
423.864	551.21
424.241	517.54
424.617	550.54
424.994	563.64
425.37	548.05
425.746	553.02
426.123	554.15
426.499	571.33
426.875	566.81
427.251	581.95
427.627	589.41
428.003	561.61
428.379	575.39
428.756	601.83
429.132	602.51
429.507	599.8
429.883	592.8
430.259	606.35
430.635	620.14
431.011	613.81
431.387	630.76
431.763	651.78
432.138	637.54
432.514	626.01
432.89	645.68
433.265	643.87
433.641	695.39
434.016	669.18
434.392	680.7
434.767	693.58
435.143	682.28
435.518	684.09
435.894	663.53
436.269	717.54
436.644	699.01
437.02	697.65
437.395	706.24
437.77	742.17
438.145	749.4
438.52	746.01
438.895	750.31
439.271	755.95
439.646	738.55
440.021	731.32
440.395	766.35
440.77	759.12
441.145	794.37
441.52	771.55
441.895	788.5
442.27	791.43
442.645	789.85
443.019	804.54
443.394	797.31
443.769	808.83
444.143	818.78
444.518	860.13
444.892	822.17
445.267	862.17
445.641	849.29
446.016	831.88
446.39	856.74
446.764	871.88
447.139	868.27
447.513	904.2
447.887	898.32
448.262	869.17
448.636	924.76
449.01	916.4
449.384	922.28
449.758	944.88
450.132	919.79
450.506	957.98
450.88	954.37
451.254	932.22
451.628	952.79
452.002	971.77
452.376	956.63
452.75	1010.19
453.123	1007.25
453.497	1005.21
453.871	1007.47
454.244	1023.97
454.618	1025.55
454.992	1014.25
455.365	1048.38
455.739	1051.31
456.112	1043.86
456.486	1072.1
456.859	1056.06
457.232	1075.27
457.606	1074.59
457.979	1081.82
458.352	1121.14
458.725	1102.84
459.099	1106.91
459.472	1125.66
459.845	1124.76
460.218	1134.7
460.591	1134.93
460.964	1150.29
461.337	1155.04
461.71	1167.7
462.083	1199.11
462.456	1178.77
462.829	1172.44
463.201	1195.94
463.574	1205.89
463.947	1227.13
464.32	1245.89
464.692	1245.89
465.065	1246.79
465.438	1254.47
465.81	1278.88
466.183	1298.54
466.555	1311.42
466.928	1303.74
467.3	1338.99
467.672	1344.64
468.045	1329.05
468.417	1370.63
468.789	1372.89
469.161	1404.07
469.534	1410.17
469.906	1443.39
470.278	1451.3
470.65	1450.17
471.022	1461.02
471.394	1484.3
471.766	1509.16
472.138	1543.96
472.51	1534.69
472.882	1545.09
473.253	1556.84
473.625	1573.33
473.997	1625.76
474.369	1592.09
474.74	1625.31
475.112	1642.49
475.484	1677.06
475.855	1702.82
476.227	1707.12
476.598	1743.27
476.97	1762.93
477.341	1832.76
477.713	1815.36
478.084	1854
478.455	1862.37
478.827	1917.51
479.198	1919.09
479.569	1952.53
479.94	1986.2
480.311	2002.48
480.682	2066.2
481.053	2064.85
481.424	2121.79
481.795	2096.03
482.166	2136.71
482.537	2176.71
482.908	2236.82
483.279	2256.71
483.65	2239.98
484.021	2303.48
484.391	2370.6
484.762	2383.48
485.133	2382.8
485.503	2394.56
485.874	2469.36
486.244	2496.02
486.615	2501.45
486.985	2567.66
487.356	2609.69
487.726	2616.24
488.097	2655.34
488.467	2661.89
488.837	2727.88
489.207	2725.39
489.578	2780.08
489.948	2784.6
490.318	2846.52
490.688	2886.07
491.058	2907.76
491.428	2927.2
491.798	2951.38
492.168	3003.13
492.538	3036.35
492.908	3036.57
493.278	3058.72
493.648	3064.37
494.017	3127.64
494.387	3122.9
494.757	3204.7
495.126	3209.68
495.496	3230.92
495.866	3279.05
496.235	3295.32
496.605	3314.98
496.974	3337.36
497.344	3350.91
497.713	3384.59
498.082	3479.05
498.452	3472.04
498.821	3455.09
499.19	3540.06
499.559	3490.35
499.928	3549.1
500.298	3587.74
500.667	3632.72
501.036	3595.2
501.405	3636.1
501.774	3675.43
502.143	3712.26
502.512	3689.44
502.88	3740.73
503.249	3719.94
503.618	3793.39
503.987	3793.16
504.356	3818.93
504.724	3862.99
505.093	3881.07
505.462	3906.38
505.83	3915.87
506.199	3900.28
506.567	4009.88
506.936	3980.5
507.304	4048.75
507.672	4053.5
508.041	4057.79
508.409	4149.31
508.777	4155.41
509.145	4192.93
509.514	4170.33
509.882	4214.85
510.25	4239.93
510.618	4262.98
510.986	4303.43
511.354	4313.15
511.722	4356.99
512.09	4399.02
512.458	4408.06
512.826	4378.68
513.193	4462.98
513.561	4514.95
513.929	4515.18
514.297	4570.09
514.664	4619.13
515.032	4613.71
515.4	4645.57
515.767	4647.83
516.135	4729.41
516.502	4705.23
516.869	4787.94
517.237	4837.88
517.604	4816.41
517.972	4881.95
518.339	4896.64
518.706	4934.15
519.073	4945.9
519.44	5004.66
519.808	5003.3
520.175	4998.56
520.542	5081.49
520.909	5097.76
521.276	5118.33
521.643	5189.28
522.009	5285.78
522.376	5290.75
522.743	5370.52
523.11	5357.64
523.477	5423.18
523.843	5405.32
524.21	5497.75
524.577	5533.91
524.943	5519.9
525.31	5586.79
525.676	5654.58
526.043	5650.06
526.409	5679.44
526.776	5775.94
527.142	5774.13
527.508	5766.67
527.874	5886.44
528.241	5859.1
528.607	5899.55
528.973	5967.8
529.339	5994.01
529.705	6020
530.071	6134.12
530.437	6068.81
530.803	6095.25
531.169	6185.19
531.535	6164.85
531.901	6198.75
532.267	6227.22
532.632	6256.15
532.998	6318.75
533.364	6323.04
533.73	6357.84
534.095	6361.01
534.461	6426.09
534.826	6446.2
535.192	6506.76
535.557	6536.82
535.923	6584.05
536.288	6537.27
536.653	6590.15
537.019	6596.48
537.384	6599.42
537.749	6617.95
538.114	6729.36
538.479	6724.61
538.845	6733.65
539.21	6737.94
539.575	6849.81
539.94	6801.67
540.305	6890.26
540.67	6861.78
541.034	6869.24
541.399	6893.42
541.764	6941.33
542.129	6966.86
542.494	7021.33
542.858	7014.32
543.223	7022.91
543.587	7022.23
543.952	7073.75
544.316	7064.49
544.681	7062
545.045	7162.57
545.41	7196.46
545.774	7160.31
546.138	7183.58
546.503	7156.01
546.867	7176.35
547.231	7266.74
547.595	7265.84
547.959	7367.76
548.324	7311.04
548.688	7365.05
549.052	7374.54
549.416	7362.56
549.779	7388.77
550.143	7449.79
550.507	7463.8
550.871	7506.96
551.235	7471.94
551.599	7603.46
551.962	7565.72
552.326	7541.09
552.689	7660.86
553.053	7628.54
553.417	7663.12
553.78	7738.37
554.143	7774.53
554.507	7744.25
554.87	7793.51
555.234	7907.18
555.597	7868.31
555.96	7875.77
556.323	7932.94
556.686	7986.05
557.05	8007.97
557.413	8004.35
557.776	8057.91
558.139	8079.6
558.502	8111.92
558.865	8131.58
559.228	8151.24
559.59	8224.01
559.953	8237.11
560.316	8341.52
560.679	8302.2
561.041	8365.92
561.404	8393.49
561.767	8388.3
562.129	8478.92
562.492	8493.6
562.854	8548.07
563.217	8520.27
563.579	8526.6
563.941	8613.6
564.304	8665.13
564.666	8665.35
565.028	8705.58
565.39	8766.82
565.753	8768.63
566.115	8820.38
566.477	8917.32
566.839	8896.53
567.201	8978.56
567.563	8998.68
567.925	9074.83
568.287	9000.94
568.648	9045.23
569.01	9033.03
569.372	9155.06
569.734	9079.35
570.095	9201.16
570.457	9229.4
570.819	9284.54
571.18	9305.79
571.542	9363.86
571.903	9304.66
572.265	9383.52
572.626	9382.39
572.987	9420.59
573.349	9433.47
573.71	9492.45
574.071	9450.64
574.432	9569.96
574.794	9542.39
575.155	9571.77
575.516	9532.45
575.877	9557.53
576.238	9586.01
576.599	9701.93
576.96	9683.63
577.32	9701.03
577.681	9712.1
578.042	9803.63
578.403	9653.35
578.763	9707.36
579.124	9768.6
579.485	9749.62
579.845	9852.66
580.206	9715.49
580.566	9828.94
580.927	9777.64
581.287	9843.17
581.648	9783.51
582.008	9841.82
582.368	9790.97
582.728	9858.09
583.089	9897.64
583.449	9792.33
583.809	9882.95
584.169	9796.17
584.529	9810.86
584.889	9920.69
585.249	9826
585.609	9852.66
585.969	9868.03
586.329	9833.68
586.688	9894.7
587.048	9837.3
587.408	9859.67
587.768	9849.95
588.127	9892.44
588.487	9849.05
588.846	9936.96
589.206	9846.79
589.565	9943.06
589.925	9910.74
590.284	9852.66
590.643	9938.31
591.003	9859.44
591.362	10007.46
591.721	9936.05
592.08	9942.15
592.44	9943.28
592.799	9948.03
593.158	9912.55
593.517	9911.42
593.876	9927.24
594.235	9878.65
594.593	9977.63
594.952	10062.15
595.311	9910.52
595.67	9978.54
596.029	10038.65
596.387	9994.13
596.746	9968.82
597.104	10015.6
597.463	9933.79
597.822	9989.38
598.18	10002.04
598.538	9894.7
598.897	10088.59
599.255	9964.75
599.613	10078.87
599.972	10021.47
600.33	10054.47
600.688	9971.53
601.046	10107.57
601.404	10057.86
601.762	10071.19
602.12	10112.32
602.478	10124.75
602.836	10122.04
603.194	10084.52
603.552	10056.73
603.91	10077.07
604.268	10003.85
604.625	10025.77
604.983	10104.18
605.341	10032.55
605.698	10127.46
606.056	10176.05
606.413	10108.03
606.771	10220.56
607.128	10237.29
607.485	10182.15
607.843	10185.31
608.2	10213.33
608.557	10203.84
608.914	10220.11
609.272	10297.4
609.629	10248.59
609.986	10293.33
610.343	10210.85
610.7	10344.4
611.057	10329.49
611.414	10289.26
611.771	10269.38
612.127	10296.95
612.484	10398.19
612.841	10356.83
613.198	10345.76
613.554	10401.58
613.911	10384.85
614.267	10325.19
614.624	10331.52
614.98	10367.91
615.337	10416.04
615.693	10360
616.05	10409.71
616.406	10400.67
616.762	10369.94
617.118	10430.5
617.475	10428.69
617.831	10468.02
618.187	10437.51
618.543	10474.8
618.899	10481.12
619.255	10460.56
619.611	10505.08
619.967	10466.66
620.323	10548.92
620.678	10470.5
621.034	10424.18
621.39	10459.65
621.746	10401.12
622.101	10507.56
622.457	10494.68
622.812	10506.66
623.168	10482.93
623.523	10541.23
623.879	10477.28
624.234	10445.87
624.589	10486.09
624.945	10497.85
625.3	10498.3
625.655	10445.87
626.01	10428.02
626.365	10554.34
626.72	10530.84
627.075	10481.57
627.43	10445.87
627.785	10450.39
628.14	10497.17
628.495	10382.37
628.85	10424.18
629.205	10441.58
629.559	10381.01
629.914	10442.03
630.269	10401.8
630.623	10436.15
630.978	10376.04
631.332	10374.91
631.687	10404.74
632.041	10375.36
632.396	10427.79
632.75	10307.34
633.104	10360.9
633.459	10256.5
633.813	10387.79
634.167	10247
634.521	10171.07
634.875	10296.95
635.229	10226.21
635.583	10175.59
635.937	10211.07
636.291	10110.29
636.645	10179.66
636.999	10144.86
637.352	10149.83
637.706	10101.7
638.06	10146.67
638.413	10161.13
638.767	10153.45
639.121	10075.48
639.474	10042.94
639.828	9992.32
640.181	10086.1
640.534	10011.3
640.888	9976.28
641.241	9950.06
641.594	9955.49
641.947	10019.21
642.301	9963.62
642.654	9968.59
643.007	9931.53
643.36	9968.59
643.713	9936.5
644.066	9986.9
644.419	9969.05
644.771	9857.64
645.124	9752.78
645.477	9715.27
645.83	9681.14
646.182	9680.24
646.535	9584.2
646.888	9623.52
647.24	9519.57
647.593	9556.18
647.945	9444.54
648.298	9505.33
648.65	9497.87
649.002	9362.96
649.355	9486.12
649.707	9534.71
650.059	9583.52
650.411	9639.56
650.763	9635.04
651.115	9710.97
651.467	9713.69
651.819	9712.56
652.171	9657.64
652.523	9722.05
652.875	9576.74
653.227	9581.03
653.578	9606.8
653.93	9522.73
654.282	9612.9
654.633	9574.71
654.985	9600.47
655.337	9601.15
655.688	9534.71
656.039	9623.97
656.391	9513.01
656.742	9562.5
657.094	9539.9
657.445	9523.18
657.796	9470.08
658.147	9520.47
658.498	9449.74
658.849	9508.94
659.2	9547.81
659.551	9495.16
659.902	9494.93
660.253	9437.76
660.604	9457.19
660.955	9417.87
661.306	9434.37
661.656	9406.12
662.007	9458.1
662.358	9401.38
662.708	9415.39
663.059	9460.58
663.409	9331.55
663.76	9404.99
664.11	9442.05
664.461	9380.81
664.811	9398.67
665.161	9338.78
665.511	9400.25
665.862	9338.1
666.212	9380.36
666.562	9388.27
666.912	9327.03
667.262	9312.11
667.612	9316.41
667.962	9247.93
668.312	9267.14
668.662	9313.92
669.011	9229.86
669.361	9282.06
669.711	9252.23
670.06	9213.36
670.41	9193.25
670.76	9182.85
671.109	9251.1
671.459	9150.54
671.808	9177.2
672.157	9205.22
672.507	9111.67
672.856	9172.91
673.205	9115.28
673.554	9154.15
673.904	9176.3
674.253	9196.86
674.602	9178.78
674.951	9072.8
675.3	8995.96
675.649	9151.44
675.998	9146.69
676.346	9083.42
676.695	9092.68
677.044	9067.37
677.393	9096.07
677.741	9085.68
678.09	9095.62
678.438	9019.69
678.787	9031.44
679.135	9036.87
679.484	9025.57
679.832	9064.89
680.181	8984.66
680.529	9033.25
680.877	8958.9
681.225	9006.36
681.573	9056.3
681.922	9002.52
682.27	8905.8
682.618	8921.39
682.966	8889.53
683.314	8943.31
683.661	8899.47
684.009	8879.13
684.357	8859.02
684.705	8850.21
685.053	8802.07
685.4	8806.82
685.748	8778.34
686.095	8814.27
686.443	8765.01
686.79	8728.85
687.138	8765.46
687.485	8765.46
687.832	8743.54
688.18	8709.87
688.527	8639.59
688.874	8666.93
689.221	8570.66
689.568	8542.87
689.915	8536.54
690.262	8556.43
690.609	8575.64
690.956	8478.46
691.303	8532.02
691.65	8454.06
691.997	8427.62
692.344	8384.45
692.69	8385.13
693.037	8387.39
693.383	8374.06
693.73	8327.51
694.077	8315.53
694.423	8297.9
694.769	8235.31
695.116	8222.2
695.462	8263.1
695.808	8160.28
696.155	8188.08
696.501	8125.7
696.847	8155.76
697.193	8053.62
697.539	8082.77
697.885	8020.4
698.231	8014.97
698.577	8061.53
698.923	7960.96
699.269	7986.73
699.614	7955.77
699.96	7911.92
700.306	7922.77
700.651	7862.43
700.997	7830.8
701.342	7799.39
701.688	7828.99
702.033	7852.72
702.379	7778.82
702.724	7778.14
703.069	7754.87
703.415	7765.71
703.76	7687.3
704.105	7732.27
704.45	7723.68
704.795	7619.5
705.14	7559.17
705.485	7561.2
705.83	7553.06
706.175	7560.97
706.52	7574.76
706.865	7540.86
707.209	7492.73
707.554	7513.74
707.899	7551.71
708.243	7507.42
708.588	7436.91
708.932	7453.86
709.277	7436.23
709.621	7362.79
709.966	7356.46
710.31	7365.5
710.654	7336.12
710.998	7347.65
711.342	7334.99
711.687	7298.38
712.031	7290.25
712.375	7213.41
712.719	7232.85
713.063	7302.68
713.407	7282.56
713.75	7241.43
714.094	7183.58
714.438	7175.9
714.782	7263.58
715.125	7153.75
715.469	7203.02
715.812	7110.14
716.156	7080.99
716.499	7101.55
716.843	7143.13
717.186	7118.95
717.53	7103.81
717.873	7119.18
718.216	7060.2
718.559	7064.04
718.902	7022.91
719.246	6980.88
719.589	6990.14
719.932	6963.48
720.275	6994.66
720.617	6956.92
720.96	6928.22
721.303	6989.69
721.646	6923.02
721.989	6860.43
722.331	6918.73
722.674	6885.29
723.016	6894.32
723.359	6866.98
723.701	6830.15
724.044	6847.55
724.386	6795.34
724.729	6776.36
725.071	6835.12
725.413	6751.96
725.755	6766.87
726.097	6708.57
726.439	6696.82
726.782	6713.31
727.124	6736.36
727.465	6730.94
727.807	6716.48
728.149	6665.4
728.491	6646.2
728.833	6691.39
729.175	6648.46
729.516	6658.85
729.858	6624.95
730.199	6639.64
730.541	6591.51
730.882	6570.94
731.224	6588.8
731.565	6528.91
731.906	6577.72
732.248	6568.91
732.589	6513.54
732.93	6445.97
733.271	6549.02
733.612	6482.58
733.953	6483.94
734.294	6513.09
734.635	6498.18
734.976	6495.92
735.317	6401.23
735.658	6448.69
735.999	6492.3
736.339	6364.39
736.68	6399.2
737.021	6387.22
737.361	6430.61
737.702	6391.51
738.042	6411.17
738.383	6397.84
738.723	6390.61
739.063	6399.2
739.404	6359.2
739.744	6349.71
740.084	6338.86
740.424	6312.42
740.764	6353.32
741.104	6313.32
741.444	6255.7
741.784	6248.69
742.124	6280.33
742.464	6223.38
742.804	6231.52
743.143	6217.96
743.483	6273.78
743.823	6219.31
744.162	6239.65
744.502	6244.62
744.841	6176.83
745.181	6150.84
745.52	6183.38
745.86	6178.64
746.199	6164.85
746.538	6106.77
746.877	6151.07
747.216	6132.54
747.556	6128.02
747.895	6201.69
748.234	6136.83
748.573	6101.8
748.911	6108.13
749.25	6081.01
749.589	6044.18
749.928	6024.52
750.267	6045.08
750.605	6029.26
750.944	6038.98
751.283	6008.47
751.621	6022.93
751.96	6011.41
752.298	6005.31
752.636	5955.82
752.975	5990.17
753.313	5936.16
753.651	5943.39
753.989	5884.86
754.327	5930.28
754.666	5896.61
755.004	5914.46
755.342	5890.06
755.679	5840.57
756.017	5840.79
756.355	5845.76
756.693	5779.55
757.031	5791.3
757.368	5779.33
757.706	5775.94
758.044	5758.54
758.381	5748.14
758.719	5739.55
759.056	5694.36
759.394	5699.78
759.731	5704.75
760.068	5652.1
760.405	5660.91
760.743	5681.7
761.08	5656.62
761.417	5593.57
761.754	5618.43
762.091	5607.35
762.428	5603.28
762.765	5532.1
763.102	5498.65
763.438	5534.36
763.775	5458.88
764.112	5445.77
764.449	5462.72
764.785	5469.73
765.122	5431.76
765.458	5403.52
765.795	5381.6
766.131	5384.99
766.467	5410.52
766.804	5368.94
767.14	5317.87
767.476	5367.36
767.812	5291.2
768.148	5317.87
