Data from foam2_polystyrene_foam_FLMS001491_00050.txt Node
Date: Wed Feb 08 10:58:02 GMT 2017
User: dcchb
Spectrometer: FLMS00149
Trigger mode: 0
Integration Time (sec): 2.000000E-2
Scans to average: 10
Electric dark correction enabled: true
Nonlinearity correction enabled: false
Boxcar width: 0
XAxis mode: Wavelengths
Number of Pixels in Spectrum: 2048
>>>>>Begin Spectral Data<<<<<
341.393	-6.86
341.776	-6.86
342.16	-6.86
342.543	-56.58
342.927	-57.71
343.31	-70.82
343.693	-90.7
344.077	-59.07
344.46	-60.87
344.843	-49.57
345.226	-53.19
345.61	-26.52
345.993	-14.32
346.376	-0.08
346.759	12.12
347.142	25.68
347.525	32.23
347.908	60.03
348.291	86.47
348.674	97.09
349.057	111.55
349.44	118.56
349.823	153.36
350.206	174.6
350.588	218.44
350.971	220.25
351.354	259.57
351.737	253.02
352.119	280.59
352.502	276.29
352.884	282.62
353.267	316.07
353.65	309.29
354.032	327.36
354.414	314.71
354.797	341.15
355.179	341.15
355.562	340.25
355.944	365.56
356.326	353.58
356.709	356.97
357.091	337.08
357.473	364.88
357.855	370.3
358.238	371.43
358.62	354.71
359.002	359.45
359.384	379.79
359.766	381.6
360.148	376.85
360.53	361.94
360.912	374.37
361.294	377.76
361.676	371.88
362.057	369.4
362.439	359
362.821	363.07
363.203	353.8
363.584	352.9
363.966	371.43
364.348	375.72
364.729	346.57
365.111	358.1
365.493	361.26
365.874	361.26
366.256	352
366.637	389.74
367.019	369.62
367.4	369.4
367.781	375.95
368.163	375.5
368.544	371.43
368.925	364.2
369.306	357.19
369.688	369.85
370.069	363.07
370.45	367.14
370.831	384.09
371.212	385.89
371.593	360.13
371.974	378.66
372.355	399.9
372.736	399.9
373.117	401.49
373.498	383.63
373.879	366.23
374.26	358.78
374.641	366.01
375.021	367.59
375.402	371.88
375.783	403.52
376.163	430.64
376.544	409.17
376.925	412.11
377.305	401.03
377.686	418.89
378.066	400.81
378.447	436.97
378.827	423.63
379.208	423.86
379.588	424.31
379.968	423.41
380.349	441.26
380.729	429.96
381.109	457.98
381.489	431.99
381.87	446.68
382.25	447.36
382.63	428.38
383.01	447.59
383.39	437.64
383.77	446.23
384.15	454.82
384.53	464.54
384.91	469.96
385.29	469.73
385.67	462.73
386.049	497.08
386.429	482.84
386.809	485.78
387.189	479.45
387.568	492.78
387.948	494.59
388.328	509.28
388.707	501.6
389.087	502.05
389.466	514.25
389.846	529.62
390.225	545.21
390.605	508.38
390.984	533.91
391.363	566
391.743	557.64
392.122	544.08
392.501	547.92
392.881	572.56
393.26	576.17
393.639	574.14
394.018	558.32
394.397	558.77
394.776	576.85
395.155	579.11
395.534	598.09
395.913	603.52
396.292	603.74
396.671	607.13
397.05	601.93
397.429	616.4
397.808	624.31
398.186	620.24
398.565	628.6
398.944	634.25
399.323	637.19
399.701	669.95
400.08	628.83
400.458	657.98
400.837	665.43
401.215	670.86
401.594	667.24
401.972	699.33
402.351	679.67
402.729	679.22
403.107	728.26
403.486	697.98
403.864	706.11
404.242	717.86
404.62	703.17
404.999	735.94
405.377	756.51
405.755	749.05
406.133	749.95
406.511	747.47
406.889	762.16
407.267	777.97
407.645	788.6
408.023	813
408.401	804.64
408.779	817.75
409.156	837.18
409.534	835.37
409.912	863.62
410.29	893.68
410.667	877.18
411.045	879.44
411.422	888.71
411.8	873.56
412.178	915.15
412.555	924.41
412.933	916.05
413.31	933.45
413.687	936.84
414.065	951.75
414.442	967.8
414.819	987.69
415.197	1004.86
415.574	1005.76
415.951	989.95
416.328	1026.78
416.705	1027.91
417.082	1056.16
417.46	1017.74
417.837	1048.25
418.214	1076.05
418.591	1064.07
418.967	1108.13
419.344	1086.67
419.721	1106.1
420.098	1096.61
420.475	1108.36
420.852	1155.37
421.228	1169.38
421.605	1170.96
421.982	1182.26
422.358	1176.16
422.735	1194.23
423.111	1225.19
423.488	1217.51
423.864	1224.97
424.241	1258.87
424.617	1265.87
424.994	1277.4
425.37	1273.55
425.746	1270.62
426.123	1291.86
426.499	1316.72
426.875	1318.75
427.251	1363.04
427.627	1380.22
428.003	1390.84
428.379	1411.4
428.756	1405.75
429.132	1444.62
429.507	1450.05
429.883	1481.01
430.259	1518.97
430.635	1522.36
431.011	1526.2
431.387	1567.56
431.763	1584.96
432.138	1611.85
432.514	1632.41
432.89	1650.27
433.265	1659.31
433.641	1693.43
434.016	1707.44
434.392	1702.7
434.767	1768.46
435.143	1768.91
435.518	1778.85
435.894	1795.57
436.269	1829.02
436.644	1828.34
437.02	1901.33
437.395	1887.1
437.77	1921.67
438.145	1937.49
438.52	1969.13
438.895	1962.58
439.271	1980.2
439.646	2002.12
440.021	2061.33
440.395	2024.72
440.77	2076.7
441.145	2083.48
441.52	2094.1
441.895	2129.8
442.27	2157.6
442.645	2167.77
443.019	2180.87
443.394	2197.6
443.769	2236.69
444.143	2182.23
444.518	2238.73
444.892	2222.23
445.267	2293.87
445.641	2290.48
446.016	2301.32
446.39	2329.12
446.764	2370.93
447.139	2342.9
447.513	2393.98
447.887	2397.37
448.262	2417.48
448.636	2426.52
449.01	2464.71
449.384	2474.2
449.758	2507.42
450.132	2530.02
450.506	2558.27
450.88	2578.15
451.254	2593.07
451.628	2607.76
452.002	2671.03
452.376	2687.53
452.75	2690.69
453.123	2715.55
453.497	2772.5
453.871	2765.94
454.244	2843.91
454.618	2835.77
454.992	2876
455.365	2892.27
455.739	3007.75
456.112	2983.79
456.486	3026.5
456.859	3057.69
457.232	3102.88
457.606	3090.46
457.979	3167.52
458.352	3210.68
458.725	3243.45
459.099	3287.06
459.472	3318.7
459.845	3377
460.218	3395.98
460.591	3431.92
460.964	3410.9
461.337	3495.42
461.71	3566.6
462.083	3588.07
462.456	3624.9
462.829	3631.68
463.201	3684.79
463.574	3738.8
463.947	3785.58
464.32	3842.98
464.692	3899.25
465.065	3941.51
465.438	3948.29
465.81	4016.53
466.183	4059.24
466.555	4133.59
466.928	4185.12
467.3	4172.01
467.672	4258.56
468.045	4361.83
468.417	4370.2
468.789	4450.87
469.161	4477.31
469.534	4552.79
469.906	4632.79
470.278	4637.76
470.65	4742.84
471.022	4834.36
471.394	4928.37
471.766	4953.23
472.138	4983.74
472.51	5095.6
472.882	5186.45
473.253	5251.08
473.625	5299.89
473.997	5477.74
474.369	5515.7
474.74	5580.11
475.112	5633.44
475.484	5727.22
475.855	5773.77
476.227	5803.83
476.598	6036.82
476.97	6087.89
477.341	6212.63
477.713	6286.53
478.084	6363.14
478.455	6529.24
478.827	6602.68
479.198	6751.6
479.569	6708.67
479.94	6982.78
480.311	7003.57
480.682	7213.51
481.053	7324.24
481.424	7464.13
481.795	7526.27
482.166	7648.53
482.537	7744.8
482.908	7928.52
483.279	7998.35
483.65	8225.46
484.021	8331
484.391	8436.53
484.762	8580.25
485.133	8590.2
485.503	8738.22
485.874	8953.35
486.244	9057.53
486.615	9206.45
486.985	9221.82
487.356	9434.24
487.726	9576.84
488.097	9750.85
488.467	9823.39
488.837	9965.08
489.207	10093.21
489.578	10184.28
489.948	10372.75
490.318	10536.14
490.688	10513.31
491.058	10693.19
491.428	10867.65
491.798	10940.19
492.168	11159.85
492.538	11242.11
492.908	11353.06
493.278	11510.12
493.648	11553.06
494.017	11740.62
494.387	11845.25
494.757	11918.92
495.126	12089.77
495.496	12081.86
495.866	12173.15
496.235	12367.95
496.605	12491.56
496.974	12576.53
497.344	12750.31
497.713	12772.01
498.082	12871.22
498.452	13013.13
498.821	13069.18
499.19	13115.28
499.559	13312.56
499.928	13364.54
500.298	13558.43
500.667	13609.95
501.036	13565.66
501.405	13773.34
501.774	13762.94
502.143	13922.71
502.512	14004.52
502.88	14158.64
503.249	14167.23
503.618	14333.55
503.987	14363.83
504.356	14398.18
504.724	14530.61
505.093	14685.18
505.462	14652.41
505.83	14780.09
506.199	15040.65
506.567	15272.73
506.936	15177.82
507.304	15391.37
507.672	15461.2
508.041	15572.39
508.409	15653.29
508.777	15787.75
509.145	15893.96
509.514	15978.7
509.882	16065.48
510.25	16190.9
510.618	16308.19
510.986	16374.17
511.354	16568.75
511.722	16807.38
512.09	16909.98
512.458	16962.86
512.826	17061.39
513.193	17159.01
513.561	17275.85
513.929	17536.86
514.297	17581.37
514.664	17787.02
515.032	17835.6
515.4	17939.1
515.767	18039.89
516.135	18170.06
516.502	18225.88
516.869	18439.2
517.237	18586.55
517.604	18555.13
517.972	18677.84
518.339	18896.82
518.706	18822.25
519.073	19156.25
519.44	19196.47
519.808	19425.39
520.175	19480.08
520.542	19630.81
520.909	19851.82
521.276	19893.86
521.643	20158.03
522.009	20355.76
522.376	20469.43
522.743	20501.75
523.11	20736.32
523.477	21009.53
523.843	21197.1
524.21	21363.65
524.577	21607.03
524.943	21612
525.31	21786.01
525.676	21971.31
526.043	22089.96
526.409	22230.29
526.776	22483.62
527.142	22510.96
527.508	22705.53
527.874	22864.4
528.241	22924.51
528.607	23128.12
528.973	23250.83
529.339	23470.94
529.705	23609.69
530.071	24011.26
530.437	24028.21
530.803	24146.62
531.169	24250.8
531.535	24231.37
531.901	24379.39
532.267	24528.31
532.632	24800.39
532.998	24789.55
533.364	24962.42
533.73	25149.31
534.095	25287.84
534.461	25340.94
534.826	25428.4
535.192	25563.54
535.557	25799.91
535.923	25709.07
536.288	25908.16
536.653	25966.92
537.019	25937.99
537.384	26055.05
537.749	26229.28
538.114	26372.56
538.479	26267.02
538.845	26539.56
539.21	26515.15
539.575	26745.88
539.94	26771.87
540.305	27127.56
540.67	27005.08
541.034	27081.24
541.399	27243.94
541.764	27321
542.129	27499.31
542.494	27535.01
542.858	27858.62
543.223	27799.18
543.587	27875.79
543.952	27867.43
544.316	28077.37
544.681	27935
545.045	28145.16
545.41	28355.1
545.774	28447.08
546.138	28482.33
546.503	28515.55
546.867	28591.71
547.231	28827.63
547.595	28953.28
547.959	29008.64
548.324	29098.13
548.688	29046.84
549.052	29357.79
549.416	29335.19
549.779	29309.2
550.143	29525.69
550.507	29646.82
550.871	29744.67
551.235	29628.97
551.599	29980.82
551.962	29883.42
552.326	30091.33
552.689	30277.31
553.053	30271.66
553.417	30378.78
553.78	30744.64
554.143	30633.46
554.507	30796.17
554.87	30842.72
555.234	31136.5
555.597	31108.7
555.96	31165.2
556.323	31353.67
556.686	31449.71
557.05	31700.32
557.413	31750.94
557.776	31860.77
558.139	31877.04
558.502	32088.11
558.865	32204.72
559.228	32465.5
559.59	32659.62
559.953	32537.59
560.316	32998.14
560.679	33027.97
561.041	33095.32
561.404	33318.59
561.767	33552.25
562.129	33503.67
562.492	33962.41
562.854	33947.72
563.217	33971.68
563.579	34341.61
563.941	34322.63
564.304	34645.78
564.666	34733.92
565.028	34755.39
565.39	34756.74
565.753	35151.99
566.115	35209.61
566.477	35286.45
566.839	35347.91
567.201	35565.76
567.563	35776.15
567.925	36049.14
568.287	36017.95
568.648	36184.5
569.01	36329.13
569.372	36487.77
569.734	36408.22
570.095	36742.45
570.457	36890.24
570.819	36797.82
571.18	36874.43
571.542	37070.8
571.903	37271.7
572.265	37345.37
572.626	37532.71
572.987	37513.96
573.349	37619.72
573.71	37691.81
574.071	37975.19
574.432	37947.62
574.794	38287.72
575.155	38197.1
575.516	38105.13
575.877	38413.82
576.238	38371.34
576.599	38541.73
576.96	38496.08
577.32	38566.13
577.681	38784.66
578.042	38883.86
578.403	38892
578.763	38759.8
579.124	38889.97
579.485	39147.36
579.845	39157.3
580.206	39068.04
580.566	39076.18
580.927	39160.24
581.287	39366.79
581.648	39147.13
582.008	39374.25
582.368	39365.21
582.728	39514.81
583.089	39397.98
583.449	39394.13
583.809	39415.15
584.169	39596.16
584.529	39449.95
584.889	39799.32
585.249	39497.41
585.609	39499.89
585.969	39561.59
586.329	39465.77
586.688	39659.66
587.048	39626.9
587.408	39688.59
587.768	39734.01
588.127	39577.41
588.487	39457.86
588.846	39816.72
589.206	39501.02
589.565	39651.08
589.925	39785.08
590.284	39652.21
590.643	39804.07
591.003	39868.25
591.362	39891.52
591.721	39792.32
592.08	39812.65
592.44	39947.34
592.799	39842.26
593.158	39880.45
593.517	39621.47
593.876	39852.65
594.235	39846.78
594.593	39838.87
594.952	39937.85
595.311	39725.2
595.67	39932.88
596.029	39976.27
596.387	39959.99
596.746	40045.64
597.104	39956.15
597.463	39929.26
597.822	40090.39
598.18	39898.98
598.538	39923.84
598.897	40098.52
599.255	39869.6
599.613	40572.18
599.972	40161.8
600.33	40366.31
600.688	40201.34
601.046	40228.24
601.404	40451.06
601.762	40506.65
602.12	40722.91
602.478	40718.62
602.836	40651.95
603.194	40258.52
603.552	40459.64
603.91	40356.14
604.268	40529.92
604.625	40412.86
604.983	40765.4
605.341	40528.34
605.698	40698.28
606.056	40723.82
606.413	40725.4
606.771	40794.55
607.128	40913.42
607.485	40760.88
607.843	40922
608.2	41060.76
608.557	41211.49
608.914	41064.82
609.272	41341.2
609.629	41213.75
609.986	41364.25
610.343	41093.75
610.7	41640.85
611.057	41460.97
611.414	41365.83
611.771	41339.39
612.127	41722.21
612.484	41601.53
612.841	41729.89
613.198	41521.54
613.554	41517.02
613.911	41819.61
614.267	41764.47
614.624	41582.78
614.98	41821.19
615.337	41907.51
615.693	41865.26
616.05	42008.53
616.406	42208.3
616.762	42029.77
617.118	41940.06
617.475	41992.26
617.831	42078.36
618.187	42071.58
618.543	42101.63
618.899	42360.61
619.255	42299.14
619.611	42255.75
619.967	42410.78
620.323	42541.62
620.678	42344.79
621.034	42192.03
621.39	42268.86
621.746	42203.55
622.101	42646.93
622.457	42145.7
622.812	42323.32
623.168	42491.45
623.523	42347.5
623.879	42577.33
624.234	42277.22
624.589	42391.34
624.945	42521.74
625.3	42603.77
625.655	42473.83
626.01	42596.99
626.365	42546.82
626.72	42454.39
627.075	42442.19
627.43	42281.06
627.785	42251.23
628.14	42412.36
628.495	42317.67
628.85	42366.94
629.205	42312.48
629.559	42484.67
629.914	42204
630.269	42365.81
630.623	42176.66
630.978	42017.12
631.332	42213.95
631.687	42364.23
632.041	42206.94
632.396	42206.49
632.75	41896.89
633.104	42048.08
633.459	41941.41
633.813	41911.58
634.167	42003.56
634.521	41842.2
634.875	41761.53
635.229	41900.96
635.583	41582.55
635.937	41670.91
636.291	41408.32
636.645	41453.06
636.999	41501.42
637.352	41616.9
637.706	41343.01
638.06	41609.89
638.413	41381.43
638.767	41360.64
639.121	41333.29
639.474	41084.26
639.828	41155.22
640.181	41237.7
640.534	41012.85
640.888	40866.19
641.241	40841.33
641.594	40891.5
641.947	40915.45
642.301	40832.29
642.654	40775.11
643.007	40860.54
643.36	40759.07
643.713	40603.59
644.066	40839.75
644.419	40627.1
644.771	40270.72
645.124	40018.3
645.477	39889.49
645.83	39654.24
646.182	39487.01
646.535	39360.91
646.888	39381.25
647.24	39120.24
647.593	39409.5
647.945	39221.93
648.298	39020.58
648.65	38906.46
649.002	38887.25
649.355	38900.14
649.707	38870.98
650.059	39007.48
650.411	39485.43
650.763	39414.47
651.115	39857.62
651.467	39849.71
651.819	39736.05
652.171	39663.73
652.523	39679.32
652.875	39750.28
653.227	39479.33
653.578	39792.09
653.93	39389.16
654.282	39338.09
654.633	39167.92
654.985	39291.54
655.337	39224.19
655.688	39218.77
656.039	39363.85
656.391	38925.67
656.742	39005.44
657.094	39113.92
657.445	39293.8
657.796	39085.67
658.147	39117.3
658.498	39009.06
658.849	39091.99
659.2	39009.74
659.551	38907.82
659.902	39048.61
660.253	39035.5
660.604	39098.55
660.955	38825.34
661.306	39031.66
661.656	38899.01
662.007	38943.52
662.358	38918.44
662.708	38948.72
663.059	38937.42
663.409	38569.75
663.76	38899.46
664.11	38846.35
664.461	38762.96
664.811	38743.98
665.161	38592.35
665.511	38623.53
665.862	38566.13
666.212	38697.43
666.562	38678.9
666.912	38588.51
667.262	38683.42
667.612	38699.24
667.962	38571.33
668.312	38590.76
668.662	38678.9
669.011	38595.96
669.361	38437.77
669.711	38435.97
670.06	38401.17
670.41	38418.57
670.76	38371.79
671.109	38528.17
671.459	38443.88
671.808	38424.22
672.157	38441.39
672.507	38271.68
672.856	38263.99
673.205	38272.81
673.554	38409.75
673.904	38249.31
674.253	38502.41
674.602	38319.36
674.951	37742.43
675.3	37468.53
675.649	38147.39
675.998	38014.06
676.346	38152.81
676.695	38031.91
677.044	37951.91
677.393	38062.64
677.741	38029.88
678.09	37991.23
678.438	37923.66
678.787	37885.7
679.135	38001.85
679.484	37471.25
679.832	37748.75
680.181	37575.2
680.529	37695.2
680.877	37563.45
681.225	37556.89
681.573	37856.55
681.922	37499.27
682.27	37437.8
682.618	37457.01
682.966	37320.97
683.314	37263.12
683.661	37223.12
684.009	37130.92
684.357	37019.05
684.705	36866.29
685.053	37045.72
685.4	36907.42
685.748	36658.61
686.095	36712.17
686.443	36438.96
686.79	36504.27
687.138	36554.66
687.485	36452.97
687.832	36428.56
688.18	36342.91
688.527	36180.43
688.874	36096.14
689.221	36034
689.568	35978.86
689.915	35873.77
690.262	35853.66
690.609	35698.86
690.956	35606.66
691.303	35577.74
691.65	35493.67
691.997	35382.26
692.344	35193.11
692.69	35096.39
693.037	35156.73
693.383	34964.42
693.73	35099.33
694.077	34806.23
694.423	34970.75
694.769	34647.14
695.116	34539.8
695.462	34524.21
695.808	34563.98
696.155	34532.57
696.501	34306.36
696.847	34155.85
697.193	34012.35
697.539	34175.51
697.885	33854.62
698.231	33869.31
698.577	33927.38
698.923	33753.6
699.269	33578.92
699.614	33624.79
699.96	33518.36
700.306	33357.91
700.651	33369.66
700.997	33158.59
701.342	33134.86
701.688	33124.47
702.033	32925.83
702.379	33006.96
702.724	32953.63
703.069	32900.52
703.415	32545.73
703.76	32637.02
704.105	32651.94
704.45	32572.39
704.795	32335.11
705.14	32382.79
705.485	32211.95
705.83	32075
706.175	32128.56
706.52	32063.25
706.865	31823.26
707.209	31822.36
707.554	31669.14
707.899	31762.02
708.243	31560.67
708.588	31568.58
708.932	31319.77
709.277	31409.71
709.621	31412.2
709.966	31177.63
710.31	31123.39
710.654	30793.91
710.998	31135.82
711.342	31054.01
711.687	30821.93
712.031	30802.95
712.375	30623.52
712.719	30773.34
713.063	30624.19
713.407	30701.48
713.75	30408.61
714.094	30485.67
714.438	30392.56
714.782	30340.36
715.125	30228.5
715.469	30305.11
715.812	30164.77
716.156	29848.62
716.499	30064.66
716.843	30129.97
717.186	29741.73
717.53	29897.43
717.873	29898.79
718.216	29807.27
718.559	29635.29
718.902	29618.12
719.246	29533.83
719.589	29531.79
719.932	29345.58
720.275	29318.92
720.617	29266.49
720.96	29162.54
721.303	29072.82
721.646	29244.8
721.989	28995.76
722.331	29118.47
722.674	28917.35
723.016	28996.67
723.359	28917.57
723.701	28981.75
724.044	28643.91
724.386	28597.36
724.729	28755.77
725.071	28624.47
725.413	28651.37
725.755	28612.72
726.097	28416.57
726.439	28223.58
726.782	28357.81
727.124	28407.08
727.465	28254.77
727.807	28279.4
728.149	28154.43
728.491	27982.68
728.833	28073.3
729.175	27968.67
729.516	27983.59
729.858	27933.42
730.199	27922.34
730.541	27866.53
730.882	27692.29
731.224	27782.69
731.565	27569.81
731.906	27730.26
732.248	27713.31
732.589	27480.55
732.93	27478.97
733.271	27506.99
733.612	27401.45
733.953	27458.63
734.294	27316.94
734.635	27260.44
734.976	27316.49
735.317	27184.29
735.658	27165.53
735.999	27314.68
736.339	27059.77
736.68	27104.51
737.021	27000.11
737.361	26910.85
737.702	27025.65
738.042	26868.14
738.383	26878.3
738.723	26794.46
739.063	26716.95
739.404	26961.24
739.744	26687.12
740.084	26584.08
740.424	26614.58
740.764	26522.16
741.104	26721.7
741.444	26469.95
741.784	26365.32
742.124	26453.23
742.464	26292.56
742.804	26410.07
743.143	26250.3
743.483	26361.48
743.823	26158.78
744.162	26276.06
744.502	26162.62
744.841	26033.13
745.181	26175.5
745.52	26023.41
745.86	26094.82
746.199	25921.49
746.538	25948.16
746.877	25969.85
747.216	26014.15
747.556	25810.99
747.895	25858.44
748.234	25755.85
748.573	25616.87
748.911	25660.94
749.25	25641.05
749.589	25454.84
749.928	25506.14
750.267	25590.88
750.605	25530.77
750.944	25408.96
751.283	25268.18
751.621	25257.78
751.96	25175.07
752.298	25026.38
752.636	25099.82
752.975	25043.55
753.313	25018.47
753.651	25052.59
753.989	24866.15
