Data from foam2_polystyrene_foam_FLMS001491_00006.txt Node
Date: Wed Feb 08 10:57:26 GMT 2017
User: dcchb
Spectrometer: FLMS00149
Trigger mode: 0
Integration Time (sec): 2.000000E-2
Scans to average: 10
Electric dark correction enabled: true
Nonlinearity correction enabled: false
Boxcar width: 0
XAxis mode: Wavelengths
Number of Pixels in Spectrum: 2048
>>>>>Begin Spectral Data<<<<<
341.393	-25.66
341.776	-25.66
342.16	-25.66
342.543	-53.91
342.927	-65.21
343.31	-65.66
343.693	-68.6
344.077	-53.69
344.46	-55.94
344.843	-46.91
345.226	-59.79
345.61	-38.09
345.993	1.91
346.376	-3.06
346.759	11.62
347.142	19.31
347.525	42.81
347.908	63.15
348.291	62.24
348.674	91.4
349.057	99.31
349.44	115.58
349.823	128.91
350.206	160.77
350.588	212.75
350.971	214.78
351.354	231.05
351.737	239.19
352.119	270.37
352.502	254.1
352.884	295.68
353.267	285.97
353.65	300.2
354.032	339.07
354.414	314.44
354.797	320.54
355.179	323.93
355.562	332.29
355.944	324.61
356.326	340.65
356.709	333.88
357.091	328.68
357.473	341.56
357.855	351.95
358.238	345.63
358.62	361.45
359.002	360.09
359.384	355.57
359.766	353.99
360.148	350.37
360.53	350.6
360.912	360.99
361.294	375.91
361.676	362.58
362.057	338.4
362.439	343.37
362.821	337.49
363.203	332.97
363.584	354.44
363.966	325.97
364.348	353.31
364.729	336.59
365.111	343.59
365.493	345.63
365.874	334.78
366.256	345.63
366.637	343.14
367.019	347.89
367.4	342.91
367.781	349.24
368.163	339.07
368.544	336.81
368.925	343.37
369.306	364.84
369.688	339.52
370.069	335.46
370.45	336.14
370.831	342.46
371.212	341.78
371.593	342.91
371.974	356.25
372.355	357.6
372.736	337.04
373.117	350.82
373.498	368.68
373.879	341.56
374.26	362.8
374.641	377.94
375.021	370.26
375.402	382.69
375.783	384.5
376.163	372.07
376.544	354.89
376.925	373.42
377.305	372.74
377.686	376.81
378.066	384.04
378.447	361.22
378.827	409.13
379.208	376.59
379.588	384.04
379.968	420.65
380.349	396.47
380.729	386.3
381.109	417.94
381.489	395.79
381.87	415
382.25	397.6
382.63	403.25
383.01	427.66
383.39	414.1
383.77	412.97
384.15	415.91
384.53	433.76
384.91	434.89
385.29	427.66
385.67	412.74
386.049	423.59
386.429	433.53
386.809	440.31
387.189	450.26
387.568	443.93
387.948	445.28
388.328	468.79
388.707	459.07
389.087	443.7
389.466	468.11
389.846	467.43
390.225	465.62
390.605	490.26
390.984	465.62
391.363	485.74
391.743	488.67
392.122	487.32
392.501	502.01
392.881	491.84
393.26	516.24
393.639	492.52
394.018	515.34
394.397	528.22
394.776	522.8
395.155	509.24
395.534	531.38
395.913	544.49
396.292	522.8
396.671	523.25
397.05	523.02
397.429	559.18
397.808	550.14
398.186	536.58
398.565	567.32
398.944	582.91
399.323	563.47
399.701	572.29
400.08	577.71
400.458	577.03
400.837	585.62
401.215	608.67
401.594	611.38
401.972	605.96
402.351	589.24
402.729	598.95
403.107	626.75
403.486	613.42
403.864	623.13
404.242	625.39
404.62	626.75
404.999	637.14
405.377	642.79
405.755	656.35
406.133	650.93
406.511	664.71
406.889	661.55
407.267	657.26
407.645	693.41
408.023	675.56
408.401	702.45
408.779	700.42
409.156	711.04
409.534	724.15
409.912	743.81
410.29	733.41
410.667	718.95
411.045	753.53
411.422	753.75
411.8	766.63
412.178	751.72
412.555	788.1
412.933	794.65
413.31	803.02
413.687	796.91
414.065	843.47
414.442	816.8
414.819	830.81
415.197	843.92
415.574	875.78
415.951	871.04
416.328	883.92
416.705	858.16
417.082	876.01
417.46	924.82
417.837	910.13
418.214	891.6
418.591	912.17
418.967	909
419.344	942.45
419.721	939.51
420.098	934.76
420.475	954.88
420.852	966.63
421.228	978.38
421.605	999.85
421.982	985.38
422.358	999.17
422.735	1024.7
423.111	1042.11
423.488	1013.18
423.864	1062.67
424.241	1046.63
424.617	1074.87
424.994	1052.5
425.37	1056.57
425.746	1081.2
426.123	1087.75
426.499	1103.35
426.875	1144.7
427.251	1130.92
427.627	1154.87
428.003	1173.4
428.379	1183.12
428.756	1165.72
429.132	1188.54
429.507	1209.11
429.883	1240.29
430.259	1248.88
430.635	1242.33
431.011	1269.9
431.387	1303.57
431.763	1311.93
432.138	1318.26
432.514	1373.4
432.89	1338.82
433.265	1375.88
433.641	1421.3
434.016	1420.4
434.392	1438.93
434.767	1479.38
435.143	1456.78
435.518	1485.71
435.894	1502.21
436.269	1497.01
436.644	1536.33
437.02	1552.37
437.395	1511.92
437.77	1567.52
438.145	1598.02
438.52	1599.6
438.895	1630.34
439.271	1638.02
439.646	1656.33
440.021	1675.31
440.395	1695.65
440.77	1691.81
441.145	1737.91
441.52	1736.55
441.895	1732.71
442.27	1741.07
442.645	1770
443.019	1788.07
443.394	1797.11
443.769	1832.82
444.143	1821.97
444.518	1847.06
444.892	1841.63
445.267	1867.39
445.641	1881.41
446.016	1908.52
446.39	1914.85
446.764	1917.56
447.139	1951.46
447.513	1940.39
447.887	1991.91
448.262	1962.08
448.636	1983.78
449.01	2019.93
449.384	2052.93
449.758	2043.43
450.132	2101.74
450.506	2093.38
450.88	2090.67
451.254	2146.48
451.628	2144.45
452.002	2191.45
452.376	2195.07
452.75	2209.76
453.123	2191.68
453.497	2245.92
453.871	2280.49
454.244	2288.63
454.618	2322.98
454.992	2379.92
455.365	2366.36
455.739	2395.06
456.112	2427.61
456.486	2464.21
456.859	2468.06
457.232	2504.21
457.606	2505.12
457.979	2539.47
458.352	2573.82
458.725	2607.94
459.099	2618.34
459.472	2659.69
459.845	2720.25
460.218	2717.09
460.591	2733.13
460.964	2768.84
461.337	2841.15
461.71	2832.11
462.083	2893.13
462.456	2939.68
462.829	2918.89
463.201	2957.99
463.574	2968.83
463.947	3008.83
464.32	3099.23
464.692	3133.12
465.065	3119.56
465.438	3180.58
465.81	3215.38
466.183	3248.6
466.555	3329.05
466.928	3310.75
467.3	3346
467.672	3378.32
468.045	3468.03
468.417	3482.04
468.789	3508.71
469.161	3565.2
469.534	3596.39
469.906	3663.96
470.278	3708.25
470.65	3767.91
471.022	3848.36
471.394	3931.75
471.766	3907.79
472.138	3968.13
472.51	4027.11
472.882	4085.42
473.253	4149.37
473.625	4175.13
473.997	4291.74
474.369	4343.94
474.74	4366.09
475.112	4432.75
475.484	4502.58
475.855	4612.18
476.227	4626.19
476.598	4756.81
476.97	4810.37
477.341	4930.82
477.713	4982.34
478.084	5053.07
478.455	5075.22
478.827	5159.29
479.198	5329
479.569	5317.02
479.94	5504.13
480.311	5490.8
480.682	5656.67
481.053	5794.52
481.424	5879.49
481.795	5977.79
482.166	5994.97
482.537	6043.78
482.908	6216.88
483.279	6318.35
483.65	6424.11
484.021	6535.52
484.391	6575.52
484.762	6614.16
485.133	6656.2
485.503	6755.85
485.874	6994.04
486.244	6995.85
486.615	7186.8
486.985	7208.5
487.356	7404.65
487.726	7439.68
488.097	7615.49
488.467	7634.02
488.837	7788.82
489.207	7889.16
489.578	8004.63
489.948	8029.27
490.318	8163.95
490.688	8264.29
491.058	8355.36
491.428	8482.14
491.798	8537.28
492.168	8639.19
492.538	8786.08
492.908	8836.48
493.278	8951.05
493.648	8979.98
494.017	9070.14
494.387	9149.69
494.757	9315.11
495.126	9401.43
495.496	9453.86
495.866	9501.77
496.235	9588.1
496.605	9623.8
496.974	9745.38
497.344	9751.71
497.713	9898.82
498.082	9944.92
498.452	10073.28
498.821	10075.77
499.19	10147.63
499.559	10234.18
499.928	10383.78
500.298	10365.7
500.667	10513.72
501.036	10463.33
501.405	10578.58
501.774	10646.37
502.143	10788.74
502.512	10781.28
502.88	10920.04
503.249	10951.9
503.618	11032.35
503.987	11066.7
504.356	11159.35
504.724	11261.95
505.093	11279.58
505.462	11361.83
505.83	11414.49
506.199	11613.35
506.567	11676.63
506.936	11696.51
507.304	11776.51
507.672	11873.91
508.041	11922.05
508.409	12082.49
508.777	12157.97
509.145	12266.22
509.514	12240
509.882	12422.37
510.25	12412.65
510.618	12547.11
510.986	12679.09
511.354	12705.98
511.722	12863.94
512.09	12858.97
512.458	12885.41
512.826	13014.22
513.193	13138.06
513.561	13123.14
513.929	13311.39
514.297	13457.37
514.664	13536.92
515.032	13549.8
515.4	13763.13
515.767	13690.59
516.135	13900.52
516.502	13772.62
516.869	14147.07
517.237	14201.31
517.604	14152.04
517.972	14268.88
518.339	14428.87
518.706	14396.56
519.073	14523.78
519.44	14658.02
519.808	14832.03
520.175	14879.93
520.542	15095.07
520.909	15071.34
521.276	15184.33
521.643	15309.75
522.009	15413.93
522.376	15578.9
522.743	15734.37
523.11	15887.14
523.477	15990.19
523.843	16093.01
524.21	16261.59
524.577	16414.81
524.943	16536.84
525.31	16501.36
525.676	16748.59
526.043	16881.91
526.409	16967.34
526.776	17097.73
527.142	17177.27
527.508	17404.16
527.874	17521.45
528.241	17561.45
528.607	17660.88
528.973	17742.46
529.339	17883.47
529.705	17910.36
530.071	18126.85
530.437	18205.5
530.803	18354.87
531.169	18450.01
531.535	18453.62
531.901	18605.71
532.267	18571.81
532.632	18710.12
532.998	18869.89
533.364	18970
533.73	19022.88
534.095	19163.89
534.461	19192.14
534.826	19300.83
535.192	19464.9
535.557	19502.86
535.923	19612.69
536.288	19583.09
536.653	19802.74
537.019	19701.5
537.384	19822.4
537.749	19898.56
538.114	20008.16
538.479	20096.29
538.845	20169.51
539.21	20211.32
539.575	20301.26
539.94	20338.32
540.305	20496.28
540.67	20492.22
541.034	20581.7
541.399	20664.64
541.764	20739.21
542.129	20827.12
542.494	20900.34
542.858	20969.27
543.223	20974.24
543.587	21093.33
543.952	21154.12
544.316	21214.46
544.681	21250.61
545.045	21308.47
545.41	21475.69
545.774	21501.23
546.138	21468.01
546.503	21626.87
546.867	21679.53
547.231	21896.02
547.595	22019.41
547.959	21952.06
548.324	22019.41
548.688	22112.06
549.052	22261.21
549.416	22192.06
549.779	22293.75
550.143	22402.45
550.507	22621.88
550.871	22602.67
551.235	22640.41
551.599	22915.88
551.962	22877.92
552.326	22995.65
552.689	23088.53
553.053	23060.28
553.417	23093.95
553.78	23306.15
554.143	23371.46
554.507	23453.49
554.87	23630.21
555.234	23792.24
555.597	23587.73
555.96	23711.34
556.323	23929.19
556.686	23953.59
557.05	24143.87
557.413	24125.79
557.776	24200.82
558.139	24456.86
558.502	24563.29
558.865	24682.84
559.228	24791.76
559.59	24899.78
559.953	24769.39
560.316	25277.85
560.679	25239.44
561.041	25277.17
561.404	25464.74
561.767	25622.48
562.129	25521.24
562.492	25857.95
562.854	25848.68
563.217	25859.08
563.579	26079.64
563.941	26222.23
564.304	26381.55
564.666	26632.62
565.028	26495.45
565.39	26691.6
565.753	26806.4
566.115	26850.47
566.477	27077.58
566.839	27104.92
567.201	27286.39
567.563	27325.93
567.925	27512.14
568.287	27624.23
568.648	27602.08
569.01	27923.43
569.372	27957.78
569.734	27889.08
570.095	28059.7
570.457	28242.29
570.819	28230.32
571.18	28321.16
571.542	28420.14
571.903	28394.38
572.265	28572.68
572.626	28620.36
572.987	28647.03
573.349	28737.65
573.71	28993.23
574.071	29071.42
574.432	29123.17
574.794	29211.08
575.155	29304.19
575.516	29258.54
575.877	29358.65
576.238	29405.43
576.599	29567.91
576.96	29576.95
577.32	29540.34
577.681	29788.92
578.042	29850.16
578.403	29854.68
578.763	29801.58
579.124	29892.19
579.485	30060.33
579.845	30195.24
580.206	30005.19
580.566	30063.72
580.927	30048.8
581.287	30166.31
581.648	29976.49
582.008	30183.03
582.368	30145.97
582.728	30364.72
583.089	30139.19
583.449	30208.12
583.809	30237.95
584.169	30243.6
584.529	30284.95
584.889	30550.03
585.249	30534.44
585.609	30495.79
585.969	30435.91
586.329	30520.43
586.688	30568.56
587.048	30504.83
587.408	30342.13
587.768	30280.66
588.127	30325.86
588.487	30210.83
588.846	30596.13
589.206	30288.12
589.565	30227.78
589.925	30372.41
590.284	30290.15
590.643	30514.78
591.003	30380.99
591.362	30533.53
591.721	30473.87
592.08	30529.69
592.44	30639.97
592.799	30589.58
593.158	30486.98
593.517	30507.77
593.876	30678.61
594.235	30625.51
594.593	30645.85
594.952	30760.87
595.311	30713.42
595.67	30700.99
596.029	30855.56
596.387	30831.38
596.746	30951.38
597.104	30755.9
597.463	30671.83
597.822	30993.41
598.18	30839.06
598.538	30764.71
598.897	30975.33
599.255	30641.1
599.613	31093.52
599.972	30842
600.33	30991.83
600.688	30864.15
601.046	31081.32
601.404	31136
601.762	31014.2
602.12	31176.68
602.478	31246.28
602.836	31188.66
603.194	31099.39
603.552	31138.04
603.91	31062.33
604.268	31304.36
604.625	31031.83
604.983	31246.73
605.341	31129.9
605.698	31359.05
606.056	31345.94
606.413	31239.05
606.771	31340.52
607.128	31313.85
607.485	31300.52
607.843	31372.61
608.2	31532.15
608.557	31599.27
608.914	31370.12
609.272	31728.76
609.629	31677.23
609.986	31732.37
610.343	31654.63
610.7	31948.41
611.057	31786.16
611.414	31893.5
611.771	31945.47
612.127	32029.09
612.484	32041.97
612.841	32012.59
613.198	31934.85
613.554	31877
613.911	32098.69
614.267	32013.72
614.624	32041.97
614.98	32081.74
615.337	32179.37
615.693	32159.48
616.05	32230.44
616.406	32532.35
616.762	32360.38
617.118	32401.73
617.475	32238.35
617.831	32307.95
618.187	32432.47
618.543	32406.7
618.899	32631.33
619.255	32509.53
619.611	32444.9
619.967	32485.12
620.323	32712.01
620.678	32506.36
621.034	32428.62
621.39	32361.96
621.746	32502.75
622.101	32802.4
622.457	32648.51
622.812	32632.46
623.168	32759.46
623.523	32750.65
623.879	32830.2
624.234	32523.31
624.589	32543.42
624.945	32705.45
625.3	32776.19
625.655	32684.21
626.01	32717.66
626.365	32593.59
626.72	32689.41
627.075	32574.16
627.43	32631.56
627.785	32443.09
628.14	32539.13
628.495	32634.5
628.85	32593.37
629.205	32407.83
629.559	32602.86
629.914	32354.73
630.269	32501.17
630.623	32349.3
630.978	32283.32
631.332	32483.99
631.687	32472.47
632.041	32357.21
632.396	32317.44
632.75	32180.72
633.104	32200.83
633.459	32053.04
633.813	32121.06
634.167	32145.92
634.521	32074.28
634.875	32076.54
635.229	31989.99
635.583	31876.55
635.937	31921.97
636.291	31898.02
636.645	31864.12
636.999	31765.14
637.352	31899.6
637.706	31686.72
638.06	31869.54
638.413	31860.73
638.767	31759.49
639.121	31745.93
639.474	31506.16
639.828	31559.95
640.181	31392.27
640.534	31463.68
640.888	31405.6
641.241	31253.74
641.594	31286.28
641.947	31437.01
642.301	31295.77
642.654	31349.33
643.007	31352.72
643.36	31147.3
643.713	31105.5
644.066	31274.3
644.419	31221.88
644.771	30968.55
645.124	30612.18
645.477	30635.23
645.83	30362.92
646.182	30215.12
646.535	30204.73
646.888	30107.78
647.24	29988.46
647.593	30125.86
647.945	30145.29
648.298	29986.43
648.65	29948.24
649.002	29872.76
649.355	29949.14
649.707	29946.43
650.059	30045.64
650.411	30381.67
650.763	30380.77
651.115	30649.24
651.467	30651.5
651.819	30617.6
652.171	30500.77
652.523	30394.1
652.875	30488.56
653.227	30203.82
653.578	30547.32
653.93	30387.1
654.282	30220.32
654.633	30158.85
654.985	30166.99
655.337	30193.66
655.688	30286.53
656.039	30276.36
656.391	30121.11
656.742	30151.85
657.094	30202.24
657.445	30151.85
657.796	30095.13
658.147	30069.59
658.498	29957.96
658.849	30081.57
659.2	30060.55
659.551	30024.39
659.902	30028.24
660.253	29937.84
660.604	29946.88
660.955	29915.47
661.306	29955.7
661.656	29904.4
662.007	29891.29
662.358	29939.65
662.708	29860.33
663.059	29774.01
663.409	29602.94
663.76	29923.15
664.11	29849.71
664.461	29773.55
664.811	29838.64
665.161	29804.74
665.511	29648.58
665.862	29791.41
666.212	29879.31
666.562	29797.51
666.912	29820.11
667.262	29689.94
667.612	29603.16
667.962	29734.46
668.312	29604.29
668.662	29775.59
669.011	29673.89
669.361	29585.08
669.711	29692.43
670.06	29526.1
670.41	29617.85
670.76	29455.6
671.109	29628.02
671.459	29505.99
671.808	29392.77
672.157	29663.05
672.507	29362.26
672.856	29447.01
673.205	29375.6
673.554	29441.58
673.904	29234.81
674.253	29506.67
674.602	29325.88
674.951	28875.5
675.3	28727.71
675.649	29282.04
675.998	29305.09
676.346	29276.17
676.695	29344.19
677.044	29214.25
677.393	29168.82
677.741	29130.86
678.09	29164.08
678.438	29030.52
678.787	29137.86
679.135	29073.23
679.484	28860.58
679.832	29026.68
680.181	28857.87
680.529	28922.5
680.877	28803.18
681.225	28762.73
681.573	28895.61
681.922	28656.75
682.27	28689.29
682.618	28648.16
682.966	28536.75
683.314	28649.52
683.661	28465.79
684.009	28248.85
684.357	28294.5
684.705	28202.07
685.053	28159.36
685.4	28036.65
685.748	27950.78
686.095	27979.7
686.443	27936.99
686.79	27770.89
687.138	27761.4
687.485	27817.45
687.832	27723.21
688.18	27614.97
688.527	27552.82
688.874	27549.21
689.221	27504.01
689.568	27385.82
689.915	27302.43
690.262	27350.34
690.609	27218.82
690.956	27115.54
691.303	27094.98
691.65	26960.97
691.997	26978.82
692.344	26968.43
692.69	26877.81
693.037	26781.77
693.383	26560.53
693.73	26666.06
694.077	26578.38
694.423	26523.92
694.769	26425.84
695.116	26401.21
695.462	26264.27
695.808	26382
696.155	26240.31
696.501	26130.71
696.847	26102.46
697.193	25947.89
697.539	26015.91
697.885	25812.53
698.231	25700.21
698.577	25724.17
698.923	25714.9
699.269	25516.72
699.614	25384.29
699.96	25444.18
700.306	25280.11
700.651	25191.53
700.997	25056.16
701.342	25002.83
701.688	25134.13
702.033	24933.45
702.379	24904.75
702.724	24823.63
703.069	24896.62
703.415	24645.55
703.76	24624.76
704.105	24693.69
704.45	24601.49
704.795	24294.38
705.14	24295.73
705.485	24267.48
705.83	24229.29
706.175	24159.01
706.52	24086.92
706.865	23918.34
707.209	24058
707.554	23938.68
707.899	23995.85
708.243	23763.09
708.588	23752.69
708.932	23807.38
709.277	23629.53
709.621	23716.54
709.966	23544.11
710.31	23585.24
710.654	23444.91
710.998	23429.54
711.342	23356.55
711.687	23276.1
712.031	23247.4
712.375	23164.91
712.719	23216.21
713.063	23116.55
713.407	23105.71
713.75	22978.48
714.094	22905.26
714.438	22867.07
714.782	22902.1
715.125	22761.31
715.469	22780.06
715.812	22682.89
716.156	22617.36
716.499	22603.12
716.843	22675.66
717.186	22634.76
717.53	22511.15
717.873	22520.41
718.216	22477.93
718.559	22398.15
718.902	22107.77
719.246	22264.37
719.589	22152.06
719.932	22082
720.275	22158.16
720.617	22055.56
720.96	22004.27
721.303	21988.45
721.646	21931.73
721.989	21785.97
722.331	22006.98
722.674	21769.02
723.016	21860.32
723.359	21619.64
723.701	21741
724.044	21656.03
724.386	21623.26
724.729	21591.4
725.071	21505.97
725.413	21463.04
725.755	21406.32
726.097	21390.5
726.439	21287.9
726.782	21353.21
727.124	21372.19
727.465	21281.57
727.807	21203.84
728.149	21115.02
728.491	21056.04
728.833	21140.33
729.175	21031.64
729.516	20955.71
729.858	21030.73
730.199	21011.3
730.541	20927.46
730.882	20807.91
731.224	21010.39
731.565	20778.08
731.906	20790.74
732.248	20722.49
732.589	20646.56
732.93	20565.89
733.271	20578.99
733.612	20601.59
733.953	20673.91
734.294	20484.53
734.635	20448.83
734.976	20481.59
735.317	20357.53
735.658	20402.5
735.999	20366.79
736.339	20403.63
736.68	20387.36
737.021	20331.09
737.361	20350.3
737.702	20408.38
738.042	20326.8
738.383	20277.76
738.723	20249.28
739.063	20189.4
739.404	20177.42
739.744	20113.69
740.084	20000.7
740.424	20036.18
740.764	19915.96
741.104	20066.01
741.444	19898.56
741.784	19744.89
742.124	19790.09
742.464	19830.99
742.804	19715.51
743.143	19645.23
743.483	19683.88
743.823	19493.6
744.162	19641.62
744.502	19581.28
744.841	19528.4
745.181	19525.91
745.52	19408.4
745.86	19529.08
746.199	19425.8
746.538	19452.92
746.877	19444.33
747.216	19419.93
747.556	19315.3
747.895	19386.71
748.234	19191.01
748.573	19154.4
748.911	19081.63
749.25	19191.46
749.589	19036.89
749.928	19064.46
750.267	19036.21
750.605	19019.26
750.944	19021.97
751.283	18949.43
751.621	19019.03
751.96	18893.39
752.298	18761.41
752.636	18782.2
752.975	18790.11
753.313	18639.16
753.651	18720.51
753.989	18533.4
754.327	18570.91
754.666	18447.3
