Data from foam_black_FLMS001491_00006.txt Node
Date: Wed Feb 08 10:43:25 GMT 2017
User: dcchb
Spectrometer: FLMS00149
Trigger mode: 0
Integration Time (sec): 2.000000E-2
Scans to average: 10
Electric dark correction enabled: true
Nonlinearity correction enabled: false
Boxcar width: 0
XAxis mode: Wavelengths
Number of Pixels in Spectrum: 2048
>>>>>Begin Spectral Data<<<<<
341.393	-22.64
341.776	-22.64
342.16	-22.64
342.543	-69.19
342.927	-56.31
343.31	-69.42
343.693	-53.83
344.077	-56.99
344.46	-57.89
344.843	-63.77
345.226	-53.6
345.61	-39.36
345.993	-19.48
346.376	10.35
346.759	6.29
347.142	28.21
347.525	38.83
347.908	62.78
348.291	81.76
348.674	73.63
349.057	112.5
349.44	101.2
349.823	120.41
350.206	176.9
350.588	186.17
350.971	199.05
351.354	223.91
351.737	228.65
352.119	241.99
352.502	270.23
352.884	295.09
353.267	290.35
353.65	300.06
354.032	294.41
354.414	306.62
354.797	301.42
355.179	304.81
355.562	334.41
355.944	322.44
356.326	311.59
356.709	333.06
357.091	339.61
357.473	345.49
357.855	360.4
358.238	317.69
358.62	338.48
359.002	313.4
359.384	337.35
359.766	339.61
360.148	342.32
360.53	337.8
360.912	328.54
361.294	338.25
361.676	366.73
362.057	332.38
362.439	340.74
362.821	333.28
363.203	344.58
363.584	347.29
363.966	323.11
364.348	316.33
364.729	337.8
365.111	340.51
365.493	327.86
365.874	315.2
366.256	319.95
366.637	314.98
367.019	306.39
367.4	322.44
367.781	327.18
368.163	337.12
368.544	309.78
368.925	324.24
369.306	323.11
369.688	337.8
370.069	327.41
370.45	322.66
370.831	329.44
371.212	340.97
371.593	333.28
371.974	356.11
372.355	345.26
372.736	324.47
373.117	352.72
373.498	338.48
373.879	338.03
374.26	317.46
374.641	345.26
375.021	319.05
375.402	334.41
375.783	349.33
376.163	345.03
376.544	374.86
376.925	351.36
377.305	368.76
377.686	360.4
378.066	371.25
378.447	364.92
378.827	368.08
379.208	373.28
379.588	366.28
379.968	364.24
380.349	399.27
380.729	385.03
381.109	365.6
381.489	386.84
381.87	389.33
382.25	381.64
382.63	388.42
383.01	393.39
383.39	390.68
383.77	370.12
384.15	378.03
384.53	402.21
384.91	393.62
385.29	424.35
385.67	413.51
386.049	383
386.429	405.6
386.809	399.5
387.189	431.81
387.568	413.05
387.948	395.65
388.328	433.39
388.707	411.25
389.087	412.15
389.466	423.22
389.846	426.16
390.225	426.16
390.605	432.49
390.984	423.45
391.363	439.49
391.743	423.22
392.122	456.89
392.501	454.41
392.881	447.4
393.26	457.57
393.639	464.58
394.018	449.89
394.397	450.12
394.776	448.31
395.155	462.09
395.534	444.92
395.913	499.38
396.292	469.1
396.671	476.78
397.05	467.06
397.429	466.84
397.808	475.88
398.186	494.63
398.565	505.48
398.944	485.37
399.323	499.61
399.701	494.86
400.08	514.29
400.458	514.52
400.837	510
401.215	513.39
401.594	495.31
401.972	536.89
402.351	534.63
402.729	524.24
403.107	530.79
403.486	537.12
403.864	547.74
404.242	533.5
404.62	563.11
404.999	526.05
405.377	535.08
405.755	559.72
406.133	584.12
406.511	557.46
406.889	575.31
407.267	582.77
407.645	583.67
408.023	582.09
408.401	583.22
408.779	567.4
409.156	607.4
409.534	610.34
409.912	616.44
410.29	620.96
410.667	616.21
411.045	632.03
411.422	657.12
411.8	648.53
412.178	637.91
412.555	685.82
412.933	673.84
413.31	671.8
413.687	664.8
414.065	679.26
414.442	682.43
414.819	688.3
415.197	702.76
415.574	699.37
415.951	713.39
416.328	723.33
416.705	712.93
417.082	714.29
417.46	733.27
417.837	726.49
418.214	739.83
418.591	746.83
418.967	748.19
419.344	758.36
419.721	767.17
420.098	770.56
420.475	759.49
420.852	770.56
421.228	803.78
421.605	796.55
421.982	791.8
422.358	800.61
422.735	802.65
423.111	796.09
423.488	820.5
423.864	836.55
424.241	834.74
424.617	861.4
424.994	842.2
425.37	852.14
425.746	869.77
426.123	875.19
426.499	865.02
426.875	867.51
427.251	893.72
427.627	924.91
428.003	926.26
428.379	929.2
428.756	956.32
429.132	950.44
429.507	951.8
429.883	975.07
430.259	987.73
430.635	996.77
431.011	994.73
431.387	1000.16
431.763	1026.15
432.138	1028.41
432.514	1033.6
432.89	1027.73
433.265	1055.75
433.641	1069.31
434.016	1063.88
434.392	1097.56
434.767	1115.41
435.143	1079.93
435.518	1116.09
435.894	1119.02
436.269	1132.81
436.644	1140.27
437.02	1147.05
437.395	1171.45
437.77	1185.69
438.145	1161.96
438.52	1204.9
438.895	1189.98
439.271	1199.93
439.646	1228.4
440.021	1243.54
440.395	1234.28
440.77	1205.12
441.145	1247.38
441.52	1272.69
441.895	1270.66
442.27	1256.2
442.645	1258.68
443.019	1302.3
443.394	1267.72
443.769	1300.94
444.143	1301.39
444.518	1327.61
444.892	1353.59
445.267	1315.86
445.641	1340.94
446.016	1345.46
446.39	1352.01
446.764	1375.06
447.139	1382.07
447.513	1361.05
447.887	1361.5
448.262	1402.41
448.636	1378.68
449.01	1417.77
449.384	1433.14
449.758	1425.23
450.132	1423.42
450.506	1452.12
450.88	1456.42
451.254	1463.65
451.628	1506.36
452.002	1488.28
452.376	1520.6
452.75	1514.49
453.123	1541.61
453.497	1558.56
453.871	1587.26
454.244	1596.07
454.618	1585.23
454.992	1622.06
455.365	1632.68
455.739	1663.42
456.112	1676.07
456.486	1690.99
456.859	1704.55
457.232	1705.68
457.606	1723.53
457.979	1744.32
458.352	1768.5
458.725	1786.35
459.099	1818.44
459.472	1864.09
459.845	1885.78
460.218	1886.46
460.591	1878.1
460.964	1894.82
461.337	1944.09
461.71	1954.03
462.083	2014.59
462.456	2012.56
462.829	2001.94
463.201	2023.63
463.574	2024.99
463.947	2071.09
464.32	2115.61
464.692	2071.99
465.065	2147.92
465.438	2159
465.81	2196.74
466.183	2199
466.555	2242.38
466.928	2251.42
467.3	2240.58
467.672	2303.17
468.045	2352.66
468.417	2372.32
468.789	2335.94
469.161	2405.09
469.534	2430.63
469.906	2474.69
470.278	2483.28
470.65	2495.26
471.022	2561.02
471.394	2606.22
471.766	2611.87
472.138	2664.52
472.51	2731.19
472.882	2758.08
473.253	2803.27
473.625	2820
473.997	2877.4
474.369	2844.4
474.74	2925.08
475.112	2953.33
475.484	3022.03
475.855	3052.98
476.227	3070.39
476.598	3179.08
476.97	3138.41
477.341	3250.72
477.713	3313.54
478.084	3329.81
478.455	3435.12
478.827	3414.33
479.198	3505.63
479.569	3499.3
479.94	3624.5
480.311	3638.05
480.682	3709.69
481.053	3797.82
481.424	3871.27
481.795	3929.35
482.166	3938.61
482.537	3970.25
482.908	4067.65
483.279	4145.16
483.65	4149.23
484.021	4274.42
484.391	4289.79
484.762	4332.05
485.133	4369.33
485.503	4422.67
485.874	4521.87
486.244	4535.43
486.615	4698.82
486.985	4683.9
487.356	4761.64
487.726	4795.54
488.097	4876.89
488.467	4944.23
488.837	5002.76
489.207	5058.36
489.578	5136.32
489.948	5178.35
490.318	5213.38
490.688	5248.41
491.058	5324.34
491.428	5395.3
491.798	5429.65
492.168	5485.01
492.538	5573.37
492.908	5630.09
493.278	5689.98
493.648	5715.29
494.017	5701.28
494.387	5800.94
494.757	5856.3
495.126	5956.86
495.496	5927.03
495.866	6039.35
496.235	6055.17
496.605	6078.22
496.974	6128.61
497.344	6192.79
497.713	6218.33
498.082	6234.37
498.452	6287.48
498.821	6292.9
499.19	6394.14
499.559	6447.25
499.928	6535.6
500.298	6508.26
500.667	6602.04
501.036	6641.59
501.405	6700.8
501.774	6632.33
502.143	6696.28
502.512	6782.15
502.88	6849.27
503.249	6849.04
503.618	6937.85
503.987	6945.54
504.356	7053.78
504.724	7047
505.093	7075.48
505.462	7153.22
505.83	7212.2
506.199	7251.97
506.567	7303.27
506.936	7378.07
507.304	7411.29
507.672	7435.69
508.041	7477.95
508.409	7497.16
508.777	7580.78
509.145	7606.99
509.514	7678.63
509.882	7666.42
510.25	7708.46
510.618	7831.39
510.986	7806.98
511.354	7865.29
511.722	7989.35
512.09	8132.85
512.458	8065.96
512.826	8121.33
513.193	8166.97
513.561	8162.68
513.929	8278.61
514.297	8317.03
514.664	8404.93
515.032	8431.6
515.4	8483.35
515.767	8590.24
516.135	8649.9
516.502	8623.69
516.869	8725.83
517.237	8782.1
517.604	8746.85
517.972	8880.18
518.339	8913.62
518.706	8963.11
519.073	9017.8
519.44	9104.13
519.808	9209.21
520.175	9175.08
520.542	9319.26
520.909	9378.92
521.276	9372.82
521.643	9442.65
522.009	9518.58
522.376	9659.59
522.743	9634.73
523.11	9745.24
523.477	9854.39
523.843	9882.86
524.21	10028.39
524.577	10104.55
524.943	10140.48
525.31	10229.29
525.676	10302.96
526.043	10373.02
526.409	10461.83
526.776	10485.11
527.142	10600.81
527.508	10628.83
527.874	10694.37
528.241	10764.19
528.607	10820.24
528.973	10923.06
529.339	10960.12
529.705	11066.56
530.071	11182.71
530.437	11170.74
530.803	11294.8
531.169	11305.88
531.535	11295.25
531.901	11440.33
532.267	11448.24
532.632	11543.61
532.998	11669.48
533.364	11657.96
533.73	11673.1
534.095	11806.2
534.461	11778.18
534.826	11824.96
535.192	11874.67
535.557	11993.77
535.923	11996.7
536.288	12076.02
536.653	12207.09
537.019	12148.56
537.384	12191.73
537.749	12280.54
538.114	12298.84
538.479	12310.82
538.845	12400.76
539.21	12391.95
539.575	12466.97
539.94	12463.58
540.305	12651.15
540.67	12622.9
541.034	12620.42
541.399	12746.06
541.764	12782.45
542.129	12763.92
542.494	12873.97
542.858	12914.65
543.223	12936.11
543.587	12976.11
543.952	13025.38
544.316	13152.61
544.681	13029.45
545.045	13103.12
545.41	13197.12
545.774	13244.81
546.138	13301.75
546.503	13256.56
546.867	13309.21
547.231	13568.64
547.595	13549.43
547.959	13530.22
548.324	13607.28
548.688	13590.79
549.052	13679.82
549.416	13649.09
549.779	13721.86
550.143	13808.86
550.507	13900.38
550.871	13951.68
551.235	14026.03
551.599	14051.79
551.962	14125.91
552.326	14226.25
552.689	14251.56
553.053	14189.19
553.417	14231.9
553.78	14457.88
554.143	14347.15
554.507	14523.42
554.87	14600.25
555.234	14637.31
555.597	14667.82
555.96	14682.28
556.323	14798.66
556.686	14730.42
557.05	15009.51
557.413	15006.57
557.776	14938.55
558.139	15134.93
558.502	15100.8
558.865	15167.47
559.228	15300.35
559.59	15334.02
559.953	15364.53
560.316	15592.99
560.679	15655.37
561.041	15677.51
561.404	15739.66
561.767	15924.51
562.129	15827.79
562.492	15969.03
562.854	15972.19
563.217	15991.18
563.579	16083.15
563.941	16153.21
564.304	16222.13
564.666	16359.75
565.028	16312.07
565.39	16373.99
565.753	16517.04
566.115	16709.57
566.477	16701.44
566.839	16798.16
567.201	16850.81
567.563	16921.32
567.925	16990.92
568.287	16956.35
568.648	17021.2
569.01	17106.4
569.372	17293.51
569.734	17206.28
570.095	17351.82
570.457	17453.51
570.819	17439.05
571.18	17548.87
571.542	17616.22
571.903	17566.05
572.265	17646.27
572.626	17680.62
572.987	17815.99
573.349	17744.35
573.71	17849.66
574.071	17946.15
574.432	18046.49
574.794	18045.81
575.155	18064.12
575.516	18045.58
575.877	18144.57
576.238	18137.33
576.599	18324.67
576.96	18320.83
577.32	18280.38
577.681	18445.12
578.042	18422.3
578.403	18432.69
578.763	18336.88
579.124	18446.7
579.485	18488.29
579.845	18466.14
580.206	18500.26
580.566	18545.01
580.927	18566.02
581.287	18668.17
581.648	18599.47
582.008	18613.48
582.368	18609.19
582.728	18714.72
583.089	18671.78
583.449	18663.2
583.809	18699.13
584.169	18636.08
584.529	18607.83
584.889	18813.7
585.249	18790.42
585.609	18714.49
585.969	18812.12
586.329	18794.27
586.688	18791.33
587.048	18799.24
587.408	18694.38
587.768	18792.46
588.127	18704.1
588.487	18813.02
588.846	18816.86
589.206	18756.53
589.565	18771.89
589.925	18967.37
590.284	18780.03
590.643	18939.35
591.003	18900.93
591.362	18989.29
591.721	19001.04
592.08	18974.15
592.44	18980.7
592.799	19094.6
593.158	18991.1
593.517	19120.58
593.876	19065.22
594.235	18940.93
594.593	19030.19
594.952	19189.51
595.311	19096.18
595.67	19122.17
596.029	19206.68
596.387	19238.32
596.746	19271.99
597.104	19239
597.463	19221.37
597.822	19353.35
598.18	19223.63
598.538	19277.19
598.897	19315.83
599.255	19256.17
599.613	19561.48
599.972	19489.84
600.33	19462.72
600.688	19386.79
601.046	19412.33
601.404	19477.41
601.762	19497.52
602.12	19662.94
602.478	19623.17
602.836	19597.86
603.194	19551.99
603.552	19571.87
603.91	19482.16
604.268	19680.8
604.625	19562.83
604.983	19702.04
605.341	19582.72
605.698	19666.11
606.056	19695.03
606.413	19689.84
606.771	19749.27
607.128	19695.94
607.485	19681.93
607.843	19629.05
608.2	19828.36
608.557	19798.76
608.914	19742.26
609.272	19887.34
609.629	19840.11
609.986	20005.31
610.343	19845.76
610.7	20020.9
611.057	19924.86
611.414	19944.29
611.771	19898.87
612.127	20015.48
612.484	20032.2
612.841	20070.84
613.198	19901.13
613.554	19916.72
613.911	20052.76
614.267	20005.53
614.624	20040.79
614.98	19981.58
615.337	20025.19
615.693	20089.6
616.05	19940
616.406	20170.27
616.762	20040.56
617.118	20115.59
617.475	20056.38
617.831	20222.48
618.187	20113.1
618.543	20103.61
618.899	20250.05
619.255	20270.84
619.611	20210.73
619.967	20317.62
620.323	20227.67
620.678	20259.31
621.034	20079.2
621.39	20142.7
621.746	20141.12
622.101	20346.32
622.457	20217.73
622.812	20202.82
623.168	20255.24
623.523	20187.22
623.879	20344.96
624.234	20234.68
624.589	20169.82
624.945	20093.44
625.3	20208.01
625.655	20233.1
626.01	20233.55
626.365	20242.59
626.72	20086.89
627.075	20137.51
627.43	20108.13
627.785	20068.13
628.14	20139.54
628.495	20171.63
628.85	20173.89
629.205	20123.5
629.559	20185.19
629.914	20123.5
630.269	20151.07
630.623	20087.11
630.978	20015.7
631.332	20110.62
631.687	20112.88
632.041	20085.76
632.396	19961.01
632.75	19918.08
633.104	20034.46
633.459	19859.55
633.813	19879.43
634.167	19892.77
634.521	19920.79
634.875	19945.65
635.229	19825.43
635.583	19712.89
635.937	19763.51
636.291	19752.21
636.645	19708.14
636.999	19692.1
637.352	19807.57
637.706	19620.68
638.06	19709.04
638.413	19704.52
638.767	19615.26
639.121	19614.36
639.474	19550.4
639.828	19549.95
640.181	19513.34
640.534	19554.47
640.888	19566
641.241	19453.01
641.594	19439.9
641.947	19478.32
642.301	19428.6
642.654	19501.82
643.007	19486.68
643.36	19497.07
643.713	19455.49
644.066	19531.87
644.419	19410.07
644.771	19261.15
645.124	19219.79
645.477	19060.7
645.83	18934.15
646.182	18990.42
646.535	18923.08
646.888	18938.67
647.24	18846.24
647.593	19035.84
647.945	18965.79
648.298	18872
648.65	18812.57
649.002	18871.78
649.355	18809.41
649.707	18842.17
650.059	18758.56
650.411	19188.38
650.763	19067.93
651.115	19365.78
651.467	19230.19
651.819	19149.96
652.171	19197.64
652.523	19045.56
652.875	19099.57
653.227	19022.96
653.578	19181.83
653.93	19180.47
654.282	19010.53
654.633	19052.34
654.985	19076.74
655.337	18988.84
655.688	19069.96
656.039	19048.27
656.391	18951.1
656.742	18936.63
657.094	18850.08
657.445	19013.24
657.796	18965.33
658.147	18850.08
658.498	18942.28
658.849	18904.77
659.2	18922.85
659.551	18860.48
659.902	18928.95
660.253	18737.09
660.604	18831.1
660.955	18764.21
661.306	18797.66
661.656	18848.5
662.007	18737.09
662.358	18736.19
662.708	18813.02
663.059	18685.79
663.409	18626.13
663.76	18760.37
664.11	18792.23
664.461	18745
664.811	18741.16
665.161	18715.4
665.511	18631.33
665.862	18613.48
666.212	18677.66
666.562	18680.37
666.912	18581.84
667.262	18604.44
667.612	18554.95
667.962	18548.85
668.312	18497.78
668.662	18593.37
669.011	18516.31
669.361	18471.34
669.711	18444.44
670.06	18455.74
670.41	18366.48
670.76	18381.85
671.109	18393.6
671.459	18398.12
671.808	18367.84
672.157	18337.33
672.507	18215.07
672.856	18285.35
673.205	18202.87
673.554	18230.44
673.904	18160.84
674.253	18188.86
674.602	18306.14
674.951	17968.98
675.3	17820.51
675.649	18067.51
675.998	17972.59
676.346	18065.7
676.695	18091.91
677.044	17954.29
677.393	17997.22
677.741	17975.76
678.09	17868.64
678.438	17928.53
678.787	17847.17
679.135	17887.62
679.484	17771.02
679.832	17867.51
680.181	17745.25
680.529	17759.94
680.877	17741.41
681.225	17729.43
681.573	17800.17
681.922	17688.76
682.27	17647.86
682.618	17686.72
682.966	17616.44
683.314	17588.87
683.661	17561.3
684.009	17541.19
684.357	17376.45
684.705	17448.99
685.053	17477.92
685.4	17348.88
685.748	17379.39
686.095	17308.66
686.443	17233.85
686.79	17171.26
687.138	17183.23
687.485	17190.24
687.832	17197.47
688.18	17274.98
688.527	17145.5
688.874	17059.62
689.221	17110.24
689.568	16980.3
689.915	17100.07
690.262	17000.41
690.609	16980.08
690.956	16985.73
691.303	16860.53
691.65	16764.71
691.997	16753.64
692.344	16734.43
692.69	16759.52
693.037	16680.87
693.383	16660.08
693.73	16675.23
694.077	16531.95
694.423	16544.16
694.769	16563.59
695.116	16419.86
695.462	16420.54
695.808	16344.16
696.155	16388.45
696.501	16305.74
696.847	16351.62
697.193	16159.08
697.539	16212.86
697.885	16159.31
698.231	16068.24
698.577	16112.3
698.923	16130.61
699.269	15932.65
699.614	15940.33
699.96	16018.75
700.306	15980.55
700.651	15875.47
700.997	15811.52
701.342	15811.97
701.688	15783.95
702.033	15726.55
702.379	15762.03
702.724	15748.02
703.069	15687.68
703.415	15526.33
703.76	15485.2
704.105	15636.38
704.45	15501.02
704.795	15350.06
705.14	15283.17
705.485	15431.87
705.83	15307.8
706.175	15309.39
706.52	15118.2
706.865	15248.6
707.209	15233
707.554	15223.06
707.899	15272.1
708.243	15108.26
708.588	15073.01
708.932	15001.37
709.277	14960.92
709.621	15009.51
709.966	14900.36
710.31	14983.07
710.654	14818.78
710.998	14826.69
711.342	14857.87
711.687	14802.73
712.031	14732.45
712.375	14655.17
712.719	14651.78
713.063	14734.71
713.407	14725.45
713.75	14604.09
714.094	14552.57
714.438	14536.75
714.782	14607.71
715.125	14441.84
715.469	14492.01
715.812	14341.05
716.156	14281.39
716.499	14360.48
716.843	14412.91
717.186	14249.53
717.53	14386.47
717.873	14375.85
718.216	14280.03
718.559	14237.1
718.902	14115.97
719.246	14078.23
719.589	14031.68
719.932	14023.54
720.275	13947.39
720.617	14078.46
720.96	13941.74
721.303	13889.31
721.646	13963.66
721.989	13834.62
722.331	13944.68
722.674	13882.76
723.016	13843.89
723.359	13784.68
723.701	13785.13
724.044	13750.33
724.386	13688.86
724.729	13746.94
725.071	13623.1
725.413	13652.71
725.755	13653.84
726.097	13518.7
726.439	13512.14
726.782	13558.02
727.124	13572.48
727.465	13490.22
727.807	13538.13
728.149	13432.37
728.491	13423.11
728.833	13352.83
729.175	13412.26
729.516	13359.38
729.858	13239.38
730.199	13338.14
730.541	13296.33
730.882	13294.75
731.224	13225.6
731.565	13217.92
731.906	13213.85
732.248	13191.93
732.589	13140.86
732.93	13078.26
733.271	13058.82
733.612	13062.89
733.953	13128.43
734.294	13065.6
734.635	12996.9
734.976	13032.38
735.317	12960.29
735.658	13017.24
735.999	12991.25
736.339	12925.95
736.68	12941.09
737.021	12886.17
737.361	12784.48
737.702	12849.56
738.042	12854.76
738.383	12713.75
738.723	12811.6
739.063	12758.49
739.404	12725.72
739.744	12621.55
740.084	12586.29
740.424	12672.39
740.764	12588.55
741.104	12664.48
741.444	12557.59
741.784	12499.74
742.124	12572.96
742.464	12565.05
742.804	12450.48
743.143	12461.32
743.483	12444.15
743.823	12309.01
744.162	12297.49
744.502	12338.16
744.841	12288.22
745.181	12397.82
745.52	12348.56
745.86	12356.24
746.199	12211.84
746.538	12269.69
746.877	12304.27
747.216	12228.34
747.556	12267.88
747.895	12133.65
748.234	12104.72
748.573	12085.29
748.911	12070.37
749.25	12088.23
749.589	12001.9
749.928	12046.65
750.267	12036.48
750.605	12025.18
750.944	11980.66
751.283	11855.24
751.621	11976.59
751.96	11879.87
752.298	11879.19
752.636	11853.88
752.975	11782.02
753.313	11749.71
753.651	11794.9
753.989	11672.42
754.327	11742.25
754.666	11683.27
755.004	11613.89
755.342	11742.47
755.679	11621.8
756.017	11594.46
756.355	11594.46
756.693	11572.99
