Data from foam_black_FLMS001491_00024.txt Node
Date: Wed Feb 08 10:43:39 GMT 2017
User: dcchb
Spectrometer: FLMS00149
Trigger mode: 0
Integration Time (sec): 2.000000E-2
Scans to average: 10
Electric dark correction enabled: true
Nonlinearity correction enabled: false
Boxcar width: 0
XAxis mode: Wavelengths
Number of Pixels in Spectrum: 2048
>>>>>Begin Spectral Data<<<<<
341.393	3.94
341.776	3.94
342.16	3.94
342.543	-58.66
342.927	-62.05
343.31	-64.53
343.693	-55.72
344.077	-77.19
344.46	-73.57
344.843	-67.24
345.226	-43.52
345.61	-24.53
345.993	-21.14
346.376	-8.94
346.759	18.63
347.142	3.49
347.525	46.43
347.908	72.19
348.291	88.01
348.674	92.3
349.057	115.35
349.44	117.16
349.823	130.26
350.206	160.32
350.588	188.57
350.971	197.16
351.354	205.97
351.737	217.72
352.119	257.72
352.502	242.35
352.884	257.95
353.267	253.2
353.65	280.77
354.032	282.13
354.414	300.88
354.797	305.63
355.179	275.8
355.562	300.66
355.944	305.18
356.326	321.45
356.709	332.97
357.091	319.19
357.473	334.1
357.855	317.38
358.238	343.37
358.62	349.92
359.002	334.78
359.384	346.08
359.766	325.29
360.148	343.59
360.53	339.3
360.912	341.33
361.294	347.89
361.676	327.55
362.057	326.64
362.439	333.65
362.821	324.61
363.203	326.64
363.584	327.1
363.966	320.54
364.348	322.58
364.729	323.93
365.111	315.57
365.493	317.6
365.874	314.44
366.256	320.54
366.637	312.86
367.019	318.96
367.4	308.34
367.781	313.08
368.163	311.96
368.544	317.83
368.925	313.99
369.306	314.21
369.688	308.34
370.069	298.17
370.45	306.08
370.831	311.96
371.212	307.89
371.593	324.38
371.974	317.38
372.355	314.89
372.736	326.19
373.117	313.54
373.498	319.41
373.879	316.7
374.26	327.55
374.641	321.22
375.021	339.52
375.402	334.78
375.783	314.44
376.163	344.95
376.544	348.11
376.925	332.97
377.305	345.63
377.686	330.71
378.066	337.94
378.447	340.2
378.827	331.16
379.208	346.98
379.588	339.98
379.968	323.25
380.349	340.65
380.729	353.54
381.109	346.53
381.489	352.63
381.87	330.26
382.25	343.82
382.63	335.68
383.01	348.34
383.39	370.26
383.77	363.25
384.15	365.51
384.53	364.61
384.91	366.64
385.29	356.47
385.67	366.19
386.049	366.19
386.429	358.73
386.809	384.04
387.189	368.22
387.568	384.5
387.948	363.93
388.328	363.03
388.707	379.07
389.087	378.62
389.466	404.16
389.846	374.33
390.225	397.38
390.605	395.79
390.984	396.92
391.363	383.14
391.743	400.54
392.122	409.81
392.501	424.72
392.881	407.32
393.26	400.09
393.639	395.34
394.018	383.37
394.397	409.81
394.776	422.91
395.155	430.37
395.534	435.34
395.913	404.83
396.292	418.17
396.671	410.94
397.05	406.19
397.429	417.72
397.808	437.38
398.186	428.56
398.565	419.97
398.944	433.08
399.323	429.24
399.701	425.4
400.08	424.04
400.458	445.28
400.837	430.14
401.215	436.02
401.594	450.26
401.972	458.62
402.351	467.21
402.729	458.84
403.107	470.37
403.486	473.98
403.864	456.58
404.242	489.8
404.62	477.15
404.999	495.23
405.377	480.31
405.755	478.96
406.133	484.15
406.511	480.09
406.889	504.27
407.267	481.44
407.645	517.15
408.023	492.52
408.401	496.58
408.779	503.14
409.156	504.94
409.534	499.07
409.912	522.35
410.29	531.84
410.667	536.81
411.045	549.91
411.422	532.29
411.8	538.62
412.178	525.51
412.555	536.36
412.933	566.19
413.31	545.17
413.687	575.68
414.065	535.45
414.442	557.37
414.819	558.28
415.197	579.74
415.574	572.97
415.951	593.3
416.328	608.22
416.705	563.25
417.082	588.78
417.46	594.89
417.837	597.15
418.214	592.17
418.591	597.6
418.967	637.37
419.344	624.49
419.721	633.98
420.098	613.19
420.475	639.4
420.852	630.82
421.228	641.66
421.605	618.39
421.982	649.35
422.358	657.93
422.735	657.03
423.111	659.97
423.488	660.65
423.864	681.21
424.241	662.68
424.617	674.66
424.994	686.63
425.37	704.49
425.746	698.84
426.123	707.65
426.499	706.97
426.875	697.26
427.251	714.88
427.627	725.96
428.003	734.99
428.379	745.84
428.756	727.54
429.132	739.29
429.507	767.31
429.883	752.17
430.259	773.19
430.635	777.71
431.011	764.37
431.387	795.56
431.763	811.15
432.138	814.09
432.514	832.85
432.89	828.78
433.265	805.28
433.641	834.43
434.016	809.57
434.392	860.19
434.767	867.87
435.143	862
435.518	856.8
435.894	867.19
436.269	907.19
436.644	892.73
437.02	888.21
437.395	907.19
437.77	911.26
438.145	913.97
438.52	934.99
438.895	915.56
439.271	948.55
439.646	960.53
440.021	938.15
440.395	951.71
440.77	950.58
441.145	974.76
441.52	977.7
441.895	976.34
442.27	963.24
442.645	980.86
443.019	1012.28
443.394	982.9
443.769	981.77
444.143	990.81
444.518	1041.65
444.892	989.9
445.267	1018.38
445.641	1043.01
446.016	1039.39
446.39	1027.64
446.764	1021.99
447.139	1053.18
447.513	1073.52
447.887	1059.05
448.262	1061.99
448.636	1094.99
449.01	1092.73
449.384	1074.65
449.758	1087.08
450.132	1103.12
450.506	1092.05
450.88	1085.04
451.254	1127.75
451.628	1143.12
452.002	1144.7
452.376	1142.22
452.75	1149.67
453.123	1206.62
453.497	1192.16
453.871	1194.87
454.244	1200.52
454.618	1209.56
454.992	1244.36
455.365	1215.89
455.739	1262.44
456.112	1278.94
456.486	1269.67
456.859	1285.94
457.232	1303.12
457.606	1276.22
457.979	1316.67
458.352	1343.11
458.725	1378.59
459.099	1363.68
459.472	1374.53
459.845	1388.76
460.218	1387.86
460.591	1414.07
460.964	1401.64
461.337	1464.69
461.71	1464.47
462.083	1493.62
462.456	1502.43
462.829	1479.38
463.201	1527.29
463.574	1517.12
463.947	1517.57
464.32	1538.14
464.692	1564.13
465.065	1604.8
465.438	1588.76
465.81	1626.72
466.183	1651.35
466.555	1669.66
466.928	1659.26
467.3	1640.51
467.672	1684.57
468.045	1760.05
468.417	1730.22
468.789	1753.27
469.161	1783.55
469.534	1781.07
469.906	1821.97
470.278	1820.16
470.65	1879.37
471.022	1900.39
471.394	1933.61
471.766	1954.85
472.138	1963.89
472.51	1972.25
472.882	2008.86
473.253	2020.16
473.625	2094.73
473.997	2072.36
474.369	2109.65
474.74	2120.95
475.112	2148.97
475.484	2170.21
475.855	2264.67
476.227	2234.84
476.598	2272.13
476.97	2321.17
477.341	2364.1
477.713	2400.49
478.084	2411.56
478.455	2470.77
478.827	2474.61
479.198	2540.15
479.569	2551.22
479.94	2619.47
480.311	2653.59
480.682	2683.42
481.053	2759.35
481.424	2788.73
481.795	2799.35
482.166	2858.78
482.537	2871.66
482.908	2936.74
483.279	2955.5
483.65	3000.92
484.021	3037.53
484.391	3104.42
484.762	3115.95
485.133	3135.61
485.503	3177.19
485.874	3253.12
486.244	3274.82
486.615	3353.91
486.985	3357.52
487.356	3407.01
487.726	3392.33
488.097	3500.12
488.467	3529.72
488.837	3549.84
489.207	3656.95
489.578	3673.45
489.948	3698.53
490.318	3718.65
490.688	3763.16
491.058	3789.15
491.428	3858.75
491.798	3866.89
492.168	3962.25
492.538	3988.24
492.908	4002.25
493.278	4039.99
493.648	4118.63
494.017	4142.36
494.387	4160.67
494.757	4195.92
495.126	4190.5
495.496	4237.73
495.866	4317.5
496.235	4329.93
496.605	4363.37
496.974	4384.62
497.344	4454.45
497.713	4496.93
498.082	4501.45
498.452	4553.2
498.821	4573.99
499.19	4558.17
499.559	4567.44
499.928	4606.53
500.298	4650.15
500.667	4693.76
501.036	4697.83
501.405	4721.1
501.774	4743.03
502.143	4820.09
502.512	4760.88
502.88	4857.6
503.249	4832.51
503.618	4897.6
503.987	4900.99
504.356	4947.31
504.724	4928.56
505.093	5010.14
505.462	5039.97
505.83	5050.36
506.199	5126.74
506.567	5132.17
506.936	5234.31
507.304	5289.9
507.672	5215.78
508.041	5272.05
508.409	5344.14
508.777	5421.88
509.145	5413.97
509.514	5453.29
509.882	5511.14
510.25	5491.93
510.618	5551.37
510.986	5532.16
511.354	5606.28
511.722	5664.13
512.09	5680.63
512.458	5672.49
512.826	5665.03
513.193	5795.65
513.561	5774.64
513.929	5778.03
514.297	5866.39
514.664	5872.26
515.032	5913.84
515.4	5969.89
515.767	5973.5
516.135	6061.41
516.502	6071.13
516.869	6157.45
517.237	6153.84
517.604	6193.83
517.972	6289.2
518.339	6295.53
518.706	6384.34
519.073	6406.71
519.44	6466.14
519.808	6525.13
520.175	6565.8
520.542	6656.65
520.909	6694.39
521.276	6726.25
521.643	6765.34
522.009	6748.17
522.376	6848.28
522.743	6879.24
523.11	6893.48
523.477	6960.14
523.843	6969.63
524.21	7039.46
524.577	7078.1
524.943	7146.8
525.31	7147.03
525.676	7267.25
526.043	7217.08
526.409	7283.52
526.776	7404.2
527.142	7364.65
527.508	7499.56
527.874	7569.62
528.241	7620.01
528.607	7666.34
528.973	7745.43
529.339	7772.78
529.705	7871.98
530.071	7912.43
530.437	7946.78
530.803	8021.81
531.169	8110.62
531.535	8073.11
531.901	8175.03
532.267	8205.76
532.632	8185.87
532.998	8267.23
533.364	8281.69
533.73	8317.62
534.095	8309.48
534.461	8427.22
534.826	8377.05
535.192	8423.83
535.557	8441.23
535.923	8438.97
536.288	8476.49
536.653	8476.94
537.019	8513.55
537.384	8614.79
537.749	8609.82
538.114	8698.18
538.479	8722.36
538.845	8789.47
539.21	8785.4
539.575	8845.06
539.94	8873.31
540.305	8914.67
540.67	9022.23
541.034	9040.09
541.399	9077.15
541.764	9146.53
542.129	9170.93
542.494	9271.95
542.858	9273.98
543.223	9181.55
543.587	9288.22
543.952	9302.23
544.316	9287.99
544.681	9266.52
545.045	9400.76
545.41	9430.13
545.774	9402.11
546.138	9413.18
546.503	9421.55
546.867	9429.46
547.231	9504.71
547.595	9544.71
547.959	9537.93
548.324	9575.21
548.688	9638.49
549.052	9642.56
549.416	9717.36
549.779	9697.7
550.143	9753.97
550.507	9857.69
550.871	9860.4
551.235	9935.66
551.599	10052.94
551.962	10065.82
552.326	10139.04
552.689	10159.61
553.053	10144.24
553.417	10223.56
553.78	10325.93
554.143	10311.24
554.507	10314.18
554.87	10379.94
555.234	10515.53
555.597	10434.63
555.96	10456.55
556.323	10519.37
556.686	10486.6
557.05	10534.51
557.413	10635.3
557.776	10637.33
558.139	10710.33
558.502	10764.11
558.865	10804.56
559.228	10766.14
559.59	10911.68
559.953	10934.05
560.316	11060.37
560.679	11048.62
561.041	11158.22
561.404	11183.76
561.767	11236.64
562.129	11323.64
562.492	11393.7
562.854	11374.26
563.217	11468.05
563.579	11467.37
563.941	11607.03
564.304	11674.82
564.666	11711.66
565.028	11730.86
565.39	11776.96
565.753	11891.31
566.115	11907.36
566.477	12019.44
566.839	11961.59
567.201	12101.93
567.563	12083.4
567.925	12174.69
568.287	12210.17
568.648	12256.73
569.01	12259.89
569.372	12369.72
569.734	12290.62
570.095	12443.39
570.457	12444.97
570.819	12506.44
571.18	12450.84
571.542	12599.77
571.903	12712.31
572.265	12710.73
572.626	12723.38
572.987	12693.32
573.349	12860.55
573.71	12924.96
574.071	12907.78
574.432	12948.91
574.794	13067.78
575.155	13024.39
575.516	13079.53
575.877	13072.75
576.238	13173.54
576.599	13164.5
576.96	13127.44
577.32	13157.04
577.681	13217.15
578.042	13236.14
578.403	13255.34
578.763	13268
579.124	13328.11
579.485	13378.73
579.845	13404.94
580.206	13395.68
580.566	13371.05
580.927	13394.32
581.287	13559.06
581.648	13530.82
582.008	13549.12
582.368	13570.82
582.728	13625.28
583.089	13643.36
583.449	13547.99
583.809	13599.06
584.169	13590.93
584.529	13678.61
584.889	13726.07
585.249	13572.17
585.609	13607.42
585.969	13659.4
586.329	13554.54
586.688	13640.42
587.048	13617.82
587.408	13563.36
587.768	13576.92
588.127	13562.23
588.487	13650.14
588.846	13649.91
589.206	13532.4
589.565	13498.95
589.925	13660.3
590.284	13608.55
590.643	13576.92
591.003	13559.06
591.362	13620.08
591.721	13667.76
592.08	13629.8
592.44	13706.63
592.799	13680.42
593.158	13662.11
593.517	13707.76
593.876	13763.8
594.235	13805.16
594.593	13857.59
594.952	13966.96
595.311	13831.15
595.67	13919.28
596.029	13923.57
596.387	13994.99
596.746	14016.45
597.104	13957.47
597.463	13973.97
597.822	14067.75
598.18	14099.62
598.538	13915.67
598.897	14130.12
599.255	13885.84
599.613	14076.79
599.972	14037.7
600.33	14034.98
600.688	13984.14
601.046	14063.01
601.404	14014.65
601.762	14011.93
602.12	14053.51
602.478	13987.08
602.836	14068.88
603.194	13911.6
603.552	13917.47
603.91	13943.46
604.268	14002.89
604.625	13920.86
604.983	13980.07
605.341	13949.11
605.698	13979.39
606.056	14140.74
606.413	14052.38
606.771	14122.44
607.128	14106.17
607.485	14128.54
607.843	14137.13
608.2	14244.47
608.557	14288.31
608.914	14329.89
609.272	14396.33
609.629	14444.46
609.986	14471.36
610.343	14428.42
610.7	14539.6
611.057	14473.62
611.414	14557.23
611.771	14487.85
612.127	14646.72
612.484	14569.21
612.841	14615.08
613.198	14576.21
613.554	14532.15
613.911	14632.48
614.267	14577.79
614.624	14580.05
614.98	14584.12
615.337	14629.77
615.693	14615.31
616.05	14533.28
616.406	14743.21
616.762	14581.41
617.118	14602.88
617.475	14512.26
617.831	14618.25
618.187	14634.52
618.543	14559.72
618.899	14630
619.255	14586.16
619.611	14636.1
619.967	14745.7
620.323	14701.63
620.678	14584.57
621.034	14730.33
621.39	14693.27
621.746	14742.31
622.101	14983.21
622.457	14786.83
622.812	14876.77
623.168	14969.87
623.523	14866.37
623.879	14935.3
624.234	14925.13
624.589	15015.52
624.945	15072.47
625.3	15047.61
625.655	15025.69
626.01	15035.41
626.365	15085.58
626.72	15131.23
627.075	15084.22
627.43	14932.36
627.785	14999.7
628.14	15010.78
628.495	15081.06
628.85	14985.24
629.205	14814.62
629.559	14901.63
629.914	14903.66
630.269	14805.36
630.623	14717
630.978	14691.24
631.332	14781.41
631.687	14743.67
632.041	14654.85
632.396	14692.37
632.75	14637
633.104	14640.84
633.459	14589.09
633.813	14625.48
634.167	14637.23
634.521	14590
634.875	14536.44
635.229	14512.03
635.583	14502.54
635.937	14479.72
636.291	14493.96
636.645	14495.76
636.999	14405.82
637.352	14407.63
637.706	14431.36
638.06	14444.46
638.413	14442.66
638.767	14369.21
639.121	14435.2
639.474	14361.53
639.828	14339.16
640.181	14422.54
640.534	14417.57
640.888	14356.56
641.241	14231.59
641.594	14332.38
641.947	14427.97
642.301	14390
642.654	14349.33
643.007	14385.03
643.36	14307.52
643.713	14329.21
644.066	14441.53
644.419	14195.66
644.771	14105.04
645.124	13920.41
645.477	13922.44
645.83	13838.38
646.182	13795.44
646.535	13874.08
646.888	13886.29
647.24	13869.11
647.593	13931.03
647.945	13907.76
648.298	13784.37
648.65	13837.93
649.002	13713.18
649.355	13739.85
649.707	13711.6
650.059	13635.45
650.411	13760.64
650.763	13792.5
651.115	13995.66
651.467	13979.39
651.819	13934.42
652.171	13946.85
652.523	13927.64
652.875	13873.41
653.227	13778.27
653.578	13979.62
653.93	13877.25
654.282	13877.93
654.633	13785.73
654.985	13858.49
655.337	13754.54
655.688	13748.44
656.039	13755.67
656.391	13685.39
656.742	13776.91
657.094	13729.46
657.445	13757.93
657.796	13747.31
658.147	13708.44
658.498	13787.53
658.849	13817.36
659.2	13791.6
659.551	13697.14
659.902	13743.24
660.253	13709.12
660.604	13737.82
660.955	13674.99
661.306	13722.9
661.656	13686.97
662.007	13711.38
662.358	13737.82
662.708	13774.2
663.059	13714.77
663.409	13616.01
663.76	13778.72
664.11	13791.6
664.461	13772.17
664.811	13795.67
665.161	13663.92
665.511	13693.75
665.862	13691.04
666.212	13758.83
666.562	13757.7
666.912	13726.52
667.262	13764.48
667.612	13699.85
667.962	13630.47
668.312	13649.68
668.662	13660.53
669.011	13665.73
669.361	13617.37
669.711	13578.5
670.06	13542.12
670.41	13563.81
670.76	13485.39
671.109	13507.99
671.459	13552.96
671.808	13416.02
672.157	13556.8
672.507	13377.37
672.856	13416.24
673.205	13449.24
673.554	13402.68
673.904	13464.38
674.253	13490.82
674.602	13325.85
674.951	13210.15
675.3	13105.97
675.649	13276.59
675.998	13326.98
676.346	13312.07
676.695	13309.35
677.044	13186.19
677.393	13319.97
677.741	13404.04
678.09	13256.7
678.438	13283.59
678.787	13278.85
679.135	13368.56
679.484	13230.94
679.832	13336.02
680.181	13314.55
680.529	13314.55
680.877	13206.76
681.225	13260.99
681.573	13384.61
681.922	13176.93
682.27	13237.49
682.618	13153.65
682.966	13102.13
683.314	13192.29
683.661	13121.56
684.009	13156.14
684.357	13038.85
684.705	13075.46
685.053	13009.02
685.4	13078.17
685.748	12963.15
686.095	12963.37
686.443	12854.22
686.79	12872.08
687.138	12940.32
687.485	12899.65
687.832	12900.55
688.18	12810.84
688.527	12805.41
688.874	12695.81
689.221	12710.05
689.568	12633.66
689.915	12680.22
690.262	12641.8
690.609	12514.57
690.956	12605.64
691.303	12465.53
691.65	12466.66
691.997	12505.98
692.344	12367.46
692.69	12319.32
693.037	12337.18
693.383	12250.62
693.73	12321.36
694.077	12171.53
694.423	12231.19
694.769	12188.03
695.116	12176.05
695.462	12147.35
695.808	12056.28
696.155	12139.89
696.501	12012.66
696.847	11995.04
697.193	11974.25
697.539	11978.09
697.885	11897.87
698.231	11927.02
698.577	11907.81
698.923	11873.91
699.269	11841.37
699.614	11788.72
699.96	11754.59
700.306	11839.56
700.651	11751.2
700.997	11757.53
701.342	11674.82
701.688	11595.73
702.033	11595.05
702.379	11598.66
702.724	11534.48
703.069	11597.08
703.415	11475.96
703.76	11453.13
704.105	11427.82
704.45	11422.62
704.795	11399.57
705.14	11305.56
705.485	11286.36
705.83	11266.7
706.175	11286.13
706.52	11199.58
706.865	11145.12
707.209	11174.04
707.554	11157.09
707.899	11180.14
708.243	11115.06
708.588	11040.71
708.932	11019.92
709.277	11039.58
709.621	11001.39
709.966	10885.69
710.31	10921.39
710.654	10853.6
710.998	10935.4
711.342	10852.47
711.687	10823.77
712.031	10805.92
712.375	10742.87
712.719	10789.42
713.063	10729.31
713.407	10741.74
713.75	10738.12
714.094	10784.67
714.438	10716.88
714.782	10669.42
715.125	10638.69
715.469	10671
715.812	10653.83
716.156	10568.41
716.499	10643.89
716.843	10631.46
717.186	10563.21
717.53	10572.7
717.873	10599.59
718.216	10541.06
718.559	10462.42
718.902	10432.37
719.246	10447.06
719.589	10385.36
719.932	10409.77
720.275	10361.18
720.617	10401.18
720.96	10331.13
721.303	10363.67
721.646	10372.26
721.989	10245.93
722.331	10339.94
722.674	10283.44
723.016	10343.78
723.359	10144.92
723.701	10271.47
724.044	10177.68
724.386	10076.22
724.729	10212.26
725.071	10165.71
725.413	10178.81
725.755	10085.48
726.097	10066.05
726.439	9960.74
726.782	10018.59
727.124	10059.04
727.465	10026.28
727.807	9948.54
728.149	9940.85
728.491	9928.65
728.833	9923.91
729.175	9905.6
729.516	9912.61
729.858	9888.2
730.199	9903.57
730.541	9878.26
730.882	9828.99
731.224	9836.68
731.565	9804.13
731.906	9788.09
732.248	9779.5
732.589	9737.24
732.93	9725.27
733.271	9707.41
733.612	9742.67
733.953	9803.23
734.294	9692.27
734.635	9629.22
734.976	9691.37
735.317	9685.49
735.658	9658.15
735.999	9682.33
736.339	9621.09
736.68	9638.49
737.021	9603.01
737.361	9602.78
737.702	9685.72
738.042	9579.73
738.383	9628.55
738.723	9605.04
739.063	9641.65
739.404	9491.83
739.744	9566.85
740.084	9473.07
740.424	9564.37
740.764	9453.41
741.104	9488.44
741.444	9468.78
741.784	9438.95
742.124	9407.99
742.464	9447.08
742.804	9445.95
743.143	9475.78
743.483	9400.3
743.823	9313.3
744.162	9312.85
744.502	9339.06
744.841	9303.36
745.181	9295.67
745.52	9334.09
745.86	9362.34
746.199	9243.25
746.538	9227.65
746.877	9334.54
747.216	9311.04
747.556	9282.34
747.895	9262.23
748.234	9232.62
748.573	9123.25
748.911	9202.57
749.25	9227.65
749.589	9072.18
749.928	9173.87
750.267	9070.14
750.605	9139.07
750.944	9079.18
751.283	9083.7
751.621	9093.65
751.96	8966.19
752.298	8915.34
752.636	9031.5
752.975	8928
753.313	8936.36
753.651	8901.79
753.989	8911.95
754.327	8828.34
754.666	8789.25
755.004	8791.51
755.342	8794.22
755.679	8788.57
756.017	8740.89
756.355	8727.33
756.693	8690.27
757.031	8693.88
757.368	8586.99
757.706	8588.35
758.044	8571.4
758.381	8666.54
758.719	8582.25
759.056	8574.34
759.394	8569.14
759.731	8528.69
