Data from foam1_polythene_foam_FLMS001491_00002.txt Node
Date: Wed Feb 08 10:54:17 GMT 2017
User: dcchb
Spectrometer: FLMS00149
Trigger mode: 0
Integration Time (sec): 2.000000E-2
Scans to average: 10
Electric dark correction enabled: true
Nonlinearity correction enabled: false
Boxcar width: 0
XAxis mode: Wavelengths
Number of Pixels in Spectrum: 2048
>>>>>Begin Spectral Data<<<<<
341.393	-2.02
341.776	-2.02
342.16	-2.02
342.543	-35.24
342.927	-58.29
343.31	-78.18
343.693	-75.92
344.077	-67.55
344.46	-70.94
344.843	-55.35
345.226	-32.75
345.61	-23.94
345.993	-17.84
346.376	-22.36
346.759	26.23
347.142	29.39
347.525	48.6
347.908	60.8
348.291	70.52
348.674	111.88
349.057	97.41
349.44	122.04
349.823	132.67
350.206	176.96
350.588	172.66
350.971	217.18
351.354	201.82
351.737	215.6
352.119	230.97
352.502	249.73
352.884	263.06
353.267	260.57
353.65	261.25
354.032	273.91
354.414	291.98
354.797	281.59
355.179	292.89
355.562	299.89
355.944	314.13
356.326	304.41
356.709	307.8
357.091	330.85
357.473	308.25
357.855	324.53
358.238	310.51
358.62	319.55
359.002	320.91
359.384	337.18
359.766	292.89
360.148	335.37
360.53	347.8
360.912	305.54
361.294	330.85
361.676	308.03
362.057	313.9
362.439	325.88
362.821	314.36
363.203	285.66
363.584	297.41
363.966	313.45
364.348	284.75
364.729	297.18
365.111	280.91
365.493	291.98
365.874	301.7
366.256	290.18
366.637	304.19
367.019	276.62
367.4	315.94
367.781	296.5
368.163	293.79
368.544	279.78
368.925	309.38
369.306	301.93
369.688	304.19
370.069	301.48
370.45	309.84
370.831	313.23
371.212	301.48
371.593	314.81
371.974	283.85
372.355	282.04
372.736	290.63
373.117	298.99
373.498	317.29
373.879	285.66
374.26	283.85
374.641	277.29
375.021	283.4
375.402	279.55
375.783	300.12
376.163	298.31
376.544	293.34
376.925	309.61
377.305	316.16
377.686	291.08
378.066	306.9
378.447	305.77
378.827	288.14
379.208	316.39
379.588	304.19
379.968	322.27
380.349	299.67
380.729	329.05
381.109	331.08
381.489	294.47
381.87	318.2
382.25	315.03
382.63	295.37
383.01	312.55
383.39	324.98
383.77	309.84
384.15	315.71
384.53	326.79
384.91	308.48
385.29	323.62
385.67	349.16
386.049	306.9
386.429	354.36
386.809	327.24
387.189	317.07
387.568	317.29
387.948	329.72
388.328	317.52
388.707	342.15
389.087	324.07
389.466	354.13
389.846	331.98
390.225	327.24
390.605	318.88
390.984	334.92
391.363	345.54
391.743	343.96
392.122	341.7
392.501	353
392.881	338.54
393.26	333.11
393.639	337.41
394.018	351.42
394.397	358.65
394.776	352.1
395.155	345.09
395.534	358.65
395.913	349.38
396.292	349.61
396.671	355.26
397.05	351.19
397.429	354.58
397.808	355.26
398.186	362.26
398.565	368.37
398.944	329.95
399.323	365.88
399.701	363.17
400.08	370.85
400.458	358.87
400.837	362.26
401.215	365.2
401.594	367.46
401.972	354.58
402.351	368.59
402.729	385.31
403.107	373.56
403.486	381.92
403.864	376.05
404.242	388.7
404.62	389.16
404.999	364.52
405.377	365.65
405.755	379.21
406.133	391.87
406.511	374.92
406.889	382.6
407.267	380.57
407.645	399.1
408.023	415.14
408.401	387.12
408.779	399.33
409.156	402.26
409.534	405.65
409.912	406.33
410.29	421.25
410.667	417.86
411.045	404.3
411.422	399.55
411.8	424.64
412.178	398.87
412.555	426.9
412.933	432.09
413.31	412.43
413.687	428.93
414.065	417.18
414.442	408.36
414.819	430.51
415.197	437.29
415.574	428.48
415.951	422.38
416.328	424.41
416.705	427.8
417.082	446.33
417.46	426.44
417.837	448.82
418.214	457.18
418.591	466.89
418.967	444.3
419.344	436.84
419.721	458.31
420.098	432.09
420.475	467.35
420.852	489.72
421.228	469.83
421.605	461.92
421.982	450.85
422.358	478.65
422.735	462.83
423.111	467.57
423.488	495.14
423.864	481.13
424.241	486.78
424.617	488.36
424.994	499.66
425.37	480.91
425.746	509.15
426.123	491.53
426.499	494.46
426.875	510.96
427.251	499.44
427.627	500.79
428.003	491.3
428.379	504.86
428.756	531.75
429.132	518.64
429.507	528.59
429.883	533.79
430.259	543.73
430.635	540.79
431.011	525.65
431.387	538.31
431.763	539.43
432.138	536.72
432.514	568.36
432.89	560
433.265	553.67
433.641	563.62
434.016	585.31
434.392	562.26
434.767	586.67
435.143	591.64
435.518	608.59
435.894	575.82
436.269	601.81
436.644	615.14
437.02	570.62
437.395	609.94
437.77	632.54
438.145	603.16
438.52	614.01
438.895	631.41
439.271	646.78
439.646	653.56
440.021	664.86
440.395	650.62
440.77	664.63
441.145	664.63
441.52	685.42
441.895	647
442.27	684.74
442.645	672.54
443.019	685.19
443.394	692.88
443.769	699.88
444.143	695.14
444.518	708.02
444.892	698.53
445.267	698.53
445.641	709.6
446.016	739.66
446.39	717.74
446.764	745.76
447.139	733.33
447.513	722.03
447.887	743.72
448.262	755.7
448.636	763.61
449.01	769.94
449.384	769.49
449.758	781.91
450.132	773.33
450.506	788.92
450.88	792.54
451.254	776.72
451.628	799.54
452.002	818.3
452.376	821.69
452.75	815.13
453.123	800.45
453.497	819.2
453.871	838.18
454.244	833.89
454.618	835.92
454.992	847
455.365	834.34
455.739	870.73
456.112	890.16
456.486	849.94
456.859	865.98
457.232	872.31
457.606	867.56
457.979	891.06
458.352	874.34
458.725	883.15
459.099	864.4
459.472	882.93
459.845	893.78
460.218	904.85
460.591	887
460.964	913.66
461.337	939.88
461.71	920.89
462.083	941.91
462.456	939.2
462.829	957.28
463.201	963.38
463.574	965.86
463.947	970.38
464.32	994.56
464.692	1000.44
465.065	1004.51
465.438	995.47
465.81	1007.9
466.183	992.76
466.555	1022.13
466.928	1033.89
467.3	1013.32
467.672	1033.21
468.045	1059.2
468.417	1051.51
468.789	1055.35
469.161	1067.56
469.534	1060.55
469.906	1074.79
470.278	1122.92
470.65	1100.78
471.022	1138.29
471.394	1140.1
471.766	1153.43
472.138	1165.63
472.51	1193.2
472.882	1201.11
473.253	1207.89
473.625	1212.64
473.997	1211.51
474.369	1219.87
474.74	1256.03
475.112	1238.17
475.484	1257.16
475.855	1301.9
476.227	1289.02
476.598	1310.94
476.97	1312.52
477.341	1358.4
477.713	1336.02
478.084	1336.48
478.455	1390.94
478.827	1407.89
479.198	1453.31
479.569	1419.19
479.94	1445.17
480.311	1480.88
480.682	1512.97
481.053	1557.26
481.424	1537.83
481.795	1583.7
482.166	1564.27
482.537	1557.26
482.908	1635.23
483.279	1633.87
483.65	1638.16
484.021	1682
484.391	1691.5
484.762	1708.9
485.133	1711.83
485.503	1738.05
485.874	1802.23
486.244	1768.1
486.615	1830.02
486.985	1833.64
487.356	1854.65
487.726	1887.2
488.097	1917.03
488.467	1919.96
488.837	1956.35
489.207	1974.2
489.578	1994.09
489.948	2003.8
490.318	2029.11
490.688	2033.41
491.058	2083.58
491.428	2095.78
491.798	2084.93
492.168	2138.49
492.538	2157.47
492.908	2167.41
493.278	2184.36
493.648	2211.48
494.017	2203.12
494.387	2252.84
494.757	2287.19
495.126	2300.29
495.496	2302.55
495.866	2308.43
496.235	2325.6
496.605	2356.34
496.974	2339.84
497.344	2381.19
497.713	2393.62
498.082	2418.93
498.452	2426.39
498.821	2454.64
499.19	2477.92
499.559	2469.33
499.928	2506.16
500.298	2519.95
500.667	2551.13
501.036	2543.45
501.405	2574.64
501.774	2567.4
502.143	2584.35
502.512	2593.17
502.88	2616.22
503.249	2670.23
503.618	2645.37
503.987	2665.25
504.356	2694.63
504.724	2697.34
505.093	2749.55
505.462	2769.21
505.83	2761.3
506.199	2788.19
506.567	2783.67
506.936	2860.96
507.304	2829.54
507.672	2879.49
508.041	2865.48
508.409	2842.88
508.777	2907.51
509.145	2895.53
509.514	2953.61
509.882	2986.15
510.25	2962.42
510.618	2988.86
510.986	3009.65
511.354	3090.55
511.722	3100.72
512.09	3101.63
512.458	3090.1
512.826	3115.86
513.193	3157.67
513.561	3130.33
513.929	3186.6
514.297	3226.37
514.664	3218.46
515.032	3201.96
515.4	3250.32
515.767	3261.4
516.135	3301.17
516.502	3293.26
516.869	3349.98
517.237	3341.62
517.604	3391.11
517.972	3365.35
518.339	3417.78
518.706	3453.48
519.073	3440.38
519.44	3462.3
519.808	3520.15
520.175	3526.02
520.542	3563.76
520.909	3582.07
521.276	3632.91
521.643	3673.59
522.009	3643.53
522.376	3711.55
522.743	3750.42
523.11	3749.07
523.477	3779.35
523.843	3763.53
524.21	3835.62
524.577	3838.56
524.943	3881.49
525.31	3879.01
525.676	3966.24
526.043	3925.79
526.409	3968.95
526.776	4044.65
527.142	4014.82
527.508	4029.51
527.874	4037.65
528.241	4141.15
528.607	4113.58
528.973	4173.46
529.339	4173.24
529.705	4224.54
530.071	4213.24
530.437	4276.96
530.803	4279.68
531.169	4298.88
531.535	4276.51
531.901	4285.1
532.267	4330.52
532.632	4375.04
532.998	4420.24
533.364	4427.02
533.73	4455.26
534.095	4511.53
534.461	4544.08
534.826	4539.78
535.192	4538.65
535.557	4552.66
535.923	4519.9
536.288	4524.87
536.653	4615.03
537.019	4587.24
537.384	4603.28
537.749	4666.78
538.114	4671.08
538.479	4643.73
538.845	4704.52
539.21	4724.18
539.575	4695.48
539.94	4749.72
540.305	4719.44
540.67	4741.13
541.034	4814.35
541.399	4859.32
541.764	4823.62
542.129	4843.73
542.494	4863.62
542.858	4890.28
543.223	4901.13
543.587	4886.21
543.952	4935.48
544.316	4912.65
544.681	4911.52
545.045	5015.02
545.41	5028.81
545.774	5064.51
546.138	5032.42
546.503	4974.12
546.867	5081.69
547.231	5070.39
547.595	5083.95
547.959	5052.08
548.324	5096.6
548.688	5132.99
549.052	5142.48
549.416	5160.33
549.779	5163.04
550.143	5232.87
550.507	5245.75
550.871	5290.04
551.235	5215.24
551.599	5262.7
551.962	5304.28
552.326	5317.16
552.689	5364.39
553.053	5362.13
553.417	5364.39
553.78	5445.52
554.143	5398.06
554.507	5427.67
554.87	5467.44
555.234	5479.64
555.597	5524.39
555.96	5519.64
556.323	5589.02
556.686	5559.42
557.05	5594.9
557.413	5607.55
557.776	5627.66
558.139	5660.88
558.502	5766.19
558.865	5662.69
559.228	5793.31
559.59	5766.42
559.953	5761.9
560.316	5892.06
560.679	5904.04
561.041	5920.76
561.404	5914.66
561.767	5958.5
562.129	5944.94
562.492	6003.92
562.854	5965.73
563.217	6005.96
563.579	6039.63
563.941	6059.29
564.304	6076.24
564.666	6203.47
565.028	6170.47
565.39	6156.69
565.753	6167.08
566.115	6228.55
566.477	6253.86
566.839	6254.99
567.201	6289.57
567.563	6310.58
567.925	6416.79
568.287	6378.38
568.648	6391.03
569.01	6403.69
569.372	6488.43
569.734	6483.23
570.095	6453.86
570.457	6522.55
570.819	6586.06
571.18	6555.32
571.542	6588.77
571.903	6574.76
572.265	6524.36
572.626	6547.86
572.987	6651.59
573.349	6651.14
573.71	6644.13
574.071	6685.71
574.432	6733.4
574.794	6821.3
575.155	6824.69
575.516	6735.88
575.877	6743.79
576.238	6824.47
576.599	6832.83
576.96	6817.91
577.32	6831.25
577.681	6852.26
578.042	6901.08
578.403	6927.06
578.763	6835.77
579.124	6893.17
579.485	6854.3
579.845	6945.37
580.206	6907.18
580.566	6934.3
580.927	6895.2
581.287	6987.63
581.648	6955.31
582.008	6975.42
582.368	6914.63
582.728	6976.55
583.089	6966.38
583.449	6994.86
583.809	6923.45
584.169	6967.29
584.529	7005.25
584.889	7014.07
585.249	6950.34
585.609	7034.41
585.969	7057.46
586.329	6995.54
586.688	7021.98
587.048	6983.56
587.408	7011.81
587.768	7016.55
588.127	6999.6
588.487	6986.5
588.846	7067.85
589.206	6962.99
589.565	7053.16
589.925	7026.95
590.284	7017.91
590.643	7002.77
591.003	7015.87
591.362	7024.69
591.721	7021.52
592.08	7014.07
592.44	7069.21
592.799	7028.76
593.158	7028.76
593.517	7037.8
593.876	7004.58
594.235	7056.55
594.593	7020.62
594.952	7057.68
595.311	7024.46
595.67	7002.77
596.029	7045.93
596.387	7078.7
596.746	7097.45
597.104	7084.12
597.463	7064.46
597.822	7042.31
598.18	7077.12
598.538	7070.34
598.897	7116.44
599.255	7050.22
599.613	7119.6
599.972	7073.73
600.33	7134.52
600.688	7079.6
601.046	7190.56
601.404	7222.2
601.762	7154.85
602.12	7171.58
602.478	7158.7
602.836	7119.6
603.194	7108.08
603.552	7098.81
603.91	7088.19
604.268	7124.35
604.625	7130
604.983	7195.98
605.341	7116.44
605.698	7180.39
606.056	7183.78
606.413	7235.53
606.771	7189.43
607.128	7252.03
607.485	7176.32
607.843	7163.89
608.2	7227.62
608.557	7260.16
608.914	7210.45
609.272	7238.24
609.629	7268.75
609.986	7270.78
610.343	7244.8
610.7	7276.66
611.057	7208.19
611.414	7273.27
611.771	7261.52
612.127	7319.6
612.484	7305.13
612.841	7355.53
613.198	7280.95
613.554	7365.02
613.911	7371.57
614.267	7317.56
614.624	7272.59
614.98	7363.89
615.337	7320.5
615.693	7344.68
616.05	7319.14
616.406	7408.41
616.762	7342.65
617.118	7345.13
617.475	7374.74
617.831	7341.97
618.187	7386.26
618.543	7420.61
618.899	7395.75
619.255	7417.22
619.611	7369.09
619.967	7424.68
620.323	7424.68
620.678	7358.01
621.034	7387.16
621.39	7393.04
621.746	7335.19
622.101	7436.65
622.457	7382.19
622.812	7466.48
623.168	7398.46
623.523	7410.21
623.879	7435.75
624.234	7435.98
624.589	7421.97
624.945	7403.89
625.3	7408.41
625.655	7454.06
626.01	7431.23
626.365	7369.99
626.72	7364.34
627.075	7348.75
627.43	7348.52
627.785	7321.4
628.14	7341.52
628.495	7354.17
628.85	7416.77
629.205	7396.43
629.559	7341.52
629.914	7351.91
630.269	7372.02
630.623	7269.65
630.978	7336.54
631.332	7325.47
631.687	7349.43
632.041	7206.15
632.396	7271.69
632.75	7252.03
633.104	7225.13
633.459	7154.63
633.813	7257.9
634.167	7222.42
634.521	7234.85
634.875	7224.91
635.229	7240.28
635.583	7177.68
635.937	7202.08
636.291	7139.49
636.645	7204.34
636.999	7139.04
637.352	7153.72
637.706	7065.37
638.06	7124.8
638.413	7070.56
638.767	7134.29
639.121	7079.15
639.474	7111.47
639.828	7098.36
640.181	7100.84
640.534	7111.01
640.888	7104.91
641.241	7017.23
641.594	7056.1
641.947	7052.94
642.301	7061.75
642.654	7042.99
643.007	7020.17
643.36	7021.98
643.713	6940.17
644.066	6957.12
644.419	6940.4
644.771	6911.24
645.124	6878.25
645.477	6776.56
645.83	6750.8
646.182	6738.37
646.535	6748.99
646.888	6781.76
647.24	6789.67
647.593	6795.54
647.945	6740.18
648.298	6695.88
648.65	6720.52
649.002	6627.64
649.355	6665.38
649.707	6621.31
650.059	6692.49
650.411	6690.01
650.763	6753.06
651.115	6878.48
651.467	6817.24
651.819	6822.66
652.171	6804.58
652.523	6726.16
652.875	6834.86
653.227	6758.48
653.578	6818.82
653.93	6759.84
654.282	6744.24
654.633	6701.98
654.985	6681.19
655.337	6690.46
655.688	6703.11
656.039	6705.15
656.391	6628.99
656.742	6732.94
657.094	6698.37
657.445	6722.32
657.796	6687.97
658.147	6629.22
658.498	6668.54
658.849	6692.04
659.2	6673.96
659.551	6680.52
659.902	6682.1
660.253	6655.88
660.604	6668.31
660.955	6608.2
661.306	6614.08
661.656	6568.43
662.007	6582.67
662.358	6570.91
662.708	6576.11
663.059	6610.91
663.409	6584.47
663.76	6578.37
664.11	6564.81
664.461	6601.87
664.811	6635.32
665.161	6601.2
665.511	6596.68
665.862	6588.77
666.212	6586.96
666.562	6598.71
666.912	6574.3
667.262	6562.33
667.612	6577.92
667.962	6539.5
668.312	6520.07
668.662	6545.6
669.011	6514.87
669.361	6494.76
669.711	6501.31
670.06	6527.07
670.41	6538.6
670.76	6450.69
671.109	6488.88
671.459	6484.82
671.808	6542.21
672.157	6454.31
672.507	6470.35
672.856	6501.31
673.205	6485.95
673.554	6454.08
673.904	6442.56
674.253	6517.13
674.602	6441.88
674.951	6359.85
675.3	6382.67
675.649	6431.94
675.998	6391.48
676.346	6365.27
676.695	6413.18
677.044	6323.92
677.393	6426.06
677.741	6399.85
678.09	6404.37
678.438	6425.61
678.787	6438.49
679.135	6418.38
679.484	6383.8
679.832	6438.04
680.181	6373.18
680.529	6425.83
680.877	6343.35
681.225	6324.37
681.573	6328.89
681.922	6304.48
682.27	6276.46
682.618	6288.21
682.966	6268.55
683.314	6239.85
683.661	6229.91
684.009	6145.16
684.357	6165.5
684.705	6194.43
685.053	6220.64
685.4	6245.5
685.748	6152.62
686.095	6262
686.443	6172.73
686.79	6183.81
687.138	6205.27
687.485	6186.07
687.832	6128.21
688.18	6154.88
688.527	6100.87
688.874	6125.95
689.221	6023.58
689.568	6027.88
689.915	6017.03
690.262	6001.66
690.609	5964.83
690.956	5940.65
691.303	5994.88
691.65	5943.36
691.997	5977.03
692.344	5992.85
692.69	5906.75
693.037	5928.9
693.383	5906.07
693.73	5891.61
694.077	5863.36
694.423	5859.75
694.769	5829.24
695.116	5806.19
695.462	5777.49
695.808	5761.9
696.155	5793.08
696.501	5700.2
696.847	5697.72
697.193	5649.81
697.539	5730.03
697.885	5696.36
698.231	5651.62
698.577	5741.78
698.923	5739.98
699.269	5682.8
699.614	5635.35
699.96	5661.11
700.306	5659.53
700.651	5651.62
700.997	5605.74
701.342	5536.37
701.688	5536.14
702.033	5551.28
702.379	5549.25
702.724	5463.15
703.069	5470.15
703.415	5401.91
703.76	5424.96
704.105	5397.84
704.45	5410.04
704.795	5378.4
705.14	5388.8
705.485	5440.32
705.83	5381.12
706.175	5415.92
706.52	5425.63
706.865	5359.87
707.209	5342.47
707.554	5345.18
707.899	5383.15
708.243	5309.71
708.588	5301.34
708.932	5234
709.277	5247.11
709.621	5210.05
709.966	5198.3
710.31	5175.25
710.654	5168.01
710.998	5198.97
711.342	5179.31
711.687	5137.51
712.031	5153.32
712.375	5106.32
712.719	5174.57
713.063	5202.14
713.407	5226.54
713.75	5147
714.094	5116.04
714.438	5103.61
714.782	5139.09
715.125	5117.17
715.469	5066.32
715.812	5076.26
716.156	4975.7
716.499	5024.51
716.843	4963.27
717.186	4955.82
717.53	5038.53
717.873	5034.91
718.216	4995.14
718.559	4967.34
718.902	4917.4
719.246	4950.17
719.589	4942.71
719.932	4928.02
720.275	4935.03
720.617	4963.5
720.96	5004.63
721.303	4977.96
721.646	4955.14
721.989	4891.18
722.331	4904.07
722.674	4884.18
723.016	4914.91
723.359	4859.1
723.701	4834.69
724.044	4787.46
724.386	4765.99
724.729	4786.33
725.071	4776.39
725.413	4779.78
725.755	4727.57
726.097	4750.85
726.439	4807.57
726.782	4817.74
727.124	4798.31
727.465	4815.93
727.807	4799.21
728.149	4846.44
728.491	4777.97
728.833	4812.99
729.175	4769.83
729.516	4736.61
729.858	4740.91
730.199	4744.75
730.541	4697.07
730.882	4699.78
731.224	4706.11
731.565	4634.47
731.906	4664.3
732.248	4634.02
732.589	4653.23
732.93	4628.82
733.271	4602.83
733.612	4621.14
733.953	4616.16
734.294	4624.75
734.635	4588.82
734.976	4689.38
735.317	4585.2
735.658	4618.42
735.999	4686.44
736.339	4627.92
736.68	4620.68
737.021	4594.47
737.361	4584.98
737.702	4577.75
738.042	4574.58
738.383	4511.99
738.723	4523.96
739.063	4522.16
739.404	4535.71
739.744	4464.3
740.084	4477.41
740.424	4494.13
740.764	4500.23
741.104	4544.08
741.444	4449.61
741.784	4501.36
742.124	4539.78
742.464	4498.88
742.804	4499.56
743.143	4468.37
743.483	4514.47
743.823	4473.34
744.162	4476.73
744.502	4470.18
744.841	4466.34
745.181	4476.28
745.52	4451.42
745.86	4399.67
746.199	4393.57
746.538	4399.9
746.877	4347.7
747.216	4389.96
747.556	4280.58
747.895	4363.29
748.234	4322.39
748.573	4272.67
748.911	4311.54
749.25	4345.89
749.589	4322.39
749.928	4353.8
750.267	4334.36
750.605	4323.52
750.944	4360.35
751.283	4364.19
751.621	4339.11
751.96	4352.89
752.298	4300.24
752.636	4275.61
752.975	4283.97
753.313	4252.33
753.651	4282.84
753.989	4271.09
754.327	4210.52
754.666	4179.34
755.004	4215.04
755.342	4190.86
755.679	4150.64
756.017	4161.94
756.355	4181.83
756.693	4144.54
757.031	4161.71
757.368	4114.93
757.706	4089.62
758.044	4095.05
758.381	4136.63
758.719	4130.98
759.056	4111.32
759.394	4116.74
759.731	4167.81
760.068	4103.64
760.405	4094.6
760.743	4082.17
761.08	4093.92
761.417	4039.91
761.754	4027.7
762.091	3986.8
762.428	4021.6
762.765	3917.88
763.102	3940.02
763.438	3928.72
763.775	3886.47
764.112	3915.62
764.449	3910.19
764.785	3881.49
765.122	3877.65
765.458	3877.65
765.795	3864.32
766.131	3831.55
766.467	3864.32
766.804	3849.86
767.14	3844.66
767.476	3886.01
767.812	3848.05
768.148	3848.73
768.485	3785.9
768.821	3820.93
769.157	3805.34
769.492	3792.91
769.828	3836.98
770.164	3717.88
770.5	3706.81
770.836	3700.03
771.171	3723.08
