Data from foam2_polystyrene_foam_FLMS001491_00074.txt Node
Date: Wed Feb 08 10:58:28 GMT 2017
User: dcchb
Spectrometer: FLMS00149
Trigger mode: 0
Integration Time (sec): 2.000000E-2
Scans to average: 10
Electric dark correction enabled: true
Nonlinearity correction enabled: false
Boxcar width: 0
XAxis mode: Wavelengths
Number of Pixels in Spectrum: 2048
>>>>>Begin Spectral Data<<<<<
341.393	-14.59
341.776	-14.59
342.16	-14.59
342.543	-57.98
342.927	-68.37
343.31	-79.22
343.693	-77.41
344.077	-81.25
344.46	-47.13
344.843	-53.23
345.226	-24.99
345.61	-21.37
345.993	3.04
346.376	2.13
346.759	9.82
347.142	27.22
347.525	41
347.908	54.33
348.291	66.31
348.674	75.35
349.057	105.41
349.44	128.68
349.823	154.22
350.206	149.93
350.588	209.81
350.971	220.66
351.354	229.92
351.737	249.58
352.119	266.31
352.502	297.27
352.884	297.04
353.267	279.19
353.65	307.21
354.032	306.98
354.414	323.48
354.797	333.65
355.179	321.45
355.562	334.78
355.944	325.51
356.326	345.63
356.709	356.47
357.091	393.31
357.473	348.56
357.855	343.59
358.238	351.5
358.62	351.95
359.002	353.76
359.384	372.52
359.766	375.68
360.148	363.48
360.53	345.85
360.912	358.96
361.294	356.7
361.676	378.62
362.057	355.34
362.439	364.38
362.821	367.55
363.203	346.53
363.584	366.64
363.966	342.69
364.348	369.81
364.729	336.14
365.111	355.34
365.493	360.32
365.874	346.08
366.256	361.45
366.637	338.85
367.019	338.85
367.4	361.9
367.781	337.49
368.163	356.02
368.544	347.89
368.925	363.03
369.306	381.56
369.688	364.38
370.069	366.87
370.45	350.37
370.831	368
371.212	371.84
371.593	360.99
371.974	376.13
372.355	365.29
372.736	365.96
373.117	364.16
373.498	374.33
373.879	381.56
374.26	372.97
374.641	364.16
375.021	378.62
375.402	376.13
375.783	383.37
376.163	413.2
376.544	417.26
376.925	384.27
377.305	411.16
377.686	398.51
378.066	402.57
378.447	399.86
378.827	400.54
379.208	423.59
379.588	415.46
379.968	403.03
380.349	424.49
380.729	426.53
381.109	434.44
381.489	433.76
381.87	422.23
382.25	426.53
382.63	423.36
383.01	473.08
383.39	440.99
383.77	432.63
384.15	455
384.53	442.8
384.91	462.46
385.29	472.4
385.67	465.85
386.049	460.43
386.429	478.5
386.809	487.32
387.189	463.59
387.568	480.76
387.948	481.22
388.328	492.52
388.707	503.59
389.087	495.23
389.466	504.72
389.846	536.81
390.225	512.4
390.605	520.09
390.984	526.64
391.363	547.66
391.743	515.79
392.122	532.29
392.501	537.03
392.881	537.03
393.26	545.62
393.639	563.93
394.018	574.1
394.397	562.57
394.776	598.73
395.155	574.77
395.534	594.89
395.913	565.06
396.292	570.25
396.671	609.8
397.05	619.97
397.429	611.16
397.808	606.64
398.186	619.07
398.565	603.02
398.944	617.48
399.323	627.65
399.701	636.47
400.08	640.76
400.458	647.54
400.837	656.13
401.215	675.34
401.594	663.36
401.972	696.8
402.351	677.14
402.729	692.28
403.107	699.74
403.486	690.02
403.864	690.48
404.242	695.9
404.62	700.19
404.999	721.44
405.377	740.64
405.755	748.33
406.133	755.33
406.511	746.75
406.889	754.43
407.267	751.27
407.645	754.88
408.023	786.52
408.401	816.57
408.779	822.22
409.156	803.47
409.534	809.8
409.912	840.3
410.29	865.16
410.667	854.77
411.045	866.52
411.422	879.4
411.8	897.02
412.178	896.35
412.555	893.41
412.933	907.87
413.31	947.64
413.687	915.78
414.065	967.53
414.442	964.59
414.819	959.4
415.197	949.9
415.574	972.73
415.951	991.26
416.328	995.78
416.705	1011.37
417.082	1009.79
417.46	1024.48
417.837	1054.53
418.214	1047.3
418.591	1054.31
418.967	1085.49
419.344	1050.92
419.721	1084.14
420.098	1094.99
420.475	1124.59
420.852	1150.8
421.228	1147.64
421.605	1141.99
421.982	1155.1
422.358	1152.16
422.735	1171.82
423.111	1174.98
423.488	1185.6
423.864	1228.09
424.241	1247.3
424.617	1241.87
424.994	1250.91
425.37	1280.07
425.746	1274.87
426.123	1264.47
426.499	1304.47
426.875	1319.84
427.251	1329.1
427.627	1369.55
428.003	1378.14
428.379	1385.37
428.756	1397.58
429.132	1419.5
429.507	1457.46
429.883	1467.86
430.259	1487.29
430.635	1499.27
431.011	1508.31
431.387	1539.49
431.763	1586.05
432.138	1561.87
432.514	1605.93
432.89	1579.94
433.265	1648.19
433.641	1658.13
434.016	1675.08
434.392	1684.57
434.767	1736.55
435.143	1719.6
435.518	1753.73
435.894	1788.98
436.269	1807.51
436.644	1805.48
437.02	1856.32
437.395	1850.67
437.77	1896.32
438.145	1927.96
438.52	1897
438.895	1943.32
439.271	1937.9
439.646	1992.59
440.021	2004.57
440.395	2015.64
440.77	1990.1
441.145	2047.28
441.52	2096.31
441.895	2087.95
442.27	2078.01
442.645	2087.05
443.019	2150.32
443.394	2138.57
443.769	2151.91
444.143	2140.16
444.518	2190.55
444.892	2210.44
445.267	2241.4
445.641	2253.37
446.016	2282.98
446.39	2278.23
446.764	2302.64
447.139	2302.86
447.513	2329.08
447.887	2337.44
448.262	2358.23
448.636	2379.25
449.01	2390.77
449.384	2444.55
449.758	2417.44
450.132	2489.3
450.506	2499.02
450.88	2544.89
451.254	2492.69
451.628	2552.8
452.002	2581.05
452.376	2605.91
452.75	2666.7
453.123	2675.96
453.497	2691.55
453.871	2693.36
454.244	2769.07
454.618	2788.95
454.992	2815.39
455.365	2831.21
455.739	2885.67
456.112	2896.29
456.486	2882.06
456.859	2973.13
457.232	3041.37
457.606	3022.39
457.979	3062.39
458.352	3124.54
458.725	3111.66
459.099	3192.78
459.472	3206.12
459.845	3232.56
460.218	3278.2
460.591	3331.31
460.964	3343.29
461.337	3419.67
461.71	3458.31
462.083	3520.91
462.456	3507.8
462.829	3546.45
463.201	3606.33
463.574	3574.02
463.947	3643.39
464.32	3722.94
464.692	3771.98
465.065	3806.78
465.438	3874.8
465.81	3920.67
466.183	3923.39
466.555	3996.83
466.928	4076.15
467.3	4056.26
467.672	4114.57
468.045	4223.94
468.417	4202.47
468.789	4268.01
469.161	4282.47
469.534	4421.23
469.906	4449.25
470.278	4465.07
470.65	4554.56
471.022	4639.07
471.394	4733.99
471.766	4788.45
472.138	4836.36
472.51	4957.71
472.882	5045.84
473.253	5067.76
473.625	5143.92
473.997	5267.31
474.369	5311.15
474.74	5378.94
475.112	5471.14
475.484	5562.44
475.855	5576.22
476.227	5637.92
476.598	5826.61
476.97	5909.32
477.341	5945.93
477.713	6099.83
478.084	6142.76
478.455	6296.88
478.827	6304.11
479.198	6559.02
479.569	6466.37
479.94	6722.86
480.311	6733.26
480.682	6921.95
481.053	7059.57
481.424	7084.21
481.795	7229.74
482.166	7375.72
482.537	7455.5
482.908	7628.82
483.279	7729.61
483.65	7891.87
484.021	7973.45
484.391	8097.06
484.762	8193.1
485.133	8278.3
485.503	8339.09
485.874	8536.6
486.244	8606.65
486.615	8823.6
486.985	8902.46
487.356	9032.63
487.726	9107.66
488.097	9283.24
488.467	9292.28
488.837	9499.96
489.207	9669.9
489.578	9739.73
489.948	9855.66
490.318	10012.72
490.688	10035.32
491.058	10187.85
491.428	10413.38
491.798	10441.63
492.168	10621.97
492.538	10695.41
492.908	10796.88
493.278	10951.45
493.648	11001.62
494.017	11158.68
494.387	11261.95
494.757	11318.67
495.126	11540.36
495.496	11505.11
495.866	11616.74
496.235	11746.91
496.605	11832.33
496.974	11983.51
497.344	12087.69
497.713	12140.8
498.082	12234.35
498.452	12353.9
498.821	12430.96
499.19	12500.11
499.559	12630.95
499.928	12745.98
500.298	12796.37
500.667	12921.79
501.036	12947.56
501.405	13075.46
501.774	13122.69
502.143	13348.22
502.512	13313.65
502.88	13533.98
503.249	13564.71
503.618	13543.25
503.987	13665.05
504.356	13775.1
504.724	13821.2
505.093	13915.44
505.462	14019.62
505.83	14152.72
506.199	14230.23
506.567	14435.43
506.936	14417.35
507.304	14713.38
507.672	14712.03
508.041	14804.23
508.409	14926.94
508.777	15031.34
509.145	15111.57
509.514	15197.21
509.882	15189.98
510.25	15358.11
510.618	15540.93
510.986	15561.72
511.354	15763.75
511.722	15914.71
512.09	16042.16
512.458	15971.88
512.826	16261.82
513.193	16221.14
513.561	16360.35
513.929	16486.67
514.297	16683.28
514.664	16826.32
515.032	16818.87
515.4	17030.16
515.767	17109.25
516.135	17174.79
516.502	17196.26
516.869	17504.05
517.237	17593.31
517.604	17565.74
517.972	17781.78
518.339	17980.87
518.706	17995.33
519.073	18103.35
519.44	18259.28
519.808	18466.96
520.175	18484.58
520.542	18723.45
520.909	18865.14
521.276	18828.53
521.643	19090.44
522.009	19194.4
522.376	19369.31
522.743	19433.71
523.11	19615.85
523.477	19924.77
523.843	19996.86
524.21	20273.69
524.577	20330.64
524.943	20421.03
525.31	20634.13
525.676	20823.28
526.043	20967.91
526.409	21047.46
526.776	21287
527.142	21292.87
527.508	21488.35
527.874	21695.57
528.241	21667.55
528.607	21912.29
528.973	22144.15
529.339	22152.28
529.705	22421.2
530.071	22465.72
530.437	22686.28
530.803	22811.48
531.169	22823.23
531.535	22857.35
531.901	22981.64
532.267	23167.63
532.632	23294.4
532.998	23327.17
533.364	23623.66
533.73	23719.7
534.095	23869.75
534.461	23999.24
534.826	23971.9
535.192	24113.82
535.557	24291.21
535.923	24415.28
536.288	24526.46
536.653	24723.06
537.019	24523.97
537.384	24739.56
537.749	24841.48
538.114	24980.91
538.479	24982.27
538.845	25168.93
539.21	25176.39
539.575	25280.56
539.94	25324.4
540.305	25545.19
540.67	25452.99
541.034	25606.43
541.399	25782.92
541.764	25829.48
542.129	26044.84
542.494	25982.69
542.858	26079.41
543.223	26133.65
543.587	26359.63
543.952	26305.4
544.316	26438.73
544.681	26400.53
545.045	26691.6
545.41	26813.18
545.774	26863.12
546.138	26878.04
546.503	26999.61
546.867	27030.12
547.231	27185.15
547.595	27331.81
547.959	27354.41
548.324	27383.33
548.688	27505.59
549.052	27660.84
549.416	27766.6
549.779	27807.28
550.143	27835.75
550.507	28078
550.871	28119.13
551.235	28156.42
551.599	28410.2
551.962	28450.88
552.326	28478.45
552.689	28673.02
553.053	28554.6
553.417	28691.1
553.78	29063.52
554.143	29051.76
554.507	29171.08
554.87	29349.16
555.234	29667.79
555.597	29471.41
555.96	29595.93
556.323	29710.73
556.686	29828.24
557.05	30120.44
557.413	30051.29
557.776	30113.88
558.139	30413.31
558.502	30418.28
558.865	30625.73
559.228	30841.55
559.59	30905.05
559.953	30997.25
560.316	31369.9
560.679	31360.86
561.041	31479.72
561.404	31650.57
561.767	31886.27
562.129	31700.06
562.492	32115.41
562.854	32075.19
563.217	32200.38
563.579	32404.44
563.941	32556.08
564.304	32776.19
564.666	33048.95
565.028	32939.12
565.39	33083.75
565.753	33337.08
566.115	33280.58
566.477	33563.51
566.839	33693
567.201	33939.32
567.563	33804.41
567.925	34200.78
568.287	34094.57
568.648	34414.34
569.01	34509.7
569.372	34763.03
569.734	34629.02
570.095	34915.56
570.457	35147.42
570.819	35060.87
571.18	35149.91
571.542	35352.62
571.903	35421.99
572.265	35546.28
572.626	35577.92
572.987	35706.96
573.349	35636.9
573.71	35750.8
574.071	35919.83
574.432	36079.38
574.794	36344.68
575.155	36242.99
575.516	36121.63
575.877	36327.05
576.238	36340.61
576.599	36610.44
576.96	36574.73
577.32	36591.23
577.681	36732.24
578.042	36872.35
578.403	36899.24
578.763	36760.04
579.124	36843.2
579.485	37084.32
579.845	37198.22
580.206	37046.81
580.566	37174.94
580.927	37303.75
581.287	37241.38
581.648	37209.74
582.008	37406.12
582.368	37330.64
582.728	37464.42
583.089	37403.41
583.449	37361.15
583.809	37472.11
584.169	37609.51
584.529	37487.7
584.889	37704.42
585.249	37430.3
585.609	37429.4
585.969	37644.08
586.329	37508.04
586.688	37623.29
587.048	37403.64
587.408	37433.01
587.768	37562.73
588.127	37352.11
588.487	37348.5
588.846	37557.3
589.206	37257.2
589.565	37479.79
589.925	37619.22
590.284	37515.27
590.643	37618.32
591.003	37721.14
591.362	37695.15
591.721	37632.56
592.08	37599.11
592.44	37792.55
592.799	37650.63
593.158	37521.15
593.517	37546.23
593.876	37776.51
594.235	37632.1
594.593	37720.69
594.952	37787.58
595.311	37635.27
595.67	37627.58
596.029	37901.93
596.387	37952.55
596.746	37964.3
597.104	37945.77
597.463	37782.83
597.822	37994.13
598.18	37866.22
598.538	37805.88
598.897	37922.04
599.255	37647.02
599.613	38180.11
599.972	37982.38
600.33	38032.32
600.688	38060.57
601.046	38105.09
601.404	38285.65
601.762	38151.64
602.12	38463.95
602.478	38317.74
602.836	38306.21
603.194	38211.52
603.552	38254.01
603.91	38123.84
604.268	38362.48
604.625	38281.58
604.983	38406.32
605.341	38296.72
605.698	38570.84
606.056	38498.07
606.413	38544.17
606.771	38641.57
607.128	38738.52
607.485	38495.36
607.843	38619.42
608.2	38873.88
608.557	38900.54
608.914	38749.59
609.272	39008.11
609.629	39022.12
609.986	39046.3
610.343	39035
610.7	39226.19
611.057	39213.31
611.414	39076.13
611.771	39108.45
612.127	39255.56
612.484	39270.93
612.841	39415.11
613.198	39241.33
613.554	39261.89
613.911	39468.89
614.267	39354.32
614.624	39289.24
614.98	39425.5
615.337	39673.63
615.693	39604.48
616.05	39462.79
616.406	39681.99
616.762	39524.03
617.118	39671.37
617.475	39604.48
617.831	39729.9
618.187	39735.33
618.543	39882.21
618.899	39978.03
619.255	39923.12
619.611	39874.98
619.967	40119.95
620.323	40023.91
620.678	39983.45
621.034	39897.13
621.39	40032.49
621.746	39823.68
622.101	40417.12
622.457	40091.02
622.812	40196.56
623.168	40259.61
623.523	40201.75
623.879	40317
624.234	39989.33
624.589	39984.58
624.945	40177.35
625.3	40217.57
625.655	40157.91
626.01	40200.85
626.365	40220.28
626.72	40168.08
627.075	40113.17
627.43	40069.55
627.785	40218.7
628.14	40254.41
628.495	40076.33
628.85	40133.28
629.205	40056.45
629.559	40207.63
629.914	39923.79
630.269	39972.61
630.623	39750.92
630.978	39882.21
631.332	39911.82
631.687	40111.81
632.041	39908.2
632.396	39914.76
632.75	39744.14
633.104	39860.29
633.459	39666.63
633.813	39759.51
634.167	39518.61
634.521	39522.45
634.875	39608.1
635.229	39490.81
635.583	39322
635.937	39230.03
636.291	39227.09
636.645	39176.02
636.999	39154.32
637.352	39149.58
637.706	39029.81
638.06	39005.85
638.413	38763.15
638.767	38858.29
639.121	38905.97
639.474	38689.93
639.828	38620.78
640.181	38650.16
640.534	38593.21
640.888	38673.88
641.241	38429.37
641.594	38538.75
641.947	38564.96
642.301	38450.16
642.654	38348.02
643.007	38368.58
643.36	38282.71
643.713	38199.09
644.066	38438.18
644.419	38101.24
644.771	37988.48
645.124	37605.66
645.477	37572.22
645.83	37141.04
646.182	37011.56
646.535	36943.53
646.888	36919.81
647.24	36873.71
647.593	37056.53
647.945	36963.19
648.298	36722.75
648.65	36655.18
649.002	36555.75
649.355	36771.79
649.707	36473.26
650.059	36818.57
650.411	37251.1
650.763	37275.73
651.115	37615.61
651.467	37416.74
651.819	37479.79
652.171	37419.91
652.523	37273.24
652.875	37235.73
653.227	37086.81
653.578	37369.96
653.93	37192.12
654.282	37021.95
654.633	37070.08
654.985	37089.75
655.337	37105.56
655.688	37044.55
656.039	37188.27
656.391	37068.05
656.742	36882.97
657.094	36980.6
657.445	37041.16
657.796	36878
658.147	36788.96
658.498	36793.03
658.849	36869.41
659.2	36755.97
659.551	36758.23
659.902	36811.79
660.253	36704.44
660.604	36759.81
660.955	36601.17
661.306	36706.48
661.656	36706.25
662.007	36739.25
662.358	36677.78
662.708	36630.77
663.059	36775.63
663.409	36351.91
663.76	36665.35
664.11	36765.23
664.461	36701.73
664.811	36812.01
665.161	36599.59
665.511	36647.27
665.862	36729.98
666.212	36698.34
666.562	36721.39
666.912	36548.74
667.262	36520.72
667.612	36534.51
667.962	36531.57
668.312	36480.72
668.662	36588.06
669.011	36481.17
669.361	36480.72
669.711	36459.93
670.06	36372.25
670.41	36399.14
670.76	36301.29
671.109	36363.89
671.459	36344.23
671.808	36257.22
672.157	36344.45
672.507	36032.82
672.856	35932.04
673.205	36118.7
673.554	36145.82
673.904	36140.84
674.253	36173.16
674.602	36080.96
674.951	35516.91
675.3	35399.17
675.649	35979.72
675.998	35975.88
676.346	35944.24
676.695	36095.65
677.044	35783.11
677.393	36028.3
677.741	36045.25
678.09	35871.02
678.438	35731.59
678.787	35863.34
679.135	35875.99
679.484	35607.52
679.832	35766.84
680.181	35471.26
680.529	35513.52
680.877	35454.31
681.225	35433.74
681.573	35719.39
681.922	35209.79
682.27	35165.95
682.618	35289.34
682.966	35085.05
683.314	35296.8
683.661	35000.99
684.009	34825.4
684.357	34781.33
684.705	34880.76
685.053	34800.09
685.4	34814.78
685.748	34503.82
686.095	34447.78
686.443	34477.61
686.79	34403.71
687.138	34311.74
687.485	34476.71
687.832	34351.51
688.18	34288.46
688.527	34091.18
688.874	34102.25
689.221	33990.84
689.568	33834.69
689.915	33735.03
690.262	33837.63
690.609	33650.74
690.956	33549.27
691.303	33672.89
691.65	33399.22
691.997	33496.39
692.344	33142.28
692.69	33249.85
693.037	33179.34
693.383	32943.41
693.73	33106.8
694.077	32879.23
694.423	32843.76
694.769	32623.87
695.116	32573.25
695.462	32604.67
695.808	32457.78
696.155	32467.49
696.501	32220.04
696.847	32234.51
697.193	32131.01
697.539	32177.11
697.885	31967.17
698.231	31950.45
698.577	31861.41
698.923	31900.5
699.269	31628.42
699.614	31618.25
699.96	31570.34
700.306	31362.21
700.651	31358.6
700.997	31211.93
701.342	31182.78
701.688	31187.98
702.033	31071.15
702.379	31026.4
702.724	30798.84
703.069	30948.89
703.415	30510.71
703.76	30598.62
704.105	30486.08
704.45	30492.86
704.795	30366.08
705.14	30222.58
705.485	30328.57
705.83	30169.02
706.175	30106.2
706.52	30037.5
706.865	29941.23
707.209	29888.13
707.554	29755.02
707.899	29797.73
708.243	29597.74
708.588	29581.69
708.932	29338.99
709.277	29455.37
709.621	29405.65
709.966	29207.01
710.31	29252.66
710.654	28991.65
710.998	29160.46
711.342	29160.01
711.687	29037.98
712.031	28916.63
712.375	28783.75
712.719	28803.86
713.063	28766.57
713.407	28943.97
713.75	28587.6
714.094	28623.53
714.438	28441.84
714.782	28460.14
715.125	28401.16
715.469	28416.75
715.812	28232.35
716.156	28066.93
716.499	28164.78
716.843	28057.21
717.186	27850.89
717.53	28057.21
717.873	28039.36
718.216	27925.69
718.559	27791.01
718.902	27643.21
719.246	27603.67
719.589	27442.77
719.932	27437.8
720.275	27389.66
720.617	27355.31
720.96	27335.2
721.303	27398.47
721.646	27233.96
721.989	27052.04
722.331	27157.8
722.674	27127.97
723.016	27150.8
723.359	27129.33
723.701	27162.1
724.044	26885.04
724.386	26728.21
724.729	26935.44
725.071	26958.94
725.413	26792.84
725.755	26818.15
726.097	26679.62
726.439	26648.66
726.782	26652.28
727.124	26786.06
727.465	26531.6
727.807	26554.2
728.149	26399.63
728.491	26375
728.833	26413.64
729.175	26276.24
729.516	26298.39
729.858	26211.16
730.199	26217.04
730.541	26079.64
730.882	26080.32
731.224	26243.7
731.565	25891.4
731.906	25977.49
732.248	25934.56
732.589	25851.85
732.93	25701.57
733.271	25764.17
733.612	25752.19
733.953	25713.32
734.294	25594.91
734.635	25664.28
734.976	25669.93
735.317	25449.83
735.658	25504.51
735.999	25480.78
736.339	25312.43
736.68	25509.94
737.021	25363.73
737.361	25243.73
737.702	25274.46
738.042	25233.33
738.383	25155.82
738.723	25141.58
739.063	24987.69
739.404	25182.49
739.744	25064.75
740.084	24950.63
740.424	25069.95
740.764	24841.93
741.104	25068.14
741.444	24878.09
741.784	24639.23
742.124	24802.38
742.464	24863.17
742.804	24708.15
743.143	24549.74
743.483	24512.22
743.823	24475.39
744.162	24507.48
744.502	24549.06
744.841	24432
745.181	24528.27
745.52	24254.6
745.86	24435.39
746.199	24239.46
746.538	24313.36
746.877	24243.53
747.216	24417.08
747.556	24243.08
747.895	24128.73
748.234	24090.76
748.573	24005.34
748.911	23981.62
749.25	23904.33
749.589	23900.94
749.928	23893.71
750.267	23840.15
750.605	23796.54
750.944	23738.46
751.283	23624.34
751.621	23573.49
751.96	23559.03
752.298	23632.47
752.636	23539.82
752.975	23402.65
753.313	23287.85
753.651	23434.06
