Data from foam2_polystyrene_foam_FLMS001491_00059.txt Node
Date: Wed Feb 08 10:58:10 GMT 2017
User: dcchb
Spectrometer: FLMS00149
Trigger mode: 0
Integration Time (sec): 2.000000E-2
Scans to average: 10
Electric dark correction enabled: true
Nonlinearity correction enabled: false
Boxcar width: 0
XAxis mode: Wavelengths
Number of Pixels in Spectrum: 2048
>>>>>Begin Spectral Data<<<<<
341.393	-18.74
341.776	-18.74
342.16	-18.74
342.543	-49.93
342.927	-62.13
343.31	-64.84
343.693	-63.71
344.077	-53.77
344.46	-45.86
344.843	-53.77
345.226	-32.53
345.61	-32.08
345.993	-11.29
346.376	-16.71
346.759	19
347.142	18.77
347.525	42.5
347.908	51.99
348.291	81.82
348.674	78.43
349.057	82.05
349.44	135.38
349.823	131.31
350.206	179.9
350.588	195.04
350.971	207.01
351.354	239.1
351.737	241.14
352.119	247.47
352.502	270.97
352.884	284.3
353.267	299.67
353.65	287.92
354.032	318.88
354.414	299.67
354.797	306.45
355.179	324.53
355.562	342.38
355.944	367.91
356.326	322.27
356.709	332.43
357.091	363.17
357.473	357.74
357.855	355.94
358.238	356.16
358.62	360
359.002	343.06
359.384	365.43
359.766	355.71
360.148	367.46
360.53	339.67
360.912	369.04
361.294	349.16
361.676	373.11
362.057	328.37
362.439	345.09
362.821	339.44
363.203	340.8
363.584	345.09
363.966	354.58
364.348	338.54
364.729	336.73
365.111	330.85
365.493	350.51
365.874	332.43
366.256	338.08
366.637	319.33
367.019	344.86
367.4	346.45
367.781	348.71
368.163	354.58
368.544	331.3
368.925	336.73
369.306	345.09
369.688	334.24
370.069	334.92
370.45	345.77
370.831	324.53
371.212	355.94
371.593	335.15
371.974	347.12
372.355	360.91
372.736	348.48
373.117	357.74
373.498	350.97
373.879	357.29
374.26	356.84
374.641	351.19
375.021	324.53
375.402	369.5
375.783	381.25
376.163	389.16
376.544	372.66
376.925	368.59
377.305	361.36
377.686	341.7
378.066	368.14
378.447	376.5
378.827	388.93
379.208	389.38
379.588	377.18
379.968	380.8
380.349	400.46
380.729	388.7
381.109	400.23
381.489	384.41
381.87	398.65
382.25	402.49
382.63	391.87
383.01	401.59
383.39	410.62
383.77	397.74
384.15	408.36
384.53	415.37
384.91	428.03
385.29	407.69
385.67	416.95
386.049	445.88
386.429	438.42
386.809	430.06
387.189	433.68
387.568	437.97
387.948	449.04
388.328	418.99
388.707	440.45
389.087	468.93
389.466	458.76
389.846	442.26
390.225	468.7
390.605	446.1
390.984	472.54
391.363	460.79
391.743	485.88
392.122	468.25
392.501	473.67
392.881	493.79
393.26	501.24
393.639	480.68
394.018	508.7
394.397	519.1
394.776	507.57
395.155	525.65
395.534	519.32
395.913	523.84
396.292	511.64
396.671	521.81
397.05	522.26
397.429	530.62
397.808	533.33
398.186	521.58
398.565	542.15
398.944	545.99
399.323	568.59
399.701	560.23
400.08	529.72
400.458	565.2
400.837	555.25
401.215	585.54
401.594	589.38
401.972	565.65
402.351	611.98
402.729	581.02
403.107	574.24
403.486	589.6
403.864	596.38
404.242	589.83
404.62	586.67
404.999	604.52
405.377	596.83
405.755	625.08
406.133	629.83
406.511	653.78
406.889	639.32
407.267	663.5
407.645	654.01
408.023	638.19
408.401	687
408.779	691.3
409.156	710.5
409.534	685.87
409.912	683.61
410.29	716.83
410.667	728.36
411.045	713.44
411.422	709.6
411.8	734.23
412.178	735.36
412.555	748.24
412.933	745.98
413.31	770.62
413.687	793.89
414.065	776.49
414.442	798.19
414.819	785.08
415.197	811.52
415.574	811.07
415.951	823.27
416.328	832.76
416.705	817.17
417.082	835.92
417.46	826.66
417.837	863.95
418.214	842.48
418.591	873.21
418.967	867.34
419.344	864.17
419.721	893.1
420.098	886.77
420.475	914.11
420.852	887.45
421.228	930.61
421.605	933.32
421.982	940.55
422.358	930.84
422.735	950.95
423.111	944.4
423.488	981.01
423.864	965.19
424.241	981.46
424.617	992.98
424.994	991.85
425.37	990.27
425.746	1012.19
426.123	1009.03
426.499	1029.37
426.875	1025.98
427.251	1062.81
427.627	1083.38
428.003	1105.07
428.379	1120.89
428.756	1087.67
429.132	1129.25
429.507	1146.2
429.883	1151.85
430.259	1168.12
430.635	1189.81
431.011	1166.54
431.387	1198.85
431.763	1217.61
432.138	1215.12
432.514	1252.86
432.89	1246.76
433.265	1283.14
433.641	1319.08
434.016	1304.16
434.392	1300.32
434.767	1335.8
435.143	1367.44
435.518	1359.07
435.894	1397.27
436.269	1392.07
436.644	1421.67
437.02	1434.33
437.395	1429.36
437.77	1446.76
438.145	1452.63
438.52	1495.12
438.895	1495.34
439.271	1527.88
439.646	1552.06
440.021	1566.3
440.395	1553.19
440.77	1543.7
441.145	1560.88
441.52	1599.29
441.895	1620.54
442.27	1632.51
442.645	1628.9
443.019	1645.62
443.394	1661.44
443.769	1648.33
444.143	1696.24
444.518	1710.93
444.892	1685.62
445.267	1700.31
445.641	1704.15
446.016	1763.36
446.39	1731.27
446.764	1752.06
447.139	1784.15
447.513	1833.41
447.887	1826.41
448.262	1824.6
448.636	1798.38
449.01	1834.32
449.384	1895.56
449.758	1869.8
450.132	1908.21
450.506	1923.35
450.88	1931.49
451.254	1950.47
451.628	1986.85
452.002	1970.13
452.376	1977.82
452.75	2022.33
453.123	2019.62
453.497	2085.83
453.871	2047.87
454.244	2089.9
454.618	2141.65
454.992	2166.74
455.365	2160.86
455.739	2241.76
456.112	2222.1
456.486	2251.03
456.859	2251.03
457.232	2280.86
457.606	2313.63
457.979	2292.38
458.352	2366.28
458.725	2343.23
459.099	2370.35
459.472	2455.77
459.845	2457.12
460.218	2473.85
460.591	2468.42
460.964	2515.43
461.337	2572.83
461.71	2605.14
462.083	2640.17
462.456	2621.19
462.829	2649.66
463.201	2690.56
463.574	2695.08
463.947	2721.52
464.32	2780.28
464.692	2820.96
465.065	2820.96
465.438	2843.33
465.81	2853.5
466.183	2949.32
466.555	2986.6
466.928	2962.42
467.3	3045.13
467.672	3044
468.045	3162.42
468.417	3171.46
468.789	3204.45
469.161	3172.36
469.534	3255.52
469.906	3322.19
470.278	3328.74
470.65	3352.24
471.022	3432.01
471.394	3496.65
471.766	3501.17
472.138	3585
472.51	3600.15
472.882	3643.08
473.253	3707.94
473.625	3789.52
473.997	3792.91
474.369	3845.34
474.74	3881.49
475.112	3986.8
475.484	4010.76
475.855	4051.88
476.227	4127.14
476.598	4203.07
476.97	4223.63
477.341	4359.22
477.713	4386.34
478.084	4445.77
478.455	4564.41
478.827	4610.06
479.198	4718.53
479.569	4716.5
479.94	4874.69
480.311	4893.67
480.682	5015.48
481.053	5060.22
481.424	5198.97
481.795	5239.65
482.166	5290.95
482.537	5441.68
482.908	5475.8
483.279	5532.07
483.65	5645.52
484.021	5751.28
484.391	5797.6
484.762	5848.22
485.133	5906.3
485.503	5998.73
485.874	6101.32
486.244	6173.19
486.615	6356.91
486.985	6361.43
487.356	6496.34
487.726	6518.94
488.097	6647.75
488.467	6743.57
488.837	6766.16
489.207	6944.69
489.578	7023.78
489.948	7078.7
490.318	7190.11
490.688	7167.74
491.058	7268.3
491.428	7423.77
491.798	7480.04
492.168	7671.9
492.538	7688.63
492.908	7816.08
493.278	7864.21
493.648	7890.43
494.017	8000.71
494.387	8071.44
494.757	8180.82
495.126	8196.18
495.496	8228.05
495.866	8327.25
496.235	8408.61
496.605	8454.03
496.974	8498.32
497.344	8644.31
497.713	8667.36
498.082	8706.9
498.452	8848.14
498.821	8898.54
499.19	8985.77
499.559	8992.32
499.928	9043.39
500.298	9064.18
500.667	9152.32
501.036	9237.96
501.405	9253.33
501.774	9370.39
502.143	9468.92
502.512	9408.35
502.88	9581.01
503.249	9606.77
503.618	9715.69
503.987	9753.43
504.356	9880.88
504.724	9902.58
505.093	9871.17
505.462	10000.43
505.83	10122.69
506.199	10108.9
506.567	10241.55
506.936	10249.91
507.304	10381.66
507.672	10493.75
508.041	10505.27
508.409	10536.46
508.777	10656.01
509.145	10751.14
509.514	10730.81
509.882	10803.12
510.25	10867.98
510.618	10908.2
510.986	11031.59
511.354	11030.23
511.722	11173.05
512.09	11350
512.458	11341.41
512.826	11466.15
513.193	11523.55
513.561	11554.74
513.929	11673.38
514.297	11733.94
514.664	11858.46
515.032	11908.18
515.4	12032.01
515.767	12083.31
516.135	12108.17
516.502	12151.33
516.869	12390.2
517.237	12417.31
517.604	12399.69
517.972	12518.78
518.339	12631.32
518.706	12633.13
519.073	12741.15
519.44	12850.75
519.808	13039.67
520.175	12910.64
520.542	13153.79
520.909	13223.4
521.276	13347.01
521.643	13460.45
522.009	13567.79
522.376	13658.64
522.743	13702.25
523.11	13876.94
523.477	13992.19
523.843	14079.87
524.21	14226.76
524.577	14326.87
524.943	14439.86
525.31	14544.26
525.676	14651.61
526.043	14675.11
526.409	14850.47
526.776	15010.01
527.142	14995.78
527.508	15066.96
527.874	15197.58
528.241	15333.85
528.607	15459.27
528.973	15512.6
529.339	15482.32
529.705	15716.89
530.071	15835.53
530.437	15843.89
530.803	15922.76
531.169	16097.22
531.535	16119.82
531.901	16096.54
532.267	16270.32
532.632	16277.78
532.998	16409.3
533.364	16509.64
533.73	16611.33
534.095	16661.04
534.461	16822.4
534.826	16893.58
535.192	16975.61
535.557	17120.92
535.923	17157.53
536.288	17140.81
536.653	17287.24
537.019	17331.08
537.384	17240.92
537.749	17453.11
538.114	17480.46
538.479	17561.59
538.845	17615.14
539.21	17642.04
539.575	17689.27
539.94	17797.74
540.305	17929.49
540.67	17839.32
541.034	18080.89
541.399	17991.18
541.764	18169.48
542.129	18217.39
542.494	18296.03
542.858	18336.93
543.223	18388.68
543.587	18546.65
543.952	18501.67
544.316	18491.51
544.681	18475.46
545.045	18660.77
545.41	18750.93
545.774	18712.29
546.138	18745.51
546.503	18854.89
546.867	18953.87
547.231	19021.21
547.595	19185.72
547.959	19223.92
548.324	19265.5
548.688	19292.61
549.052	19396.79
549.416	19425.72
549.779	19433.4
550.143	19540.74
550.507	19708.65
550.871	19773.28
551.235	19802.88
551.599	20046.72
551.962	19924.24
552.326	20065.7
552.689	20144.8
553.053	20088.53
553.417	20137.79
553.78	20481.74
554.143	20282.64
554.507	20505.24
554.87	20537.1
555.234	20734.38
555.597	20616.87
555.96	20801.95
556.323	20959.24
556.686	20952.46
557.05	21049.63
557.413	21125.11
557.776	21154.49
558.139	21233.13
558.502	21394.71
558.865	21458.43
559.228	21602.16
559.59	21642.83
559.953	21677.64
560.316	21948.14
560.679	21980
561.041	22104.52
561.404	22205.76
561.767	22287.56
562.129	22180.45
562.492	22430.61
562.854	22451.63
563.217	22538.4
563.579	22563.49
563.941	22804.39
564.304	22829.92
564.666	22914.44
565.028	23086.86
565.39	23067.88
565.753	23393.3
566.115	23297.03
566.477	23426.52
566.839	23506.06
567.201	23722.1
567.563	23795.09
567.925	23833.51
568.287	23947.63
568.648	23969.55
569.01	24156.44
569.372	24296.78
569.734	24121.64
570.095	24433.27
570.457	24517.56
570.819	24639.37
571.18	24512.82
571.542	24694.96
571.903	24673.49
572.265	24738.35
572.626	24899.02
572.987	24874.39
573.349	25021.05
573.71	24974.05
574.071	25018.57
574.432	25171.56
574.794	25360.48
575.155	25318.44
575.516	25272.34
575.877	25442.73
576.238	25480.02
576.599	25687.02
576.96	25517.76
577.32	25537.65
577.681	25696.74
578.042	25783.52
578.403	25763.18
578.763	25807.92
579.124	25887.24
579.485	25896.51
579.845	25942.16
580.206	25960.01
580.566	25995.04
580.927	25928.6
581.287	26160
581.648	25946.9
582.008	26197.29
582.368	26148.03
582.728	26101.47
583.089	26252.21
583.449	26226.67
583.809	26144.86
584.169	26226.44
584.529	26155.03
584.889	26329.72
585.249	26119.33
585.609	26176.73
585.969	26171.53
586.329	26159.33
586.688	26214.01
587.048	26206.1
587.408	26158.87
587.768	26206.78
588.127	26142.15
588.487	26090.63
588.846	26334.24
589.206	26098.08
589.565	26222.38
589.925	26383.28
590.284	26187.57
590.643	26239.78
591.003	26232.77
591.362	26309.38
591.721	26202.71
592.08	26322.94
592.44	26355.71
592.799	26297.18
593.158	26382.15
593.517	26207.69
593.876	26365.42
594.235	26303.73
594.593	26418.53
594.952	26439.32
595.311	26436.83
595.67	26314.35
596.029	26504.85
596.387	26574.68
596.746	26591.86
597.104	26439.77
597.463	26500.33
597.822	26559.09
598.18	26522.25
598.538	26501.69
598.897	26588.24
599.255	26322.71
599.613	26760.89
599.972	26552.31
600.33	26712.31
600.688	26616.72
601.046	26720.22
601.404	26906.65
601.762	26801.12
602.12	26976.71
602.478	26845.18
602.836	26992.98
603.194	26779.65
603.552	26886.76
603.91	26801.57
604.268	27004.95
604.625	26871.62
604.983	27043.37
605.341	26779.2
605.698	27062.13
606.056	27081.11
606.413	26980.1
606.771	27215.8
607.128	27066.65
607.485	27025.52
607.843	27196.81
608.2	27259.86
608.557	27326.75
608.914	27127.66
609.272	27272.52
609.629	27300.54
609.986	27461.21
610.343	27223.71
610.7	27489.69
611.057	27507.09
611.414	27421.21
611.771	27477.48
612.127	27564.26
612.484	27587.76
612.841	27612.4
613.198	27533.53
613.554	27507.77
613.911	27671.83
614.267	27703.01
614.624	27621.43
614.98	27733.52
615.337	27886.06
615.693	27834.76
616.05	27733.3
616.406	27805.61
616.762	27812.16
617.118	27916.12
617.475	27842.45
617.831	27997.92
618.187	27928.32
618.543	27900.52
618.899	28138.71
619.255	28003.35
619.611	28015.55
619.967	28105.26
620.323	28175.77
620.678	28080.86
621.034	27988.43
621.39	27970.8
621.746	27984.14
622.101	28169.67
622.457	28052.38
622.812	28108.88
623.168	28153.85
623.523	28181.42
623.879	28171.25
624.234	27946.85
624.589	28075.21
624.945	28086.28
625.3	28114.3
625.655	28156.11
626.01	28043.57
626.365	28062.33
626.72	28153.17
627.075	28088.32
627.43	28117.92
627.785	28027.3
628.14	28029.33
628.495	28121.53
628.85	27947.08
629.205	27939.39
629.559	28107.3
629.914	27900.75
630.269	28014.42
630.623	27924.7
630.978	27854.2
631.332	28022.1
631.687	28017.36
632.041	27837.93
632.396	27811.71
632.75	27769.68
633.104	27777.14
633.459	27621.89
633.813	27658.72
634.167	27594.32
634.521	27594.09
634.875	27730.81
635.229	27500.31
635.583	27458.05
635.937	27419.63
636.291	27416.69
636.645	27368.11
636.999	27424.38
637.352	27415.11
637.706	27172.41
638.06	27427.09
638.413	27244.04
638.767	27272.07
639.121	27253.08
639.474	26997.27
639.828	27180.77
640.181	27142.58
640.534	27076.82
640.888	26987.55
641.241	26818.74
641.594	26931.06
641.947	26895.35
642.301	26862.36
642.654	26840.66
643.007	26820.1
643.36	26717.05
643.713	26674.34
644.066	26721.57
644.419	26642.48
644.771	26427.12
645.124	26141.02
645.477	25997.97
645.83	25909.84
646.182	25813.35
646.535	25783.97
646.888	25864.19
647.24	25710.52
647.593	25758.43
647.945	25712.11
648.298	25557.76
648.65	25449.97
649.002	25415.17
649.355	25544.88
649.707	25549.62
650.059	25629.4
650.411	26052.66
650.763	25992.33
651.115	26215.6
651.467	26077.07
651.819	26106.45
652.171	26020.57
652.523	25966.34
652.875	25951.2
653.227	25864.64
653.578	26026.22
653.93	25960.01
654.282	25989.16
654.633	25856.96
654.985	25877.07
655.337	25835.49
655.688	25849.05
656.039	25918.88
656.391	25823.29
656.742	25747.13
657.094	25821.48
657.445	25844.98
657.796	25731.77
658.147	25610.41
658.498	25695.84
658.849	25787.81
659.2	25741.71
659.551	25501.94
659.902	25694.93
660.253	25563.18
660.604	25608.15
660.955	25491.32
661.306	25595.05
661.656	25473.92
662.007	25563.86
662.358	25414.26
662.708	25490.19
663.059	25472.79
663.409	25185.57
663.76	25535.84
664.11	25450.19
664.461	25524.99
664.811	25436.86
665.161	25452
665.511	25389.18
665.862	25361.16
666.212	25511.66
666.562	25455.16
666.912	25315.73
667.262	25370.65
667.612	25418.33
667.962	25329.97
668.312	25319.12
668.662	25454.03
669.011	25352.34
669.361	25259.46
669.711	25231.67
670.06	25315.96
670.41	25152.8
670.76	25221.27
671.109	25221.95
671.459	25220.59
671.808	25073.71
672.157	25210.2
672.507	25052.46
672.856	25025.8
673.205	25007.49
673.554	25110.99
673.904	25069.64
674.253	25056.53
674.602	24968.17
674.951	24651.12
675.3	24509.43
675.649	24920.71
675.998	24868.06
676.346	24918.68
676.695	25012.01
677.044	24804.79
677.393	24899.25
677.741	24965.91
678.09	24885.69
678.438	24758.23
678.787	24799.36
679.135	24967.95
679.484	24697.9
679.832	24854.5
680.181	24735.63
680.529	24766.37
680.877	24643.21
681.225	24595.75
681.573	24687.27
681.922	24554.17
682.27	24458.58
682.618	24464.46
682.966	24387.4
683.314	24412.48
683.661	24411.58
684.009	24293.84
684.357	24185.14
684.705	24192.37
685.053	24268.3
685.4	24211.35
685.748	24002.09
686.095	24023.34
686.443	23972.94
686.79	23865.15
687.138	23930.01
687.485	23966.84
687.832	23839.84
688.18	23849.1
688.527	23676.45
688.874	23680.52
689.221	23614.76
689.568	23543.8
689.915	23624.93
690.262	23479.62
690.609	23463.35
690.956	23369.8
691.303	23385.16
691.65	23201.66
691.997	23263.58
692.344	23106.3
692.69	23180.65
693.037	23104.94
693.383	22906.98
693.73	22992.86
694.077	22900.88
694.423	22812.97
694.769	22863.37
695.116	22702.92
695.462	22634.45
695.808	22649.36
696.155	22567.78
696.501	22463.38
696.847	22468.8
697.193	22302.48
697.539	22351.06
697.885	22196.94
698.231	22067.68
698.577	22170.96
698.923	22050.51
699.269	22038.3
699.614	21879.21
699.96	21854.81
700.306	21769.61
700.651	21799.21
700.997	21644.19
701.342	21629.95
701.688	21673.79
702.033	21441.71
702.379	21529.62
702.724	21424.99
703.069	21490.97
703.415	21295.5
703.76	21254.6
704.105	21310.87
704.45	21176.63
704.795	21119.46
705.14	20961.5
705.485	20938.45
705.83	20803.31
706.175	20909.97
706.52	20865.45
706.865	20853.25
707.209	20690.32
707.554	20630.43
707.899	20713.82
708.243	20451.91
708.588	20437.89
708.932	20412.58
709.277	20372.13
709.621	20343.43
709.966	20155.87
710.31	20250.1
710.654	20042.42
710.998	20205.58
711.342	20094.4
711.687	20050.33
712.031	19947.96
712.375	19850.34
712.719	19908.64
713.063	19791.13
713.407	19847.85
713.75	19879.72
714.094	19748.42
714.438	19712.26
714.782	19626.16
715.125	19647.86
715.469	19650.8
715.812	19596.56
716.156	19453.97
716.499	19416.68
716.843	19445.15
717.186	19293.52
717.53	19434.98
717.873	19411.48
718.216	19354.99
718.559	19313.86
718.902	19148.66
719.246	19188.44
719.589	19213.07
719.932	19182.79
720.275	19058.27
720.617	19103.69
720.96	18994.54
721.303	19057.59
721.646	18980.98
721.989	18842.91
722.331	18842
722.674	18807.43
723.016	18854.21
723.359	18721.56
723.701	18719.52
724.044	18627.77
724.386	18571.73
724.729	18664.83
725.071	18646.53
725.413	18639.75
725.755	18555.46
726.097	18437.5
726.439	18360.89
726.782	18401.56
727.124	18423.94
727.465	18338.74
727.807	18263.94
728.149	18312.3
728.491	18248.35
728.833	18264.62
729.175	18213.09
729.516	18131.29
729.858	18080.89
730.199	18034.79
730.541	18070.05
730.882	18011.07
731.224	18054.91
731.565	17929.94
731.906	17950.95
732.248	17873.89
732.589	17855.59
732.93	17748.02
733.271	17794.8
733.612	17824.4
733.953	17847.68
734.294	17736.27
734.635	17662.83
734.976	17642.49
735.317	17575.37
735.658	17572.89
735.999	17691.3
736.339	17433
736.68	17619.21
737.021	17576.5
737.361	17427.13
737.702	17464.19
738.042	17510.29
738.383	17291.08
738.723	17477.75
739.063	17323.4
739.404	17364.08
739.744	17423.96
740.084	17241.37
740.424	17334.25
740.764	17213.57
741.104	17317.52
741.444	17155.5
741.784	17070.07
742.124	17201.14
742.464	17119.11
742.804	17044.54
743.143	16977.65
743.483	16956.86
743.823	16929.74
744.162	16908.27
744.502	16939.23
744.841	16797.31
745.181	16886.8
745.52	16868.05
745.86	16789.63
746.199	16786.92
746.538	16746.47
746.877	16738.78
747.216	16709.63
747.556	16604.55
747.895	16559.13
748.234	16514.16
748.573	16450.88
748.911	16470.77
749.25	16572.46
749.589	16440.49
749.928	16457.21
750.267	16479.81
750.605	16338.34
750.944	16409.07
751.283	16230.1
751.621	16264.67
751.96	16241.85
752.298	16170.89
752.636	16133.6
752.975	16163.43
753.313	16136.54
753.651	16181.28
753.989	15985.13
754.327	15945.13
754.666	15878.92
755.004	15894.74
