Data from foam1_polythene_foam_FLMS001491_00024.txt Node
Date: Wed Feb 08 10:54:36 GMT 2017
User: dcchb
Spectrometer: FLMS00149
Trigger mode: 0
Integration Time (sec): 2.000000E-2
Scans to average: 10
Electric dark correction enabled: true
Nonlinearity correction enabled: false
Boxcar width: 0
XAxis mode: Wavelengths
Number of Pixels in Spectrum: 2048
>>>>>Begin Spectral Data<<<<<
341.393	-18.01
341.776	-18.01
342.16	-18.01
342.543	-60.94
342.927	-67.72
343.31	-66.82
343.693	-53.94
344.077	-58.23
344.46	-63.88
344.843	-59.81
345.226	-35.41
345.61	-32.92
345.993	-0.16
346.376	-4.45
346.759	2.56
347.142	9.34
347.525	18.6
347.908	68.32
348.291	70.58
348.674	96.79
349.057	109.45
349.44	124.81
349.823	145.6
350.206	148.32
350.588	181.76
350.971	212.27
351.354	204.13
351.737	220.86
352.119	236.45
352.502	262.89
352.884	235.54
353.267	257.92
353.65	280.74
354.032	265.37
354.414	274.19
354.797	294.3
355.179	288.88
355.562	298.59
355.944	323.45
356.326	311.02
356.709	310.12
357.091	307.18
357.473	315.77
357.855	301.31
358.238	345.15
358.62	308.54
359.002	301.76
359.384	313.73
359.766	316.45
360.148	319.16
360.53	315.99
360.912	283.23
361.294	334.98
361.676	326.84
362.057	306.5
362.439	294.98
362.821	295.88
363.203	317.58
363.584	298.14
363.966	290.91
364.348	313.73
364.729	301.31
365.111	293.4
365.493	293.17
365.874	309.22
366.256	297.01
366.637	306.28
367.019	309.44
367.4	311.7
367.781	314.64
368.163	289.78
368.544	292.49
368.925	300.4
369.306	310.57
369.688	287.29
370.069	281.42
370.45	289.78
370.831	294.75
371.212	304.24
371.593	292.04
371.974	270.57
372.355	279.61
372.736	312.38
373.117	290.01
373.498	289.78
373.879	287.52
374.26	280.74
374.641	300.85
375.021	290.01
375.402	309.67
375.783	301.98
376.163	314.19
376.544	297.46
376.925	291.59
377.305	299.27
377.686	315.77
378.066	305.15
378.447	319.84
378.827	300.85
379.208	299.27
379.588	300.63
379.968	332.49
380.349	330.46
380.729	320.06
381.109	313.51
381.489	313.06
381.87	309.67
382.25	334.3
382.63	304.7
383.01	321.42
383.39	301.98
383.77	319.38
384.15	316.45
384.53	319.61
384.91	327.97
385.29	337.46
385.67	313.96
386.049	311.93
386.429	333.85
386.809	325.94
387.189	327.52
387.568	325.26
387.948	325.49
388.328	337.01
388.707	327.52
389.087	333.4
389.466	350.12
389.846	339.04
390.225	361.42
390.605	348.31
390.984	329.55
391.363	349.21
391.743	344.92
392.122	325.94
392.501	338.37
392.881	378.14
393.26	365.94
393.639	372.49
394.018	334.07
394.397	350.8
394.776	352.83
395.155	356.22
395.534	349.89
395.913	372.26
396.292	384.92
396.671	384.47
397.05	361.87
397.429	375.2
397.808	366.39
398.186	385.15
398.565	376.78
398.944	388.08
399.323	374.98
399.701	401.19
400.08	394.64
400.458	376.78
400.837	374.07
401.215	388.31
401.594	405.94
401.972	379.72
402.351	384.69
402.729	387.41
403.107	395.54
403.486	409.78
403.864	408.42
404.242	394.41
404.62	402.32
404.999	390.57
405.377	418.36
405.755	428.08
406.133	413.85
406.511	402.32
406.889	410.46
407.267	415.65
407.645	426.73
408.023	434.18
408.401	416.33
408.779	423.34
409.156	434.64
409.534	430.57
409.912	433.05
410.29	446.61
410.667	431.92
411.045	437.8
411.422	455.88
411.8	452.49
412.178	456.1
412.555	452.04
412.933	465.14
413.31	477.35
413.687	487.52
414.065	470.79
414.442	471.47
414.819	474.18
415.197	473.5
415.574	448.65
415.951	483.45
416.328	481.87
416.705	462.88
417.082	470.57
417.46	492.04
417.837	504.92
418.214	485.03
418.591	495.42
418.967	513.28
419.344	509.44
419.721	499.94
420.098	504.46
420.475	495.88
420.852	509.89
421.228	492.04
421.605	507.4
421.982	506.72
422.358	512.15
422.735	527.74
423.111	540.17
423.488	531.36
423.864	533.39
424.241	548.76
424.617	545.14
424.994	550.11
425.37	573.16
425.746	540.62
426.123	545.37
426.499	564.8
426.875	578.59
427.251	582.2
427.627	582.88
428.003	589.21
428.379	584.46
428.756	585.59
429.132	595.99
429.507	616.55
429.883	584.91
430.259	606.38
430.635	602.09
431.011	611.81
431.387	625.36
431.763	649.55
432.138	622.88
432.514	625.82
432.89	634.18
433.265	642.99
433.641	672.82
434.016	661.97
434.392	659.04
434.767	680.73
435.143	686.38
435.518	675.76
435.894	687.28
436.269	686.15
436.644	704.46
437.02	704.91
437.395	713.05
437.77	714.85
438.145	725.48
438.52	764.12
438.895	759.6
439.271	747.17
439.646	751.46
440.021	783.1
440.395	777.45
440.77	799.37
441.145	789.43
441.52	795.08
441.895	802.08
442.27	811.8
442.645	803.67
443.019	824.91
443.394	832.82
443.769	824.68
444.143	829.88
444.518	830.78
444.892	828.07
445.267	843.66
445.641	870.56
446.016	841.86
446.39	863.32
446.764	882.99
447.139	854.06
447.513	886.6
447.887	882.08
448.262	888.41
448.636	877.56
449.01	922.76
449.384	908.3
449.758	939.03
450.132	920.5
450.506	959.14
450.88	945.36
451.254	947.84
451.628	973.6
452.002	984.45
452.376	958.46
452.75	974.06
453.123	988.97
453.497	992.13
453.871	993.72
454.244	980.38
454.618	1020.16
454.992	1015.64
455.365	999.59
455.739	1044.56
456.112	1037.56
456.486	1039.82
456.859	1045.24
457.232	1058.35
457.606	1091.79
457.979	1094.05
458.352	1080.95
458.725	1124.56
459.099	1118.91
459.472	1130.44
459.845	1134.28
460.218	1120.95
460.591	1133.6
460.964	1170.44
461.337	1141.51
461.71	1202.3
462.083	1188.74
462.456	1202.52
462.829	1186.25
463.201	1222.64
463.574	1245.24
463.947	1237.78
464.32	1252.47
464.692	1265.35
465.065	1226.71
465.438	1278.46
465.81	1269.87
466.183	1292.01
466.555	1336.31
466.928	1305.35
467.3	1294.27
467.672	1312.13
468.045	1366.36
468.417	1363.2
468.789	1362.52
469.161	1364.78
469.534	1398.9
469.906	1423.99
470.278	1438.22
470.65	1450.2
471.022	1478
471.394	1485.46
471.766	1501.05
472.138	1546.02
472.51	1548.73
472.882	1568.84
473.253	1577.43
473.625	1592.8
473.997	1610.2
474.369	1608.16
474.74	1640.93
475.112	1670.08
475.484	1687.03
475.855	1732.91
476.227	1735.84
476.598	1756.86
476.97	1803.86
477.341	1785.33
477.713	1827.14
478.084	1845.22
478.455	1885.67
478.827	1867.59
479.198	1953.47
479.569	1920.02
479.94	1985.1
480.311	2008.15
480.682	1998.89
481.053	2095.16
481.424	2113.46
481.795	2099
482.166	2147.36
482.537	2169.73
482.908	2226
483.279	2241.37
483.65	2257.19
484.021	2349.39
484.391	2340.35
484.762	2373.79
485.133	2411.53
485.503	2402.27
485.874	2450.63
486.244	2480.01
486.615	2469.38
486.985	2559.55
487.356	2557.74
487.726	2602.71
488.097	2667.8
488.467	2675.03
488.837	2687.01
489.207	2773.78
489.578	2769.04
489.948	2778.75
490.318	2802.71
490.688	2818.08
491.058	2893.78
491.428	2928.58
491.798	2959.09
492.168	2981.46
492.538	3051.52
492.908	3057.84
493.278	3108.69
493.648	3081.35
494.017	3114.79
494.387	3179.2
494.757	3176.48
495.126	3235.47
495.496	3247.67
495.866	3259.42
496.235	3317.95
496.605	3252.87
496.974	3365.41
497.344	3361.34
497.713	3421.68
498.082	3416.25
498.452	3438.4
498.821	3459.41
499.19	3485.18
499.559	3509.58
499.928	3508.45
500.298	3545.06
500.667	3597.94
501.036	3583.71
501.405	3653.76
501.774	3632.29
502.143	3677.49
502.512	3688.34
502.88	3740.99
503.249	3752.97
503.618	3783.02
503.987	3791.16
504.356	3814.21
504.724	3909.12
505.093	3896.01
505.462	3893.53
505.83	3924.94
506.199	3919.52
506.567	4002.23
506.936	3990.02
507.304	4037.48
507.672	4053.3
508.041	4036.57
508.409	4155.89
508.777	4159.51
509.145	4196.12
509.514	4225.04
509.882	4244.25
510.25	4281.09
510.618	4274.31
510.986	4314.99
511.354	4328.32
511.722	4382.78
512.09	4390.69
512.458	4390.46
512.826	4489.22
513.193	4486.96
513.561	4499.39
513.929	4525.38
514.297	4549.78
514.664	4591.59
515.032	4644.69
515.4	4658.71
515.767	4648.76
516.135	4688.99
516.502	4719.27
516.869	4778.02
517.237	4817.8
517.604	4781.19
517.972	4869.55
518.339	4941.18
518.706	4963.33
519.073	4889.43
519.44	4954.52
519.808	5021.18
520.175	4982.99
520.542	5083.78
520.909	5126.72
521.276	5192.48
521.643	5181.63
522.009	5244
522.376	5294.17
522.743	5284.68
523.11	5358.8
523.477	5380.49
523.843	5476.08
524.21	5437.89
524.577	5540.49
524.943	5554.95
525.31	5617.78
525.676	5613.26
526.043	5655.52
526.409	5719.02
526.776	5703.65
527.142	5765.12
527.508	5852.12
527.874	5876.3
528.241	5881.27
528.607	5930.54
528.973	5911.33
529.339	5889.63
529.705	5998.56
530.071	6091.21
530.437	6095.05
530.803	6119.01
531.169	6184.09
531.535	6236.52
531.901	6183.86
532.267	6216.18
532.632	6262.73
532.998	6269.28
533.364	6290.75
533.73	6340.47
534.095	6379.56
534.461	6451.2
534.826	6409.62
535.192	6503.4
535.557	6511.54
535.923	6570.07
536.288	6578.65
536.653	6596.96
537.019	6593.34
537.384	6582.95
537.749	6684.19
538.114	6671.76
538.479	6719.44
538.845	6704.53
539.21	6725.32
539.575	6836.73
539.94	6857.74
540.305	6876.5
540.67	6803.28
541.034	6891.87
541.399	6923.05
541.764	6927.12
542.129	6932.09
542.494	6982.26
542.858	6994.91
543.223	7050.05
543.587	7053.9
543.952	7069.94
544.316	7099.54
544.681	7050.51
545.045	7143.39
545.41	7151.07
545.774	7139.54
546.138	7196.72
546.503	7222.71
546.867	7157.62
547.231	7231.52
547.595	7247.79
547.959	7329.82
548.324	7281.24
548.688	7338.86
549.052	7396.49
549.416	7368.69
549.779	7394.45
550.143	7431.97
550.507	7436.03
550.871	7502.02
551.235	7544.96
551.599	7576.37
551.962	7572.98
552.326	7614.79
552.689	7622.47
553.053	7630.15
553.417	7661.56
553.78	7748.34
554.143	7723.03
554.507	7770.26
554.87	7802.13
555.234	7829.7
555.597	7848
555.96	7870.37
556.323	7933.65
556.686	7947.43
557.05	8004.83
557.413	8036.92
557.776	8017.26
558.139	8036.92
558.502	8113.53
558.865	8077.82
559.228	8175
559.59	8225.84
559.953	8148.78
560.316	8296.35
560.679	8336.8
561.041	8356.46
561.404	8393.97
561.767	8404.37
562.129	8417.93
562.492	8544.48
562.854	8464.25
563.217	8519.39
563.579	8532.95
563.941	8601.2
564.304	8565.04
564.666	8656.79
565.028	8686.4
565.39	8743.8
565.753	8796.68
566.115	8859.27
566.477	8878.93
566.839	8866.05
567.201	8974.75
567.563	8945.37
567.925	8993.51
568.287	9063.79
568.648	9052.04
569.01	9085.03
569.372	9131.81
569.734	9118.93
570.095	9252.93
570.457	9233.5
570.819	9238.7
571.18	9301.52
571.542	9350.79
571.903	9335.64
572.265	9423.33
572.626	9349.2
572.987	9422.65
573.349	9440.73
573.71	9477.34
574.071	9486.37
574.432	9521.85
574.794	9581.29
575.155	9564.11
575.516	9553.49
575.877	9627.16
576.238	9577.45
576.599	9669.65
576.96	9646.82
577.32	9704.22
577.681	9673.26
578.042	9694.28
578.403	9724.33
578.763	9809.3
579.124	9805.01
579.485	9783.32
579.845	9810.89
580.206	9778.8
580.566	9785.58
580.927	9819.47
581.287	9897.21
581.648	9819.47
582.008	9840.04
582.368	9833.48
582.728	9816.08
583.089	9770.44
583.449	9773.6
583.809	9856.08
584.169	9827.61
584.529	9826.48
584.889	9884.56
585.249	9854.27
585.609	9825.57
585.969	9895.63
586.329	9883.2
586.688	9875.74
587.048	9843.2
587.408	9844.33
587.768	9845.69
588.127	9860.38
588.487	9798.91
588.846	9909.19
589.206	9825.12
589.565	9852.69
589.925	9918.91
590.284	9907.83
590.643	9952.35
591.003	9981.96
591.362	9987.15
591.721	9930.2
592.08	9896.31
592.44	9919.13
592.799	9960.26
593.158	9909.19
593.517	9947.15
593.876	9908.51
594.235	9932.24
594.593	9902.41
594.952	9931.79
595.311	9929.98
595.67	9926.59
596.029	10022.63
596.387	10029.64
596.746	10069.41
597.104	9947.61
597.463	9979.24
597.822	9975.85
598.18	9946.25
598.538	9932.01
598.897	10003.42
599.255	9875.52
599.613	10096.75
599.972	10038.22
600.33	10065.79
600.688	10060.82
601.046	10061.27
601.404	10108.05
601.762	9986.25
602.12	10071.9
602.478	10023.99
602.836	10086.59
603.194	10039.35
603.552	10027.83
603.91	10058.79
604.268	10069.41
604.625	10088.17
604.983	10138.79
605.341	10042.74
605.698	10135.17
606.056	10149.63
606.413	10115.51
606.771	10221.5
607.128	10208.62
607.485	10136.75
607.843	10165
608.2	10234.15
608.557	10271.44
608.914	10251.33
609.272	10314.38
609.629	10255.39
609.986	10300.82
610.343	10196.19
610.7	10330.87
611.057	10295.62
611.414	10310.31
611.771	10276.86
612.127	10294.04
612.484	10336.52
612.841	10361.15
613.198	10346.69
613.554	10396.41
613.911	10430.3
614.267	10380.14
614.624	10408.16
614.98	10360.93
615.337	10415.39
615.693	10384.66
616.05	10398.44
616.406	10460.13
616.762	10382.85
617.118	10379.01
617.475	10397.54
617.831	10452.68
618.187	10389.85
618.543	10517.08
618.899	10466.69
619.255	10484.77
619.611	10389.85
619.967	10497.87
620.323	10517.99
620.678	10445.45
621.034	10418.33
621.39	10471.21
621.746	10435.73
622.101	10506.69
622.457	10425.33
622.812	10427.82
623.168	10513.01
623.523	10473.24
623.879	10564.09
624.234	10512.56
624.589	10472.79
624.945	10525.22
625.3	10536.74
625.655	10515.05
626.01	10520.25
626.365	10497.42
626.72	10473.24
627.075	10417.2
627.43	10451.77
627.785	10385.11
628.14	10395.73
628.495	10412.68
628.85	10447.03
629.205	10404.77
629.559	10435.5
629.914	10323.87
630.269	10416.52
630.623	10336.52
630.978	10395.05
631.332	10426.24
631.687	10430.98
632.041	10362.06
632.396	10343.08
632.75	10285.68
633.104	10330.65
633.459	10335.17
633.813	10281.16
634.167	10286.13
634.521	10189.63
634.875	10270.76
635.229	10261.72
635.583	10143.31
635.937	10176.53
636.291	10149.86
636.645	10191.67
636.999	10179.46
637.352	10106.92
637.706	10138.56
638.06	10092.23
638.413	10141.05
638.767	10105.57
639.121	10133.14
639.474	10067.38
639.828	10058.79
640.181	10024.89
640.534	9967.27
640.888	10008.4
641.241	9903.54
641.594	9962.07
641.947	10017.43
642.301	9910.54
642.654	9949.41
643.007	10022.18
643.36	9954.61
643.713	9951.45
644.066	9958.68
644.419	9866.25
644.771	9850.21
645.124	9728.85
645.477	9748.06
645.83	9704.45
646.182	9635.52
646.535	9544
646.888	9637.78
647.24	9513.27
647.593	9471.46
647.945	9477.34
648.298	9409.54
648.65	9447.05
649.002	9417.68
649.355	9463.78
649.707	9482.08
650.059	9547.84
650.411	9608.63
650.763	9638.24
651.115	9788.29
651.467	9645.47
651.819	9683.43
652.171	9606.6
652.523	9585.58
652.875	9619.25
653.227	9555.98
653.578	9626.94
653.93	9566.37
654.282	9643.21
654.633	9571.8
654.985	9554.62
655.337	9537.45
655.688	9540.38
656.039	9599.37
656.391	9525.02
656.742	9461.29
657.094	9492.93
657.445	9541.51
657.796	9518.24
658.147	9527.96
658.498	9488.63
658.849	9496.54
659.2	9503.55
659.551	9508.75
659.902	9506.49
660.253	9471.01
660.604	9471.69
660.955	9399.82
661.306	9433.04
661.656	9477.11
662.007	9465.81
662.358	9446.38
662.708	9427.85
663.059	9404.34
663.409	9351.24
663.76	9386.72
664.11	9369.77
664.461	9340.62
664.811	9376.55
665.161	9350.33
665.511	9296.78
665.862	9298.36
666.212	9346.49
666.562	9286.83
666.912	9288.64
667.262	9310.56
667.612	9272.82
667.962	9280.05
668.312	9224.01
668.662	9299.49
669.011	9223.1
669.361	9290.9
669.711	9273.73
670.06	9221.07
670.41	9210.45
670.76	9181.07
671.109	9217
671.459	9178.36
671.808	9127.97
672.157	9192.6
672.507	9128.42
672.856	9117.8
673.205	9148.53
673.554	9190.11
673.904	9055.65
674.253	9133.62
674.602	9129.77
674.951	8979.27
675.3	8994.41
675.649	9147.63
675.998	9143.33
676.346	9160.73
676.695	9162.99
677.044	9043.67
677.393	9071.7
677.741	9183.11
678.09	9157.57
678.438	9093.39
678.787	9023.79
679.135	9088.87
679.484	8940.4
679.832	9115.99
680.181	8928.2
680.529	9075.99
680.877	8937.24
681.225	8947.18
681.573	9048.42
681.922	8956.45
682.27	8929.1
682.618	8990.34
682.966	8954.64
683.314	8895.2
683.661	8893.62
684.009	8865.15
684.357	8828.09
684.705	8854.53
685.053	8794.64
685.4	8844.58
685.748	8843.91
686.095	8853.4
686.443	8774.08
686.79	8744.02
687.138	8727.98
687.485	8734.08
687.832	8700.86
688.18	8660.86
688.527	8651.14
688.874	8653.63
689.221	8594.87
689.568	8550.81
689.915	8594.87
690.262	8554.42
690.609	8541.99
690.956	8473.75
691.303	8479.17
691.65	8448.89
691.997	8443.24
692.344	8349.68
692.69	8370.25
693.037	8427.87
693.383	8319.4
693.73	8354.43
694.077	8344.48
694.423	8320.08
694.769	8223.58
695.116	8204.6
695.462	8253.86
695.808	8215.45
696.155	8199.63
696.501	8150.36
696.847	8101.78
697.193	8026.75
697.539	8098.61
697.885	8041.89
698.231	8016.13
698.577	8012.29
698.923	7974.1
699.269	7917.38
699.614	7948.79
699.96	7928.45
700.306	7889.35
700.651	7880.77
700.997	7854.1
701.342	7808.9
701.688	7853.88
702.033	7822.24
702.379	7779.75
702.724	7740.43
703.069	7805.52
703.415	7694.56
703.76	7683.71
704.105	7720.77
704.45	7669.02
704.795	7613.88
705.14	7595.35
705.485	7603.03
705.83	7573.66
706.175	7537.73
706.52	7578.4
706.865	7484.62
707.209	7511.29
707.554	7495.69
707.899	7555.8
708.243	7452.08
708.588	7436.71
708.932	7428.35
709.277	7387
709.621	7391.97
709.966	7360.33
710.31	7384.96
710.654	7325.75
710.998	7281.24
711.342	7326.88
711.687	7289.82
712.031	7284.4
712.375	7287.11
712.719	7305.64
713.063	7277.85
713.407	7269.26
713.75	7286.66
714.094	7200.79
714.438	7172.99
714.782	7187.23
715.125	7211.41
715.469	7252.31
715.812	7137.28
716.156	7140.22
716.499	7116.49
716.843	7131.86
717.186	7026.55
717.53	7117.62
717.873	7093.22
718.216	7046.21
718.559	7058.64
718.902	7008.7
719.246	6996.5
719.589	6962.37
719.932	7015.71
720.275	6981.81
720.617	6962.6
720.96	6932.77
721.303	6964.63
721.646	6949.04
721.989	6943.84
722.331	6951.53
722.674	6869.49
723.016	6903.84
723.359	6911.53
723.701	6844.18
724.044	6789.95
724.386	6810.51
724.729	6838.76
725.071	6783.17
725.413	6785.88
725.755	6763.28
726.097	6709.05
726.439	6698.88
726.782	6708.82
727.124	6780.68
727.465	6690.06
727.807	6712.21
728.149	6668.82
728.491	6620.01
728.833	6680.8
729.175	6642.38
729.516	6618.2
729.858	6628.37
730.199	6643.74
730.541	6638.54
730.882	6587.47
731.224	6584.08
731.565	6517.19
731.906	6558.09
732.248	6530.75
732.589	6513.57
732.93	6493.01
733.271	6487.36
733.612	6472.89
733.953	6479
734.294	6480.8
734.635	6464.53
734.976	6500.24
735.317	6442.84
735.658	6438.32
735.999	6401.94
736.339	6402.61
736.68	6447.36
737.021	6458.43
737.361	6342.73
737.702	6462.5
738.042	6351.32
738.383	6340.69
738.723	6393.35
739.063	6331.66
739.404	6398.32
739.744	6363.97
740.084	6314.25
740.424	6278.55
740.764	6300.7
741.104	6333.24
741.444	6242.84
741.784	6289.62
742.124	6279.68
742.464	6279
742.804	6196.29
743.143	6237.42
743.483	6225.9
743.823	6230.64
744.162	6249.62
744.502	6225.67
744.841	6183.86
745.181	6234.48
745.52	6165.11
745.86	6211.43
746.199	6149.74
746.538	6195.16
746.877	6168.5
747.216	6153.81
747.556	6114.71
747.895	6156.07
748.234	6095.5
748.573	6088.27
748.911	6078.33
749.25	6104.77
749.589	6013.92
749.928	6031.78
750.267	6065
750.605	6017.54
750.944	5997.2
751.283	5986.58
751.621	5979.8
751.96	5976.41
752.298	5991.33
752.636	5975.05
752.975	5957.2
753.313	5953.59
753.651	5964.66
753.989	5899.58
754.327	5907.49
754.666	5867.71
755.004	5884.44
755.342	5854.38
755.679	5871.33
756.017	5801.95
756.355	5797.21
756.693	5779.81
757.031	5834.95
757.368	5879.01
757.706	5788.62
758.044	5781.84
758.381	5741.39
758.719	5781.16
759.056	5699.81
759.394	5701.39
759.731	5674.95
760.068	5672.69
760.405	5676.31
760.743	5644.67
761.08	5653.03
761.417	5587.27
761.754	5615.97
762.091	5585.01
762.428	5578.23
762.765	5536.65
763.102	5554.05
763.438	5541.17
763.775	5505.46
764.112	5433.15
764.449	5479.93
764.785	5475.86
765.122	5447.16
765.458	5391.12
765.795	5441.74
766.131	5419.14
766.467	5347.73
766.804	5352.25
767.14	5278.8
767.476	5309.54
767.812	5298.46
768.148	5290.55
