Data from foam_black_FLMS001491_00075.txt Node
Date: Wed Feb 08 10:44:37 GMT 2017
User: dcchb
Spectrometer: FLMS00149
Trigger mode: 0
Integration Time (sec): 2.000000E-2
Scans to average: 10
Electric dark correction enabled: true
Nonlinearity correction enabled: false
Boxcar width: 0
XAxis mode: Wavelengths
Number of Pixels in Spectrum: 2048
>>>>>Begin Spectral Data<<<<<
341.393	5.23
341.776	5.23
342.16	5.23
342.543	-60.76
342.927	-54.21
343.31	-71.38
343.693	-70.93
344.077	-47.88
344.46	-58.05
344.843	-67.31
345.226	-42.68
345.61	-45.62
345.993	-25.51
346.376	3.19
346.759	16.75
347.142	22.85
347.525	43.42
347.908	66.02
348.291	81.16
348.674	90.87
349.057	105.11
349.44	129.74
349.823	157.76
350.206	172.91
350.588	192.79
350.971	197.54
351.354	220.59
351.737	254.03
352.119	240.25
352.502	254.48
352.884	255.61
353.267	268.95
353.65	284.54
354.032	285.44
354.414	265.11
354.797	306.23
355.179	324.09
355.562	308.72
355.944	321.38
356.326	320.92
356.709	307.82
357.091	336.74
357.473	340.58
357.855	336.52
358.238	351.21
358.62	337.19
359.002	327.93
359.384	327.25
359.766	352.34
360.148	323.41
360.53	317.53
360.912	339
361.294	338.32
361.676	328.83
362.057	320.7
362.439	324.54
362.821	311.21
363.203	302.85
363.584	315.27
363.966	316.18
364.348	316.18
364.729	320.47
365.111	312.34
365.493	295.16
365.874	301.72
366.256	310.75
366.637	301.49
367.019	317.99
367.4	315.95
367.781	306.46
368.163	308.95
368.544	302.39
368.925	299
369.306	305.78
369.688	325.44
370.069	279.34
370.45	308.49
370.831	290.87
371.212	296.97
371.593	317.53
371.974	314.37
372.355	320.02
372.736	297.2
373.117	329.29
373.498	315.27
373.879	322.05
374.26	298.1
374.641	323.41
375.021	307.36
375.402	318.21
375.783	314.82
376.163	339
376.544	312.79
376.925	293.35
377.305	309.85
377.686	308.72
378.066	323.64
378.447	297.2
378.827	328.16
379.208	324.77
379.588	319.12
379.968	334.93
380.349	333.58
380.729	323.18
381.109	315.95
381.489	329.06
381.87	339.68
382.25	331.32
382.63	326.8
383.01	342.62
383.39	327.03
383.77	326.57
384.15	333.58
384.53	343.52
384.91	335.84
385.29	329.74
385.67	356.4
386.049	352.11
386.429	329.96
386.809	345.78
387.189	322.73
387.568	333.8
387.948	327.93
388.328	321.38
388.707	342.39
389.087	349.85
389.466	339.91
389.846	333.58
390.225	359.57
390.605	373.8
390.984	370.19
391.363	353.69
391.743	338.32
392.122	358.21
392.501	377.87
392.881	357.76
393.26	367.25
393.639	367.25
394.018	366.8
394.397	372.9
394.776	358.21
395.155	380.36
395.534	373.8
395.913	354.6
396.292	384.88
396.671	375.16
397.05	374.71
397.429	384.88
397.808	365.22
398.186	380.36
398.565	382.62
398.944	374.26
399.323	380.58
399.701	379.68
400.08	393.92
400.458	415.16
400.837	374.93
401.215	412.67
401.594	376.97
401.972	384.42
402.351	385.55
402.729	398.89
403.107	429.4
403.486	421.71
403.864	398.66
404.242	415.38
404.62	409.96
404.999	405.44
405.377	405.22
405.755	428.04
406.133	421.26
406.511	427.36
406.889	417.19
407.267	429.85
407.645	436.85
408.023	430.07
408.401	433.24
408.779	447.25
409.156	420.13
409.534	452.67
409.912	441.37
410.29	452.45
410.667	433.01
411.045	452.22
411.422	457.19
411.8	460.13
412.178	454.93
412.555	456.97
412.933	476.4
413.31	462.84
413.687	462.16
414.065	461.94
414.442	462.39
414.819	494.93
415.197	486.8
415.574	492.67
415.951	477.76
416.328	482.95
416.705	480.69
417.082	504.42
417.46	498.55
417.837	483.63
418.214	504.42
418.591	496.06
418.967	525.44
419.344	501.71
419.721	496.06
420.098	506.23
420.475	514.37
420.852	499.22
421.228	520.69
421.605	535.83
421.982	534.03
422.358	541.03
422.735	539.22
423.111	522.73
423.488	501.71
423.864	515.72
424.241	532.9
424.617	536.74
424.994	551.2
425.37	546.45
425.746	536.74
426.123	555.27
426.499	568.15
426.875	576.51
427.251	570.63
427.627	577.19
428.003	560.01
428.379	591.88
428.756	570.41
429.132	590.3
429.507	596.17
429.883	593.23
430.259	593.91
430.635	619.22
431.011	606.79
431.387	621.03
431.763	616.51
432.138	621.48
432.514	638.43
432.89	635.27
433.265	628.49
433.641	667.58
434.016	656.73
434.392	668.03
434.767	651.76
435.143	661.25
435.518	683.85
435.894	664.87
436.269	696.28
436.644	688.82
437.02	696.51
437.395	698.31
437.77	703.06
438.145	703.06
438.52	703.29
438.895	710.97
439.271	724.53
439.646	712.78
440.021	729.5
440.395	732.89
440.77	740.57
441.145	738.31
441.52	756.39
441.895	751.87
442.27	746.45
442.645	746.45
443.019	742.61
443.394	761.14
443.769	786
444.143	753
444.518	775.38
444.892	774.25
445.267	774.7
445.641	770.86
446.016	759.56
446.39	753.23
446.764	785.09
447.139	793.45
447.513	800.69
447.887	792.32
448.262	808.14
448.636	796.17
449.01	804.3
449.384	829.61
449.758	845.2
450.132	813.57
450.506	823.51
450.88	851.98
451.254	851.31
451.628	838.2
452.002	867.58
452.376	866.45
452.75	874.36
453.123	874.58
453.497	887.24
453.871	870.06
454.244	912.77
454.618	904.19
454.992	888.37
455.365	912.55
455.739	943.28
456.112	964.97
456.486	942.6
456.859	964.07
457.232	974.24
457.606	988.25
457.979	990.51
458.352	971.98
458.725	999.55
459.099	1024.63
459.472	1016.72
459.845	1008.59
460.218	990.51
460.591	1052.43
460.964	1025.09
461.337	1057.85
461.71	1056.27
462.083	1069.6
462.456	1083.62
462.829	1096.27
463.201	1102.15
463.574	1083.62
463.947	1098.08
464.32	1149.6
464.692	1155.03
465.065	1155.7
465.438	1166.33
465.81	1173.78
466.183	1157.74
466.555	1218.53
466.928	1221.69
467.3	1217.4
467.672	1218.98
468.045	1244.74
468.417	1235.02
468.789	1261.46
469.161	1300.56
469.534	1305.76
469.906	1290.62
470.278	1329.94
470.65	1339.65
471.022	1372.42
471.394	1363.16
471.766	1397.51
472.138	1423.27
472.51	1408.35
472.882	1422.82
473.253	1446.54
473.625	1473.44
473.997	1493.55
474.369	1478.63
474.74	1535.13
475.112	1544.39
475.484	1557.05
475.855	1575.58
476.227	1626.2
476.598	1646.54
476.97	1665.52
477.341	1674.33
477.713	1661.23
478.084	1706.42
478.455	1745.52
478.827	1756.37
479.198	1803.82
479.569	1792.75
479.94	1836.82
480.311	1852.41
480.682	1891.5
481.053	1928.57
481.424	1931.95
481.795	1959.3
482.166	1990.71
482.537	2007.66
482.908	2028.68
483.279	2053.08
483.65	2120.42
484.021	2129.46
484.391	2147.32
484.762	2185.73
485.133	2191.61
485.503	2214.89
485.874	2250.59
486.244	2260.99
486.615	2322.45
486.985	2351.83
487.356	2392.06
487.726	2390.25
488.097	2432.96
488.467	2411.04
488.837	2469.79
489.207	2488.1
489.578	2546.4
489.948	2559.06
490.318	2589.56
490.688	2581.88
491.058	2659.62
491.428	2658.94
491.798	2705.72
492.168	2722.22
492.538	2746.4
492.908	2768.54
493.278	2762.22
493.648	2763.12
494.017	2848.99
494.387	2865.72
494.757	2895.32
495.126	2904.81
495.496	2897.13
495.866	2952.27
496.235	2950.69
496.605	2971.25
496.974	2977.58
497.344	3027.29
497.713	3043.34
498.082	3015.32
498.452	3134.18
498.821	3110.23
499.19	3154.97
499.559	3151.81
499.928	3183.67
500.298	3194.75
500.667	3192.49
501.036	3247.85
501.405	3257.57
501.774	3300.28
502.143	3328.75
502.512	3307.96
502.88	3405.36
503.249	3370.11
503.618	3405.36
503.987	3439.94
504.356	3427.51
504.724	3464.8
505.093	3456.66
505.462	3524.68
505.83	3549.09
506.199	3578.47
506.567	3573.95
506.936	3576.43
507.304	3619.82
507.672	3639.71
508.041	3649.42
508.409	3664.56
508.777	3701.63
509.145	3753.15
509.514	3739.59
509.882	3774.62
510.25	3779.82
510.618	3766.03
510.986	3785.47
511.354	3831.11
511.722	3872.69
512.09	3927.83
512.458	3874.73
512.826	3913.82
513.193	3957.44
513.561	3956.08
513.929	3983.43
514.297	4007.38
514.664	4043.31
515.032	4081.95
515.4	4127.15
515.767	4128.06
516.135	4142.97
516.502	4155.4
516.869	4198.34
517.237	4244.66
517.604	4203.76
517.972	4236.53
518.339	4325.79
518.706	4340.48
519.073	4338.45
519.44	4398.33
519.808	4422.06
520.175	4438.78
520.542	4496.86
520.909	4488.5
521.276	4524.43
521.643	4574.37
522.009	4607.82
522.376	4628.38
522.743	4649.4
523.11	4679.68
523.477	4744.76
523.843	4759.45
524.21	4813.91
524.577	4890.52
524.943	4880.58
525.31	4911.09
525.676	5008.26
526.043	4991.31
526.409	4992.67
526.776	5105.66
527.142	5089.84
527.508	5079.89
527.874	5143.17
528.241	5162.38
528.607	5187.24
528.973	5236.5
529.339	5198.31
529.705	5375.48
530.071	5337.74
530.437	5387.01
530.803	5404.18
531.169	5435.37
531.535	5461.81
531.901	5478.98
532.267	5530.73
532.632	5546.78
532.998	5556.04
533.364	5650.5
533.73	5643.5
534.095	5654.57
534.461	5717.62
534.826	5706.77
535.192	5709.71
535.557	5744.06
535.923	5784.73
536.288	5759.2
536.653	5838.29
537.019	5779.54
537.384	5891.17
537.749	5886.2
538.114	5906.31
538.479	5916.48
538.845	5926.88
539.21	5888.24
539.575	5958.06
539.94	6005.07
540.305	6018.85
540.67	5977.72
541.034	6074.22
541.399	6062.24
541.764	6109.7
542.129	6065.86
542.494	6093.65
542.858	6111.96
543.223	6102.01
543.587	6222.01
543.952	6214.78
544.316	6195.8
544.681	6172.75
545.045	6208
545.41	6235.8
545.774	6249.81
546.138	6255.01
546.503	6337.04
546.867	6327.09
547.231	6326.64
547.595	6398.5
547.959	6444.6
548.324	6375
548.688	6389.69
549.052	6464.49
549.416	6492.96
549.779	6471.27
550.143	6500.42
550.507	6491.83
550.871	6583.81
551.235	6547.65
551.599	6609.57
551.962	6624.71
552.326	6631.04
552.689	6713.07
553.053	6666.52
553.417	6685.28
553.78	6857.93
554.143	6756.01
554.507	6835.1
554.87	6873.52
555.234	6924.37
555.597	6888.43
555.96	6947.64
556.323	6971.6
556.686	6995.32
557.05	7126.17
557.413	7066.51
557.776	7066.74
558.139	7097.92
558.502	7168.88
558.865	7213.85
559.228	7269.67
559.59	7269.22
559.953	7279.61
560.316	7404.35
560.679	7395.54
561.041	7436.44
561.404	7438.48
561.767	7511.92
562.129	7431.25
562.492	7544.91
562.854	7624.01
563.217	7545.82
563.579	7607.96
563.941	7692.48
564.304	7708.07
564.666	7752.82
565.028	7828.52
565.39	7734.06
565.753	7839.37
566.115	7816.09
566.477	7872.14
566.839	7923.66
567.201	8007.5
567.563	7987.61
567.925	8054.28
568.287	8050.44
568.648	8047.5
569.01	8143.09
569.372	8152.81
569.734	8124.33
570.095	8148.29
570.457	8245.46
570.819	8233.03
571.18	8257.66
571.542	8293.82
571.903	8398.68
572.265	8323.43
572.626	8415.4
572.987	8441.84
573.349	8450.65
573.71	8473.7
574.071	8488.62
574.432	8557.77
574.794	8581.27
575.155	8607.94
575.516	8573.14
575.877	8630.31
576.238	8665.11
576.599	8622.85
576.96	8739.01
577.32	8757.99
577.681	8756.86
578.042	8788.72
578.403	8823.3
578.763	8783.3
579.124	8800.25
579.485	8807.48
579.845	8875.05
580.206	8856.52
580.566	8854.94
580.927	8924.31
581.287	8907.59
581.648	8919.57
582.008	8909.4
582.368	8899.68
582.728	9004.09
583.089	8928.16
583.449	8901.94
583.809	8948.72
584.169	8989.85
584.529	8958.44
584.889	8961.37
585.249	8949.62
585.609	8968.61
585.969	8961.15
586.329	8985.78
586.688	8939.23
587.048	8963.18
587.408	8984.65
587.768	8939.91
588.127	8924.77
588.487	8959.34
588.846	8930.41
589.206	8917.76
589.565	8944.43
589.925	8980.58
590.284	8913.92
590.643	8965.67
591.003	8957.76
591.362	9028.94
591.721	8992.11
592.08	8979.91
592.44	9021.26
592.799	9033.92
593.158	8953.01
593.517	9000.24
593.876	9002.5
594.235	9033.92
594.593	9011.77
594.952	9002.5
595.311	8960.92
595.67	8976.74
596.029	9046.12
596.387	9041.15
596.746	9023.97
597.104	8983.52
597.463	8995.95
597.822	9067.36
598.18	9007.48
598.538	9057.42
598.897	9027.36
599.255	8953.24
599.613	9119.56
599.972	9099
600.33	9122.95
600.688	9068.49
601.046	9134.48
601.404	9143.06
601.762	9120.92
602.12	9155.95
602.478	9115.95
602.836	9176.28
603.194	9118.66
603.552	9187.81
603.91	9129.96
604.268	9167.47
604.625	9153.01
604.983	9231.2
605.341	9121.14
605.698	9207.92
606.056	9184.42
606.413	9224.64
606.771	9274.13
607.128	9212.44
607.485	9176.06
607.843	9256.06
608.2	9296.73
608.557	9289.28
608.914	9289.5
609.272	9380.35
609.629	9282.04
609.986	9378.99
610.343	9324.53
610.7	9414.24
611.057	9300.8
611.414	9330.86
611.771	9343.74
612.127	9326.34
612.484	9338.99
612.841	9415.83
613.198	9383.96
613.554	9351.87
613.911	9410.18
614.267	9407.69
614.624	9398.88
614.98	9357.52
615.337	9453.56
615.693	9453.34
616.05	9422.83
616.406	9454.02
616.762	9405.88
617.118	9461.02
617.475	9428.93
617.831	9425.32
618.187	9474.81
618.543	9493.79
618.899	9539.21
619.255	9465.99
619.611	9505.77
619.967	9505.99
620.323	9555.03
620.678	9490.17
621.034	9449.05
621.39	9474.36
621.746	9463.96
622.101	9617.63
622.457	9581.7
622.812	9516.84
623.168	9585.09
623.523	9538.99
623.879	9575.14
624.234	9483.62
624.589	9571.75
624.945	9505.99
625.3	9627.57
625.655	9545.99
626.01	9547.57
626.365	9608.59
626.72	9541.92
627.075	9582.38
627.43	9581.02
627.785	9581.47
628.14	9583.51
628.495	9612.2
628.85	9619.21
629.205	9602.26
629.559	9666.21
629.914	9576.27
630.269	9640.23
630.623	9594.35
630.978	9578.53
631.332	9700.79
631.687	9698.3
632.041	9617.18
632.396	9644.29
632.75	9636.39
633.104	9653.79
633.459	9542.38
633.813	9565.88
634.167	9504.41
634.521	9607.91
634.875	9600.68
635.229	9615.14
635.583	9592.32
635.937	9561.58
636.291	9553.22
636.645	9538.99
636.999	9565.2
637.352	9554.81
637.706	9418.09
638.06	9579.89
638.413	9511.19
638.767	9444.75
639.121	9449.72
639.474	9475.49
639.828	9518.2
640.181	9421.7
640.534	9500.34
640.888	9440.23
641.241	9357.75
641.594	9434.81
641.947	9427.35
642.301	9394.13
642.654	9357.97
643.007	9361.14
643.36	9398.43
643.713	9320.24
644.066	9318.2
644.419	9279.78
644.771	9183.52
645.124	9129.51
645.477	9051.32
645.83	9012.9
646.182	8971.77
646.535	9018.55
646.888	8978.32
647.24	8954.37
647.593	8971.77
647.945	8970.19
648.298	8889.29
648.65	8941.94
649.002	8869.17
649.355	8851.32
649.707	8839.8
650.059	8907.14
650.411	8944.43
650.763	8974.93
651.115	9048.6
651.467	9092.44
651.819	9069.62
652.171	9031.43
652.523	8947.36
652.875	9020.13
653.227	8968.61
653.578	9023.75
653.93	8960.7
654.282	8909.4
654.633	8957.76
654.985	8874.15
655.337	8956.85
655.688	8968.83
656.039	8999.11
656.391	8914.14
656.742	8973.58
657.094	8934.93
657.445	9016.74
657.796	8904.65
658.147	8905.1
658.498	8903.75
658.849	8957.08
659.2	8878.21
659.551	8875.95
659.902	8925.9
660.253	8898.33
660.604	8916.63
660.955	8908.27
661.306	8965.67
661.656	8904.88
662.007	8956.18
662.358	8908.72
662.708	8945.1
663.059	8846.35
663.409	8862.39
663.76	8877.31
664.11	8870.53
664.461	8925.22
664.811	8915.95
665.161	8868.04
665.511	8862.85
665.862	8871.21
666.212	8874.37
666.562	8901.49
666.912	8847.03
667.262	8853.35
667.612	8804.32
667.962	8818.55
668.312	8788.05
668.662	8859.46
669.011	8785.79
669.361	8844.54
669.711	8768.61
670.06	8740.14
670.41	8780.81
670.76	8805.67
671.109	8762.51
671.459	8723.87
671.808	8805.9
672.157	8799.8
672.507	8650.87
672.856	8722.28
673.205	8724.32
673.554	8724.77
673.904	8703.08
674.253	8700.59
674.602	8686.13
674.951	8489.52
675.3	8457.66
675.649	8620.37
675.998	8619.69
676.346	8623.98
676.695	8608.39
677.044	8532.69
677.393	8547.6
677.741	8601.38
678.09	8537.66
678.438	8484.78
678.787	8545.11
679.135	8500.14
679.484	8445.68
679.832	8482.29
680.181	8452.01
680.529	8479.35
680.877	8391.22
681.225	8399.58
681.573	8439.81
681.922	8396.87
682.27	8348.51
682.618	8395.06
682.966	8465.12
683.314	8403.2
683.661	8415.63
684.009	8362.29
684.357	8347.15
684.705	8249.98
685.053	8285.46
685.4	8254.5
685.748	8270.55
686.095	8297.21
686.443	8241.85
686.79	8178.8
687.138	8257.21
687.485	8195.07
687.832	8196.2
688.18	8229.64
688.527	8139.25
688.874	8241.17
689.221	8237.78
689.568	8160.49
689.915	8108.29
690.262	8093.83
690.609	8153.49
690.956	8076.65
691.303	8045.69
691.65	8079.14
691.997	8076.2
692.344	8051.57
692.69	8042.3
693.037	8117.78
693.383	7959.37
693.73	7965.92
694.077	7984
694.423	7926.6
694.769	7902.87
695.116	7856.77
695.462	7906.94
695.808	7860.61
696.155	7898.35
696.501	7834.62
696.847	7863.78
697.193	7800.95
697.539	7799.15
697.885	7705.36
698.231	7711.24
698.577	7733.16
698.923	7702.65
699.269	7687.28
699.614	7673.05
699.96	7593.5
700.306	7665.59
700.651	7566.83
700.997	7504.01
701.342	7540.17
701.688	7588.98
702.033	7585.14
702.379	7528.64
702.724	7508.76
703.069	7474.86
703.415	7368.65
703.76	7418.14
704.105	7382.88
704.45	7415.88
704.795	7372.72
705.14	7360.96
705.485	7353.28
705.83	7245.26
706.175	7276.22
706.52	7309.67
706.865	7216.11
707.209	7194.42
707.554	7163
707.899	7150.57
708.243	7104.02
708.588	7160.07
708.932	7116.45
709.277	7095.89
709.621	7062.67
709.966	7057.7
710.31	6993.52
710.654	6977.47
710.998	7029
711.342	6993.06
711.687	6965.95
712.031	6951.94
712.375	6955.55
712.719	6941.09
713.063	6926.17
713.407	6909.68
713.75	6900.41
714.094	6824.93
714.438	6860.19
714.782	6842.33
715.125	6790.13
715.469	6708.55
715.812	6737.48
716.156	6706.07
716.499	6736.8
716.843	6699.51
717.186	6706.97
717.53	6798.04
717.873	6740.42
718.216	6758.95
718.559	6728.66
718.902	6706.74
719.246	6596.24
719.589	6612.51
719.932	6538.16
720.275	6592.85
720.617	6584.71
720.96	6625.16
721.303	6572.06
721.646	6571.61
721.989	6593.08
722.331	6583.58
722.674	6519.63
723.016	6505.39
723.359	6539.97
723.701	6556.69
724.044	6512.17
724.386	6523.7
724.729	6558.5
725.071	6469.69
725.413	6506.75
725.755	6486.64
726.097	6499.52
726.439	6470.14
726.782	6479.41
727.124	6421.1
727.465	6443.7
727.807	6422.68
728.149	6417.71
728.491	6397.37
728.833	6434.21
729.175	6436.92
729.516	6411.16
729.858	6403.7
730.199	6461.33
730.541	6412.97
730.882	6440.31
731.224	6497.48
731.565	6421.55
731.906	6391.72
732.248	6361.89
732.589	6348.34
732.93	6391.5
733.271	6386.3
733.612	6370.48
733.953	6377.26
734.294	6375.91
734.635	6361.67
734.976	6316.02
735.317	6299.3
735.658	6335.91
735.999	6337.26
736.339	6337.26
736.68	6330.03
737.021	6361.22
737.361	6259.52
737.702	6348.34
738.042	6310.37
738.383	6280.54
738.723	6306.76
739.063	6316.25
739.404	6262.24
739.744	6275.12
740.084	6248.45
740.424	6261.33
740.764	6268.79
741.104	6324.38
741.444	6183.59
741.784	6183.37
742.124	6198.96
742.464	6195.8
742.804	6191.28
743.143	6167.55
743.483	6198.74
743.823	6158.51
744.162	6201.9
744.502	6155.8
744.841	6150.38
745.181	6143.82
745.52	6068.8
745.86	6072.41
746.199	6106.08
746.538	6092.52
746.877	6104.95
747.216	6055.46
747.556	6057.72
747.895	6028.8
748.234	6041.9
748.573	5988.12
748.911	6020.66
749.25	5996.71
749.589	5968.91
749.928	5968.68
750.267	5952.64
750.605	5941.34
750.944	5876.26
751.283	5888.46
751.621	5917.61
751.96	5875.13
752.298	5824.06
752.636	5870.83
752.975	5819.76
753.313	5809.82
753.651	5829.71
753.989	5808.46
754.327	5778.86
754.666	5739.99
755.004	5727.34
755.342	5766.88
755.679	5697.51
756.017	5635.13
756.355	5692.53
756.693	5672.2
757.031	5679.2
757.368	5636.49
757.706	5654.79
758.044	5599.88
758.381	5667
758.719	5574.57
759.056	5613.21
759.394	5562.14
759.731	5535.48
760.068	5515.14
760.405	5507.45
760.743	5520.11
761.08	5510.39
761.417	5490.96
761.754	5486.21
762.091	5462.71
762.428	5433.78
762.765	5403.95
763.102	5407.8
763.438	5343.62
763.775	5320.79
764.112	5382.03
764.449	5367.34
764.785	5321.47
765.122	5281.92
765.458	5323.96
765.795	5318.98
766.131	5298.19
766.467	5314.46
766.804	5268.14
767.14	5215.03
767.476	5186.78
767.812	5244.64
768.148	5218.42
768.485	5114.24
768.821	5126
769.157	5170.51
769.492	5156.28
769.828	5149.95
770.164	5079.67
770.5	5066.34
770.836	5062.72
771.171	5038.09
