Data from foam_black_FLMS001491_00095.txt Node
Date: Wed Feb 08 10:45:05 GMT 2017
User: dcchb
Spectrometer: FLMS00149
Trigger mode: 0
Integration Time (sec): 2.000000E-2
Scans to average: 10
Electric dark correction enabled: true
Nonlinearity correction enabled: false
Boxcar width: 0
XAxis mode: Wavelengths
Number of Pixels in Spectrum: 2048
>>>>>Begin Spectral Data<<<<<
341.393	-22.39
341.776	-22.39
342.16	-22.39
342.543	-61.03
342.927	-70.75
343.31	-62.39
343.693	-62.61
344.077	-61.26
344.46	-68.03
344.843	-53.57
345.226	-37.53
345.61	-34.14
345.993	-1.14
346.376	-23.74
346.759	7.67
347.142	28.23
347.525	25.97
347.908	39.76
348.291	72.98
348.674	102.81
349.057	126.99
349.44	105.97
349.823	143.26
350.206	150.04
350.588	188.46
350.971	201.79
351.354	178.29
351.737	201.11
352.119	221.22
352.502	244.05
352.884	238.4
353.267	263.48
353.65	267.78
354.032	273.43
354.414	267.55
354.797	284.95
355.179	295.8
355.562	311.39
355.944	300.09
356.326	307.32
356.709	288.79
357.091	319.98
357.473	311.39
357.855	315.01
358.238	312.97
358.62	303.25
359.002	326.53
359.384	334.21
359.766	321.11
360.148	305.51
360.53	309.13
360.912	302.58
361.294	303.48
361.676	292.18
362.057	327.89
362.439	309.81
362.821	297.38
363.203	306.42
363.584	300.77
363.966	298.28
364.348	285.85
364.729	281.79
365.111	293.31
365.493	300.54
365.874	266.65
366.256	287.44
366.637	283.59
367.019	282.46
367.4	291.73
367.781	297.83
368.163	283.59
368.544	267.78
368.925	291.73
369.306	300.99
369.688	285.85
370.069	288.57
370.45	266.65
370.831	278.4
371.212	297.61
371.593	276.81
371.974	278.85
372.355	286.53
372.736	286.31
373.117	270.26
373.498	283.82
373.879	285.85
374.26	287.66
374.641	283.82
375.021	272.3
375.402	281.11
375.783	301.67
376.163	285.85
376.544	296.25
376.925	283.37
377.305	296.7
377.686	295.8
378.066	297.38
378.447	303.25
378.827	282.01
379.208	278.17
379.588	291.5
379.968	301.67
380.349	296.48
380.729	297.61
381.109	294.67
381.489	300.09
381.87	300.09
382.25	307.77
382.63	285.85
383.01	287.89
383.39	295.12
383.77	322.46
384.15	308
384.53	310.03
384.91	302.12
385.29	305.74
385.67	282.92
386.049	308.23
386.429	308.68
386.809	296.25
387.189	298.51
387.568	316.59
387.948	311.84
388.328	299.86
388.707	317.04
389.087	304.38
389.466	300.32
389.846	284.72
390.225	293.54
390.605	302.8
390.984	331.05
391.363	311.39
391.743	284.72
392.122	300.99
392.501	318.4
392.881	329.92
393.26	307.32
393.639	312.75
394.018	314.1
394.397	312.52
394.776	341.9
395.155	319.75
395.534	317.04
395.913	308
396.292	330.15
396.671	344.84
397.05	336.7
397.429	316.14
397.808	316.81
398.186	345.51
398.565	317.27
398.944	344.16
399.323	293.54
399.701	316.14
400.08	329.47
400.458	330.6
400.837	322.46
401.215	322.24
401.594	321.79
401.972	335.12
402.351	323.59
402.729	308.9
403.107	321.56
403.486	322.46
403.864	321.33
404.242	306.42
404.62	323.59
404.999	318.4
405.377	331.95
405.755	354.33
406.133	340.32
406.511	342.8
406.889	340.54
407.267	311.62
407.645	340.32
408.023	348.23
408.401	319.3
408.779	347.1
409.156	334.89
409.534	334.44
409.912	365.4
410.29	345.74
410.667	343.93
411.045	328.34
411.422	325.4
411.8	350.03
412.178	350.94
412.555	357.72
412.933	345.06
413.31	367.21
413.687	350.03
414.065	368.34
414.442	362.69
414.819	350.26
415.197	365.85
415.574	337.38
415.951	356.81
416.328	353.42
416.705	351.16
417.082	346.19
417.46	340.99
417.837	364.95
418.214	358.17
418.591	353.42
418.967	373.76
419.344	364.72
419.721	372.86
420.098	360.88
420.475	362.91
420.852	366.76
421.228	358.39
421.605	382.8
421.982	338.06
422.358	385.74
422.735	382.35
423.111	391.61
423.488	369.47
423.864	377.38
424.241	383.48
424.617	390.26
424.994	382.57
425.37	395.68
425.746	392.52
426.123	386.19
426.499	388.45
426.875	389.81
427.251	389.81
427.627	398.85
428.003	399.52
428.379	405.17
428.756	402.69
429.132	394.33
429.507	402.91
429.883	390.48
430.259	406.08
430.635	376.25
431.011	402.69
431.387	402.91
431.763	424.38
432.138	413.99
432.514	399.98
432.89	399.07
433.265	396.13
433.641	416.25
434.016	406.3
434.392	417.6
434.767	418.51
435.143	418.96
435.518	434.32
435.894	418.51
436.269	413.31
436.644	435.68
437.02	440.88
437.395	422.35
437.77	441.56
438.145	413.99
438.52	409.47
438.895	420.31
439.271	460.09
439.646	444.27
440.021	422.35
440.395	402.69
440.77	434.55
441.145	433.42
441.52	444.04
441.895	444.72
442.27	431.16
442.645	438.17
443.019	434.78
443.394	436.13
443.769	452.86
444.143	454.21
444.518	453.08
444.892	465.06
445.267	472.06
445.641	446.53
446.016	446.53
446.39	461.22
446.764	473.42
447.139	452.4
447.513	460.54
447.887	470.48
448.262	484.27
448.636	451.95
449.01	452.18
449.384	473.87
449.758	468
450.132	468
450.506	480.88
450.88	457.83
451.254	505.28
451.628	477.26
452.002	476.58
452.376	477.26
452.75	479.3
453.123	473.65
453.497	483.36
453.871	482.46
454.244	489.92
454.618	473.19
454.992	490.59
455.365	496.7
455.739	502.35
456.112	509.13
456.486	483.81
456.859	491.72
457.232	503.7
457.606	506.19
457.979	500.09
458.352	510.25
458.725	498.28
459.099	520.88
459.472	541.67
459.845	503.93
460.218	535.79
460.591	518.84
460.964	519.07
461.337	552.06
461.71	524.04
462.083	545.96
462.456	537.37
462.829	553.42
463.201	546.86
463.574	553.64
463.947	566.52
464.32	550.03
464.692	543.93
465.065	549.35
465.438	539.18
465.81	571.04
466.183	606.75
466.555	584.15
466.928	564.72
467.3	570.82
467.672	589.57
468.045	591.83
468.417	594.32
468.789	592.74
469.161	603.59
469.534	620.08
469.906	609.46
470.278	639.74
470.65	617.14
471.022	626.86
471.394	644.49
471.766	635.45
472.138	633.19
472.51	625.51
472.882	660.99
473.253	635
473.625	648.56
473.997	658.95
474.369	658.95
474.74	686.3
475.112	665.28
475.484	654.66
475.855	667.99
476.227	676.13
476.598	704.15
476.97	688.78
477.341	698.72
477.713	715.45
478.084	713.64
478.455	707.76
478.827	753.19
479.198	749.57
479.569	726.97
479.94	748.67
480.311	748.89
480.682	743.02
481.053	783.92
481.424	798.16
481.795	787.76
482.166	780.76
482.537	790.47
482.908	811.49
483.279	812.62
483.65	811.94
484.021	804.26
484.391	842.9
484.762	849
485.133	853.3
485.503	855.1
485.874	905.27
486.244	842
486.615	887.19
486.985	896.01
487.356	909.11
487.726	910.02
488.097	906.18
488.467	909.57
488.837	939.4
489.207	963.12
489.578	966.29
489.948	969
490.318	995.21
490.688	995.21
491.058	993.63
491.428	1011.71
491.798	989.11
492.168	1020.07
492.538	1040.41
492.908	1035.89
493.278	1056
493.648	1013.74
494.017	1040.18
494.387	1049.9
494.757	1070.24
495.126	1079.96
495.496	1063.69
495.866	1091.26
496.235	1090.8
496.605	1096
496.974	1099.62
497.344	1102.78
497.713	1103.01
498.082	1090.8
498.452	1093.29
498.821	1095.1
499.19	1133.74
499.559	1105.72
499.928	1140.52
500.298	1132.39
500.667	1153.63
501.036	1138.26
501.405	1148.2
501.774	1130.35
502.143	1159.05
502.512	1163.57
502.88	1191.37
503.249	1153.4
503.618	1192.04
503.987	1156.79
504.356	1173.29
504.724	1211.03
505.093	1179.84
505.462	1190.69
505.83	1204.7
506.199	1212.84
506.567	1236.11
506.936	1242.21
507.304	1243.79
507.672	1248.54
508.041	1248.09
508.409	1223.91
508.777	1237.47
509.145	1260.07
509.514	1281.76
509.882	1272.49
510.25	1261.42
510.618	1304.81
510.986	1296.22
511.354	1320.86
511.722	1323.34
512.09	1316.34
512.458	1334.19
512.826	1365.83
513.193	1357.69
513.561	1343
513.929	1383.45
514.297	1392.49
514.664	1421.19
515.032	1391.14
515.4	1427.97
515.767	1405.37
516.135	1431.81
516.502	1417.8
516.869	1443.34
517.237	1448.76
517.604	1456.22
517.972	1460.96
518.339	1472.49
518.706	1491.92
519.073	1504.81
519.44	1501.64
519.808	1500.06
520.175	1509.32
520.542	1516.56
520.909	1532.15
521.276	1529.66
521.643	1531.92
522.009	1559.72
522.376	1571.47
522.743	1556.1
523.11	1579.15
523.477	1606.95
523.843	1566.05
524.21	1583.22
524.577	1609.21
524.943	1610.79
525.31	1609.21
525.676	1620.73
526.043	1614.41
526.409	1647.17
526.776	1633.84
527.142	1628.87
527.508	1663.9
527.874	1646.04
528.241	1700.28
528.607	1666.38
528.973	1680.85
529.339	1678.59
529.705	1690.79
530.071	1674.07
530.437	1695.99
530.803	1720.39
531.169	1755.42
531.535	1694.63
531.901	1731.47
532.267	1707.96
532.632	1728.3
532.998	1772.59
533.364	1748.41
533.73	1747.96
534.095	1775.31
534.461	1765.36
534.826	1787.96
535.192	1798.81
535.557	1807.4
535.923	1808.3
536.288	1842.2
536.653	1842.88
537.019	1855.76
537.384	1829.99
537.749	1848.52
538.114	1861.18
538.479	1882.65
538.845	1884.91
539.21	1872.93
539.575	1907.28
539.94	1893.5
540.305	1895.53
540.67	1917.9
541.034	1946.15
541.399	1970.33
541.764	1933.72
542.129	1991.8
542.494	1936.43
542.858	1990.22
543.223	1985.47
543.587	2010.78
543.952	2001.74
544.316	1991.35
544.681	1990.67
545.045	2004.9
545.41	2050.1
545.774	2045.81
546.138	2020.72
546.503	2045.81
546.867	2039.03
547.231	2036.54
547.595	2069.76
547.959	2082.19
548.324	2080.84
548.688	2105.92
549.052	2076.09
549.416	2087.39
549.779	2080.38
550.143	2110.21
550.507	2130.1
550.871	2111.12
551.235	2113.38
551.599	2120.83
551.962	2107.28
552.326	2119.25
552.689	2114.96
553.053	2149.53
553.417	2126.48
553.78	2143.66
554.143	2127.84
554.507	2147.05
554.87	2118.8
555.234	2131.46
555.597	2136.88
555.96	2182.75
556.323	2142.3
556.686	2178.01
557.05	2191.34
557.413	2160.61
557.776	2180.49
558.139	2205.35
558.502	2200.38
558.865	2197.89
559.228	2215.97
559.59	2248.29
559.953	2228.85
560.316	2286.48
560.679	2273.37
561.041	2242.41
561.404	2253.49
561.767	2273.15
562.129	2259.36
562.492	2316.99
562.854	2307.72
563.217	2324.44
563.579	2305.69
563.941	2321.05
564.304	2343.88
564.666	2367.83
565.028	2364.22
565.39	2391.56
565.753	2372.13
566.115	2375.06
566.477	2431.56
566.839	2409.19
567.201	2435.85
567.563	2433.37
567.925	2446.7
568.287	2461.39
568.648	2500.49
569.01	2501.16
569.372	2520.15
569.734	2526.25
570.095	2520.37
570.457	2564.21
570.819	2546.13
571.18	2604.21
571.542	2614.15
571.903	2593.14
572.265	2634.04
572.626	2597.21
572.987	2583.19
573.349	2644.21
573.71	2663.64
574.071	2678.33
574.432	2689.41
574.794	2726.24
575.155	2683.08
575.516	2665.68
575.877	2674.72
576.238	2678.11
576.599	2707.94
576.96	2681.27
577.32	2714.04
577.681	2746.58
578.042	2706.58
578.403	2769.4
578.763	2735.28
579.124	2716.07
579.485	2727.82
579.845	2779.57
580.206	2756.07
580.566	2776.64
580.927	2733.47
581.287	2762.63
581.648	2740.7
582.008	2748.61
582.368	2757.43
582.728	2738.67
583.089	2744.55
583.449	2730.54
583.809	2738.9
584.169	2751.1
584.529	2780.7
584.889	2764.88
585.249	2720.14
585.609	2725.11
585.969	2712.23
586.329	2757.65
586.688	2752
587.048	2696.41
587.408	2730.31
587.768	2706.36
588.127	2685.34
588.487	2733.93
588.846	2718.11
589.206	2741.38
589.565	2698.45
589.925	2714.26
590.284	2739.57
590.643	2683.08
591.003	2691.44
591.362	2717.88
591.721	2679.01
592.08	2711.55
592.44	2719.01
592.799	2703.87
593.158	2655.06
593.517	2723.98
593.876	2659.58
594.235	2675.17
594.593	2685.79
594.952	2698.67
595.311	2679.01
595.67	2697.32
596.029	2718.78
596.387	2723.98
596.746	2743.87
597.104	2721.72
597.463	2697.99
597.822	2735.51
598.18	2751.55
598.538	2715.85
598.897	2714.26
599.255	2727.15
599.613	2751.55
599.972	2716.52
600.33	2778.9
600.688	2708.16
601.046	2781.38
601.404	2770.99
601.762	2797.65
602.12	2746.35
602.478	2768.5
602.836	2791.55
603.194	2803.3
603.552	2753.59
603.91	2819.57
604.268	2801.95
604.625	2799.46
604.983	2766.24
605.341	2777.54
605.698	2857.54
606.056	2846.01
606.413	2824.09
606.771	2849.63
607.128	2822.96
607.485	2844.2
607.843	2855.5
608.2	2877.42
608.557	2894.83
608.914	2874.26
609.272	2903.64
609.629	2893.02
609.986	2902.73
610.343	2900.02
610.7	2933.92
611.057	2862.74
611.414	2896.63
611.771	2915.62
612.127	2926.91
612.484	2920.36
612.841	2927.82
613.198	2923.3
613.554	2928.5
613.911	2932.11
614.267	2928.27
614.624	2957.42
614.98	2926.91
615.337	2949.74
615.693	2959.91
616.05	2953.35
616.406	2961.26
616.762	2961.04
617.118	2945.9
617.475	2897.08
617.831	2938.21
618.187	2949.06
618.543	2974.14
618.899	2958.33
619.255	2962.39
619.611	2945.22
619.967	2957.2
620.323	2954.26
620.678	2909.74
621.034	2913.36
621.39	2930.08
621.746	2878.33
622.101	2920.14
622.457	2938.67
622.812	2959.23
623.168	2876.07
623.523	2923.07
623.879	2940.25
624.234	2932.56
624.589	2942.96
624.945	2935.28
625.3	2903.86
625.655	2901.83
626.01	2893.02
626.365	2870.19
626.72	2914.94
627.075	2914.49
627.43	2935.5
627.785	2904.99
628.14	2901.15
628.495	2886.01
628.85	2908.84
629.205	2884.2
629.559	2896.86
629.914	2879.91
630.269	2875.39
630.623	2902.06
630.978	2871.55
631.332	2885.56
631.687	2873.58
632.041	2854.6
632.396	2864.09
632.75	2852.79
633.104	2876.52
633.459	2831.55
633.813	2850.31
634.167	2850.76
634.521	2822.96
634.875	2851.21
635.229	2863.41
635.583	2850.08
635.937	2854.37
636.291	2825
636.645	2812.34
636.999	2847.14
637.352	2841.49
637.706	2808.5
638.06	2862.51
638.413	2805.56
638.767	2829.52
639.121	2811.89
639.474	2810.76
639.828	2821.83
640.181	2796.97
640.534	2805.79
640.888	2797.43
641.241	2808.5
641.594	2843.98
641.947	2795.84
642.301	2775.51
642.654	2851.44
643.007	2849.18
643.36	2862.28
643.713	2833.36
644.066	2868.61
644.419	2787.94
644.771	2793.13
645.124	2723.3
645.477	2747.71
645.83	2770.08
646.182	2721.95
646.535	2749.07
646.888	2767.37
647.24	2730.99
647.593	2733.93
647.945	2749.29
648.298	2744.77
648.65	2747.03
649.002	2736.86
649.355	2711.55
649.707	2748.61
650.059	2775.05
650.411	2786.58
650.763	2799.91
651.115	2800.36
651.467	2800.36
651.819	2771.89
652.171	2803.3
652.523	2822.06
652.875	2810.08
653.227	2777.77
653.578	2777.77
653.93	2743.87
654.282	2732.12
654.633	2761.5
654.985	2767.82
655.337	2806.92
655.688	2799.91
656.039	2784.32
656.391	2733.02
656.742	2752.23
657.094	2740.03
657.445	2767.6
657.796	2762.17
658.147	2744.32
658.498	2737.32
658.849	2801.72
659.2	2750.87
659.551	2754.72
659.902	2722.4
660.253	2721.72
660.604	2738.67
660.955	2737.32
661.306	2739.8
661.656	2709.75
662.007	2701.38
662.358	2723.98
662.708	2721.72
663.059	2701.16
663.409	2684.21
663.76	2699.8
664.11	2697.09
664.461	2715.62
664.811	2726.69
665.161	2686.24
665.511	2665.68
665.862	2705.68
666.212	2687.37
666.562	2686.24
666.912	2686.69
667.262	2689.41
667.612	2644.21
667.962	2681.27
668.312	2710.65
668.662	2676.07
669.011	2664.77
669.361	2685.11
669.711	2702.06
670.06	2643.53
670.41	2682.63
670.76	2658.67
671.109	2694.6
671.459	2656.87
671.808	2679.69
672.157	2672.68
672.507	2670.88
672.856	2644.89
673.205	2625.23
673.554	2665.9
673.904	2632.46
674.253	2650.54
674.602	2660.25
674.951	2630.65
675.3	2602.86
675.649	2663.42
675.998	2652.12
676.346	2623.87
676.695	2598.56
677.044	2612.12
677.393	2626.13
677.741	2651.22
678.09	2641.95
678.438	2642.63
678.787	2615.96
679.135	2644.89
679.484	2609.86
679.832	2626.58
680.181	2631.78
680.529	2648.05
680.877	2629.52
681.225	2620.93
681.573	2635.62
681.922	2639.01
682.27	2636.07
682.618	2616.87
682.966	2608.5
683.314	2621.39
683.661	2606.7
684.009	2602.18
684.357	2579.13
684.705	2578.68
685.053	2561.73
685.4	2606.7
685.748	2582.52
686.095	2598.11
686.443	2573.48
686.79	2574.16
687.138	2591.78
687.485	2522.63
687.832	2540.03
688.18	2578.68
688.527	2547.94
688.874	2535.06
689.221	2538
689.568	2530.09
689.915	2509.07
690.262	2533.93
690.609	2529.41
690.956	2528.05
691.303	2519.92
691.65	2532.8
691.997	2484.21
692.344	2502.07
692.69	2502.74
693.037	2505.23
693.383	2478.34
693.73	2458.9
694.077	2476.08
694.423	2465.23
694.769	2487.15
695.116	2433.59
695.462	2445.35
695.808	2463.65
696.155	2468.62
696.501	2436.53
696.847	2416.19
697.193	2442.18
697.539	2400.6
697.885	2412.58
698.231	2391.56
698.577	2409.41
698.923	2394.95
699.269	2398.79
699.614	2385.01
699.96	2346.36
700.306	2319.25
700.651	2376.65
700.997	2359.92
701.342	2359.25
701.688	2339.59
702.033	2363.31
702.379	2345.01
702.724	2364.67
703.069	2356.53
703.415	2322.64
703.76	2332.81
704.105	2323.31
704.45	2318.12
704.795	2279.02
705.14	2304.78
705.485	2278.8
705.83	2279.25
706.175	2265.91
706.52	2306.82
706.865	2251.23
707.209	2276.08
707.554	2258.68
707.899	2286.03
708.243	2269.08
708.588	2253.94
708.932	2229.31
709.277	2240.83
709.621	2257.33
709.966	2255.97
710.31	2208.06
710.654	2212.36
710.998	2238.35
711.342	2187.72
711.687	2188.18
712.031	2202.41
712.375	2220.49
712.719	2237.67
713.063	2216.88
713.407	2188.63
713.75	2171.68
714.094	2202.87
714.438	2188.4
714.782	2201.28
715.125	2169.65
715.469	2168.52
715.812	2158.8
716.156	2141.62
716.499	2144.79
716.843	2182.3
717.186	2153.83
717.53	2159.03
717.873	2159.25
718.216	2163.32
718.559	2133.72
718.902	2164
719.246	2133.94
719.589	2144.34
719.932	2136.65
720.275	2137.1
720.617	2125.58
720.96	2140.27
721.303	2134.17
721.646	2102.53
721.989	2095.52
722.331	2114.51
722.674	2138.91
723.016	2134.62
723.359	2116.09
723.701	2102.08
724.044	2107.28
724.386	2068.18
724.729	2114.28
725.071	2096.43
725.413	2118.8
725.755	2076.77
726.097	2056.88
726.439	2047.62
726.782	2062.3
727.124	2087.39
727.465	2065.69
727.807	2074.51
728.149	2056.2
728.491	2063.66
728.833	2053.04
729.175	2055.98
729.516	2080.84
729.858	2079.25
730.199	2033.15
730.541	2036.77
730.882	2017.79
731.224	2064.79
731.565	2054.85
731.906	2009.88
732.248	2035.64
732.589	2022.98
732.93	1999.03
733.271	2021.18
733.612	2034.06
733.953	2031.8
734.294	2027.5
734.635	1974.85
734.976	2013.94
735.317	2014.4
735.658	1989.99
735.999	2006.03
736.339	2006.94
736.68	1987.05
737.021	1996.77
737.361	1975.08
737.702	2016.88
738.042	1978.46
738.383	1979.14
738.723	1966.04
739.063	1972.82
739.404	1994.28
739.744	1940.5
740.084	1940.05
740.424	1960.61
740.764	1954.74
741.104	1956.32
741.444	1931.46
741.784	1922.2
742.124	1965.58
742.464	1987.05
742.804	1971.46
743.143	1919.26
743.483	1954.51
743.823	1945.47
744.162	1917
744.502	1931.91
744.841	1960.84
745.181	1953.38
745.52	1919.26
745.86	1908.18
746.199	1911.57
746.538	1921.52
746.877	1945.02
747.216	1941.4
747.556	1930.56
747.895	1935.98
748.234	1921.07
748.573	1896.89
748.911	1904.79
749.25	1916.32
749.589	1891.69
749.928	1905.02
750.267	1900.05
750.605	1901.63
750.944	1894.63
751.283	1877.68
751.621	1884.68
751.96	1884.68
752.298	1867.06
752.636	1855.53
752.975	1867.96
753.313	1868.64
753.651	1873.61
753.989	1881.07
754.327	1872.7
754.666	1837.23
755.004	1862.08
755.342	1847.17
755.679	1813.27
756.017	1860.05
756.355	1848.98
756.693	1836.55
757.031	1827.51
757.368	1818.92
757.706	1868.86
758.044	1834.06
758.381	1805.14
758.719	1835.19
759.056	1819.83
759.394	1813.27
759.731	1788.64
760.068	1778.7
760.405	1777.11
760.743	1801.29
761.08	1780.28
761.417	1785.7
761.754	1764.01
762.091	1775.53
762.428	1790.22
762.765	1744.35
763.102	1747.28
763.438	1775.53
763.775	1748.19
764.112	1753.84
764.449	1747.74
764.785	1748.87
765.122	1713.61
765.458	1708.64
765.795	1741.63
766.131	1693.73
766.467	1702.31
766.804	1718.81
767.14	1680.85
767.476	1701.18
767.812	1717.91
768.148	1698.47
768.485	1695.08
768.821	1681.3
769.157	1688.3
769.492	1653.5
769.828	1663.67
770.164	1681.07
770.5	1627.29
770.836	1654.41
771.171	1650.79
771.507	1666.16
771.842	1622.77
772.178	1652.15
772.513	1654.18
772.849	1640.39
773.184	1617.57
