Data from foam2_polystyrene_foam_FLMS001491_00012.txt Node
Date: Wed Feb 08 10:57:34 GMT 2017
User: dcchb
Spectrometer: FLMS00149
Trigger mode: 0
Integration Time (sec): 2.000000E-2
Scans to average: 10
Electric dark correction enabled: true
Nonlinearity correction enabled: false
Boxcar width: 0
XAxis mode: Wavelengths
Number of Pixels in Spectrum: 2048
>>>>>Begin Spectral Data<<<<<
341.393	-2.46
341.776	-2.46
342.16	-2.46
342.543	-66.18
342.927	-81.1
343.31	-73.19
343.693	-73.42
344.077	-64.15
344.46	-55.79
344.843	-70.03
345.226	-61.21
345.61	-42.91
345.993	4.55
346.376	-13.76
346.759	21.95
347.142	26.92
347.525	56.3
347.908	68.5
348.291	58.33
348.674	105.11
349.057	112.79
349.44	121.16
349.823	154.6
350.206	179.01
350.588	228.04
350.971	208.38
351.354	234.15
351.737	264.88
352.119	264.88
352.502	278.21
352.884	282.28
353.267	290.87
353.65	312.11
354.032	306.69
354.414	287.03
354.797	328.61
355.179	340.58
355.562	354.14
355.944	341.71
356.326	365.22
356.709	340.13
357.091	357.08
357.473	355.73
357.855	353.47
358.238	348.72
358.62	359.11
359.002	368.61
359.384	361.6
359.766	345.33
360.148	355.5
360.53	374.71
360.912	355.5
361.294	367.7
361.676	351.43
362.057	362.5
362.439	352.11
362.821	363.63
363.203	351.43
363.584	350.3
363.966	363.18
364.348	362.5
364.729	336.52
365.111	351.21
365.493	362.5
365.874	356.63
366.256	358.21
366.637	352.34
367.019	340.58
367.4	355.5
367.781	339.23
368.163	342.39
368.544	360.7
368.925	366.57
369.306	368.61
369.688	361.15
370.069	377.65
370.45	360.02
370.831	348.72
371.212	370.64
371.593	359.57
371.974	348.04
372.355	352.56
372.736	372.22
373.117	364.99
373.498	357.31
373.879	362.05
374.26	390.75
374.641	367.25
375.021	355.05
375.402	365.44
375.783	376.97
376.163	384.65
376.544	395.05
376.925	411.09
377.305	380.36
377.686	380.58
378.066	399.11
378.447	407.48
378.827	407.25
379.208	390.3
379.588	406.57
379.968	401.83
380.349	415.16
380.729	425.78
381.109	394.14
381.489	404.76
381.87	435.5
382.25	409.28
382.63	421.71
383.01	425.78
383.39	424.65
383.77	437.53
384.15	441.37
384.53	454.03
384.91	456.74
385.29	423.29
385.67	469.85
386.049	456.97
386.429	455.38
386.809	462.39
387.189	470.52
387.568	461.26
387.948	468.72
388.328	501.26
388.707	473.69
389.087	477.98
389.466	469.62
389.846	499.45
390.225	490.64
390.605	504.2
390.984	493.8
391.363	501.94
391.743	508.94
392.122	529.28
392.501	538.55
392.881	528.38
393.26	520.01
393.639	548.71
394.018	539.68
394.397	558.43
394.776	553.69
395.155	541.71
395.534	555.49
395.913	545.55
396.292	547.81
396.671	558.66
397.05	553.91
397.429	573.8
397.808	568.15
398.186	560.92
398.565	597.07
398.944	586.91
399.323	599.11
399.701	621.48
400.08	625.32
400.458	600.92
400.837	586.68
401.215	624.19
401.594	638.43
401.972	618.09
402.351	653.57
402.729	649.05
403.107	652.67
403.486	650.18
403.864	665.1
404.242	646.34
404.62	667.81
404.999	675.72
405.377	666.45
405.755	684.08
406.133	695.6
406.511	698.54
406.889	702.16
407.267	728.37
407.645	719.33
408.023	744.87
408.401	757.52
408.779	752.55
409.156	782.38
409.534	764.53
409.912	766.11
410.29	798.88
410.667	802.27
411.045	799.33
411.422	815.15
411.8	828.71
412.178	827.35
412.555	837.07
412.933	868.25
413.31	896.5
413.687	873.9
414.065	885.88
414.442	898.54
414.819	904.41
415.197	901.7
415.574	907.35
415.951	914.81
416.328	932.21
416.705	957.97
417.082	931.76
417.46	985.77
417.837	987.8
418.214	959.55
418.591	992.77
418.967	999.55
419.344	989.61
419.721	1043.16
420.098	1045.65
420.475	1030.06
420.852	1047.46
421.228	1056.5
421.605	1053.11
421.982	1092.2
422.358	1091.07
422.735	1088.14
423.111	1091.75
423.488	1139.89
423.864	1171.3
424.241	1121.35
424.617	1159.55
424.994	1154.8
425.37	1170.39
425.746	1197.96
426.123	1205.87
426.499	1210.62
426.875	1225.08
427.251	1230.73
427.627	1287
428.003	1261.24
428.379	1299.43
428.756	1320.45
429.132	1344.4
429.507	1329.26
429.883	1338.75
430.259	1375.36
430.635	1367.9
431.011	1410.84
431.387	1414.68
431.763	1451.29
432.138	1486.99
432.514	1480.44
432.89	1470.5
433.265	1513.89
433.641	1551.4
434.016	1537.61
434.392	1620.32
434.767	1582.81
435.143	1585.52
435.518	1633.43
435.894	1631.62
436.269	1651.51
436.644	1653.77
437.02	1682.24
437.395	1688.57
437.77	1752.3
438.145	1733.09
438.52	1775.12
438.895	1769.7
439.271	1806.76
439.646	1841.34
440.021	1866.42
440.395	1837.49
440.77	1861.45
441.145	1855.12
441.52	1905.29
441.895	1912.75
442.27	1953.65
442.645	1928.34
443.019	1982.12
443.394	1996.36
443.769	2018.96
444.143	2016.7
444.518	2003.14
444.892	2042.01
445.267	2032.97
445.641	2120.65
446.016	2116.13
446.39	2112.29
446.764	2120.42
447.139	2153.42
447.513	2151.38
447.887	2133.98
448.262	2170.82
448.636	2221.89
449.01	2234.32
449.384	2249.01
449.758	2238.16
450.132	2282.23
450.506	2283.36
450.88	2282.45
451.254	2318.39
451.628	2360.87
452.002	2429.57
452.376	2398.38
452.75	2455.1
453.123	2454.2
453.497	2497.59
453.871	2529.23
454.244	2547.31
454.618	2581.88
454.992	2599.96
455.365	2571.94
455.739	2689
456.112	2724.93
456.486	2717.47
456.859	2707.3
457.232	2783.68
457.606	2774.19
457.979	2832.04
458.352	2863.23
458.725	2922.89
459.099	2929.67
459.472	2959.05
459.845	2987.29
460.218	3028.88
460.591	3075.2
460.964	3054.19
461.337	3162.2
461.71	3180.74
462.083	3227.06
462.456	3260.96
462.829	3230.9
463.201	3360.62
463.574	3334.86
463.947	3391.58
464.32	3461.86
464.692	3478.35
465.065	3539.6
465.438	3561.06
465.81	3629.99
466.183	3625.7
466.555	3706.6
466.928	3759.93
467.3	3781.62
467.672	3820.94
468.045	3899.81
468.417	3912.47
468.789	3957.89
469.161	3956.99
469.534	4046.48
469.906	4136.19
470.278	4198.11
470.65	4192.69
471.022	4279.24
471.394	4359.46
471.766	4402.4
472.138	4468.84
472.51	4592.45
472.882	4614.37
473.253	4655.5
473.625	4719.68
473.997	4836.74
474.369	4859.79
474.74	4911.54
475.112	4996.73
475.484	5051.19
475.855	5170.06
476.227	5288.7
476.598	5395.82
476.97	5437.63
477.341	5533.67
477.713	5582.03
478.084	5655.7
478.455	5833.77
478.827	5868.12
479.198	6021.34
479.569	6007.1
479.94	6172.97
480.311	6253.2
480.682	6364.83
481.053	6498.84
481.424	6628.55
481.795	6715.11
482.166	6784.03
482.537	6818.38
482.908	7008.43
483.279	7027.64
483.65	7245.71
484.021	7348.99
484.391	7385.6
484.762	7537.23
485.133	7564.12
485.503	7724.57
485.874	7850.67
486.244	7954.85
486.615	8068.52
486.985	8159.81
487.356	8328.85
487.726	8346.25
488.097	8561.39
488.467	8621.27
488.837	8818.55
489.207	8906.46
489.578	9016.51
489.948	9048.83
490.318	9246.34
490.688	9303.74
491.058	9393.23
491.428	9558.2
491.798	9638.87
492.168	9891.07
492.538	9843.84
492.908	10051.29
493.278	10090.16
493.648	10251.96
494.017	10359.76
494.387	10378.74
494.757	10476.59
495.126	10650.6
495.496	10653.99
495.866	10777.82
496.235	10824.38
496.605	10949.8
496.974	11016.69
497.344	11083.8
497.713	11209.9
498.082	11321.09
498.452	11348.43
498.821	11434.08
499.19	11476.34
499.559	11705.94
499.928	11674.07
500.298	11880.17
500.667	11966.27
501.036	11912.71
501.405	12194.28
501.774	12072.03
502.143	12291
502.512	12251.23
502.88	12393.37
503.249	12456.88
503.618	12508.63
503.987	12649.41
504.356	12654.38
504.724	12798.56
505.093	12828.84
505.462	12968.73
505.83	13059.35
506.199	13130.3
506.567	13369.85
506.936	13429.28
507.304	13524.87
507.672	13591.08
508.041	13617.3
508.409	13851.64
508.777	13907.46
509.145	13995.14
509.514	13992.43
509.882	14132.99
510.25	14195.81
510.618	14362.14
510.986	14365.3
511.354	14499.99
511.722	14666.08
512.09	14869.02
512.458	14890.48
512.826	14958.96
513.193	15006.19
513.561	15127.54
513.929	15219.06
514.297	15372.28
514.664	15520.75
515.032	15598.94
515.4	15693.63
515.767	15760.74
516.135	15892.94
516.502	15727.52
516.869	16166.38
517.237	16123.9
517.604	16161.19
517.972	16371.58
518.339	16460.61
518.706	16551.91
519.073	16679.82
519.44	16786.93
519.808	17070.99
520.175	17033.48
520.542	17198.67
520.909	17460.81
521.276	17357.99
521.643	17539.23
522.009	17735.38
522.376	17778.09
522.743	18035.26
523.11	18120.91
523.477	18295.14
523.843	18367
524.21	18548.02
524.577	18588.92
524.943	18819.65
525.31	18909.36
525.676	19129.69
526.043	19300.31
526.409	19301.67
526.776	19514.77
527.142	19530.81
527.508	19791.6
527.874	19926.96
528.241	20131.25
528.607	20146.39
528.973	20300.29
529.339	20380.06
529.705	20540.28
530.071	20772.59
530.437	20823.21
530.803	20942.98
531.169	21178.23
531.535	21084.22
531.901	21279.02
532.267	21345
532.632	21537.09
532.998	21569.86
533.364	21859.11
533.73	21825.67
534.095	21948.6
534.461	22057.3
534.826	22151.76
535.192	22331.64
535.557	22483.96
535.923	22383.17
536.288	22551.07
536.653	22687.34
537.019	22587.91
537.384	22733.67
537.749	22889.14
538.114	22994.23
538.479	23055.47
538.845	23104.05
539.21	23092.98
539.575	23279.64
539.94	23413.42
540.305	23555.57
540.67	23449.81
541.034	23670.59
541.399	23725.73
541.764	23812.06
542.129	23911.26
542.494	23901.09
542.858	24153.74
543.223	24149.22
543.587	24326.17
543.952	24235.78
544.316	24406.39
544.681	24394.42
545.045	24570.23
545.41	24706.72
545.774	24803.67
546.138	24872.14
546.503	24932.25
546.867	24932.03
547.231	25222.19
547.595	25198.46
547.959	25260.61
548.324	25338.35
548.688	25495.63
549.052	25475.97
549.416	25581.5
549.779	25673.25
550.143	25733.81
550.507	26026.46
550.871	26086.57
551.235	26084.99
551.599	26251.77
551.962	26355.72
552.326	26430.52
552.689	26583.28
553.053	26444.08
553.417	26600.68
553.78	27005.19
554.143	26849.04
554.507	27069.6
554.87	27079.99
555.234	27322.93
555.597	27183.49
555.96	27455.13
556.323	27579.87
556.686	27612.18
557.05	27795.68
557.413	27837.94
557.776	27976.69
558.139	28049.69
558.502	28249
558.865	28286.97
559.228	28462.56
559.59	28647.18
559.953	28691.03
560.316	28991.58
560.679	28975.31
561.041	29180.5
561.404	29318.35
561.767	29509.99
562.129	29426.6
562.492	29780.26
562.854	29734.16
563.217	29733.26
563.579	30110.42
563.941	30121.27
564.304	30372.79
564.666	30393.58
565.028	30590.18
565.39	30680.35
565.753	30761.03
566.115	30837.18
566.477	31058.87
566.839	31100
567.201	31304.29
567.563	31364.63
567.925	31638.52
568.287	31577.28
568.648	31530.95
569.01	31833.77
569.372	31968.91
569.734	31959.41
570.095	32158.05
570.457	32207.99
570.819	32239.18
571.18	32353.3
571.542	32500.64
571.903	32475.33
572.265	32613.86
572.626	32868.54
572.987	32889.33
573.349	32989.22
573.71	33056.33
574.071	33180.4
574.432	33274.86
574.794	33584.23
575.155	33512.59
575.516	33385.59
575.877	33529.77
576.238	33544.91
576.599	33826.03
576.96	33718.01
577.32	33816.31
577.681	33922.3
578.042	34012.92
578.403	34006.37
578.763	34097.66
579.124	34068.29
579.485	34350.99
579.845	34412
580.206	34320.26
580.566	34381.95
580.927	34442.51
581.287	34524.54
581.648	34430.54
582.008	34681.6
582.368	34587.14
582.728	34602.96
583.089	34683.86
583.449	34696.07
583.809	34592.79
584.169	34637.08
584.529	34653.35
584.889	34952.56
585.249	34708.49
585.609	34565.45
585.969	34890.64
586.329	34777.64
586.688	34883.18
587.048	34772.22
587.408	34736.97
587.768	34748.72
588.127	34913.23
588.487	34720.7
588.846	34895.61
589.206	34676.18
589.565	34864.42
589.925	34968.6
590.284	34803.86
590.643	35072.33
591.003	34981.71
591.362	34991.2
591.721	34973.8
592.08	35034.36
592.44	35120.23
592.799	35040.01
593.158	34947.36
593.517	35020.35
593.876	35139.44
594.235	34972.22
594.593	35088.82
594.952	35172.44
595.311	35209.95
595.67	35203.4
596.029	35289.5
596.387	35310.29
596.746	35384.41
597.104	35401.36
597.463	35235.71
597.822	35423.96
598.18	35222.38
598.538	35244.75
598.897	35571.07
599.255	35300.57
599.613	35656.94
599.972	35434.35
600.33	35647.23
600.688	35361.13
601.046	35551.86
601.404	35692.65
601.762	35562.93
602.12	35896.49
602.478	35790.5
602.836	35842.7
603.194	35740.11
603.552	35779.65
603.91	35745.08
604.268	35977.84
604.625	35840.67
604.983	35915.24
605.341	35743.27
605.698	35992.53
606.056	35952.08
606.413	35958.86
606.771	36075.69
607.128	36085.41
607.485	35902.36
607.843	36007.9
608.2	36152.3
608.557	36330.6
608.914	36179.42
609.272	36437.71
609.629	36370.82
609.986	36380.77
610.343	36410.14
610.7	36627.77
611.057	36517.03
611.414	36477.71
611.771	36683.36
612.127	36597.03
612.484	36658.95
612.841	36744.6
613.198	36652.17
613.554	36665.28
613.911	37070.01
614.267	36980.3
614.624	36797.7
614.98	37014.2
615.337	37092.84
615.693	36995.21
616.05	37012.84
616.406	37203.8
616.762	37094.87
617.118	37082.67
617.475	37108.21
617.831	37230.01
618.187	37140.75
618.543	37215.09
618.899	37524.69
619.255	37287.41
619.611	37336.9
619.967	37401.08
620.323	37500.96
620.678	37291.93
621.034	37318.37
621.39	37246.51
621.746	37258.71
622.101	37674.52
622.457	37369.89
622.812	37539.61
623.168	37613.95
623.523	37524.47
623.879	37513.62
624.234	37395.88
624.589	37420.29
624.945	37277.01
625.3	37381.42
625.655	37490.57
626.01	37492.15
626.365	37474.98
626.72	37364.02
627.075	37356.11
627.43	37307.3
627.785	37305.94
628.14	37296.9
628.495	37332.61
628.85	37343.23
629.205	37237.02
629.559	37552.26
629.914	37263.23
630.269	37196.34
630.623	37196.56
630.978	37081.09
631.332	37084.25
631.687	37241.31
632.041	36956.12
632.396	37075.89
632.75	36894.2
633.104	36777.37
633.459	36701.21
633.813	36692.85
634.167	36648.1
634.521	36662.57
634.875	36610.14
635.229	36628.22
635.583	36475.23
635.937	36413.08
636.291	36338.51
636.645	36273.2
636.999	36185.97
637.352	36431.61
637.706	36085.41
638.06	36347.55
638.413	36205.63
638.767	36101.68
639.121	36038.85
639.474	35800.22
639.828	35746.66
640.181	35926.09
640.534	35841.35
640.888	35905.3
641.241	35646.55
641.594	35586.66
641.947	35698.98
642.301	35560.45
642.654	35560.22
643.007	35486.1
643.36	35505.76
643.713	35412.43
644.066	35257.41
644.419	35228.03
644.771	35094.47
645.124	34768.38
645.477	34606.8
645.83	34455.85
646.182	34267.6
646.535	34085.01
646.888	34116.65
647.24	33931.79
647.593	34056.76
647.945	34038.68
648.298	33844.56
648.65	33773.15
649.002	33701.06
649.355	33842.98
649.707	33741.74
650.059	33911.23
650.411	34181.95
650.763	34306.02
651.115	34565.9
651.467	34587.14
651.819	34456.52
652.171	34341.95
652.523	34221.28
652.875	34306.92
653.227	34186.93
653.578	34404.1
653.93	34172.69
654.282	34073.48
654.633	34004.78
654.985	33981.96
655.337	34044.1
655.688	33978.12
656.039	34194.38
656.391	33771.12
656.742	33883.88
657.094	33811.34
657.445	34055.86
657.796	33756.43
658.147	33841.85
658.498	33587.17
658.849	33863.77
659.2	33699.71
659.551	33633.49
659.902	33627.84
660.253	33537.45
660.604	33598.24
660.955	33508.3
661.306	33621.52
661.656	33558.92
662.007	33535.87
662.358	33456.55
662.708	33554.4
663.059	33519.6
663.409	33270.11
663.76	33471.69
664.11	33396.66
664.461	33375.2
664.811	33504.46
665.161	33361.86
665.511	33215.43
665.862	33283.9
666.212	33278.25
666.562	33412.71
666.912	33152.83
667.262	33085.03
667.612	33200.51
667.962	33188.76
668.312	33173.39
668.662	33267.63
669.011	33206.39
669.361	33120.51
669.711	33071.7
670.06	32979.95
670.41	32842.55
670.76	32856.11
671.109	33064.7
671.459	32886.4
671.808	32878.26
672.157	32858.15
672.507	32630.81
672.856	32699.73
673.205	32589.68
673.554	32791.93
673.904	32686.63
674.253	32856.79
674.602	32799.17
674.951	32295.9
675.3	32095.68
675.649	32691.37
675.998	32567.99
676.346	32428.78
676.695	32629.23
677.044	32305.17
677.393	32326.18
677.741	32386.07
678.09	32447.08
678.438	32232.4
678.787	32295.9
679.135	32279.41
679.484	32143.36
679.832	32269.91
680.181	31999.41
680.529	32147.43
680.877	32131.16
681.225	31942.92
681.573	32203.93
681.922	31992.86
682.27	31805.75
682.618	31818.17
682.966	31801.23
683.314	31887.78
683.661	31596.94
684.009	31460.9
684.357	31401.91
684.705	31384.29
685.053	31480.33
685.4	31314.01
685.748	31195.14
686.095	31092.32
686.443	31068.82
686.79	30892.78
687.138	30901.81
687.485	30846
687.832	30772.78
688.18	30785.66
688.527	30577.76
688.874	30528.49
689.221	30544.31
689.568	30490.98
689.915	30356.52
690.262	30244.43
690.609	30287.14
690.956	29980.93
691.303	29992.69
691.65	30074.27
691.997	29954.49
692.344	29830.43
692.69	29783.65
693.037	29670.89
693.383	29557.9
693.73	29702.98
694.077	29481.06
694.423	29608.74
694.769	29477.45
695.116	29297.34
695.462	29267.73
695.808	29186.61
696.155	29182.76
696.501	28862.77
696.847	28889.66
697.193	28787.97
697.539	28794.98
697.885	28559.96
698.231	28549.79
698.577	28440.41
698.923	28570.12
699.269	28340.98
699.614	28226.86
699.96	28205.84
700.306	28212.62
700.651	28171.72
700.997	28130.36
701.342	28001.78
701.688	28035
702.033	27848.11
702.379	27873.65
702.724	27764.04
703.069	27845.4
703.415	27360.89
703.76	27555.24
704.105	27492.64
704.45	27423.04
704.795	27327.45
705.14	27215.13
705.485	27236.15
705.83	27100.33
706.175	27195.02
706.52	27132.2
706.865	26911.86
707.209	27002.03
707.554	26817.4
707.899	26876.61
708.243	26609.05
708.588	26626.67
708.932	26412.67
709.277	26428.49
709.621	26460.12
709.966	26324.99
710.31	26424.87
710.654	26134.48
710.998	26146.91
711.342	26330.64
711.687	26140.58
712.031	25912.34
712.375	25880.03
712.719	25915.28
713.063	25945.33
713.407	25892.91
713.75	25732.91
714.094	25712.8
714.438	25732.23
714.782	25725.45
715.125	25547.61
715.469	25540.6
715.812	25427.83
716.156	25384.67
716.499	25348.29
716.843	25343.77
717.186	25146.71
717.53	25277.56
717.873	25340.83
718.216	25174.28
718.559	25023.1
718.902	24997.11
719.246	25120.05
719.589	24895.19
719.932	24728.42
720.275	24865.14
720.617	24812.48
720.96	24810
721.303	24772.48
721.646	24747.63
721.989	24601.64
722.331	24702.43
722.674	24607.97
723.016	24578.37
723.359	24566.39
723.701	24478.71
724.044	24443.91
724.386	24281.42
724.729	24396.45
725.071	24274.87
725.413	24288.88
725.755	24300.41
726.097	24066.29
726.439	24038.04
726.782	24102.45
727.124	24082.56
727.465	23991.04
727.807	23897.25
728.149	23880.98
728.491	23868.55
728.833	23876.46
729.175	23781.78
729.516	23796.01
729.858	23748.56
730.199	23682.57
730.541	23798.05
730.882	23638.73
731.224	23699.74
731.565	23474.44
731.906	23523.7
732.248	23570.48
732.589	23450.26
732.93	23349.7
733.271	23323.48
733.612	23357.83
733.953	23485.96
734.294	23316.93
734.635	23251.85
734.976	23218.85
735.317	23175.46
735.658	23092.75
735.999	23105.86
736.339	23022.7
736.68	23219.08
737.021	23034.22
737.361	22999.65
737.702	23076.26
738.042	22932.08
738.383	22855.92
738.723	22973.89
739.063	22788.13
739.404	22910.39
739.744	22747.9
740.084	22717.85
740.424	22748.36
740.764	22693.44
741.104	22738.19
741.444	22614.8
741.784	22519.44
742.124	22528.93
742.464	22541.81
742.804	22456.84
743.143	22373.23
743.483	22372.32
743.823	22181.59
744.162	22288.03
744.502	22217.52
744.841	22234.02
745.181	22340.23
745.52	22213.23
745.86	22184.76
746.199	22107.7
746.538	22023.63
746.877	22118.54
747.216	22115.6
747.556	22125.77
747.895	21943.63
748.234	21846.46
748.573	21860.7
748.911	21819.34
749.25	21784.31
749.589	21629.29
749.928	21735.28
750.267	21588.84
750.605	21606.47
750.944	21610.76
751.283	21458
751.621	21507.03
751.96	21427.49
752.298	21423.19
752.636	21342.07
752.975	21249.86
753.313	21107.27
753.651	21159.02
753.989	21174.39
754.327	21131.9
754.666	21041.06
