Data from foam2_polystyrene_foam_FLMS001491_00068.txt Node
Date: Wed Feb 08 10:58:20 GMT 2017
User: dcchb
Spectrometer: FLMS00149
Trigger mode: 0
Integration Time (sec): 2.000000E-2
Scans to average: 10
Electric dark correction enabled: true
Nonlinearity correction enabled: false
Boxcar width: 0
XAxis mode: Wavelengths
Number of Pixels in Spectrum: 2048
>>>>>Begin Spectral Data<<<<<
341.393	7.39
341.776	7.39
342.16	7.39
342.543	-59.5
342.927	-84.36
343.31	-49.56
343.693	-55.66
344.077	-73.06
344.46	-64.02
344.843	-59.73
345.226	-40.07
345.61	-43.46
345.993	-28.09
346.376	-2.56
346.759	14.17
347.142	34.28
347.525	40.61
347.908	58.91
348.291	68.18
348.674	100.72
349.057	99.36
349.44	114.28
349.823	139.36
350.206	165.8
350.588	175.97
350.971	215.52
351.354	234.5
351.737	246.25
352.119	250.09
352.502	256.19
352.884	249.87
353.267	298.23
353.65	314.95
354.032	298.45
354.414	309.07
354.797	323.54
355.179	333.71
355.562	338.45
355.944	335.51
356.326	331.22
356.709	335.74
357.091	321.73
357.473	352.69
357.855	353.37
358.238	331.9
358.62	350.2
359.002	325.57
359.384	339.13
359.766	342.52
360.148	368.51
360.53	356.76
360.912	326.25
361.294	347.04
361.676	348.62
362.057	343.42
362.439	335.97
362.821	354.72
363.203	346.59
363.584	345.23
363.966	335.29
364.348	347.26
364.729	330.99
365.111	332.12
365.493	323.76
365.874	335.97
366.256	340.26
366.637	310.2
367.019	333.25
367.4	343.2
367.781	325.8
368.163	333.03
368.544	320.37
368.925	343.88
369.306	328.96
369.688	317.89
370.069	333.03
370.45	333.48
370.831	336.87
371.212	332.8
371.593	338.9
371.974	346.81
372.355	330.77
372.736	345.91
373.117	342.29
373.498	339.36
373.879	305.46
374.26	347.04
374.641	340.26
375.021	326.7
375.402	344.33
375.783	352.24
376.163	336.42
376.544	354.04
376.925	375.29
377.305	356.98
377.686	374.61
378.066	360.37
378.447	352.01
378.827	346.59
379.208	365.57
379.588	361.28
379.968	367.83
380.349	369.64
380.729	381.61
381.109	358.56
381.489	393.14
381.87	370.99
382.25	364.89
382.63	404.21
383.01	385
383.39	385.46
383.77	403.53
384.15	425.91
384.53	399.24
384.91	428.62
385.29	388.17
385.67	414.16
386.049	411.9
386.429	410.77
386.809	420.71
387.189	396.3
387.568	409.18
387.948	417.77
388.328	442.4
388.707	430.2
389.087	432.01
389.466	428.17
389.846	422.97
390.225	442.18
390.605	444.21
390.984	439.01
391.363	436.53
391.743	442.63
392.122	445.34
392.501	449.86
392.881	462.52
393.26	462.97
393.639	468.39
394.018	473.59
394.397	457.77
394.776	469.07
395.155	467.49
395.534	458.45
395.913	481.5
396.292	479.24
396.671	444.21
397.05	479.24
397.429	488.28
397.808	490.99
398.186	489.86
398.565	484.66
398.944	516.75
399.323	515.4
399.701	507.26
400.08	529.41
400.458	521.95
400.837	528.96
401.215	522.85
401.594	531.44
401.972	535.51
402.351	522.18
402.729	533.93
403.107	538.9
403.486	546.58
403.864	550.65
404.242	535.73
404.62	548.16
404.999	555.62
405.377	576.19
405.755	575.28
406.133	576.86
406.511	581.38
406.889	589.29
407.267	591.55
407.645	626.58
408.023	592
408.401	604.66
408.779	605.34
409.156	611.44
409.534	642.4
409.912	624.55
410.29	635.17
410.667	624.32
411.045	644.21
411.422	637.43
411.8	677.43
412.178	679.69
412.555	681.95
412.933	679.91
413.31	662.06
413.687	685.79
414.065	685.11
414.442	706.8
414.819	702.96
415.197	709.52
415.574	720.59
415.951	726.69
416.328	752.45
416.705	733.92
417.082	733.02
417.46	757.88
417.837	764.43
418.214	759.46
418.591	772.56
418.967	761.94
419.344	766.69
419.721	775.05
420.098	787.03
420.475	773.02
420.852	792.9
421.228	807.37
421.605	803.52
421.982	829.06
422.358	830.87
422.735	844.65
423.111	841.49
423.488	869.51
423.864	851.21
424.241	878.78
424.617	875.39
424.994	887.82
425.37	890.75
425.746	873.58
426.123	896.85
426.499	900.02
426.875	925.78
427.251	927.59
427.627	919.68
428.003	942.5
428.379	964.65
428.756	968.49
429.132	955.16
429.507	994.71
429.883	994.93
430.259	1016.85
430.635	1001.48
431.011	1014.59
431.387	1038.32
431.763	1075.38
432.138	1069.96
432.514	1077.64
432.89	1078.32
433.265	1126.68
433.641	1089.39
434.016	1127.13
434.392	1138.88
434.767	1153.57
435.143	1169.84
435.518	1170.97
435.894	1186.56
436.269	1186.34
436.644	1192.21
437.02	1238.31
437.395	1254.59
437.77	1270.63
438.145	1267.01
438.52	1244.87
438.895	1293
439.271	1263.85
439.646	1323.96
440.021	1320.8
440.395	1332.55
440.77	1322.38
441.145	1314.47
441.52	1378.2
441.895	1350.4
442.27	1374.36
442.645	1382.49
443.019	1400.57
443.394	1407.58
443.769	1417.75
444.143	1402.83
444.518	1457.29
444.892	1414.13
445.267	1458.2
445.641	1467.01
446.016	1464.52
446.39	1494.81
446.764	1494.81
447.139	1484.86
447.513	1508.59
447.887	1508.59
448.262	1520.12
448.636	1562.37
449.01	1541.36
449.384	1607.57
449.758	1592.66
450.132	1600.79
450.506	1610.06
450.88	1631.75
451.254	1650.51
451.628	1637.17
452.002	1683.95
452.376	1688.02
452.75	1711.97
453.123	1720.56
453.497	1720.79
453.871	1730.73
454.244	1748.81
454.618	1762.59
454.992	1827
455.365	1792.42
455.739	1839.66
456.112	1854.57
456.486	1862.48
456.859	1864.74
457.232	1881.24
457.606	1886.66
457.979	1915.81
458.352	1935.92
458.725	1957.62
459.099	1956.26
459.472	2037.84
459.845	2017.96
460.218	2029.93
460.591	2065.41
460.964	2052.98
461.337	2103.38
461.71	2106.31
462.083	2151.96
462.456	2143.83
462.829	2203.94
463.201	2201.91
463.574	2216.59
463.947	2254.56
464.32	2303.6
464.692	2271.06
465.065	2290.72
465.438	2333.88
465.81	2378.4
466.183	2380.88
466.555	2432.86
466.928	2426.08
467.3	2432.18
467.672	2466.08
468.045	2528.9
468.417	2534.1
468.789	2547.66
469.161	2599.41
469.534	2602.57
469.906	2685.28
470.278	2652.52
470.65	2722.8
471.022	2761.44
471.394	2841.21
471.766	2774.55
472.138	2845.96
472.51	2906.97
472.882	2967.31
473.253	2974.31
473.625	3037.59
473.997	3082.11
474.369	3099.28
474.74	3104.93
475.112	3228.55
475.484	3239.84
475.855	3250.69
476.227	3293.63
476.598	3394.87
476.97	3413.4
477.341	3465.6
477.713	3500.18
478.084	3534.53
478.455	3605.94
478.827	3661.3
479.198	3725.26
479.569	3753.73
479.94	3807.51
480.311	3902.65
480.682	3979.26
481.053	4038.92
481.424	4087.51
481.795	4107.84
482.166	4169.76
482.537	4267.16
482.908	4348.74
483.279	4382.64
483.65	4451.34
484.021	4520.26
484.391	4633.93
484.762	4625.8
485.133	4668.28
485.503	4718.22
485.874	4805.23
486.244	4889.29
486.615	4967.71
486.985	4983.98
487.356	5093.13
487.726	5162.73
488.097	5222.62
488.467	5282.73
488.837	5376.51
489.207	5441.14
489.578	5488.15
489.948	5520.46
490.318	5614.92
490.688	5630.29
491.058	5727.24
491.428	5762.49
491.798	5873.45
492.168	6010.39
492.538	5972.65
492.908	6093.33
493.278	6145.53
493.648	6155.47
494.017	6258.75
494.387	6282.7
494.757	6351.85
495.126	6396.82
495.496	6456.26
495.866	6500.32
496.235	6517.27
496.605	6508.46
496.974	6643.82
497.344	6707.32
497.713	6736.25
498.082	6749.36
498.452	6831.61
498.821	6859.18
499.19	6862.35
499.559	6951.84
499.928	7046.07
500.298	7063.02
500.667	7172.17
501.036	7148.44
501.405	7280.64
501.774	7251.49
502.143	7307.76
502.512	7318.38
502.88	7410.13
503.249	7466.17
503.618	7506.17
503.987	7513.63
504.356	7603.57
504.724	7606.74
505.093	7666.39
505.462	7747.75
505.83	7814.41
506.199	7853.06
506.567	8008.31
506.936	7955.88
507.304	8025.03
507.672	8038.59
508.041	8091.24
508.409	8191.8
508.777	8260.28
509.145	8298.69
509.514	8347.51
509.882	8399.48
510.25	8457.79
510.618	8507.95
510.986	8534.39
511.354	8643.09
511.722	8677.89
512.09	8787.49
512.458	8755.86
512.826	8831.56
513.193	8893.71
513.561	8941.16
513.929	9006.47
514.297	9114.72
514.664	9134.38
515.032	9156.3
515.4	9267.26
515.767	9364.2
516.135	9414.6
516.502	9371.43
516.869	9468.38
517.237	9559
517.604	9517.65
517.972	9691.88
518.339	9768.26
518.706	9770.52
519.073	9821.82
519.44	9838.31
519.808	9949.05
520.175	9997.41
520.542	10138.19
520.909	10163.28
521.276	10292.09
521.643	10313.78
522.009	10349.49
522.376	10481.01
522.743	10616.37
523.11	10653.89
523.477	10739.76
523.843	10813.43
524.21	10901.11
524.577	11038.51
524.943	11047.1
525.31	11154.21
525.676	11271.72
526.043	11251.38
526.409	11381.33
526.776	11475.56
527.142	11530.7
527.508	11561.21
527.874	11710.36
528.241	11681.2
528.607	11795.1
528.973	11932.27
529.339	11919.62
529.705	12040.52
530.071	12087.75
530.437	12205.26
530.803	12271.47
531.169	12317.57
531.535	12310.34
531.901	12379.26
532.267	12490
532.632	12529.77
532.998	12552.37
533.364	12594.85
533.73	12686.15
534.095	12793.27
534.461	12868.07
534.826	12954.62
535.192	12962.75
535.557	13061.73
535.923	13062.86
536.288	13148.51
536.653	13245.91
537.019	13182.86
537.384	13249.52
537.749	13379.92
538.114	13384.44
538.479	13416.53
538.845	13402.51
539.21	13453.36
539.575	13546.92
539.94	13551.89
540.305	13699.68
540.67	13700.13
541.034	13739.23
541.399	13854.03
541.764	13801.6
542.129	13842.73
542.494	13933.8
542.858	13955.72
543.223	14077.75
543.587	14111.87
543.952	14169.27
544.316	14222.38
544.681	14231.65
545.045	14266.9
545.41	14377.63
545.774	14392.55
546.138	14385.99
546.503	14422.83
546.867	14385.09
547.231	14543.05
547.595	14641.13
547.959	14655.59
548.324	14701.01
548.688	14737.17
549.052	14821.46
549.416	14897.84
549.779	14903.72
550.143	14882.7
550.507	15013.09
550.871	15129.93
551.235	15116.82
551.599	15182.81
551.962	15177.16
552.326	15320.2
552.689	15420.99
553.053	15334.22
553.417	15423.48
553.78	15648.33
554.143	15537.83
554.507	15640.65
554.87	15674.32
555.234	15803.13
555.597	15811.94
555.96	15863.24
556.323	16048.09
556.686	15972.16
557.05	16077.7
557.413	16131.26
557.776	16190.92
558.139	16341.87
558.502	16326.28
558.865	16383.45
559.228	16559.49
559.59	16555.65
559.953	16604.46
560.316	16810.79
560.679	16851.92
561.041	16867.96
561.404	17003.1
561.767	17129.42
562.129	17076.32
562.492	17276.54
562.854	17262.98
563.217	17272.24
563.579	17436.31
563.941	17422.75
564.304	17515.85
564.666	17643.08
565.028	17654.83
565.39	17798.78
565.753	17928.95
566.115	17900.7
566.477	17935.5
566.839	18087.59
567.201	18186.8
567.563	18131.66
567.925	18269.28
568.287	18332.1
568.648	18373.01
569.01	18484.42
569.372	18597.18
569.734	18501.14
570.095	18700
570.457	18786.78
570.819	18869.72
571.18	18827.68
571.542	18989.94
571.903	18951.52
572.265	19050.73
572.626	19151.74
572.987	19191.97
573.349	19254.56
573.71	19293.66
574.071	19333.21
574.432	19347.9
574.794	19557.83
575.155	19570.04
575.516	19411.85
575.877	19608.91
576.238	19644.38
576.599	19715.57
576.96	19743.14
577.32	19759.64
577.681	19886.19
578.042	19826.75
578.403	19880.76
578.763	19895.23
579.124	19953.98
579.485	19996.47
579.845	20073.07
580.206	20042.57
580.566	20087.08
580.927	20079.4
581.287	20186.52
581.648	20080.31
582.008	20197.14
582.368	20078.72
582.728	20181.32
583.089	20165.73
583.449	20142
583.809	20166.63
584.169	20291.15
584.529	20189.68
584.889	20425.61
585.249	20263.35
585.609	20201.21
585.969	20279.17
586.329	20276.46
586.688	20358.26
587.048	20211.15
587.408	20330.69
587.768	20186.74
588.127	20245.72
588.487	20266.29
588.846	20466.28
589.206	20170.02
589.565	20299.51
589.925	20303.35
590.284	20310.58
590.643	20349
591.003	20327.3
591.362	20394.87
591.721	20317.81
592.08	20377.02
592.44	20382.44
592.799	20438.71
593.158	20417.25
593.517	20277.14
593.876	20372.28
594.235	20352.39
594.593	20461.99
594.952	20503.57
595.311	20361.43
595.67	20456.57
596.029	20488.66
596.387	20630.57
596.746	20630.57
597.104	20450.24
597.463	20573.63
597.822	20545.6
598.18	20494.76
598.538	20556
598.897	20572.5
599.255	20535.66
599.613	20759.61
599.972	20594.19
600.33	20670.35
600.688	20609.33
601.046	20659.27
601.404	20707.18
601.762	20637.58
602.12	20791.47
602.478	20752.83
602.836	20776.11
603.194	20652.95
603.552	20723.9
603.91	20752.38
604.268	20799.61
604.625	20679.16
604.983	20768.65
605.341	20719.38
605.698	20808.42
606.056	20841.64
606.413	20737.01
606.771	20892.26
607.128	20915.76
607.485	20855.2
607.843	20908.76
608.2	20982.88
608.557	20985.82
608.914	20946.72
609.272	21087.06
609.629	21078.92
609.986	21146.27
610.343	20881.19
610.7	21208.64
611.057	21152.14
611.414	21117.11
611.771	21140.39
612.127	21229.43
612.484	21236.43
612.841	21203.44
613.198	21193.27
613.554	21271.23
613.911	21286.83
614.267	21342.65
614.624	21387.16
614.98	21351.68
615.337	21431.46
615.693	21407.05
616.05	21318.46
616.406	21569.98
616.762	21404.11
617.118	21506.03
617.475	21385.13
617.831	21515.97
618.187	21567.05
618.543	21616.08
618.899	21636.42
619.255	21669.42
619.611	21557.33
619.967	21671.68
620.323	21722.75
620.678	21592.36
621.034	21550.1
621.39	21550.55
621.746	21530.89
622.101	21819.69
622.457	21631.68
622.812	21537.67
623.168	21642.07
623.523	21623.32
623.879	21744.67
624.234	21441.85
624.589	21600.94
624.945	21556.88
625.3	21626.93
625.655	21567.05
626.01	21620.6
626.365	21710.09
626.72	21694.95
627.075	21695.86
627.43	21549.19
627.785	21583.09
628.14	21571.79
628.495	21624.9
628.85	21607.5
629.205	21462.42
629.559	21608.4
629.914	21562.53
630.269	21575.63
630.623	21465.58
630.978	21401.4
631.332	21432.36
631.687	21500.38
632.041	21416.32
632.396	21446.82
632.75	21386.71
633.104	21424.22
633.459	21169.99
633.813	21237.79
634.167	21265.81
634.521	21170.9
634.875	21196.89
635.229	21209.32
635.583	21099.26
635.937	21110.56
636.291	21017
636.645	21110.33
636.999	20969.32
637.352	21102.43
637.706	20810.91
638.06	20935.65
638.413	20849.55
638.767	20814.07
639.121	20859.04
639.474	20769.55
639.828	20721.64
640.181	20722.1
640.534	20751.25
640.888	20659.05
641.241	20619.73
641.594	20624.7
641.947	20686.62
642.301	20564.36
642.654	20552.38
643.007	20494.76
643.36	20583.12
643.713	20506.06
644.066	20538.82
644.419	20487.3
644.771	20202.56
645.124	20026.07
645.477	19901.55
645.83	19873.98
646.182	19765.96
646.535	19768.9
646.888	19857.26
647.24	19756.25
647.593	19893.87
647.945	19744.49
648.298	19626.31
648.65	19639.41
649.002	19564.84
649.355	19621.56
649.707	19616.14
650.059	19696.81
650.411	19900.42
650.763	19850.03
651.115	20131.6
651.467	19976.58
651.819	19979.74
652.171	19975
652.523	19842.8
652.875	19816.13
653.227	19781.56
653.578	19937.48
653.93	19947.2
654.282	19662.01
654.633	19755.79
654.985	19735.68
655.337	19727.55
655.688	19716.7
656.039	19764.16
656.391	19580.88
656.742	19599.19
657.094	19642.12
657.445	19715.8
657.796	19646.87
658.147	19611.17
658.498	19649.81
658.849	19646.87
659.2	19450.49
659.551	19473.32
659.902	19552.18
660.253	19546.53
660.604	19591.73
660.955	19457.95
661.306	19497.95
661.656	19438.51
662.007	19578.4
662.358	19411.4
662.708	19449.36
663.059	19331.4
663.409	19290.5
663.76	19328.23
664.11	19343.38
664.461	19385.63
664.811	19311.06
665.161	19331.17
665.511	19286.88
665.862	19278.74
666.212	19364.84
666.562	19328.69
666.912	19285.52
667.262	19248.91
667.612	19216.83
667.962	19294.11
668.312	19195.36
668.662	19302.25
669.011	19242.14
669.361	19190.39
669.711	19196.49
670.06	19107.9
670.41	19058.86
670.76	19155.81
671.109	19150.84
671.459	19106.32
671.808	19151.74
672.157	19192.42
672.507	19040.33
672.856	19025.87
673.205	19125.53
673.554	19075.81
673.904	18962.37
674.253	19071.74
674.602	18974.8
674.951	18657.29
675.3	18673.11
675.649	19016.83
675.998	18992.65
676.346	18895.25
676.695	19078.75
677.044	18886.21
677.393	18865.87
677.741	18981.58
678.09	18861.81
678.438	18784.97
678.787	18770.51
679.135	18757.85
679.484	18691.42
679.832	18702.26
680.181	18650.74
680.529	18706.1
680.877	18666.11
681.225	18674.92
681.573	18768.93
681.922	18561.25
682.27	18509.95
682.618	18558.99
682.966	18462.72
683.314	18486.67
683.661	18394.02
684.009	18330.97
684.357	18316.28
684.705	18306.11
685.053	18231.77
685.4	18185.21
685.748	18112.45
686.095	18119.23
686.443	18112.45
686.79	18123.29
687.138	18060.02
687.485	18153.12
687.832	18088.04
688.18	18031.77
688.527	17965.11
688.874	17922.85
689.221	17884.66
689.568	17742.29
689.915	17715.62
690.262	17747.94
690.609	17602.18
690.956	17631.33
691.303	17568.28
691.65	17545.46
691.997	17538.9
692.344	17404.44
692.69	17394.05
693.037	17428.62
693.383	17206.03
693.73	17300.27
694.077	17230.21
694.423	17163.32
694.769	17201.74
695.116	17166.03
695.462	17043.1
695.808	17035.64
696.155	16997.9
696.501	16895.98
696.847	16934.85
697.193	16715.87
697.539	16879.26
697.885	16725.59
698.231	16633.62
698.577	16587.74
698.923	16607.63
699.269	16526.73
699.614	16476.11
699.96	16505.94
700.306	16469.1
700.651	16378.71
700.997	16244.02
701.342	16272.72
701.688	16289.67
702.033	16223.91
702.379	16176.23
702.724	16147.3
703.069	16183.46
703.415	16011.94
703.76	15924.03
704.105	16028.66
704.45	15886.52
704.795	15815.56
705.14	15793.41
705.485	15733.75
705.83	15712.06
706.175	15794.32
706.52	15717.93
706.865	15665.28
707.209	15702.57
707.554	15575.57
707.899	15675.22
708.243	15415.8
708.588	15485.85
708.932	15376.47
709.277	15321.56
709.621	15321.33
709.966	15215.12
710.31	15225.29
710.654	15125.63
710.998	15246.76
711.342	15150.27
711.687	15147.33
712.031	15035.69
712.375	15013.32
712.719	14994.11
713.063	15036.37
713.407	15080.21
713.75	14998.86
714.094	14878.63
714.438	14849.48
714.782	14949.59
715.125	14806.32
715.469	14786.43
715.812	14677.74
716.156	14705.76
716.499	14693.78
716.843	14738.75
717.186	14580.34
717.53	14664.85
717.873	14647.23
718.216	14644.06
718.559	14510.73
718.902	14429.38
719.246	14506.67
719.589	14363.85
719.932	14344.41
720.275	14307.35
720.617	14237.97
720.96	14290.63
721.303	14284.98
721.646	14303.28
721.989	14179.67
722.331	14207.92
722.674	14126.56
723.016	14096.96
723.359	14131.31
723.701	14117.75
724.044	14077.3
724.386	14034.36
724.729	14045.44
725.071	14032.1
725.413	13920.69
725.755	14038.43
726.097	13916.4
726.439	13801.15
726.782	13953.46
727.124	13885.67
727.465	13781.26
727.807	13830.07
728.149	13834.37
728.491	13835.5
728.833	13771.54
729.175	13760.25
729.516	13733.13
729.858	13701.94
730.199	13789.85
730.541	13609.06
730.882	13573.13
731.224	13605.22
731.565	13623.75
731.906	13576.3
732.248	13663.3
732.589	13517.77
732.93	13423.08
733.271	13511.66
733.612	13489.29
733.953	13540.14
734.294	13418.33
734.635	13421.05
734.976	13430.08
735.317	13314.38
735.658	13307.38
735.999	13287.72
736.339	13324.1
736.68	13322.06
737.021	13312.35
737.361	13237.1
737.702	13184.44
738.042	13188.51
738.383	13237.55
738.723	13179.47
739.063	13116.19
739.404	13119.13
739.744	13184.89
740.084	13039.36
740.424	13052.69
740.764	13008.63
741.104	12980.38
741.444	12976.31
741.784	12902.41
742.124	12983.09
742.464	12965.24
742.804	12942.87
743.143	12865.35
743.483	12837.11
743.823	12798.91
744.162	12811.12
744.502	12792.59
744.841	12704
745.181	12804.34
745.52	12752.59
745.86	12711.91
746.199	12678.92
746.538	12674.85
746.877	12633.27
747.216	12670.78
747.556	12701.06
747.895	12624.23
748.234	12554.18
748.573	12533.61
748.911	12480.51
749.25	12518.47
749.589	12456.55
749.928	12520.05
750.267	12579.26
750.605	12458.58
750.944	12410.22
751.283	12328.87
751.621	12400.96
751.96	12313.5
752.298	12210.23
752.636	12311.47
752.975	12251.58
753.313	12240.74
753.651	12180.63
753.989	12201.19
754.327	12207.07
754.666	12052.04
755.004	12131.14
755.342	12122.1
755.679	12062.89
756.017	11979.05
