Data from foam1_polythene_foam_FLMS001491_00050.txt Node
Date: Wed Feb 08 10:54:54 GMT 2017
User: dcchb
Spectrometer: FLMS00149
Trigger mode: 0
Integration Time (sec): 2.000000E-2
Scans to average: 10
Electric dark correction enabled: true
Nonlinearity correction enabled: false
Boxcar width: 0
XAxis mode: Wavelengths
Number of Pixels in Spectrum: 2048
>>>>>Begin Spectral Data<<<<<
341.393	-6.33
341.776	-6.33
342.16	-6.33
342.543	-54.24
342.927	-39.77
343.31	-70.73
343.693	-72.54
344.077	-66.66
344.46	-43.61
344.843	-46.1
345.226	-68.7
345.61	-20.34
345.993	-14.91
346.376	3.84
346.759	-4.75
347.142	39.55
347.525	30.96
347.908	65.54
348.291	77.29
348.674	98.75
349.057	92.43
349.44	146.89
349.823	157.74
350.206	160
350.588	198.86
350.971	209.71
351.354	231.41
351.737	214.23
352.119	244.74
352.502	251.97
352.884	265.3
353.267	261.46
353.65	287.22
354.032	289.48
354.414	284.29
354.797	307.56
355.179	316.15
355.562	313.89
355.944	319.54
356.326	319.77
356.709	312.53
357.091	329.48
357.473	356.37
357.855	334.45
358.238	330.16
358.62	322.03
359.002	334.91
359.384	336.71
359.766	319.99
360.148	339.88
360.53	321.12
360.912	322.03
361.294	317.73
361.676	329.03
362.057	341.69
362.439	315.7
362.821	303.04
363.203	301.01
363.584	303.27
363.966	328.35
364.348	324.74
364.729	319.99
365.111	310.5
365.493	313.66
365.874	326.77
366.256	306.21
366.637	300.78
367.019	305.53
367.4	309.6
367.781	312.53
368.163	308.92
368.544	315.02
368.925	289.48
369.306	308.92
369.688	304.62
370.069	324.29
370.45	315.25
370.831	292.65
371.212	319.31
371.593	309.6
371.974	304.85
372.355	293.33
372.736	320.67
373.117	285.64
373.498	307.11
373.879	294.46
374.26	310.95
374.641	327.9
375.021	300.78
375.402	314.57
375.783	331.06
376.163	325.42
376.544	317.96
376.925	331.74
377.305	329.48
377.686	327.68
378.066	323.61
378.447	319.54
378.827	332.19
379.208	318.86
379.588	315.02
379.968	325.19
380.349	319.54
380.729	340.56
381.109	334.23
381.489	351.4
381.87	330.61
382.25	336.26
382.63	349.37
383.01	325.42
383.39	345.3
383.77	367
384.15	354.34
384.53	354.11
384.91	348.24
385.29	357.73
385.67	354.34
386.049	365.87
386.429	348.47
386.809	362.93
387.189	357.96
387.568	369.48
387.948	354.79
388.328	358.63
388.707	354.57
389.087	372.65
389.466	372.87
389.846	374.45
390.225	361.57
390.605	378.52
390.984	363.15
391.363	367.67
391.743	393.21
392.122	374.68
392.501	382.36
392.881	398.86
393.26	386.2
393.639	384.85
394.018	381.23
394.397	397.28
394.776	388.01
395.155	391.4
395.534	381.68
395.913	383.04
396.292	404.51
396.671	418.75
397.05	400.89
397.429	416.94
397.808	393.89
398.186	376.49
398.565	401.12
398.944	390.27
399.323	408.12
399.701	403.83
400.08	401.57
400.458	423.72
400.837	392.08
401.215	402.93
401.594	440.89
401.972	403.83
402.351	436.15
402.729	430.05
403.107	438.41
403.486	438.18
403.864	426.88
404.242	444.73
404.62	436.15
404.999	443.38
405.377	423.27
405.755	430.5
406.133	446.54
406.511	463.26
406.889	446.99
407.267	445.64
407.645	456.94
408.023	453.77
408.401	456.03
408.779	466.2
409.156	469.59
409.534	489.93
409.912	471.4
410.29	497.61
410.667	488.35
411.045	517.05
411.422	479.31
411.8	504.62
412.178	503.94
412.555	507.56
412.933	518.63
413.31	536.26
413.687	521.79
414.065	524.05
414.442	525.64
414.819	543.04
415.197	510.95
415.574	530.61
415.951	536.94
416.328	535.58
416.705	551.85
417.082	545.3
417.46	555.92
417.837	558.18
418.214	549.36
418.591	553.21
418.967	553.88
419.344	580.32
419.721	547.56
420.098	561.79
420.475	579.42
420.852	588.23
421.228	595.24
421.605	585.97
421.982	595.92
422.358	595.69
422.735	611.28
423.111	608.35
423.488	599.76
423.864	614.67
424.241	618.06
424.617	614
424.994	622.81
425.37	649.7
425.746	640.89
426.123	637.72
426.499	663.03
426.875	652.19
427.251	656.93
427.627	648.8
428.003	670.49
428.379	684.05
428.756	680.21
429.132	705.07
429.507	709.59
429.883	699.42
430.259	719.98
430.635	701
431.011	741.68
431.387	740.55
431.763	754.78
432.138	746.87
432.514	759.53
432.89	758.17
433.265	763.82
433.641	769.7
434.016	783.48
434.392	785.06
434.767	806.53
435.143	804.95
435.518	804.72
435.894	824.61
436.269	825.52
436.644	867.77
437.02	846.76
437.395	858.96
437.77	858.96
438.145	892.41
438.52	863.71
438.895	907.09
439.271	896.93
439.646	920.43
440.021	921.56
440.395	930.37
440.77	935.57
441.145	920.43
441.52	971.5
441.895	949.81
442.27	953.65
442.645	975.79
443.019	956.13
443.394	990.03
443.769	996.36
444.143	998.39
444.518	1014.44
444.892	993.65
445.267	1016.92
445.641	1051.72
446.016	1046.07
446.39	1028.22
446.764	1040.2
447.139	1056.47
447.513	1073.87
447.887	1093.98
448.262	1078.84
448.636	1101.89
449.01	1093.98
449.384	1120.65
449.758	1100.54
450.132	1129.69
450.506	1142.79
450.88	1131.5
451.254	1155.68
451.628	1174.88
452.002	1190.25
452.376	1194.77
452.75	1203.58
453.123	1231.61
453.497	1208.1
453.871	1227.76
454.244	1252.85
454.618	1263.7
454.992	1255.79
455.365	1237.48
455.739	1275.9
456.112	1316.58
456.486	1317.25
456.859	1315.67
457.232	1310.25
457.606	1348.89
457.979	1360.42
458.352	1385.73
458.725	1387.08
459.099	1422.56
459.472	1415.33
459.845	1421.88
460.218	1431.83
460.591	1444.71
460.964	1451.04
461.337	1458.72
461.71	1482.67
462.083	1505.72
462.456	1505.05
462.829	1508.21
463.201	1523.58
463.574	1546.17
463.947	1560.64
464.32	1578.04
464.692	1571.26
465.065	1595.44
465.438	1630.69
465.81	1638.83
466.183	1640.18
466.555	1689
466.928	1692.38
467.3	1705.04
467.672	1714.53
468.045	1785.26
468.417	1776
468.789	1776.22
469.161	1814.87
469.534	1796.34
469.906	1870.69
470.278	1890.57
470.65	1892.61
471.022	1943.68
471.394	1984.81
471.766	1965.15
472.138	2020.29
472.51	2038.59
472.882	2067.97
473.253	2049.66
473.625	2091.92
473.997	2124.92
474.369	2149.1
474.74	2169.89
475.112	2207.17
475.484	2218.47
475.855	2254.63
476.227	2303.44
476.598	2356.1
476.97	2386.6
477.341	2391.12
477.713	2427.05
478.084	2441.97
478.455	2517.67
478.827	2534.17
479.198	2606.71
479.569	2583.66
479.94	2659.59
480.311	2671.34
480.682	2744.33
481.053	2766.71
481.424	2871.79
481.795	2848.29
482.166	2925.57
482.537	2954.5
482.908	3015.74
483.279	3029.98
483.65	3069.52
484.021	3127.38
484.391	3183.19
484.762	3222.29
485.133	3267.71
485.503	3257.32
485.874	3358.1
486.244	3377.76
486.615	3430.87
486.985	3452.56
487.356	3572.56
487.726	3584.99
488.097	3657.98
488.467	3666.34
488.837	3730.3
489.207	3778.88
489.578	3815.72
489.948	3899.11
490.318	3943.17
490.688	3944.3
491.058	3987.47
491.428	4035.6
491.798	4043.51
492.168	4178.87
492.538	4158.08
492.908	4198.31
493.278	4297.06
493.648	4340.22
494.017	4396.49
494.387	4405.99
494.757	4463.16
495.126	4497.96
495.496	4502.93
495.866	4524.17
496.235	4612.99
496.605	4603.49
496.974	4654.57
497.344	4684.4
497.713	4752.19
498.082	4781.57
498.452	4890.04
498.821	4881
499.19	4902.7
499.559	4914.45
499.928	4995.35
500.298	5004.39
500.667	5027.21
501.036	5061.34
501.405	5082.58
501.774	5124.39
502.143	5172.52
502.512	5175.46
502.88	5306.98
503.249	5253.42
503.618	5323.48
503.987	5351.27
504.356	5411.61
504.724	5391.27
505.093	5427.43
505.462	5483.7
505.83	5513.53
506.199	5554.2
506.567	5620.64
506.936	5650.92
507.304	5767.98
507.672	5757.59
508.041	5785.16
508.409	5853.86
508.777	5913.74
509.145	5937.92
509.514	5973.18
509.882	5989.9
510.25	6006.17
510.618	6057.47
510.986	6081.2
511.354	6213.17
511.722	6217.01
512.09	6225.83
512.458	6282.77
512.826	6304.02
513.193	6346.27
513.561	6385.59
513.929	6407.29
514.297	6470.11
514.664	6567.06
515.032	6631.24
515.4	6696.32
515.767	6682.76
516.135	6692.71
516.502	6719.37
516.869	6824.45
517.237	6866.71
517.604	6893.38
517.972	6909.42
518.339	6977.44
518.706	7068.06
519.073	7094.05
519.44	7123.43
519.808	7258.57
520.175	7225.57
520.542	7316.87
520.909	7382.18
521.276	7369.98
521.643	7470.76
522.009	7535.4
522.376	7634.6
522.743	7596.86
523.11	7662.85
523.477	7773.13
523.843	7767.03
524.21	7884.09
524.577	8024.65
524.943	8051.09
525.31	8057.64
525.676	8155.72
526.043	8160.24
526.409	8254.7
526.776	8303.28
527.142	8363.4
527.508	8370.4
527.874	8458.31
528.241	8532.21
528.607	8579.21
528.973	8688.36
529.339	8701.01
529.705	8755.7
530.071	8840.45
530.437	8875.47
530.803	8901.01
531.169	8942.14
531.535	8976.71
531.901	9013.32
532.267	9107.33
532.632	9094.68
532.998	9211.74
533.364	9180.78
533.73	9295.57
534.095	9333.77
534.461	9288.34
534.826	9388.45
535.192	9429.13
535.557	9479.52
535.923	9517.04
536.288	9591.84
536.653	9663.02
537.019	9640.42
537.384	9669.12
537.749	9701.67
538.114	9753.64
538.479	9776.47
538.845	9833.64
539.21	9852.4
539.575	9824.83
539.94	9914.09
540.305	9976.91
540.67	9969.91
541.034	9953.64
541.399	10048.78
541.764	10135.1
542.129	10108.21
542.494	10095.1
542.858	10214.65
543.223	10164.7
543.587	10326.06
543.952	10314.53
544.316	10360.86
544.681	10366.28
545.045	10440.4
545.41	10485.15
545.774	10470.46
546.138	10507.52
546.503	10550.91
546.867	10557.91
547.231	10577.12
547.595	10694.41
547.959	10725.14
548.324	10708.64
548.688	10768.08
549.052	10763.33
549.416	10778.47
549.779	10906.61
550.143	10877.45
550.507	10984.8
550.871	10979.15
551.235	10995.42
551.599	11134.17
551.962	11098.92
552.326	11133.27
552.689	11216.43
553.053	11260.49
553.417	11220.5
553.78	11361.28
554.143	11383.88
554.507	11437.67
554.87	11367.16
555.234	11508.85
555.597	11441.73
555.96	11506.59
556.323	11576.19
556.686	11583.42
557.05	11652.35
557.413	11657.77
557.776	11773.48
558.139	11832.23
558.502	11848.05
558.865	11923.98
559.228	12081.94
559.59	12064.09
559.953	12119.91
560.316	12278.1
560.679	12246.91
561.041	12256.17
561.404	12375.27
561.767	12392.22
562.129	12421.82
562.492	12503.85
562.854	12517.64
563.217	12493.91
563.579	12623.85
563.941	12735.26
564.304	12803.73
564.666	12817.97
565.028	12817.06
565.39	12883.5
565.753	12959.89
566.115	12986.33
566.477	12940.68
566.839	13107
567.201	13157.85
567.563	13224.51
567.925	13299.76
568.287	13252.98
568.648	13287.56
569.01	13377.05
569.372	13481.23
569.734	13523.03
570.095	13562.81
570.457	13655.46
570.819	13642.81
571.18	13662.24
571.542	13633.31
571.903	13716.48
572.265	13780.2
572.626	13761.22
572.987	13821.11
573.349	13899.07
573.71	13922.35
574.071	13968.67
574.432	14060.42
574.794	14132.28
575.155	14043.7
575.516	14032.17
575.877	14184.26
576.238	14278.72
576.599	14186.97
576.96	14245.05
577.32	14257.7
577.681	14268.55
578.042	14277.59
578.403	14348.32
578.763	14443.46
579.124	14353.97
579.485	14418.6
579.845	14525.27
580.206	14432.16
580.566	14481.43
580.927	14473.07
581.287	14544.25
581.648	14457.7
582.008	14640.74
582.368	14539.28
582.728	14627.64
583.089	14595.32
583.449	14658.37
583.809	14559.17
584.169	14683.91
584.529	14643
584.889	14689.56
585.249	14642.1
585.609	14662.89
585.969	14760.74
586.329	14727.97
586.688	14678.94
587.048	14724.13
587.408	14645.26
587.768	14646.39
588.127	14593.97
588.487	14673.06
588.846	14761.42
589.206	14628.32
589.565	14648.88
589.925	14697.92
590.284	14701.99
590.643	14618.37
591.003	14645.72
591.362	14732.49
591.721	14753.28
592.08	14708.31
592.44	14808.2
592.799	14795.32
593.158	14812.94
593.517	14770.23
593.876	14828.31
594.235	14766.62
594.593	14784.02
594.952	14808.65
595.311	14720.06
595.67	14756.22
596.029	14908.99
596.387	14963.9
596.746	14871.25
597.104	14824.47
597.463	14906.95
597.822	14861.76
598.18	14810.46
598.538	14818.82
598.897	14908.76
599.255	14747.41
599.613	15081.86
599.972	14999.15
600.33	14947.18
600.688	14929.78
601.046	14963
601.404	15040.96
601.762	14927.07
602.12	15066.04
602.478	14954.41
602.836	15019.04
603.194	15069.43
603.552	15036.21
603.91	15037.34
604.268	14988.76
604.625	15000.51
604.983	15039.15
605.341	14990.34
605.698	15138.13
606.056	15153.95
606.413	15163.9
606.771	15208.64
607.128	15204.35
607.485	15190.56
607.843	15198.24
608.2	15172.48
608.557	15224.23
608.914	15230.33
609.272	15334.51
609.629	15349.65
609.986	15407.05
610.343	15325.47
610.7	15399.14
611.057	15319.15
611.414	15381.74
611.771	15373.83
612.127	15355.75
612.484	15519.14
612.841	15521.85
613.198	15428.97
613.554	15469.65
613.911	15535.41
614.267	15492.02
614.624	15517.78
614.98	15610.21
615.337	15619.48
615.693	15581.06
616.05	15486.82
616.406	15597.56
616.762	15592.36
617.118	15624.22
617.475	15656.31
617.831	15664.22
618.187	15696.76
618.543	15702.86
618.899	15740.38
619.255	15723.65
619.611	15735.63
619.967	15647.95
620.323	15827.83
620.678	15797.32
621.034	15754.61
621.39	15724.11
621.746	15700.83
622.101	15874.16
622.457	15682.98
622.812	15783.77
623.168	15741.51
623.523	15739.7
623.879	15805.69
624.234	15715.52
624.589	15744.22
624.945	15845.91
625.3	15812.92
625.655	15778.57
626.01	15744.44
626.365	15695.86
626.72	15786.48
627.075	15687.5
627.43	15719.59
627.785	15696.08
628.14	15741.73
628.495	15762.07
628.85	15696.76
629.205	15729.08
629.559	15801.84
629.914	15667.16
630.269	15689.08
630.623	15586.71
630.978	15644.11
631.332	15597.1
631.687	15797.78
632.041	15616.99
632.396	15706.71
632.75	15619.48
633.104	15693.37
633.459	15562.53
633.813	15541.06
634.167	15455.86
634.521	15442.53
634.875	15504.68
635.229	15368.41
635.583	15407.5
635.937	15402.53
636.291	15423.32
636.645	15401.4
636.999	15443.66
637.352	15434.17
637.706	15312.82
638.06	15344.46
638.413	15327.05
638.767	15267.4
639.121	15250.9
639.474	15189.21
639.828	15203.22
640.181	15214.74
640.534	15218.36
640.888	15144.91
641.241	15124.12
641.594	15104.46
641.947	15196.66
642.301	15122.09
642.654	15173.61
643.007	15137
643.36	15096.78
643.713	15134.07
644.066	15115.76
644.419	15084.58
644.771	14933.84
645.124	14979.49
645.477	14828.08
645.83	14680.97
646.182	14631.93
646.535	14602.33
646.888	14504.03
647.24	14346.74
647.593	14422.22
647.945	14387.42
648.298	14367.31
648.65	14344.93
649.002	14309.91
649.355	14336.8
649.707	14403.92
650.059	14442.78
650.411	14647.75
650.763	14609.33
651.115	14707.86
651.467	14665.15
651.819	14682.55
652.171	14646.85
652.523	14650.91
652.875	14687.75
653.227	14557.58
653.578	14750.57
653.93	14633.29
654.282	14551.71
654.633	14426.51
654.985	14585.38
655.337	14490.69
655.688	14634.19
656.039	14547.64
656.391	14397.36
656.742	14419.28
657.094	14580.63
657.445	14580.18
657.796	14467.42
658.147	14473.29
658.498	14485.27
658.849	14497.92
659.2	14439.17
659.551	14433.97
659.902	14449.79
660.253	14380.41
660.604	14313.97
660.955	14262
661.306	14376.8
661.656	14285.05
662.007	14276.69
662.358	14387.87
662.708	14297.03
663.059	14360.75
663.409	14279.62
663.76	14282.79
664.11	14339.28
664.461	14358.72
664.811	14278.49
665.161	14297.7
665.511	14231.26
665.862	14266.52
666.212	14294.31
666.562	14266.07
666.912	14303.58
667.262	14210.47
667.612	14258.38
667.962	14250.02
668.312	14294.09
668.662	14275.56
669.011	14233.3
669.361	14145.16
669.711	14185.16
670.06	14241.21
670.41	14208.67
670.76	14168.22
671.109	14236.69
671.459	14151.27
671.808	14098.84
672.157	14174.09
672.507	14025.62
672.856	14072.85
673.205	14073.3
673.554	14129.57
673.904	14132.74
674.253	14048.44
674.602	14025.39
674.951	13892.29
675.3	13834.21
675.649	14003.93
675.998	14050.7
676.346	13961.67
676.695	14031.27
677.044	13999.86
677.393	14008.22
677.741	13960.08
678.09	14003.47
678.438	13905.85
678.787	13869.01
679.135	13963.02
679.484	13889.13
679.832	13847.09
680.181	13813.87
680.529	13866.08
680.877	13883.48
681.225	13811.61
681.573	13836.7
681.922	13786.3
682.27	13722.35
682.618	13722.13
682.966	13699.07
683.314	13633.31
683.661	13650.04
684.009	13536.82
684.357	13588.57
684.705	13547.44
685.053	13570.72
685.4	13530.72
685.748	13488.91
686.095	13444.39
686.443	13468.35
686.79	13414.56
687.138	13489.36
687.485	13364.85
687.832	13477.16
688.18	13380.89
688.527	13271.29
688.874	13321.23
689.221	13263.83
689.568	13184.74
689.915	13217.96
690.262	13203.04
690.609	13185.64
690.956	13107.9
691.303	13073.33
691.65	13060
691.997	13051.86
692.344	12854.35
692.69	12926.67
693.037	12992.65
693.383	12694.13
693.73	12827.01
694.077	12818.19
694.423	12816.61
694.769	12817.97
695.116	12705.65
695.462	12666.11
695.808	12622.94
696.155	12642.83
696.501	12595.83
696.847	12494.59
697.193	12496.17
697.539	12530.52
697.885	12454.59
698.231	12424.08
698.577	12381.37
698.923	12477.86
699.269	12363.52
699.614	12285.33
699.96	12265.21
700.306	12289.39
700.651	12179.11
700.997	12169.85
701.342	12199.68
701.688	12205.78
702.033	12098.66
702.379	12127.59
702.724	12170.98
703.069	12125.33
703.415	11964.66
703.76	11926.92
704.105	11901.83
704.45	11941.38
704.795	11812.8
705.14	11774.83
705.485	11835.4
705.83	11816.86
706.175	11826.13
706.52	11691.22
706.865	11620.94
707.209	11673.14
707.554	11601.73
707.899	11628.17
708.243	11515.63
708.588	11515.63
708.932	11441.28
709.277	11451
709.621	11508.17
709.966	11392.47
710.31	11406.25
710.654	11323.54
710.998	11372.58
711.342	11363.32
711.687	11296.2
712.031	11274.96
712.375	11175.53
712.719	11264.79
713.063	11234.28
713.407	11285.58
713.75	11168.75
714.094	11205.58
714.438	11100.05
714.782	11137.11
715.125	11032.93
715.469	11177.11
715.812	11091.91
716.156	11027.28
716.499	10969.43
716.843	10974.17
717.186	10976.66
717.53	10976.89
717.873	10930.33
718.216	10933.27
718.559	10910.9
718.902	10825.03
719.246	10822.54
719.589	10799.72
719.932	10794.97
720.275	10771.02
720.617	10760.4
720.96	10655.31
721.303	10699.61
721.646	10735.31
721.989	10616.44
722.331	10682.2
722.674	10633.39
723.016	10601.08
723.359	10581.87
723.701	10631.81
724.044	10509.33
724.386	10490.8
724.729	10547.52
725.071	10528.31
725.413	10441.31
725.755	10458.03
726.097	10473.85
726.439	10441.31
726.782	10417.35
727.124	10462.1
727.465	10355.21
727.807	10406.96
728.149	10270.01
728.491	10334.19
728.833	10335.1
729.175	10323.57
729.516	10311.14
729.858	10293.29
730.199	10325.83
730.541	10240.18
730.882	10291.71
731.224	10280.63
731.565	10176.91
731.906	10201.99
732.248	10299.62
732.589	10147.98
732.93	10072.73
733.271	10175.1
733.612	10160.41
733.953	10114.54
734.294	10110.92
734.635	10090.13
734.976	10028.44
735.317	10021.43
735.658	10037.7
735.999	10062.79
736.339	10029.57
736.68	10004.03
737.021	9993.41
737.361	9955.67
737.702	9931.49
738.042	9945.05
738.383	9907.76
738.723	9894.43
739.063	9818.5
739.404	9917.71
739.744	9867.76
740.084	9746.64
740.424	9742.57
740.764	9790.7
741.104	9811.95
741.444	9729.69
741.784	9728.11
742.124	9757.71
742.464	9703.93
742.804	9728.11
743.143	9668.9
743.483	9635.9
743.823	9652.18
744.162	9577.38
744.502	9651.95
744.841	9543.93
745.181	9547.55
745.52	9592.52
745.86	9588.9
746.199	9517.49
746.538	9478.17
746.877	9552.74
747.216	9550.48
747.556	9543.25
747.895	9580.54
748.234	9467.55
748.573	9419.64
748.911	9449.92
749.25	9382.58
749.589	9413.09
749.928	9482.69
750.267	9417.61
750.605	9373.54
750.944	9375.35
751.283	9316.37
751.621	9364.05
751.96	9303.48
752.298	9303.48
752.636	9339.87
752.975	9298.51
753.313	9199.98
753.651	9262.81
753.989	9249.02
754.327	9183.49
754.666	9143.26
755.004	9178.06
755.342	9241.11
755.679	9084.73
756.017	9094.68
756.355	9031.17
756.693	9057.84
757.031	9058.52
757.368	8936.94
757.706	8877.73
758.044	8913.89
758.381	8912.99
758.719	8924.06
759.056	8872.54
