Data from foam2_polystyrene_foam_FLMS001491_00069.txt Node
Date: Wed Feb 08 10:58:20 GMT 2017
User: dcchb
Spectrometer: FLMS00149
Trigger mode: 0
Integration Time (sec): 2.000000E-2
Scans to average: 10
Electric dark correction enabled: true
Nonlinearity correction enabled: false
Boxcar width: 0
XAxis mode: Wavelengths
Number of Pixels in Spectrum: 2048
>>>>>Begin Spectral Data<<<<<
341.393	-10.76
341.776	-10.76
342.16	-10.76
342.543	-73.36
342.927	-49.18
343.31	-74.49
343.693	-60.93
344.077	-74.49
344.46	-58.22
344.843	-60.25
345.226	-44.21
345.61	-24.1
345.993	-9.63
346.376	8.9
346.759	-1.27
347.142	15.68
347.525	42.8
347.908	59.74
348.291	80.53
348.674	96.81
349.057	103.13
349.44	132.06
349.823	138.61
350.206	168.89
350.588	207.08
350.971	213.86
351.354	248.44
351.737	222.68
352.119	235.11
352.502	252.51
352.884	269.23
353.267	275.78
353.65	275.56
354.032	283.92
354.414	326.18
354.797	313.75
355.179	323.24
355.562	330.25
355.944	345.61
356.326	334.77
356.709	330.47
357.091	338.15
357.473	346.06
357.855	355.1
358.238	345.39
358.62	350.36
359.002	328.89
359.384	335.9
359.766	357.82
360.148	367.98
360.53	344.26
360.912	338.83
361.294	359.62
361.676	349.23
362.057	337.48
362.439	337.25
362.821	344.93
363.203	351.26
363.584	339.28
363.966	346.97
364.348	331.83
364.729	328.66
365.111	322.34
365.493	332.73
365.874	350.13
366.256	346.29
366.637	318.04
367.019	330.92
367.4	329.34
367.781	338.38
368.163	348.1
368.544	331.38
368.925	333.18
369.306	338.83
369.688	329.57
370.069	348.78
370.45	337.03
370.831	318.27
371.212	358.95
371.593	344.03
371.974	351.71
372.355	331.83
372.736	337.03
373.117	355.78
373.498	355.78
373.879	331.15
374.26	353.07
374.641	326.63
375.021	363.47
375.402	348.55
375.783	338.15
376.163	369.57
376.544	353.3
376.925	367.98
377.305	357.14
377.686	363.47
378.066	361.43
378.447	363.47
378.827	389.91
379.208	377.7
379.588	373.86
379.968	370.24
380.349	376.8
380.729	378.61
381.109	387.87
381.489	363.24
381.87	387.19
382.25	399.85
382.63	380.41
383.01	364.82
383.39	389.68
383.77	396.23
384.15	405.05
384.53	420.41
384.91	395.1
385.29	401.66
385.67	414.99
386.049	426.29
386.429	421.32
386.809	420.19
387.189	427.19
387.568	436.46
387.948	423.8
388.328	422.67
388.707	433.29
389.087	444.82
389.466	445.04
389.846	442.78
390.225	424.71
390.605	435.78
390.984	438.27
391.363	429.9
391.743	446.17
392.122	453.63
392.501	453.63
392.881	463.12
393.26	461.54
393.639	447.08
394.018	480.75
394.397	495.21
394.776	490.47
395.155	451.6
395.534	477.13
395.913	482.78
396.292	467.19
396.671	533.18
397.05	477.13
397.429	500.86
397.808	480.07
398.186	502.9
398.565	495.44
398.944	524.82
399.323	496.12
399.701	498.15
400.08	525.95
400.458	542.22
400.837	504.93
401.215	515.33
401.594	530.69
401.972	523.46
402.351	543.57
402.729	530.69
403.107	532.27
403.486	539.28
403.864	530.92
404.242	542.67
404.62	558.71
404.999	568.88
405.377	573.63
405.755	595.78
406.133	581.31
406.511	591.93
406.889	598.26
407.267	594.65
407.645	587.41
408.023	621.76
408.401	601.65
408.779	624.93
409.156	616.79
409.534	625.15
409.912	623.8
410.29	644.36
410.667	631.48
411.045	658.82
411.422	668.54
411.8	635.1
412.178	681.2
412.555	691.37
412.933	688.65
413.31	684.13
413.687	707.86
414.065	698.15
414.442	691.14
414.819	705.6
415.197	713.29
415.574	723.23
415.951	748.77
416.328	716.68
416.705	735.88
417.082	765.94
417.46	757.8
417.837	758.26
418.214	765.71
418.591	772.27
418.967	768.2
419.344	786.96
419.721	800.06
420.098	803.91
420.475	802.32
420.852	804.13
421.228	816.33
421.605	802.32
421.982	803.68
422.358	827.41
422.735	868.76
423.111	850.46
423.488	834.87
423.864	864.02
424.241	887.75
424.617	870.57
424.994	889.78
425.37	887.97
425.746	883.9
426.123	909.44
426.499	926.16
426.875	936.78
427.251	925.94
427.627	938.59
428.003	956.44
428.379	943.11
428.756	955.77
429.132	988.76
429.507	990.34
429.883	997.8
430.259	1019.94
430.635	1001.19
431.011	1014.52
431.387	1049.55
431.763	1071.24
432.138	1071.24
432.514	1089.77
432.89	1076.89
433.265	1104.91
433.641	1113.73
434.016	1114.63
434.392	1141.75
434.767	1162.09
435.143	1154.63
435.518	1166.16
435.894	1201.86
436.269	1202.31
436.644	1213.39
437.02	1222.43
437.395	1245.25
437.77	1238.92
438.145	1264.01
438.52	1267.17
438.895	1285.7
439.271	1301.52
439.646	1278.24
440.021	1324.12
440.395	1330.67
440.77	1306.49
441.145	1345.13
441.52	1359.6
441.895	1343.1
442.27	1384.46
442.645	1370.9
443.019	1388.75
443.394	1415.64
443.769	1422.19
444.143	1420.84
444.518	1437.79
444.892	1451.35
445.267	1444.11
445.641	1468.29
446.016	1470.78
446.39	1470.1
446.764	1491.57
447.139	1473.49
447.513	1524.34
447.887	1531.8
448.262	1518.91
448.636	1537.22
449.01	1546.71
449.384	1559.82
449.758	1583.55
450.132	1623.77
450.506	1618.35
450.88	1603.43
451.254	1621.06
451.628	1645.47
452.002	1660.61
452.376	1676.65
452.75	1687.5
453.123	1721.62
453.497	1723.88
453.871	1741.51
454.244	1754.39
454.618	1748.74
454.992	1782.64
455.365	1800.04
455.739	1853.82
456.112	1866.48
456.486	1859.47
456.859	1849.53
457.232	1917.55
457.606	1920.94
457.979	1925.01
458.352	1925.91
458.725	1996.87
459.099	1992.57
459.472	2073.93
459.845	2040.94
460.218	2037.09
460.591	2065.34
460.964	2063.53
461.337	2103.76
461.71	2143.76
462.083	2179.01
462.456	2175.85
462.829	2134.04
463.201	2185.56
463.574	2208.16
463.947	2216.98
464.32	2272.57
464.692	2289.74
465.065	2312.34
465.438	2327.03
465.81	2369.97
466.183	2369.51
466.555	2400.47
466.928	2434.6
467.3	2458.33
467.672	2506.23
468.045	2521.15
468.417	2583.07
468.789	2560.24
469.161	2585.55
469.534	2603.41
469.906	2674.82
470.278	2682.05
470.65	2724.98
471.022	2770.18
471.394	2766.11
471.766	2823.51
472.138	2834.81
472.51	2932.44
472.882	2930.18
473.253	2945.77
473.625	3040.91
473.997	3056.73
474.369	3049.5
474.74	3092.88
475.112	3190.28
475.484	3223.5
475.855	3294.24
476.227	3279.55
476.598	3408.13
476.97	3409.26
477.341	3469.37
477.713	3489.94
478.084	3548.01
478.455	3601.8
478.827	3685.64
479.198	3775.58
479.569	3766.99
479.94	3835.24
480.311	3870.04
480.682	3977.61
481.053	4040.88
481.424	4133.31
481.795	4177.38
482.166	4199.52
482.537	4314.55
482.908	4314.77
483.279	4397.71
483.65	4495.56
484.021	4489.46
484.391	4569.91
484.762	4625.95
485.133	4668.44
485.503	4735.55
485.874	4891.03
486.244	4887.41
486.615	4935.32
486.985	5056.9
487.356	5112.27
487.726	5153.85
488.097	5248.53
488.467	5298.7
488.837	5354.29
489.207	5446.5
489.578	5481.52
489.948	5535.08
490.318	5630.9
490.688	5649.88
491.058	5697.79
491.428	5824.11
491.798	5780.72
492.168	5947.05
492.538	5972.58
492.908	6052.81
493.278	6139.81
493.648	6140.04
494.017	6284.67
494.387	6271.11
494.757	6312.01
495.126	6403.76
495.496	6390.88
495.866	6467.26
496.235	6549.74
496.605	6623.19
496.974	6623.64
497.344	6650.98
497.713	6773.24
498.082	6776.63
498.452	6835.39
498.821	6909.28
499.19	6909.06
499.559	7006
499.928	7023.63
500.298	7109.5
500.667	7186.34
501.036	7093.91
501.405	7218.88
501.774	7248.26
502.143	7301.36
502.512	7361.25
502.88	7427.69
503.249	7467.01
503.618	7488.93
503.987	7551.98
504.356	7551.75
504.724	7652.99
505.093	7658.87
505.462	7744.74
505.83	7766.43
506.199	7801.01
506.567	7964.4
506.936	7912.87
507.304	8018.18
507.672	8045.07
508.041	8128.91
508.409	8204.61
508.777	8256.82
509.145	8301.34
509.514	8251.39
509.882	8448.9
510.25	8455.68
510.618	8501.78
510.986	8509.01
511.354	8605.51
511.722	8633.08
512.09	8819.06
512.458	8718.5
512.826	8871.49
513.193	8824.26
513.561	8949.23
513.929	9007.98
514.297	9143.8
514.664	9103.8
515.032	9295.43
515.4	9270.35
515.767	9341.76
516.135	9366.39
516.502	9362.55
516.869	9556.9
517.237	9596.67
517.604	9543.79
517.972	9691.36
518.339	9753.5
518.706	9746.04
519.073	9815.19
519.44	9898.13
519.808	9967.28
520.175	9995.98
520.542	10142.87
520.909	10186.48
521.276	10182.87
521.643	10288.18
522.009	10452.01
522.376	10422.18
522.743	10535.63
523.11	10655.85
523.477	10829.4
523.843	10843.64
524.21	10942.4
524.577	11020.13
524.943	11121.83
525.31	11200.24
525.676	11224.42
526.043	11319.56
526.409	11363.63
526.776	11489.05
527.142	11574.24
527.508	11643.39
527.874	11733.56
528.241	11745.54
528.607	11776.95
528.973	11829.15
529.339	11955.48
529.705	12035.93
530.071	12148.92
530.437	12199.54
530.803	12228.92
531.169	12385.07
531.535	12387.33
531.901	12383.04
532.267	12466.88
532.632	12570.83
532.998	12578.29
533.364	12672.29
533.73	12698.28
534.095	12831.39
534.461	12861.67
534.826	12983.7
535.192	13044.71
535.557	13029.12
535.923	13062.57
536.288	13140.76
536.653	13235.44
537.019	13219.17
537.384	13228.21
537.749	13290.81
538.114	13347.08
538.479	13394.31
538.845	13527.64
539.21	13489.9
539.575	13508.43
539.94	13597.69
540.305	13660.06
540.67	13594.08
541.034	13736.9
541.399	13771.02
541.764	13813.73
542.129	13966.95
542.494	13971.92
542.858	14086.04
543.223	14008.53
543.587	14108.64
543.952	14129.43
544.316	14184.12
544.681	14244.23
545.045	14299.37
545.41	14389.31
545.774	14330.56
546.138	14401.74
546.503	14467.95
546.867	14489.42
547.231	14603.77
547.595	14587.72
547.959	14661.62
548.324	14699.81
548.688	14745.01
549.052	14769.64
549.416	14816.42
549.779	14882.18
550.143	14955.85
550.507	15013.48
550.871	15089.86
551.235	15044.89
551.599	15216.41
551.962	15214.37
552.326	15221.83
552.689	15425.44
553.053	15255.95
553.417	15422.73
553.78	15586.34
554.143	15504.31
554.507	15650.52
554.87	15599.22
555.234	15848.03
555.597	15734.59
555.96	15909.95
556.323	15996.5
556.686	15976.39
557.05	16077.18
557.413	16125.99
557.776	16213.9
558.139	16385.42
558.502	16339.32
558.865	16366.21
559.228	16559.88
559.59	16581.12
559.953	16594.9
560.316	16782.47
560.679	16805.97
561.041	16945.4
561.404	17038.73
561.767	17070.14
562.129	17097.94
562.492	17242.34
562.854	17278.27
563.217	17230.82
563.579	17325.05
563.941	17509.68
564.304	17491.6
564.666	17638.72
565.028	17738.15
565.39	17721.2
565.753	17848.2
566.115	17947.86
566.477	18060.85
566.839	18059.5
567.201	18134.98
567.563	18210
567.925	18346.04
568.287	18331.81
568.648	18501.75
569.01	18480.5
569.372	18616.77
569.734	18540.61
570.095	18688.41
570.457	18775.64
570.819	18805.47
571.18	18766.37
571.542	18951.22
571.903	18941.73
572.265	19146.93
572.626	19090.43
572.987	19195.96
573.349	19213.82
573.71	19257.43
574.071	19406.35
574.432	19475.28
574.794	19584.65
575.155	19610.19
575.516	19429.4
575.877	19618.33
576.238	19581.94
576.599	19772.67
576.96	19667.82
577.32	19746.01
577.681	19951.88
578.042	19846.12
578.403	19860.35
578.763	19889.96
579.124	19962.5
579.485	19985.1
579.845	20132.89
580.206	19983.97
580.566	20085.66
580.927	20107.13
581.287	20223.06
581.648	20116.17
582.008	20155.04
582.368	20155.04
582.728	20178.76
583.089	20183.28
583.449	20109.39
583.809	20260.34
584.169	20166.33
584.529	20141.93
584.889	20353.45
585.249	20206.79
585.609	20148.71
585.969	20235.94
586.329	20197.29
586.688	20302.15
587.048	20285.2
587.408	20253.79
587.768	20337.18
588.127	20263.05
588.487	20301.47
588.846	20374.46
589.206	20195.03
589.565	20258.54
589.925	20457.63
590.284	20229.16
590.643	20371.98
591.003	20349.83
591.362	20317.52
591.721	20371.53
592.08	20411.3
592.44	20423.28
592.799	20535.82
593.158	20365.2
593.517	20348.25
593.876	20491.52
594.235	20428.25
594.593	20521.13
594.952	20502.82
595.311	20473.44
595.67	20414.01
596.029	20515.48
596.387	20525.19
596.746	20600.67
597.104	20646.77
597.463	20468.93
597.822	20569.26
598.18	20508.02
598.538	20501.01
598.897	20710.95
599.255	20414.01
599.613	20793.44
599.972	20671.86
600.33	20698.98
600.688	20604.74
601.046	20692.65
601.404	20801.57
601.762	20693.1
602.12	20799.99
602.478	20783.72
602.836	20748.24
603.194	20527.23
603.552	20747.79
603.91	20577.4
604.268	20689.26
604.625	20653.33
604.983	20737.17
605.341	20627.79
605.698	20865.98
606.056	20885.19
606.413	20834.57
606.771	20937.84
607.128	20967.9
607.485	20840.89
607.843	20851.06
608.2	20990.27
608.557	21006.54
608.914	20965.18
609.272	21082.24
609.629	21117.72
609.986	21217.61
610.343	21066.65
610.7	21292.86
611.057	21101.9
611.414	21065.29
611.771	21109.81
612.127	21256.93
612.484	21181.67
612.841	21377.6
613.198	21150.04
613.554	21286.3
613.911	21366.3
614.267	21363.14
614.624	21340.31
614.98	21384.61
615.337	21484.04
615.693	21462.35
616.05	21498.28
616.406	21571.95
616.762	21438.17
617.118	21458.5
617.475	21393.65
617.831	21612.17
618.187	21468.9
618.543	21580.08
618.899	21755.67
619.255	21576.69
619.611	21583.92
619.967	21607.88
620.323	21745.5
620.678	21543.93
621.034	21555.22
621.39	21551.61
621.746	21564.94
622.101	21777.14
622.457	21577.37
622.812	21642.45
623.168	21555.68
623.523	21681.1
623.879	21630.7
624.234	21482.46
624.589	21672.74
624.945	21665.28
625.3	21612.62
625.655	21717.25
626.01	21646.3
626.365	21656.46
626.72	21627.99
627.075	21564.26
627.43	21537.15
627.785	21509.8
628.14	21749.12
628.495	21614.43
628.85	21498.73
629.205	21568.56
629.559	21613.53
629.914	21449.24
630.269	21489.46
630.623	21365.85
630.978	21370.6
631.332	21487.88
631.687	21454.21
632.041	21465.51
632.396	21394.78
632.75	21414.66
633.104	21408.11
633.459	21201.34
633.813	21303.71
634.167	21150.94
634.521	21234.78
634.875	21275.01
635.229	21138.29
635.583	21142.13
635.937	21103.94
636.291	21065.07
636.645	21072.98
636.999	20947.78
637.352	21029.81
637.706	20942.36
638.06	20944.84
638.413	20920.89
638.767	20764.06
639.121	20821.23
639.474	20779.65
639.828	20788.92
640.181	20851.74
640.534	20754.79
640.888	20746.88
641.241	20654.68
641.594	20473.22
641.947	20652.88
642.301	20535.36
642.654	20573.56
643.007	20605.42
643.36	20612.2
643.713	20553.67
644.066	20642.93
644.419	20331.98
644.771	20236.84
645.124	20062.61
645.477	19951.88
645.83	19900.13
646.182	19876.4
646.535	19766.8
646.888	19867.13
647.24	19782.16
647.593	19909.84
647.945	19842.27
648.298	19747.14
648.65	19625.56
649.002	19617.42
649.355	19678.89
649.707	19544.66
650.059	19653.13
650.411	19821.71
650.763	19855.61
651.115	20084.75
651.467	20011.99
651.819	19885.44
652.171	19898.54
652.523	19944.65
652.875	19942.39
653.227	19805.89
653.578	19831.65
653.93	19842.5
654.282	19833.24
654.633	19675.27
654.985	19753.69
655.337	19655.61
655.688	19762.5
656.039	19841.37
656.391	19520.7
656.742	19660.58
657.094	19683.86
657.445	19734.03
657.796	19604.77
658.147	19653.13
658.498	19632.79
658.849	19577.65
659.2	19578.1
659.551	19466.92
659.902	19614.26
660.253	19474.15
660.604	19582.62
660.955	19485
661.306	19528.38
661.656	19506.69
662.007	19527.25
662.358	19423.08
662.708	19453.58
663.059	19398.22
663.409	19313.7
663.76	19490.87
664.11	19421.49
664.461	19449.06
664.811	19349.18
665.161	19336.75
665.511	19260.6
665.862	19273.02
666.212	19370.2
666.562	19368.84
666.912	19354.38
667.262	19333.59
667.612	19308.73
667.962	19348.5
668.312	19238.22
668.662	19273.48
669.011	19258.56
669.361	19230.09
669.711	19202.74
670.06	19214.72
670.41	19166.59
670.76	19117.32
671.109	19321.84
671.459	19164.33
671.808	19138.11
672.157	19153.48
672.507	18955.97
672.856	19037.32
673.205	19013.14
673.554	19120.94
673.904	19023.99
674.253	19053.6
674.602	18994.16
674.951	18757.78
675.3	18601.4
675.649	19004.1
675.998	18947.61
676.346	18895.63
676.695	19031.22
677.044	18864.45
677.393	18867.84
677.741	18964.33
678.09	18831.23
678.438	18764.56
678.787	18816.54
679.135	18758.24
679.484	18729.76
679.832	18819.48
680.181	18717.11
680.529	18624.91
680.877	18665.81
681.225	18517.34
681.573	18640.95
681.922	18585.36
682.27	18395.53
682.618	18551.69
682.966	18546.94
683.314	18411.13
683.661	18431.01
684.009	18274.63
684.357	18273.28
684.705	18322.54
685.053	18346.72
685.4	18302.65
685.748	18133.39
686.095	18132.04
686.443	18121.87
686.79	18105.82
687.138	18122.32
687.485	18117.57
687.832	17891.37
688.18	17986.73
688.527	17980.4
688.874	17843.01
689.221	17834.64
689.568	17779.73
689.915	17836.45
690.262	17768.66
690.609	17602.56
690.956	17610.47
691.303	17636.01
691.65	17464.94
691.997	17524.82
692.344	17477.82
692.69	17409.34
693.037	17414.09
693.383	17306.3
693.73	17333.19
694.077	17203.47
694.423	17216.58
694.769	17130.48
695.116	17115.11
695.462	17128.22
695.808	16923.71
696.155	17006.64
696.501	16845.97
696.847	16782.92
697.193	16842.35
697.539	16869.7
697.885	16660.21
698.231	16692.3
698.577	16631.29
698.923	16627.9
699.269	16532.08
699.614	16529.37
699.96	16530.95
700.306	16399.88
700.651	16332.99
700.997	16316.04
701.342	16299.77
701.688	16312.2
702.033	16253.22
702.379	16193.11
702.724	16161.02
703.069	16092.32
703.415	15974.81
703.76	16006.67
704.105	15946.33
704.45	15890.29
704.795	15790.86
705.14	15771.87
705.485	15781.82
705.83	15765.77
706.175	15681.03
706.52	15713.57
706.865	15569.84
707.209	15641.26
707.554	15539.11
707.899	15560.35
708.243	15441.49
708.588	15473.12
708.932	15347.48
709.277	15383.41
709.621	15316.07
709.966	15248.27
710.31	15263.41
710.654	15152
710.998	15245.56
711.342	15159.91
711.687	15154.26
712.031	15055.28
712.375	15035.62
712.719	15120.82
713.063	15062.06
713.407	15112.46
713.75	15049.86
714.094	14943.65
714.438	14860.26
714.782	14918.79
715.125	14809.41
715.469	14730.77
715.812	14807.15
716.156	14608.74
716.499	14688.29
716.843	14696.2
717.186	14609.42
717.53	14676.76
717.873	14623.88
718.216	14587.05
718.559	14534.62
718.902	14345.24
719.246	14463.66
719.589	14435.64
719.932	14350.22
720.275	14319.03
720.617	14367.39
720.96	14304.57
721.303	14315.87
721.646	14262.99
721.989	14199.26
722.331	14262.99
722.674	14173.05
723.016	14246.04
723.359	14080.84
723.701	14152.71
724.044	14026.61
724.386	14085.59
724.729	14071.58
725.071	13994.29
725.413	14032.03
725.755	13959.49
726.097	13926.5
726.439	13912.04
726.782	13941.19
727.124	14029.77
727.465	13824.13
727.807	13862.55
728.149	13824.13
728.491	13825.94
728.833	13804.24
729.175	13723.34
729.516	13721.53
729.858	13613.06
730.199	13705.71
730.541	13700.06
730.882	13660.06
731.224	13713.4
731.565	13523.34
731.906	13585.72
732.248	13534.64
732.589	13431.14
732.93	13527.41
733.271	13423.23
733.612	13492.84
733.953	13532.84
734.294	13388.21
734.635	13401.31
734.976	13422.56
735.317	13314.31
735.658	13314.76
735.999	13334.2
736.339	13358.6
736.68	13312.96
737.021	13300.75
737.361	13263.69
737.702	13273.63
738.042	13244.03
738.383	13135.33
738.723	13182.34
739.063	13116.35
739.404	13128.33
739.744	13093.98
740.084	13044.49
740.424	13028.67
740.764	13060.53
741.104	13060.08
741.444	12969.46
741.784	12943.93
742.124	12988.22
742.464	12992.96
742.804	12969.24
743.143	12904.6
743.483	12883.36
743.823	12759.75
744.162	12834.32
744.502	12791.84
744.841	12758.85
745.181	12777.38
745.52	12719.3
745.86	12701.45
746.199	12715.91
746.538	12695.34
746.877	12681.79
747.216	12708.45
747.556	12645.85
747.895	12549.81
748.234	12575.8
748.573	12595.46
748.911	12517.5
749.25	12508.46
749.589	12485.86
749.928	12477.27
750.267	12517.04
750.605	12418.06
750.944	12414.22
751.283	12298.97
751.621	12413.32
751.96	12363.15
752.298	12237.73
752.636	12308.69
752.975	12248.8
753.313	12214.68
753.651	12266.65
753.989	12278.41
754.327	12148.92
754.666	12073.44
755.004	12095.13
755.342	12167.67
755.679	12082.48
