Data from foam2_polystyrene_foam_FLMS001491_00078.txt Node
Date: Wed Feb 08 10:58:29 GMT 2017
User: dcchb
Spectrometer: FLMS00149
Trigger mode: 0
Integration Time (sec): 2.000000E-2
Scans to average: 10
Electric dark correction enabled: true
Nonlinearity correction enabled: false
Boxcar width: 0
XAxis mode: Wavelengths
Number of Pixels in Spectrum: 2048
>>>>>Begin Spectral Data<<<<<
341.393	-19.34
341.776	-19.34
342.16	-19.34
342.543	-63.63
342.927	-74.48
343.31	-81.93
343.693	-73.35
344.077	-52.1
344.46	-71.31
344.843	-71.09
345.226	-31.54
345.61	-20.24
345.993	-17.75
346.376	-5.55
346.759	5.97
347.142	31.28
347.525	36.71
347.908	66.99
348.291	62.47
348.674	95.92
349.057	125.52
349.44	105.41
349.823	146.08
350.206	164.16
350.588	184.73
350.971	219.08
351.354	241.22
351.737	228.12
352.119	255.01
352.502	275.8
352.884	273.99
353.267	303.59
353.65	313.31
354.032	313.99
354.414	322.58
354.797	334.1
355.179	342.46
355.562	335.91
355.944	343.59
356.326	331.62
356.709	359.64
357.091	366.42
357.473	348.56
357.855	362.35
358.238	347.43
358.62	341.78
359.002	364.84
359.384	350.82
359.766	347.66
360.148	349.24
360.53	354.89
360.912	377.49
361.294	363.48
361.676	363.03
362.057	347.89
362.439	341.33
362.821	360.99
363.203	360.09
363.584	362.8
363.966	359.41
364.348	355.57
364.729	360.54
365.111	353.99
365.493	345.85
365.874	363.93
366.256	355.57
366.637	349.69
367.019	361.9
367.4	350.37
367.781	349.02
368.163	363.25
368.544	360.32
368.925	352.41
369.306	365.51
369.688	348.11
370.069	350.6
370.45	362.58
370.831	362.8
371.212	363.93
371.593	352.86
371.974	363.48
372.355	355.34
372.736	369.13
373.117	388.56
373.498	369.13
373.879	363.48
374.26	362.58
374.641	363.03
375.021	396.47
375.402	355.34
375.783	393.76
376.163	407.32
376.544	387.21
376.925	393.08
377.305	393.31
377.686	377.72
378.066	379.07
378.447	402.57
378.827	399.64
379.208	415
379.588	400.09
379.968	404.61
380.349	406.87
380.729	412.52
381.109	417.49
381.489	443.48
381.87	429.47
382.25	432.63
382.63	434.44
383.01	434.44
383.39	440.99
383.77	450.93
384.15	464.04
384.53	439.18
384.91	449.8
385.29	472.85
385.67	455.45
386.049	484.38
386.429	479.41
386.809	445.74
387.189	479.18
387.568	471.95
387.948	492.29
388.328	504.27
388.707	486.64
389.087	512.18
389.466	524.38
389.846	490.26
390.225	523.93
390.605	510.37
390.984	523.7
391.363	507.43
391.743	506.75
392.122	530.25
392.501	530.25
392.881	542.23
393.26	553.76
393.639	540.65
394.018	572.97
394.397	570.03
394.776	554.21
395.155	577.71
395.534	570.48
395.913	588.11
396.292	592.85
396.671	592.17
397.05	587.65
397.429	596.92
397.808	608.9
398.186	612.74
398.565	626.3
398.944	629.01
399.323	630.36
399.701	629.69
400.08	642.12
400.458	625.62
400.837	655
401.215	653.64
401.594	651.16
401.972	666.07
402.351	691.38
402.729	673.75
403.107	690.93
403.486	683.47
403.864	681.89
404.242	706.29
404.62	687.99
404.999	709.46
405.377	728.89
405.755	721.66
406.133	751.04
406.511	745.84
406.889	748.33
407.267	760.3
407.645	785.84
408.023	796.91
408.401	765.05
408.779	808.67
409.156	796.69
409.534	814.99
409.912	834.88
410.29	846.63
410.667	853.86
411.045	859.51
411.422	880.75
411.8	878.27
412.178	897.93
412.555	890.24
412.933	909.68
413.31	920.53
413.687	929.57
414.065	937.02
414.442	965.72
414.819	966.85
415.197	966.63
415.574	1002.56
415.951	979.96
416.328	992.16
416.705	1011.15
417.082	1005.27
417.46	1053.18
417.837	1031.03
418.214	1061.54
418.591	1045.04
418.967	1055.21
419.344	1078.04
419.721	1109.22
420.098	1073.74
420.475	1115.78
420.852	1145.15
421.228	1119.62
421.605	1166.85
421.982	1135.21
422.358	1148.54
422.735	1191.71
423.111	1157.58
423.488	1223.12
423.864	1214.53
424.241	1210.69
424.617	1224.47
424.994	1215.21
425.37	1240.07
425.746	1250.01
426.123	1271.25
426.499	1294.53
426.875	1320.52
427.251	1331.14
427.627	1346.5
428.003	1364.81
428.379	1370.23
428.756	1395.77
429.132	1409.33
429.507	1450.91
429.883	1447.52
430.259	1496.78
430.635	1479.16
431.011	1514.41
431.387	1528.19
431.763	1553.28
432.138	1573.39
432.514	1610.45
432.89	1613.84
433.265	1626.27
433.641	1633.73
434.016	1682.31
434.392	1678.47
434.767	1715.76
435.143	1739.94
435.518	1750.11
435.894	1786.04
436.269	1786.49
436.644	1766.83
437.02	1821.29
437.395	1835.98
437.77	1866.72
438.145	1906.94
438.52	1902.42
438.895	1936.77
439.271	1955.98
439.646	1965.7
440.021	1993.94
440.395	2013.15
440.77	1983.55
441.145	2018.8
441.52	2059.93
441.895	2044.34
442.27	2082.76
442.645	2126.6
443.019	2134.28
443.394	2122.98
443.769	2174.5
444.143	2191.68
444.518	2188.29
444.892	2232.58
445.267	2226.26
445.641	2226.48
446.016	2252.02
446.39	2290.66
446.764	2268.29
447.139	2303.54
447.513	2339.47
447.887	2330.66
448.262	2330.89
448.636	2363.88
449.01	2405.01
449.384	2426.48
449.758	2426.7
450.132	2491.33
450.506	2493.59
450.88	2489.52
451.254	2513.71
451.628	2544.44
452.002	2581.95
452.376	2585.12
452.75	2604.78
453.123	2640.03
453.497	2706.02
453.871	2696.98
454.244	2785.34
454.618	2768.39
454.992	2830.31
455.365	2839.57
455.739	2901.04
456.112	2915.05
456.486	2964.99
456.859	2964.31
457.232	3021.94
457.606	3001.6
457.979	3045.67
458.352	3130.19
458.725	3150.75
459.099	3159.56
459.472	3192.78
459.845	3232.56
460.218	3278.2
460.591	3353.01
460.964	3320.69
461.337	3398.43
461.71	3414.25
462.083	3500.35
462.456	3505.54
462.829	3498.54
463.201	3620.57
463.574	3574.92
463.947	3611.3
464.32	3748.7
464.692	3773.56
465.065	3792.77
465.438	3848.13
465.81	3917.51
466.183	3965.42
466.555	4036.6
466.928	4058.07
467.3	4014.23
467.672	4124.74
468.045	4175.13
468.417	4234.56
468.789	4188.46
469.161	4286.31
469.534	4403.37
469.906	4463.26
470.278	4478.17
470.65	4547.1
471.022	4649.92
471.394	4682.69
471.766	4757.94
472.138	4816.7
472.51	4921.55
472.882	5016.92
473.253	5047.65
473.625	5132.85
473.997	5247.42
474.369	5296
474.74	5333.07
475.112	5418.94
475.484	5512.5
475.855	5596.11
476.227	5657.13
476.598	5781.19
476.97	5839.27
477.341	5996.1
477.713	6036.1
478.084	6124.46
478.455	6298.24
478.827	6325.13
479.198	6496.88
479.569	6552.69
479.94	6732.58
480.311	6726.02
480.682	6956.3
481.053	7063.19
481.424	7187.93
481.795	7215.73
482.166	7342.05
482.537	7447.59
482.908	7620.92
483.279	7692.55
483.65	7862.27
484.021	8047.57
484.391	8057.06
484.762	8102.48
485.133	8199.43
485.503	8292.08
485.874	8578.63
486.244	8587.67
486.615	8700.89
486.985	8809.81
487.356	8979.07
487.726	9057.26
488.097	9240.08
488.467	9327.99
488.837	9531.83
489.207	9621.99
489.578	9767.3
489.948	9878.94
490.318	9951.7
490.688	9962.77
491.058	10194.63
491.428	10325.7
491.798	10424.68
492.168	10638.24
492.538	10697.67
492.908	10861.28
493.278	10914.39
493.648	10966.36
494.017	11187.15
494.387	11215.4
494.757	11381.95
495.126	11485.9
495.496	11549.85
495.866	11659.45
496.235	11784.87
496.605	11932.21
496.974	11873.01
497.344	12024.87
497.713	12099.89
498.082	12301.02
498.452	12385.76
498.821	12400.22
499.19	12504.18
499.559	12673.66
499.928	12735.36
500.298	12760.89
500.667	12989.81
501.036	12955.46
501.405	13034.56
501.774	13046.08
502.143	13230.71
502.512	13253.76
502.88	13495.79
503.249	13444.94
503.618	13544.83
503.987	13740.08
504.356	13791.83
504.724	13832.73
505.093	13963.57
505.462	13988.66
505.83	14094.42
506.199	14277.01
506.567	14354.07
506.936	14470.68
507.304	14563.78
507.672	14655.76
508.041	14744.57
508.409	14944.56
508.777	14998.57
509.145	15190.89
509.514	15198.34
509.882	15268.4
510.25	15333.26
510.618	15494.61
510.986	15558.33
511.354	15701.61
511.722	15844.43
512.09	15966.68
512.458	15977.53
512.826	16143.63
513.193	16140.24
513.561	16320.57
513.929	16531.42
514.297	16646.44
514.664	16846.21
515.032	16861.12
515.4	16982.7
515.767	17055.02
516.135	17191.74
516.502	17120.1
516.869	17504.27
517.237	17500.66
517.604	17535.46
517.972	17822.23
518.339	17858.39
518.706	17886.63
519.073	18123.46
519.44	18216.8
519.808	18358.71
520.175	18414.08
520.542	18748.08
520.909	18762.77
521.276	18791.7
521.643	18998.7
522.009	19168.63
522.376	19325.01
522.743	19499.93
523.11	19615.4
523.477	19778.34
523.843	19964.55
524.21	20232.34
524.577	20318.43
524.943	20442.73
525.31	20561.37
525.676	20816.5
526.043	20859.66
526.409	21035.93
526.776	21141.46
527.142	21251.52
527.508	21373.32
527.874	21695.8
528.241	21855.12
528.607	21917.26
528.973	22074.32
529.339	22030.25
529.705	22287.42
530.071	22499.17
530.437	22610.35
530.803	22784.81
531.169	22920.17
531.535	22816
531.901	22982.77
532.267	23150.9
532.632	23338.47
532.998	23342.99
533.364	23621.85
533.73	23476.32
534.095	23787.04
534.461	23876.76
534.826	24017.32
535.192	24071.1
535.557	24227.71
535.923	24429.74
536.288	24484.43
536.653	24608.72
537.019	24613.69
537.384	24693.69
537.749	24848.03
538.114	24934.36
538.479	25075.6
538.845	25189.95
539.21	25064.75
539.575	25356.49
539.94	25416.15
540.305	25429.49
540.67	25492.08
541.034	25547.68
541.399	25765.52
541.764	25808.01
542.129	26015.23
542.494	25942.69
542.858	26108.11
543.223	26089.36
543.587	26311.27
543.952	26216.81
544.316	26448.67
544.681	26400.53
545.045	26610.7
545.41	26690.24
545.774	26840.98
546.138	26979.73
546.503	26926.17
546.867	26941.31
547.231	27275.31
547.595	27258.14
547.959	27248.2
548.324	27405.71
548.688	27455.42
549.052	27661.52
549.416	27562.76
549.779	27688.64
550.143	27963.21
550.507	28004.11
550.871	28148.29
551.235	27947.16
551.599	28386.7
551.962	28457.66
552.326	28443.42
552.689	28600.93
553.053	28579.23
553.417	28740.59
553.78	29064.19
554.143	28990.07
554.507	29197.3
554.87	29183.29
555.234	29484.75
555.597	29445.2
555.96	29628.02
556.323	29672.99
556.686	29800.9
557.05	30067.56
557.413	30127.67
557.776	30161.34
558.139	30360.43
558.502	30352.3
558.865	30533.31
559.228	30747.31
559.59	30914.09
559.953	31021.66
560.316	31325.15
560.679	31173.29
561.041	31601.75
561.404	31607.86
561.767	31783.9
562.129	31814.18
562.492	31985.7
562.854	32091.46
563.217	32179.14
563.579	32382.52
563.941	32465.46
564.304	32746.81
564.666	33038.55
565.028	32909.06
565.39	33029.96
565.753	33321.71
566.115	33420.01
566.477	33548.37
566.839	33535.71
567.201	33820.9
567.563	33964.63
567.925	34158.75
568.287	34181.35
568.648	34203.95
569.01	34421.34
569.372	34767.55
569.734	34622.69
570.095	34892.06
570.457	34961.67
570.819	35146.75
571.18	35111.04
571.542	35200.3
571.903	35389
572.265	35494.08
572.626	35379.96
572.987	35536.79
573.349	35660.63
573.71	35770.91
574.071	35904.69
574.432	36051.35
574.794	36299.71
575.155	36116.89
575.516	36130.45
575.877	36359.37
576.238	36433.94
576.599	36448.86
576.96	36514.62
577.32	36567.05
577.681	36773.82
578.042	36705.12
578.403	36839.36
578.763	36845.68
579.124	36863.76
579.485	37044.32
579.845	37151.89
580.206	36993.02
580.566	37143.53
580.927	37073.25
581.287	37256.07
581.648	37157.31
582.008	37280.7
582.368	37333.81
582.728	37407.7
583.089	37269.18
583.449	37320.47
583.809	37454.71
584.169	37584.65
584.529	37427.36
584.889	37636.17
585.249	37343.3
585.609	37418.1
585.969	37592.33
586.329	37429.17
586.688	37486.34
587.048	37361.15
587.408	37321.6
587.768	37386.69
588.127	37321.83
588.487	37327.93
588.846	37574.48
589.206	37281.15
589.565	37292.68
589.925	37575.83
590.284	37439.34
590.643	37563.63
591.003	37435.05
591.362	37740.12
591.721	37667.58
592.08	37567.7
592.44	37817.86
592.799	37716.62
593.158	37711.42
593.517	37631.65
593.876	37624.19
594.235	37635.04
594.593	37604.31
594.952	37690.86
595.311	37608.38
595.67	37626.23
596.029	37955.94
596.387	37880.91
596.746	37844.53
597.104	37844.3
597.463	37822.16
597.822	37791.87
598.18	37763.4
598.538	37791.2
598.897	37984.64
599.255	37655.15
599.613	38182.37
599.972	37922.72
600.33	38011.98
600.688	37973.79
601.046	38114.58
601.404	38149.38
601.762	38037.06
602.12	38328.81
602.478	38231.86
602.836	38344.85
603.194	38143.95
603.552	38323.61
603.91	38223.27
604.268	38458.97
604.625	38344.18
604.983	38500.1
605.341	38404.74
605.698	38508.92
606.056	38562.02
606.413	38462.82
606.771	38557.28
607.128	38548.69
607.485	38500.78
607.843	38478.41
608.2	38737.61
608.557	38741.68
608.914	38754.79
609.272	38873.88
609.629	39104.83
609.986	39179.41
610.343	38944.16
610.7	39261.67
611.057	39107.55
611.414	38954.33
611.771	39071.84
612.127	39231.84
612.484	39176.47
612.841	39231.61
613.198	39208.79
613.554	39107.77
613.911	39386.41
614.267	39375.33
614.624	39350.7
614.98	39362.23
615.337	39511.6
615.693	39496.01
616.05	39429.34
616.406	39530.58
616.762	39510.02
617.118	39571.49
617.475	39673.63
617.831	39671.82
618.187	39634.31
618.543	39771.48
618.899	40072.04
619.255	39928.54
619.611	39949.1
619.967	40044.47
620.323	40172.6
620.678	39976.45
621.034	39925.6
621.39	39975.32
621.746	39873.4
622.101	40301.41
622.457	40022.1
622.812	40224.13
623.168	40200.62
623.523	40187.06
623.879	40225.03
624.234	39904.81
624.589	40194.07
624.945	40093.51
625.3	40201.08
625.655	40133.05
626.01	40192.26
626.365	40186.61
626.72	40060.06
627.075	40085.6
627.43	40039.95
627.785	40028.2
628.14	40091.02
628.495	40102.1
628.85	40073.85
629.205	39958.37
629.559	40134.86
629.914	39871.14
630.269	39929.44
630.623	39938.71
630.978	39846.51
631.332	39946.39
631.687	40084.24
632.041	39736
632.396	39931.7
632.75	39821.2
633.104	39805.15
633.459	39607.42
633.813	39664.14
634.167	39498.5
634.521	39337.82
634.875	39452.39
635.229	39447.65
635.583	39155.68
635.937	39319.07
636.291	39221.67
636.645	39124.27
636.999	38968.57
637.352	39198.62
637.706	38867.33
638.06	39104.38
638.413	38806.54
638.767	38804.95
639.121	38873.65
639.474	38604.96
639.828	38566.32
640.181	38642.25
640.534	38639.31
640.888	38520.89
641.241	38279.32
641.594	38532.42
641.947	38471.86
642.301	38464.17
642.654	38392.31
643.007	38276.61
643.36	38341.92
643.713	38163.39
644.066	38357.73
644.419	38094.46
644.771	37803.4
645.124	37375.16
645.477	37364.54
645.83	36999.8
646.182	36998.9
646.535	36994.61
646.888	37020.59
647.24	36788.51
647.593	36948.51
647.945	36915.06
648.298	36617.22
648.65	36569.08
649.002	36513.26
649.355	36567.72
649.707	36630.1
650.059	36646.59
650.411	37254.03
650.763	37188.5
651.115	37700.35
651.467	37448.15
651.819	37433.24
652.171	37316.63
652.523	37252
652.875	37200.25
653.227	36964.78
653.578	37218.78
653.93	37213.13
654.282	37069.86
654.633	36927.72
654.985	37031.44
655.337	37031.67
655.688	37047.26
656.039	37251.32
656.391	36849.75
656.742	37025.34
657.094	37021.5
657.445	37007.71
657.796	36962.97
658.147	36870.09
658.498	36744.44
658.849	36815.85
659.2	36840.71
659.551	36727.27
659.902	36732.47
660.253	36611.34
660.604	36717.33
660.955	36484.56
661.306	36720.94
661.656	36553.71
662.007	36645.46
662.358	36684.56
662.708	36568.85
663.059	36610.21
663.409	36348.52
663.76	36779.7
664.11	36627.38
664.461	36754.84
664.811	36668.97
665.161	36677.1
665.511	36538.57
665.862	36576.09
666.212	36565.92
666.562	36747.16
666.912	36504.68
667.262	36477.56
667.612	36504.45
667.962	36409.54
668.312	36439.59
668.662	36498.12
669.011	36552.81
669.361	36406.15
669.711	36510.1
670.06	36295.64
670.41	36378.35
670.76	36308.97
671.109	36344.45
671.459	36130.67
671.808	36145.82
672.157	36294.06
672.507	36020.17
672.856	35988.53
673.205	36037.12
673.554	36258.58
673.904	35937.01
674.253	36179.03
674.602	35955.09
674.951	35487.98
675.3	35260.41
675.649	35895.2
675.998	35727.75
676.346	35941.53
676.695	36152.14
677.044	35747.18
677.393	35760.06
677.741	35871.92
678.09	35780.85
678.438	35621.08
678.787	35861.08
679.135	35739.95
679.484	35473.74
679.832	35642.55
680.181	35501.99
680.529	35579.95
680.877	35345.61
681.225	35285.05
681.573	35495.89
681.922	35080.53
682.27	35126.86
682.618	35200.53
682.966	35053.64
683.314	35163.02
683.661	34983.59
684.009	34844.61
684.357	34822.69
684.705	34772.74
685.053	34778.39
685.4	34668.34
685.748	34591.73
686.095	34474.67
686.443	34422.92
686.79	34387.44
687.138	34351.06
687.485	34505.86
687.832	34233.32
688.18	34208.69
688.527	34083.04
688.874	34090.73
689.221	33940.22
689.568	33793.56
689.915	33791.98
690.262	33724.41
690.609	33609.16
690.956	33644.64
691.303	33630.63
691.65	33330.3
691.997	33408.26
692.344	33236.29
692.69	33173.01
693.037	33206.01
693.383	33020.25
693.73	33049.4
694.077	32865.9
694.423	32806.69
694.769	32645.57
695.116	32598.11
695.462	32356.08
695.808	32467.27
696.155	32386.59
696.501	32157.9
696.847	32270.21
697.193	32093.72
697.539	32193.38
697.885	31959.48
698.231	31847.62
698.577	31788.42
698.923	31873.61
699.269	31648.76
699.614	31443.57
699.96	31421.65
700.306	31322.44
700.651	31304.59
700.997	31251.03
701.342	31216.45
701.688	31032.5
702.033	30994.99
702.379	30902.34
702.724	30876.58
703.069	30815.79
703.415	30548
703.76	30632.74
704.105	30486.98
704.45	30458.28
704.795	30235.46
705.14	30153.88
705.485	30083.83
705.83	30208.12
706.175	30110.27
706.52	29987.78
706.865	30009.03
707.209	29934.45
707.554	29724.74
707.899	29828.24
708.243	29623.27
708.588	29621.47
708.932	29503.96
709.277	29385.77
709.621	29433
709.966	29234.81
710.31	29255.15
710.654	28979.22
710.998	29075.72
711.342	29119.79
711.687	29000.47
712.031	28891.09
712.375	28806.8
712.719	28875.05
713.063	28678.21
713.407	28742.85
713.75	28559.8
714.094	28569.29
714.438	28470.76
714.782	28471.89
715.125	28249.07
715.469	28361.16
715.812	28188.28
716.156	27949.19
716.499	27961.85
716.843	28087.04
717.186	27861.29
717.53	28002.07
717.873	27983.77
718.216	27935.41
718.559	27721.18
718.902	27633.27
719.246	27616.32
719.589	27348.98
719.932	27386.5
720.275	27380.17
720.617	27366.84
720.96	27287.07
721.303	27271.7
721.646	27258.37
721.989	27054.08
722.331	27174.53
722.674	27176.79
723.016	27093.17
723.359	27165.94
723.701	27031.25
724.044	27033.06
724.386	26880.97
724.729	26889.79
725.071	26791.03
725.413	26718.04
725.755	26867.87
726.097	26563.47
726.439	26566.63
726.782	26592.62
727.124	26757.81
727.465	26480.98
727.807	26562.11
728.149	26474.88
728.491	26306.07
728.833	26407.77
729.175	26225.17
729.516	26163.03
729.858	26179.07
730.199	26139.98
730.541	26191.05
730.882	26094.1
731.224	26119.41
731.565	25944.05
731.906	26033.31
732.248	25860.89
732.589	25796.48
732.93	25798.74
733.271	25688.46
733.612	25680.33
733.953	25782.25
734.294	25555.36
734.635	25531.4
734.976	25588.13
735.317	25524.85
735.658	25427
735.999	25505.19
736.339	25285.76
736.68	25531.18
737.021	25410.96
737.361	25248.02
737.702	25283.5
738.042	25249.38
738.383	25133.68
738.723	25103.62
739.063	25079.67
739.404	25100
739.744	25034.24
740.084	24985.66
740.424	25012.1
740.764	24884.42
741.104	24950.18
741.444	24813.91
741.784	24846
742.124	24795.83
742.464	24743.86
742.804	24687.36
743.143	24614.37
743.483	24668.38
743.823	24427.25
744.162	24411.66
744.502	24507.03
744.841	24345.67
745.181	24454.37
745.52	24365.11
745.86	24339.12
746.199	24391.1
746.538	24135.51
746.877	24316.75
747.216	24257.54
747.556	24279.01
747.895	24086.7
748.234	24104.32
748.573	23960.6
748.911	23964.21
749.25	23930.09
749.589	23936.19
749.928	23827.95
750.267	23765.12
750.605	23732.81
750.944	23666.14
751.283	23566.03
751.621	23579.14
751.96	23449.2
752.298	23491.01
752.636	23459.82
752.975	23353.38
753.313	23262.31
753.651	23374.17
753.989	23260.73
