Data from foam_black_FLMS001491_00011.txt Node
Date: Wed Feb 08 10:43:34 GMT 2017
User: dcchb
Spectrometer: FLMS00149
Trigger mode: 0
Integration Time (sec): 2.000000E-2
Scans to average: 10
Electric dark correction enabled: true
Nonlinearity correction enabled: false
Boxcar width: 0
XAxis mode: Wavelengths
Number of Pixels in Spectrum: 2048
>>>>>Begin Spectral Data<<<<<
341.393	-15.17
341.776	-15.17
342.16	-15.17
342.543	-59.69
342.927	-73.7
343.31	-65.34
343.693	-82.06
344.077	-59.69
344.46	-45
344.843	-47.94
345.226	-42.06
345.61	-43.42
345.993	-26.24
346.376	-3.64
346.759	13.3
347.142	14.21
347.525	40.42
347.908	79.97
348.291	72.51
348.674	80.2
349.057	114.77
349.44	121.32
349.823	150.48
350.206	145.05
350.588	192.96
350.971	174.66
351.354	209.68
351.737	238.61
352.119	249.23
352.502	228.21
352.884	248.55
353.267	267.31
353.65	258.04
354.032	274.99
354.414	293.3
354.797	278.83
355.179	293.52
355.562	296.24
355.944	322.45
356.326	332.84
356.709	311.38
357.091	300.98
357.473	332.17
357.855	307.31
358.238	358.15
358.62	316.35
359.002	323.35
359.384	327.87
359.766	321.77
360.148	316.35
360.53	339.4
360.912	321.32
361.294	309.57
361.676	323.13
362.057	311.38
362.439	319.74
362.821	310.7
363.203	281.09
363.584	290.13
363.966	315.22
364.348	301.21
364.729	287.87
365.111	288.1
365.493	308.44
365.874	315.67
366.256	307.76
366.637	301.21
367.019	308.21
367.4	295.33
367.781	276.12
368.163	296.46
368.544	288.55
368.925	303.92
369.306	287.42
369.688	277.93
370.069	310.02
370.45	291.04
370.831	316.12
371.212	284.94
371.593	301.43
371.974	312.51
372.355	302.34
372.736	286.29
373.117	291.94
373.498	294.2
373.879	282
374.26	317.03
374.641	281.32
375.021	302.79
375.402	334.65
375.783	303.01
376.163	313.86
376.544	323.13
376.925	289.23
377.305	301.66
377.686	313.64
378.066	305.27
378.447	301.21
378.827	321.77
379.208	310.7
379.588	317.03
379.968	291.94
380.349	308.21
380.729	302.11
381.109	318.83
381.489	330.58
381.87	303.69
382.25	322.45
382.63	321.55
383.01	317.93
383.39	318.16
383.77	348.44
384.15	327.65
384.53	322
384.91	335.56
385.29	308.44
385.67	329.91
386.049	309.12
386.429	325.16
386.809	322.68
387.189	315.44
387.568	338.49
387.948	313.18
388.328	325.39
388.707	329.68
389.087	335.33
389.466	318.83
389.846	336.91
390.225	338.27
390.605	329.91
390.984	320.42
391.363	331.04
391.743	332.39
392.122	339.17
392.501	361.77
392.881	367.19
393.26	366.74
393.639	348.66
394.018	342.34
394.397	336.91
394.776	357.93
395.155	351.15
395.534	336.69
395.913	338.27
396.292	355.67
396.671	368.78
397.05	351.83
397.429	336.69
397.808	351.37
398.186	368.78
398.565	339.62
398.944	355.44
399.323	357.25
399.701	359.74
400.08	383.92
400.458	370.36
400.837	371.49
401.215	366.97
401.594	373.3
401.972	379.62
402.351	367.42
402.729	414.42
403.107	356.8
403.486	383.92
403.864	402
404.242	395.22
404.62	405.84
404.999	384.14
405.377	377.36
405.755	385.05
406.133	389.34
406.511	388.44
406.889	409.68
407.267	396.8
407.645	412.84
408.023	389.34
408.401	399.06
408.779	399.06
409.156	415.33
409.534	412.39
409.912	381.66
410.29	376.01
410.667	418.49
411.045	410.36
411.422	432.28
411.8	402.9
412.178	436.8
412.555	413.97
412.933	407.87
413.31	416.46
413.687	431.37
414.065	419.85
414.442	433.63
414.819	433.63
415.197	438.6
415.574	441.77
415.951	432.05
416.328	444.25
416.705	450.13
417.082	456.23
417.46	445.38
417.837	455.78
418.214	461.2
418.591	448.32
418.967	435.89
419.344	447.64
419.721	440.86
420.098	472.5
420.475	460.3
420.852	469.34
421.228	459.17
421.605	474.08
421.982	466.17
422.358	470.24
422.735	475.89
423.111	469.11
423.488	479.28
423.864	479.51
424.241	494.2
424.617	467.98
424.994	487.87
425.37	484.25
425.746	508.66
426.123	490.13
426.499	499.39
426.875	495.1
427.251	498.04
427.627	507.08
428.003	505.95
428.379	515.21
428.756	531.94
429.132	494.42
429.507	529.45
429.883	519.05
430.259	523.8
430.635	522.67
431.011	521.99
431.387	524.48
431.763	526.06
432.138	561.31
432.514	538.04
432.89	561.31
433.265	579.17
433.641	569.9
434.016	552.73
434.392	591.14
434.767	571.93
435.143	569.45
435.518	557.47
435.894	574.42
436.269	578.94
436.644	602.44
437.02	589.79
437.395	586.85
437.77	586.85
438.145	603.12
438.52	592.5
438.895	607.41
439.271	624.81
439.646	622.1
440.021	629.33
440.395	598.83
440.77	612.84
441.145	638.15
441.52	624.81
441.895	617.13
442.27	614.19
442.645	639.28
443.019	641.08
443.394	632.72
443.769	641.54
444.143	626.17
444.518	653.06
444.892	656
445.267	637.24
445.641	643.34
446.016	652.84
446.39	653.29
446.764	677.69
447.139	658.71
447.513	662.1
447.887	657.36
448.262	683.12
448.636	704.36
449.01	680.41
449.384	693.51
449.758	675.43
450.132	712.04
450.506	701.42
450.88	728.54
451.254	695.55
451.628	710.91
452.002	710.01
452.376	700.07
452.75	702.78
453.123	736.22
453.497	725.15
453.871	767.18
454.244	746.62
454.618	744.13
454.992	768.31
455.365	766.51
455.739	744.58
456.112	780.06
456.486	775.54
456.859	765.83
457.232	764.25
457.606	779.16
457.979	775.54
458.352	802.66
458.725	786.17
459.099	800.63
459.472	820.06
459.845	839.27
460.218	831.59
460.591	846.96
460.964	820.29
461.337	860.51
461.71	856.67
462.083	865.26
462.456	875.88
462.829	854.64
463.201	869.78
463.574	874.98
463.947	864.58
464.32	884.47
464.692	910.68
465.065	913.85
465.438	898.93
465.81	943.68
466.183	932.6
466.555	967.18
466.928	960.62
467.3	964.69
467.672	987.29
468.045	997.69
468.417	993.17
468.789	975.99
469.161	1017.8
469.534	1025.03
469.906	1019.38
470.278	1028.42
470.65	1018.7
471.022	1054.63
471.394	1072.49
471.766	1079.72
472.138	1105.93
472.51	1101.19
472.882	1127.63
473.253	1115.87
473.625	1154.29
473.997	1166.95
474.369	1169.43
474.74	1160.62
475.112	1189.32
475.484	1191.8
475.855	1205.59
476.227	1242.42
476.598	1251.92
476.97	1235.65
477.341	1250.33
477.713	1277.9
478.084	1284.01
478.455	1333.5
478.827	1315.64
479.198	1392.48
479.569	1345.7
479.94	1401.97
480.311	1410.78
480.682	1423.89
481.053	1434.51
481.424	1460.27
481.795	1455.07
482.166	1512.7
482.537	1509.76
482.908	1519.93
483.279	1550.44
483.65	1557.22
484.021	1581.17
484.391	1602.87
484.762	1626.6
485.133	1633.15
485.503	1642.19
485.874	1689.64
486.244	1717.89
486.615	1749.08
486.985	1747.04
487.356	1732.36
487.726	1809.64
488.097	1818.23
488.467	1810.32
488.837	1839.92
489.207	1844.89
489.578	1852.35
489.948	1874.72
490.318	1920.83
490.688	1891.22
491.058	1925.12
491.428	1956.3
491.798	1983.65
492.168	2020.94
492.538	1998.56
492.908	2035.85
493.278	2081.72
493.648	2062.74
494.017	2101.84
494.387	2132.12
494.757	2113.14
495.126	2140.03
495.496	2172.57
495.866	2164.43
496.235	2143.42
496.605	2167.37
496.974	2206.47
497.344	2232.23
497.713	2210.54
498.082	2241.72
498.452	2236.3
498.821	2290.08
499.19	2245.56
499.559	2262.29
499.928	2310.65
500.298	2324.43
500.667	2392.9
501.036	2356.29
501.405	2393.36
501.774	2393.13
502.143	2393.58
502.512	2420.47
502.88	2435.39
503.249	2456.18
503.618	2504.54
503.987	2489.62
504.356	2485.56
504.724	2509.96
505.093	2489.85
505.462	2499.57
505.83	2506.35
506.199	2526.91
506.567	2585.67
506.936	2551.32
507.304	2561.49
507.672	2613.01
508.041	2604.42
508.409	2626.12
508.777	2662.05
509.145	2680.13
509.514	2685.78
509.882	2714.7
510.25	2734.59
510.618	2765.1
510.986	2755.38
511.354	2772.1
511.722	2739.79
512.09	2775.94
512.458	2789.95
512.826	2818.88
513.193	2812.78
513.561	2823.85
513.929	2845.09
514.297	2861.37
514.664	2862.04
515.032	2890.52
515.4	2936.62
515.767	2966.9
516.135	3033.34
516.502	2999.21
516.869	3083.51
517.237	3086.22
517.604	3073.79
517.972	3069.04
518.339	3115.6
518.706	3111.53
519.073	3114.47
519.44	3125.31
519.808	3151.98
520.175	3163.5
520.542	3177.97
520.909	3200.79
521.276	3220.9
521.643	3226.55
522.009	3272.65
522.376	3306.78
522.743	3309.49
523.11	3319.88
523.477	3341.58
523.843	3389.71
524.21	3491.41
524.577	3479.88
524.943	3528.92
525.31	3536.6
525.676	3514.46
526.043	3580.89
526.409	3594
526.776	3582.48
527.142	3590.61
527.508	3622.25
527.874	3619.99
528.241	3617.73
528.607	3668.35
528.973	3662.7
529.339	3692.08
529.705	3695.92
530.071	3707.9
530.437	3795.58
530.803	3779.99
531.169	3827.89
531.535	3857.95
531.901	3834.67
532.267	3918.29
532.632	3945.63
532.998	3949.25
533.364	3984.95
533.73	3990.6
534.095	4018.4
534.461	4067.21
534.826	4072.41
535.192	4051.62
535.557	4105.4
535.923	4051.84
536.288	4078.06
536.653	4073.99
537.019	4017.27
537.384	4052.07
537.749	4068.11
538.114	4072.63
538.479	4088
538.845	4118.28
539.21	4128.9
539.575	4157.6
539.94	4202.8
540.305	4206.41
540.67	4259.29
541.034	4318.73
541.399	4273.98
541.764	4341.78
542.129	4374.09
542.494	4401.21
542.858	4410.7
543.223	4394.66
543.587	4431.27
543.952	4432.17
544.316	4361.66
544.681	4384.26
545.045	4429.01
545.41	4421.32
545.774	4403.02
546.138	4428.1
546.503	4462
546.867	4432.4
547.231	4455.22
547.595	4477.14
547.959	4501.1
548.324	4523.92
548.688	4563.02
549.052	4615.22
549.416	4620.19
549.779	4654.54
550.143	4673.52
550.507	4726.85
550.871	4711.94
551.235	4698.83
551.599	4803.69
551.962	4801.88
552.326	4810.24
552.689	4850.01
553.053	4795.78
553.417	4845.04
553.78	4808.66
554.143	4833.74
554.507	4793.97
554.87	4785.38
555.234	4891.59
555.597	4847.53
555.96	4822.44
556.323	4877.13
556.686	4900.18
557.05	4924.36
557.413	4933.18
557.776	4972.27
558.139	5040.29
558.502	5035.32
558.865	5047.52
559.228	5079.61
559.59	5178.59
559.953	5224.24
560.316	5263.34
560.679	5286.39
561.041	5330.23
561.404	5296.1
561.767	5304.47
562.129	5276.22
562.492	5357.57
562.854	5345.14
563.217	5349.44
563.579	5326.61
563.941	5372.03
564.304	5384.24
564.666	5387.63
565.028	5379.04
565.39	5411.81
565.753	5473.95
566.115	5485.7
566.477	5491.35
566.839	5561.63
567.201	5585.36
567.563	5614.74
567.925	5603.89
568.287	5696.32
568.648	5692.25
569.01	5733.83
569.372	5812.93
569.734	5844.34
570.095	5881.17
570.457	5930.21
570.819	5889.99
571.18	5886.82
571.542	5956.65
571.903	5905.58
572.265	5917.1
572.626	5935.18
572.987	5904.68
573.349	5935.63
573.71	5940.15
574.071	5938.8
574.432	5930.66
574.794	6007.95
575.155	5960.27
575.516	5946.03
575.877	5985.58
576.238	5984.67
576.599	6023.09
576.96	6016.31
577.32	6074.39
577.681	6107.16
578.042	6162.97
578.403	6202.97
578.763	6209.98
579.124	6273.48
579.485	6302.4
579.845	6298.34
580.206	6310.31
580.566	6295.17
580.927	6188.74
581.287	6297.21
581.648	6252.91
582.008	6330.43
582.368	6285.46
582.728	6262.86
583.089	6234.16
583.449	6227.15
583.809	6193.03
584.169	6218.11
584.529	6150.54
584.889	6252.01
585.249	6099.47
585.609	6109.19
585.969	6176.31
586.329	6193.93
586.688	6203.88
587.048	6212.01
587.408	6245.68
587.768	6293.37
588.127	6310.54
588.487	6297.21
588.846	6344.44
589.206	6371.78
589.565	6394.61
589.925	6433.93
590.284	6368.62
590.643	6415.17
591.003	6387.6
591.362	6417.88
591.721	6383.31
592.08	6369.75
592.44	6335.4
592.799	6374.27
593.158	6319.13
593.517	6263.99
593.876	6219.24
594.235	6222.63
594.593	6168.62
594.952	6223.54
595.311	6192.13
595.67	6191
596.029	6215.85
596.387	6262.41
596.746	6284.55
597.104	6272.12
597.463	6278.45
597.822	6344.21
598.18	6366.36
598.538	6327.26
598.897	6410.88
599.255	6433.25
599.613	6503.53
599.972	6508.95
600.33	6493.59
600.688	6473.47
601.046	6496.07
601.404	6494.72
601.762	6525.45
602.12	6477.32
602.478	6492.91
602.836	6495.85
603.194	6450.2
603.552	6469.18
603.91	6397.54
604.268	6450.65
604.625	6351.44
604.983	6334.49
605.341	6362.06
605.698	6348.73
606.056	6375.62
606.413	6353.7
606.771	6383.31
607.128	6406.58
607.485	6432.34
607.843	6423.76
608.2	6461.04
608.557	6531.55
608.914	6527.48
609.272	6673.02
609.629	6656.07
609.986	6644.54
610.343	6643.41
610.7	6715.05
611.057	6675.5
611.414	6704.65
611.771	6721.38
612.127	6765.44
612.484	6763.86
612.841	6690.19
613.198	6722.51
613.554	6676.41
613.911	6697.2
614.267	6647.25
614.624	6571.78
614.98	6603.41
615.337	6623.53
615.693	6563.19
616.05	6588.95
616.406	6615.62
616.762	6540.59
617.118	6605
617.475	6546.47
617.831	6568.84
618.187	6602.06
618.543	6621.94
618.899	6617.42
619.255	6652.23
619.611	6654.26
619.967	6703.52
620.323	6750.53
620.678	6766.35
621.034	6768.61
621.39	6825.33
621.746	6851.09
622.101	6852.45
622.457	6814.93
622.812	6832.56
623.168	6855.61
623.523	6869.85
623.879	6847.25
624.234	6851.09
624.589	6821.49
624.945	6836.18
625.3	6821.94
625.655	6796.4
626.01	6742.17
626.365	6761.38
626.72	6687.93
627.075	6719.34
627.43	6719.12
627.785	6648.16
628.14	6605.67
628.495	6627.59
628.85	6623.98
629.205	6593.47
629.559	6657.2
629.914	6635.5
630.269	6639.8
630.623	6607.26
630.978	6618.55
631.332	6673.47
631.687	6692
632.041	6678.67
632.396	6753.24
632.75	6708.27
633.104	6780.58
633.459	6741.26
633.813	6760.02
634.167	6714.37
634.521	6713.02
634.875	6766.57
635.229	6763.86
635.583	6671.43
635.937	6667.59
636.291	6665.33
636.645	6638.67
636.999	6662.4
637.352	6648.61
637.706	6603.87
638.06	6586.69
638.413	6557.77
638.767	6532.46
639.121	6508.5
639.474	6482.74
639.828	6459.91
640.181	6400.48
640.534	6492.91
640.888	6429.86
641.241	6371.56
641.594	6352.57
641.947	6401.39
642.301	6386.02
642.654	6412.23
643.007	6398.67
643.36	6413.81
643.713	6432.34
644.066	6477.99
644.419	6408.62
644.771	6373.36
645.124	6280.48
645.477	6373.14
645.83	6340.82
646.182	6359.58
646.535	6309.86
646.888	6383.53
647.24	6384.44
647.593	6395.06
647.945	6395.74
648.298	6305.12
648.65	6323.65
649.002	6356.87
649.355	6317.77
649.707	6310.77
650.059	6285.46
650.411	6292.69
650.763	6351.9
651.115	6370.65
651.467	6300.6
651.819	6309.18
652.171	6295.17
652.523	6282.52
652.875	6266.47
653.227	6216.53
653.578	6253.37
653.93	6173.37
654.282	6214.95
654.633	6139.7
654.985	6217.21
655.337	6239.13
655.688	6226.7
656.039	6214.27
656.391	6256.53
656.742	6223.08
657.094	6258.34
657.445	6309.18
657.796	6314.38
658.147	6291.11
658.498	6310.31
658.849	6327.26
659.2	6266.7
659.551	6314.16
659.902	6332.46
660.253	6259.24
660.604	6327.26
660.955	6256.98
661.306	6229.64
661.656	6214.95
662.007	6290.2
662.358	6247.27
662.708	6228.51
663.059	6206.14
663.409	6175.85
663.76	6163.65
664.11	6165.01
664.461	6134.95
664.811	6138.79
665.161	6105.8
665.511	6082.98
665.862	6143.77
666.212	6100.38
666.562	6084.56
666.912	6065.8
667.262	6015.41
667.612	6075.97
667.962	6090.43
668.312	6025.12
668.662	6101.05
669.011	6112.13
669.361	6098.12
669.711	6085.01
670.06	6114.16
670.41	6142.18
670.76	6131.79
671.109	6126.82
671.459	6248.17
671.808	6198.23
672.157	6233.25
672.507	6171.56
672.856	6192.8
673.205	6218.57
673.554	6202.75
673.904	6198.68
674.253	6211.56
674.602	6217.89
674.951	6094.27
675.3	6068.06
675.649	6167.27
675.998	6108.51
676.346	6144.67
676.695	6145.35
677.044	6060.6
677.393	6068.74
677.741	6014.5
678.09	5991.9
678.438	6047.04
678.787	6054.95
679.135	6014.5
679.484	5951.91
679.832	5938.12
680.181	5924.11
680.529	5954.62
680.877	5933.15
681.225	5942.41
681.573	5992.58
681.922	5899.7
682.27	5920.49
682.618	5939.25
682.966	5898.8
683.314	5944.22
683.661	5879.37
684.009	5878.01
684.357	5844.11
684.705	5891.34
685.053	5880.5
685.4	5920.49
685.748	5850.21
686.095	5885.01
686.443	5885.69
686.79	5871.91
687.138	5877.56
687.485	5872.13
687.832	5856.54
688.18	5911.68
688.527	5859.25
688.874	5866.71
689.221	5794.17
689.568	5787.84
689.915	5764.11
690.262	5697.45
690.609	5724.12
690.956	5684.12
691.303	5661.52
691.65	5624.23
691.997	5645.25
692.344	5581.52
692.69	5597.34
693.037	5569.54
693.383	5535.19
693.73	5499.04
694.077	5487.74
694.423	5457.91
694.769	5460.85
695.116	5397.34
695.462	5397.34
695.808	5417
696.155	5438.25
696.501	5414.74
696.847	5372.94
697.193	5405.03
697.539	5389.66
697.885	5360.73
698.231	5362.99
698.577	5373.39
698.923	5381.75
699.269	5369.32
699.614	5314.18
699.96	5374.29
700.306	5356.44
700.651	5358.25
700.997	5390.34
701.342	5378.59
701.688	5279.38
702.033	5269.44
702.379	5326.16
702.724	5325.03
703.069	5303.79
703.415	5276.67
703.76	5251.13
704.105	5276.9
704.45	5204.58
704.795	5216.78
705.14	5165.71
705.485	5162.32
705.83	5121.19
706.175	5134.75
706.52	5106.5
706.865	5073.74
707.209	5037.13
707.554	5036
707.899	5026.51
708.243	4983.12
708.588	5007.07
708.932	4993.29
709.277	4964.14
709.621	4951.03
709.966	4928.66
710.31	4962.1
710.654	4909.67
710.998	4900.86
711.342	4923.46
711.687	4878.71
712.031	4864.25
712.375	4903.8
712.719	4852.27
713.063	4899.96
713.407	4871.48
713.75	4900.86
714.094	4940.18
714.438	4879.84
714.782	4894.31
715.125	4850.01
715.469	4890.01
715.812	4846.62
716.156	4845.95
716.499	4856.57
716.843	4869.9
717.186	4847.3
717.53	4861.76
717.873	4865.61
718.216	4821.31
718.559	4836.23
718.902	4795.1
719.246	4809.11
719.589	4764.59
719.932	4760.3
720.275	4763.91
720.617	4727.53
720.96	4764.37
721.303	4721.88
721.646	4750.13
721.989	4691.6
722.331	4698.83
722.674	4598.04
723.016	4692.5
723.359	4662.67
723.701	4598.27
724.044	4646.63
724.386	4614.77
724.729	4605.5
725.071	4588.55
725.413	4598.95
725.755	4596.24
726.097	4530.25
726.439	4518.72
726.782	4530.93
727.124	4544.71
727.465	4536.35
727.807	4549.46
728.149	4521.89
728.491	4535.45
728.833	4537.71
729.175	4507.88
729.516	4556.69
729.858	4518.27
730.199	4558.27
730.541	4546.29
730.882	4558.04
731.224	4552.85
731.565	4524.82
731.906	4514.2
732.248	4594.65
732.589	4509.01
732.93	4501.55
733.271	4474.66
733.612	4532.28
733.953	4531.6
734.294	4503.13
734.635	4465.39
734.976	4488.44
735.317	4446.86
735.658	4429.46
735.999	4445.05
736.339	4430.59
736.68	4475.33
737.021	4409.35
737.361	4412.51
737.702	4402.79
738.042	4361.44
738.383	4368.22
738.723	4358.28
739.063	4340.87
739.404	4321.67
739.744	4309.24
740.084	4277.37
740.424	4317.15
740.764	4259.07
741.104	4284.83
741.444	4298.39
741.784	4264.72
742.124	4263.81
742.464	4231.95
742.804	4258.16
743.143	4240.09
743.483	4187.88
743.823	4211.39
744.162	4222.91
744.502	4189.24
744.841	4237.15
745.181	4250.03
745.52	4188.79
745.86	4219.97
746.199	4221.1
746.538	4226.08
746.877	4221.78
747.216	4262.23
747.556	4242.8
747.895	4246.19
748.234	4223.59
748.573	4214.78
748.911	4236.92
749.25	4161.44
749.589	4172.74
749.928	4166.64
750.267	4166.42
750.605	4198.51
750.944	4154.21
751.283	4193.53
751.621	4188.34
751.96	4137.26
752.298	4120.99
752.636	4112.41
752.975	4118.73
753.313	4045.06
753.651	4036.48
753.989	4050.26
754.327	4070.37
754.666	4028.34
755.004	4020.66
755.342	4022.92
755.679	4048.9
756.017	3972.75
756.355	4032.63
756.693	3913.77
757.031	3970.04
757.368	3923.71
757.706	3929.36
758.044	3932.52
758.381	3943.6
758.719	3902.69
759.056	3911.51
759.394	3880.32
759.731	3874.45
760.068	3881
760.405	3845.29
760.743	3859.76
761.08	3889.59
761.417	3836.48
761.754	3867.89
762.091	3846.65
762.428	3854.56
762.765	3824.96
763.102	3873.09
763.438	3823.15
763.775	3807.1
764.112	3787.89
764.449	3814.56
764.785	3809.59
765.122	3822.47
765.458	3735.47
765.795	3760.78
766.131	3775.69
766.467	3740.21
766.804	3707.44
767.14	3714.9
767.476	3747.44
767.812	3685.07
768.148	3715.35
768.485	3661.8
768.821	3635.36
769.157	3686.65
769.492	3645.53
769.828	3630.16
770.164	3609.37
770.5	3605.53
770.836	3614.57
771.171	3587
771.507	3568.47
771.842	3554.23
