Data from foam2_polystyrene_foam_FLMS001491_00090.txt Node
Date: Wed Feb 08 10:58:38 GMT 2017
User: dcchb
Spectrometer: FLMS00149
Trigger mode: 0
Integration Time (sec): 2.000000E-2
Scans to average: 10
Electric dark correction enabled: true
Nonlinearity correction enabled: false
Boxcar width: 0
XAxis mode: Wavelengths
Number of Pixels in Spectrum: 2048
>>>>>Begin Spectral Data<<<<<
341.393	1.48
341.776	1.48
342.16	1.48
342.543	-67.22
342.927	-61.34
343.31	-58.85
343.693	-74.67
344.077	-62.47
344.46	-55.24
344.843	-42.58
345.226	-24.73
345.61	-28.35
345.993	-16.82
346.376	-4.39
346.759	-1
347.142	20.01
347.525	60.24
347.908	34.25
348.291	67.24
348.674	88.26
349.057	99.11
349.44	120.8
349.823	141.82
350.206	163.51
350.588	208.48
350.971	222.04
351.354	230.63
351.737	244.19
352.119	251.19
352.502	266.11
352.884	269.05
353.267	291.64
353.65	311.31
354.032	302.72
354.414	319.67
354.797	323.73
355.179	312.21
355.562	330.74
355.944	339.55
356.326	334.58
356.709	344.3
357.091	353.11
357.473	351.53
357.855	370.51
358.238	355.6
358.62	343.85
359.002	342.72
359.384	370.51
359.766	348.37
360.148	357.63
360.53	355.6
360.912	370.51
361.294	361.25
361.676	341.14
362.057	361.7
362.439	358.76
362.821	354.02
363.203	337.52
363.584	337.29
363.966	352.89
364.348	354.47
364.729	348.82
365.111	335.49
365.493	357.63
365.874	339.33
366.256	336.84
366.637	346.11
367.019	344.52
367.4	370.06
367.781	339.55
368.163	361.7
368.544	340.91
368.925	364.86
369.306	376.16
369.688	326.9
370.069	346.78
370.45	375.03
370.831	372.32
371.212	350.63
371.593	355.15
371.974	361.93
372.355	370.06
372.736	376.84
373.117	354.69
373.498	364.64
373.879	370.74
374.26	369.83
374.641	353.11
375.021	372.32
375.402	358.31
375.783	373.22
376.163	414.81
376.544	406.44
376.925	380.46
377.305	394.69
377.686	389.27
378.066	396.5
378.447	372.55
378.827	394.02
379.208	408.93
379.588	405.77
379.968	403.73
380.349	421.36
380.729	394.69
381.109	420.46
381.489	401.92
381.87	411.42
382.25	419.33
382.63	430.17
383.01	449.61
383.39	436.95
383.77	442.38
384.15	421.13
384.53	461.13
384.91	464.52
385.29	437.18
385.67	435.14
386.049	456.16
386.429	468.59
386.809	466.1
387.189	459.1
387.568	486.22
387.948	464.07
388.328	457.29
388.707	486.22
389.087	466.33
389.466	485.99
389.846	495.03
390.225	514.01
390.605	499.77
390.984	508.81
391.363	511.53
391.743	523.05
392.122	515.82
392.501	530.73
392.881	539.55
393.26	528.93
393.639	546.33
394.018	548.59
394.397	558.08
394.776	554.46
395.155	566.21
395.534	562.6
395.913	556.04
396.292	570.73
396.671	567.34
397.05	602.15
397.429	599.43
397.808	593.78
398.186	577.51
398.565	595.59
398.944	606.44
399.323	605.99
399.701	610.05
400.08	619.09
400.458	634.46
400.837	634.91
401.215	615.48
401.594	640.56
401.972	661.58
402.351	635.59
402.729	643.5
403.107	643.73
403.486	668.58
403.864	669.94
404.242	652.99
404.62	677.62
404.999	704.52
405.377	692.09
405.755	724.85
406.133	723.5
406.511	711.75
406.889	726.21
407.267	753.1
407.645	751.75
408.023	752.2
408.401	749.49
408.779	787.45
409.156	770.28
409.534	782.48
409.912	785.42
410.29	786.1
410.667	810.73
411.045	828.35
411.422	824.29
411.8	852.53
412.178	864.06
412.555	847.34
412.933	863.83
413.31	876.26
413.687	882.14
414.065	894.79
414.442	922.14
414.819	922.36
415.197	929.82
415.574	936.37
415.951	921.46
416.328	931.4
416.705	949.71
417.082	944.74
417.46	981.8
417.837	982.25
418.214	984.28
418.591	1003.04
418.967	1017.28
419.344	1034.68
419.721	1066.99
420.098	1063.83
420.475	1057.27
420.852	1078.52
421.228	1067.67
421.605	1060.44
421.982	1078.97
422.358	1101.34
422.735	1125.3
423.111	1129.14
423.488	1145.18
423.864	1139.76
424.241	1168.91
424.617	1197.16
424.994	1195.35
425.37	1189.02
425.746	1211.62
426.123	1208.68
426.499	1241.45
426.875	1260.66
427.251	1268.57
427.627	1290.26
428.003	1316.02
428.379	1279.64
428.756	1338.85
429.132	1335.46
429.507	1332.75
429.883	1380.43
430.259	1408
430.635	1403.25
431.011	1415.91
431.387	1462.69
431.763	1476.25
432.138	1477.6
432.514	1491.16
432.89	1497.04
433.265	1521.9
433.641	1533.42
434.016	1577.49
434.392	1581.33
434.767	1628.56
435.143	1646.41
435.518	1647.77
435.894	1663.81
436.269	1686.18
436.644	1689.35
437.02	1706.97
437.395	1697.71
437.77	1734.54
438.145	1756.47
438.52	1790.14
438.895	1807.54
439.271	1810.93
439.646	1881.21
440.021	1844.82
440.395	1857.93
440.77	1864.03
441.145	1854.99
441.52	1951.71
441.895	1932.96
442.27	1939.51
442.645	1989
443.019	1978.61
443.394	1984.03
443.769	1987.42
444.143	2003.24
444.518	2042.56
444.892	2037.14
445.267	2080.3
445.641	2083.46
446.016	2095.89
446.39	2122.78
446.764	2136.79
447.139	2146.29
447.513	2175.66
447.887	2153.06
448.262	2174.31
448.636	2214.31
449.01	2210.69
449.384	2251.14
449.758	2231.25
450.132	2259.73
450.506	2296.56
450.88	2343.34
451.254	2333.63
451.628	2366.84
452.002	2392.61
452.376	2420.18
452.75	2455.43
453.123	2485.03
453.497	2518.25
453.871	2505.6
454.244	2557.8
454.618	2604.35
454.992	2596.22
455.365	2616.33
455.739	2690.23
456.112	2676.21
456.486	2707.4
456.859	2751.92
457.232	2801.64
457.606	2780.17
457.979	2831.01
458.352	2891.12
458.725	2915.08
459.099	2916.21
459.472	2949.88
459.845	3006.38
460.218	3010.67
460.591	3031.69
460.964	3064.45
461.337	3144.23
461.71	3162.53
462.083	3209.99
462.456	3228.06
462.829	3222.42
463.201	3319.14
463.574	3277.1
463.947	3355.07
464.32	3435.07
464.692	3466.02
465.065	3473.26
465.438	3519.36
465.81	3589.19
466.183	3636.19
466.555	3726.13
466.928	3713.25
467.3	3718.22
467.672	3790.76
468.045	3877.99
468.417	3906.92
468.789	3913.7
469.161	3992.11
469.534	4024.65
469.906	4074.37
470.278	4167.7
470.65	4168.38
471.022	4289.51
471.394	4322.05
471.766	4346
472.138	4423.74
472.51	4499.67
472.882	4573.11
473.253	4600.01
473.625	4679.1
473.997	4793
474.369	4839.1
474.74	4842.26
475.112	4938.98
475.484	5075.02
475.855	5117.73
476.227	5158.64
476.598	5302.36
476.97	5345.07
477.341	5487.67
477.713	5570.38
478.084	5593.43
478.455	5771.05
478.827	5755.91
479.198	5973.3
479.569	5990.7
479.94	6124.26
480.311	6176.24
480.682	6291.94
481.053	6472.95
481.424	6596.11
481.795	6645.83
482.166	6716.11
482.537	6807.63
482.908	6921.08
483.279	6992.94
483.65	7117.68
484.021	7300.05
484.391	7379.82
484.762	7532.13
485.133	7536.2
485.503	7623.88
485.874	7813.26
486.244	7880.82
486.615	8029.75
486.985	8100.03
487.356	8199.46
487.726	8357.87
488.097	8521.48
488.467	8566.23
488.837	8718.77
489.207	8790.63
489.578	9010.06
489.948	9015.48
490.318	9222.03
490.688	9186.33
491.058	9325.53
491.428	9449.6
491.798	9559.65
492.168	9753.32
492.538	9805.52
492.908	9876.93
493.278	10068.79
493.648	10072.18
494.017	10126.87
494.387	10271.27
494.757	10357.82
495.126	10475.11
495.496	10559.85
495.866	10655.21
496.235	10705.61
496.605	10778.37
496.974	10857.02
497.344	10956.9
497.713	11090.01
498.082	11150.34
498.452	11243.9
498.821	11274.86
499.19	11373.39
499.559	11568.41
499.928	11549.2
500.298	11716.2
500.667	11785.35
501.036	11747.61
501.405	11928.4
501.774	11875.52
502.143	11983.54
502.512	12087.94
502.88	12272.8
503.249	12271.67
503.618	12344.44
503.987	12356.86
504.356	12457.65
504.724	12615.61
505.093	12609.29
505.462	12709.85
505.83	12853.35
506.199	12981.03
506.567	13084.98
506.936	13074.59
507.304	13163.4
507.672	13358.42
508.041	13389.61
508.409	13517.29
508.777	13600.67
509.145	13796.37
509.514	13717.96
509.882	13863.49
510.25	13896.26
510.618	14014.22
510.986	14082.47
511.354	14171.73
511.722	14316.36
512.09	14454.44
512.458	14457.83
512.826	14692.17
513.193	14586.64
513.561	14789.79
513.929	14889.23
514.297	15043.57
514.664	15129.67
515.032	15251.48
515.4	15303
515.767	15430.68
516.135	15525.59
516.502	15461.87
516.869	15709.09
517.237	15891.69
517.604	15839.26
517.972	16060.5
518.339	16176.42
518.706	16235.86
519.073	16248.97
519.44	16486.25
519.808	16671.55
520.175	16674.94
520.542	16920.81
520.909	16892.11
521.276	16996.06
521.643	17184.08
522.009	17432.89
522.376	17483.51
522.743	17661.13
523.11	17832.65
523.477	17935.93
523.843	18087.34
524.21	18273.77
524.577	18359.19
524.943	18500.43
525.31	18679.41
525.676	18808.22
526.043	19002.34
526.409	19085.73
526.776	19239.17
527.142	19386.74
527.508	19452.5
527.874	19616.79
528.241	19683.9
528.607	19777.01
528.973	20043.89
529.339	19992.6
529.705	20191.91
530.071	20398.91
530.437	20502.41
530.803	20587.38
531.169	20772.69
531.535	20871.89
531.901	20918.9
532.267	20910.31
532.632	21109.4
532.998	21208.16
533.364	21414.93
533.73	21365.67
534.095	21616.06
534.461	21684.98
534.826	21757.52
535.192	21866.44
535.557	22044.52
535.923	21982.6
536.288	22107.79
536.653	22243.61
537.019	22157.28
537.384	22371.97
537.749	22386.88
538.114	22486.54
538.479	22612.41
538.845	22658.06
539.21	22688.8
539.575	22721.11
539.94	22849.47
540.305	23134.21
540.67	23017.15
541.034	23146.19
541.399	23224.6
541.764	23284.03
542.129	23369.23
542.494	23515.67
542.858	23658.71
543.223	23626.62
543.587	23772.84
543.952	23740.07
544.316	23845.38
544.681	24001.98
545.045	24060.74
545.41	24287.62
545.774	24369.2
546.138	24314.29
546.503	24406.72
546.867	24457.34
547.231	24689.87
547.595	24672.7
547.959	24816.42
548.324	24782.98
548.688	24819.36
549.052	25093.93
549.416	24937.32
549.779	25005.35
550.143	25216.87
550.507	25405.11
550.871	25392.45
551.235	25485.33
551.599	25657.31
551.962	25671.77
552.326	25768.94
552.689	26007.58
553.053	25881.25
553.417	26076.05
553.78	26305.65
554.143	26183.85
554.507	26353.56
554.87	26474.01
555.234	26740.21
555.597	26623.38
555.96	26728.69
556.323	26941.79
556.686	26895.01
557.05	27235.57
557.413	27266.53
557.776	27309.01
558.139	27527.99
558.502	27690.7
558.865	27696.8
559.228	27918.04
559.59	27965.49
559.953	28042.78
560.316	28366.16
560.679	28343.34
561.041	28450.68
561.404	28668.98
561.767	28746.72
562.129	28720.5
562.492	29094.05
562.854	28913.04
563.217	29171.79
563.579	29161.39
563.941	29395.29
564.304	29566.81
564.666	29777.42
565.028	29791.66
565.39	30002.73
565.753	30130.41
566.115	30180.58
566.477	30307.8
566.839	30417.41
567.201	30625.31
567.563	30567.46
567.925	30819.43
568.287	30858.3
568.648	30939.43
569.01	31119.99
569.372	31240.89
569.734	31116.37
570.095	31482.69
570.457	31533.08
570.819	31685.17
571.18	31607.66
571.542	31948.21
571.903	31777.82
572.265	31926.07
572.626	31970.36
572.987	32060.75
573.349	32077.25
573.71	32390.24
574.071	32323.57
574.432	32387.52
574.794	32656.9
575.155	32684.01
575.516	32586.16
575.877	32879.04
576.238	32818.47
576.599	33013.5
576.96	32952.48
577.32	32970.33
577.681	33127.17
578.042	33243.32
578.403	33272.25
578.763	33275.86
579.124	33344.11
579.485	33434.05
579.845	33556.31
580.206	33550.21
580.566	33506.14
580.927	33545.91
581.287	33624.78
581.648	33547.27
582.008	33665.46
582.368	33614.84
582.728	33748.39
583.089	33598.11
583.449	33632.01
583.809	33597.66
584.169	33719.69
584.529	33526.7
584.889	33816.41
585.249	33697.32
585.609	33636.08
585.969	33916.75
586.329	33765.12
586.688	33760.6
587.048	33805.79
587.408	33748.84
587.768	33754.95
588.127	33667.49
588.487	33593.59
588.846	33797.66
589.206	33539.13
589.565	33728.96
589.925	33814.15
590.284	33559.92
590.643	33753.82
591.003	33898.9
591.362	33912.91
591.721	33801.95
592.08	34022.74
592.44	33904.32
592.799	34022.74
593.158	33926.69
593.517	33931.89
593.876	33994.26
594.235	33887.15
594.593	33947.94
594.952	33938.44
595.311	33813.02
595.67	34011.21
596.029	34196.74
596.387	34115.61
596.746	34241.71
597.104	34045.79
597.463	34026.13
597.822	34142.28
598.18	34085.56
598.538	34000.59
598.897	34192.9
599.255	33907.03
599.613	34559.44
599.972	34303.41
600.33	34439.45
600.688	34194.26
601.046	34248.04
601.404	34548.82
601.762	34498.2
602.12	34710.4
602.478	34577.07
602.836	34704.98
603.194	34605.32
603.552	34578.2
603.91	34469.5
604.268	34563.06
604.625	34671.31
604.983	34683.96
605.341	34554.25
605.698	34745.43
606.056	34835.82
606.413	34732.1
606.771	34949.72
607.128	34946.55
607.485	34878.08
607.843	34760.12
608.2	34928.93
608.557	34977.29
608.914	34924.63
609.272	35143.16
609.629	35144.74
609.986	35191.97
610.343	35088.7
610.7	35365.3
611.057	35341.8
611.414	35203.04
611.771	35250.73
612.127	35468.8
612.484	35402.13
612.841	35542.47
613.198	35362.59
613.554	35403.49
613.911	35616.37
614.267	35647.78
614.624	35519.65
614.98	35635.8
615.337	35730.26
615.693	35753.09
616.05	35842.35
616.406	35798.28
616.762	35797.6
617.118	35823.37
617.475	35919.86
617.831	36008.45
618.187	36037.37
618.543	36071.04
618.899	36229.01
619.255	36150.14
619.611	36099.74
619.967	36197.14
620.323	36232.62
620.678	36189.68
621.034	36063.81
621.39	36095
621.746	35977.71
622.101	36423.12
622.457	36219.29
622.812	36359.4
623.168	36404.37
623.523	36372.73
623.879	36532.5
624.234	36290.02
624.589	36411.6
624.945	36469.68
625.3	36447.08
625.655	36440.52
626.01	36378.61
626.365	36436.46
626.72	36406.4
627.075	36352.39
627.43	36279.63
627.785	36237.14
628.14	36256.57
628.495	36330.47
628.85	36294.31
629.205	36192.85
629.559	36295.22
629.914	36154.66
630.269	36161.89
630.623	36078.5
630.978	36018.39
631.332	36249.8
631.687	36121.21
632.041	35966.19
632.396	35991.95
632.75	36040.76
633.104	35971.38
633.459	35803.93
633.813	35738.17
634.167	35711.05
634.521	35697.49
634.875	35758.28
635.229	35660.21
635.583	35537.95
635.937	35564.39
636.291	35466.54
636.645	35591.28
636.999	35415.69
637.352	35577.04
637.706	35200.56
638.06	35434.9
638.413	35318.29
638.767	35297.96
639.121	35241.01
639.474	35026.32
639.828	35041.69
640.181	35119.43
640.534	35215.92
640.888	35029.49
641.241	34880.57
641.594	34910.62
641.947	34812.77
642.301	34796.73
642.654	34872.2
643.007	34708.59
643.36	34623.4
643.713	34758.99
644.066	34681.48
644.419	34568.71
644.771	34415.95
645.124	33989.06
645.477	33851.67
645.83	33675.85
646.182	33610.77
646.535	33510.43
646.888	33535.97
647.24	33380.04
647.593	33445.58
647.945	33382.3
648.298	33346.82
648.65	33112.93
649.002	33017.79
649.355	33266.82
649.707	33193.15
650.059	33340.95
650.411	33650.32
650.763	33783.42
651.115	33988.16
651.467	33900.03
651.819	33861.84
652.171	33808.5
652.523	33741.61
652.875	33666.13
653.227	33571
653.578	33787.94
653.93	33658
654.282	33619.13
654.633	33544.78
654.985	33539.81
655.337	33502.3
655.688	33564.89
656.039	33574.61
656.391	33333.49
656.742	33362.64
657.094	33323.54
657.445	33460.26
657.796	33389.53
658.147	33192.7
658.498	33205.58
658.849	33239.03
659.2	33166.94
659.551	33134.85
659.902	33235.64
660.253	33168.75
660.604	33097.11
660.955	33119.93
661.306	33180.95
661.656	33011.69
662.007	32995.19
662.358	32974.18
662.708	32980.73
663.059	32897.57
663.409	32634.98
663.76	32936.21
664.11	32911.13
664.461	32943.67
664.811	32943.67
665.161	32905.25
665.511	32738.48
665.862	32675.2
666.212	32885.36
666.562	32686.27
666.912	32745.03
667.262	32646.73
667.612	32756.1
667.962	32694.41
668.312	32686.95
668.662	32809.66
669.011	32674.97
669.361	32662.32
669.711	32612.6
670.06	32610.12
670.41	32484.92
670.76	32493.74
671.109	32600.17
671.459	32487.18
671.808	32494.19
672.157	32425.04
672.507	32314.53
672.856	32373.06
673.205	32271.82
673.554	32400.63
673.904	32263.69
674.253	32574.86
674.602	32226.4
674.951	31742.12
675.3	31564.72
675.649	32219.84
675.998	32112.73
676.346	32055.56
676.695	32092.84
677.044	31842.68
677.393	32088.77
677.741	31907.31
678.09	31853.53
678.438	31791.83
678.787	31814.88
679.135	31886.75
679.484	31624.15
679.832	31705.28
680.181	31615.57
680.529	31676.58
680.877	31525.63
681.225	31495.57
681.573	31774.66
681.922	31390.26
682.27	31270.94
682.618	31314.56
682.966	31221.91
683.314	31383.93
683.661	31268.46
684.009	31133.32
684.357	30964.74
684.705	30941.91
685.053	30926.09
685.4	30934.23
685.748	30816.04
686.095	30684.52
686.443	30677.96
686.79	30646.78
687.138	30666.44
687.485	30647.68
687.832	30535.37
688.18	30576.05
688.527	30236.39
688.874	30263.06
689.221	30178.77
689.568	30082.73
689.915	30045.44
690.262	29989.85
690.609	29919.57
690.956	29814.48
691.303	29782.39
691.65	29659.91
691.997	29783.07
692.344	29542.18
692.69	29467.15
693.037	29485.68
693.383	29188.29
693.73	29297.66
694.077	29133.37
694.423	29066.26
694.769	28990.55
695.116	28991.91
695.462	28847.5
695.808	28724.34
696.155	28741.97
696.501	28598.02
696.847	28564.8
697.193	28282.77
697.539	28461.98
697.885	28181.98
698.231	28170.69
698.577	28114.64
698.923	28008.43
699.269	28126.17
699.614	27839.17
699.96	27864.93
700.306	27961.2
700.651	27709.68
700.997	27754.43
701.342	27638.27
701.688	27562.11
702.033	27505.39
702.379	27407.54
702.724	27374.77
703.069	27467.88
703.415	27201.67
703.76	27104.05
704.105	27185.85
704.45	27079.19
704.795	26987.44
705.14	26884.84
705.485	26853.21
705.83	26690.5
706.175	26797.39
706.52	26663.38
706.865	26526.66
707.209	26468.81
707.554	26417.74
707.899	26421.58
708.243	26279.89
708.588	26222.04
708.932	26081.93
709.277	26080.57
709.621	26099.78
709.966	26027.24
710.31	25934.13
710.654	25688.94
710.998	25844.65
711.342	25865.21
711.687	25788.38
712.031	25639.68
712.375	25601.26
712.719	25634.71
713.063	25538.89
713.407	25565.56
713.75	25503.41
714.094	25396.52
714.438	25422.96
714.782	25309.29
715.125	25134.16
715.469	25294.15
715.812	25043.54
716.156	24926.03
716.499	24898.68
716.843	25040.37
717.186	24832.24
717.53	25011.45
717.873	24960.83
718.216	24884.44
718.559	24617.33
718.902	24501.86
719.246	24640.84
719.589	24593.15
719.932	24469.54
720.275	24457.34
720.617	24443.33
720.96	24267.06
721.303	24431.8
721.646	24340.28
721.989	24126.72
722.331	24130.79
722.674	24155.2
723.016	24138.7
723.359	24150.9
723.701	24104.13
724.044	24048.76
724.386	23923.57
724.729	23978.48
725.071	23999.72
725.413	23945.71
725.755	23800.41
726.097	23753.63
726.439	23658.94
726.782	23584.59
727.124	23657.13
727.465	23658.94
727.807	23590.47
728.149	23532.84
728.491	23460.3
728.833	23564.48
729.175	23494.2
729.516	23336.69
729.858	23402.45
730.199	23297.37
730.541	23277.03
730.882	23286.97
731.224	23327.42
731.565	23004.72
731.906	23237.03
732.248	23167.43
732.589	23125.17
732.93	23054.44
733.271	23060.31
733.612	23019.86
733.953	22999.97
734.294	22875.23
734.635	22844.05
734.976	22896.25
735.317	22842.92
735.658	22799.08
735.999	22807.44
736.339	22778.06
736.68	22727.89
737.021	22688.57
737.361	22608.57
737.702	22764.05
738.042	22606.54
738.383	22472.08
738.723	22536.26
739.063	22517.28
739.404	22536.26
739.744	22490.38
740.084	22237.51
740.424	22390.95
740.764	22312.76
741.104	22298.3
741.444	22108.25
741.784	22083.39
742.124	22105.31
742.464	22062.6
742.804	22064.86
743.143	22035.93
743.483	22030.51
743.823	21943.28
744.162	21822.15
744.502	22000.45
744.841	21830.06
745.181	21934.47
745.52	21831.19
745.86	21898.31
746.199	21876.61
746.538	21787.35
746.877	21768.59
747.216	21704.19
747.556	21735.6
747.895	21667.13
748.234	21460.35
748.573	21493.12
748.911	21570.41
749.25	21437.08
749.589	21354.59
749.928	21394.37
750.267	21415.61
750.605	21338.55
750.944	21223.52
751.283	21220.36
751.621	21325.22
751.96	21282.05
752.298	21100.82
752.636	21108.5
752.975	21082.28
753.313	20848.39
753.651	21057.65
753.989	20950.08
