Data from foam2_polystyrene_foam_FLMS001491_00077.txt Node
Date: Wed Feb 08 10:58:29 GMT 2017
User: dcchb
Spectrometer: FLMS00149
Trigger mode: 0
Integration Time (sec): 2.000000E-2
Scans to average: 10
Electric dark correction enabled: true
Nonlinearity correction enabled: false
Boxcar width: 0
XAxis mode: Wavelengths
Number of Pixels in Spectrum: 2048
>>>>>Begin Spectral Data<<<<<
341.393	-2.12
341.776	-2.12
342.16	-2.12
342.543	-71.5
342.927	-72.17
343.31	-76.24
343.693	-70.37
344.077	-47.99
344.46	-66.3
344.843	-52.29
345.226	-55.45
345.61	-30.82
345.993	-15.23
346.376	-7.99
346.759	5.56
347.142	20.48
347.525	56.86
347.908	57.31
348.291	68.39
348.674	94.15
349.057	119.91
349.44	140.25
349.823	131.89
350.206	153.81
350.588	205.79
350.971	220.47
351.354	237.88
351.737	257.99
352.119	258.89
352.502	284.2
352.884	310.19
353.267	303.41
353.65	320.81
354.032	309.51
354.414	312
354.797	311.09
355.179	347.93
355.562	344.09
355.944	347.02
356.326	343.41
356.709	360.36
357.091	369.17
357.473	389.96
357.855	366.23
358.238	363.3
358.62	376.18
359.002	362.62
359.384	360.36
359.766	361.71
360.148	373.24
360.53	360.36
360.912	371.43
361.294	353.8
361.676	371.88
362.057	363.52
362.439	354.71
362.821	357.65
363.203	349.74
363.584	352.22
363.966	385.22
364.348	368.72
364.729	342.28
365.111	356.29
365.493	363.07
365.874	354.93
366.256	341.83
366.637	345.89
367.019	337.08
367.4	357.65
367.781	345.22
368.163	346.8
368.544	373.24
368.925	370.75
369.306	384.09
369.688	352.22
370.069	350.64
370.45	376.4
370.831	349.96
371.212	368.27
371.593	371.88
371.974	370.08
372.355	377.98
372.736	381.6
373.117	359
373.498	384.31
373.879	381.37
374.26	367.14
374.641	355.39
375.021	369.4
375.402	382.73
375.783	400.58
376.163	408.49
376.544	414.82
376.925	402.16
377.305	403.52
377.686	414.37
378.066	403.97
378.447	396.74
378.827	436.74
379.208	410.07
379.588	408.27
379.968	419.57
380.349	424.76
380.729	417.53
381.109	432.9
381.489	419.79
381.87	426.8
382.25	414.82
382.63	432.67
383.01	433.58
383.39	435.16
383.77	441.03
384.15	444.42
384.53	457.76
384.91	476.06
385.29	477.64
385.67	453.46
386.049	476.96
386.429	481.03
386.809	468.38
387.189	497.08
387.568	482.16
387.948	497.08
388.328	499.11
388.707	513.35
389.087	506.12
389.466	515.61
389.846	520.35
390.225	511.54
390.605	519.45
390.984	518.77
391.363	519.45
391.743	529.39
392.122	533.23
392.501	550.18
392.881	513.12
393.26	539.11
393.639	542.73
394.018	562.61
394.397	566
394.776	561.26
395.155	579.11
395.534	584.76
395.913	583.85
396.292	602.84
396.671	603.74
397.05	603.97
397.429	598.54
397.808	622.27
398.186	613.68
398.565	636.06
398.944	620.92
399.323	616.85
399.701	648.03
400.08	638.77
400.458	639.22
400.837	649.16
401.215	660.01
401.594	652.78
401.972	685.55
402.351	678.32
402.729	689.16
403.107	678.09
403.486	675.6
403.864	709.95
404.242	708.82
404.62	713.12
404.999	733.23
405.377	726.68
405.755	762.83
406.133	725.55
406.511	775.04
406.889	746.34
407.267	750.86
407.645	794.24
408.023	776.84
408.401	775.04
408.779	789.5
409.156	831.53
409.534	834.02
409.912	837.63
410.29	860.46
410.667	848.25
411.045	866.79
411.422	886.22
411.8	882.38
412.178	885.54
412.555	918.54
412.933	944.75
413.31	941.36
413.687	954.47
414.065	932.55
414.442	953.79
414.819	981.81
415.197	972.09
415.574	1008.93
415.951	987.46
416.328	1003.28
416.705	1012.77
417.082	1026.78
417.46	1028.36
417.837	1040.34
418.214	1043.96
418.591	1081.69
418.967	1091.41
419.344	1083.28
419.721	1101.13
420.098	1074.69
420.475	1124.86
420.852	1135.7
421.228	1141.35
421.605	1137.06
421.982	1170.51
422.358	1159.88
422.735	1193.1
423.111	1169.15
423.488	1222.48
423.864	1186.55
424.241	1217.96
424.617	1255.25
424.994	1252.76
425.37	1278.75
425.746	1266.32
426.123	1286.44
426.499	1314.46
426.875	1325.76
427.251	1327.56
427.627	1357.85
428.003	1341.57
428.379	1381.35
428.756	1410.27
429.132	1440.33
429.507	1429.93
429.883	1455.02
430.259	1510.16
430.635	1481.23
431.011	1510.61
431.387	1534.11
431.763	1556.94
432.138	1615.69
432.514	1617.73
432.89	1600.78
433.265	1636.93
433.641	1654.11
434.016	1658.63
434.392	1724.16
434.767	1776.37
435.143	1742.69
435.518	1737.04
435.894	1775.01
436.269	1812.52
436.644	1819.75
437.02	1850.04
437.395	1846.65
437.77	1885.97
438.145	1900.2
438.52	1902.69
438.895	1928.9
439.271	1945.85
439.646	1987.43
440.021	2008.9
440.395	2021.11
440.77	1987.89
441.145	2042.12
441.52	2062.01
441.895	2095.23
442.27	2109.46
442.645	2112.18
443.019	2124.15
443.394	2132.06
443.769	2176.13
444.143	2148.79
444.518	2193.3
444.892	2198.5
445.267	2223.36
445.641	2233.98
446.016	2280.53
446.39	2313.75
446.764	2276.24
447.139	2300.19
447.513	2295.22
447.887	2338.38
448.262	2355.79
448.636	2386.29
449.01	2414.99
449.384	2430.59
449.758	2459.51
450.132	2474.43
450.506	2483.69
450.88	2503.58
451.254	2502.22
451.628	2586.29
452.002	2590.58
452.376	2612.28
452.75	2631.26
453.123	2662.44
453.497	2669.45
453.871	2698.83
454.244	2753.74
454.618	2798.26
454.992	2803.91
455.365	2807.07
455.739	2897.24
456.112	2902.89
456.486	2923.45
456.859	2985.6
457.232	3016.79
457.606	3017.24
457.979	3088.87
458.352	3126.61
458.725	3150.57
459.099	3146.05
459.472	3247.29
459.845	3258.36
460.218	3253.62
460.591	3327.74
460.964	3348.98
461.337	3431.92
461.71	3477.34
462.083	3537
462.456	3516.88
462.829	3526.83
463.201	3643.21
463.574	3615.87
463.947	3678.24
464.32	3737.44
464.692	3781.06
465.065	3832.13
465.438	3879.81
465.81	3941.51
466.183	3945.12
466.555	4012.69
466.928	4062.41
467.3	4035.97
467.672	4143.31
468.045	4224.89
468.417	4240.48
468.789	4231.44
469.161	4346.02
469.534	4402.51
469.906	4475.05
470.278	4469.63
470.65	4539.23
471.022	4681.83
471.394	4732.67
471.766	4767.02
472.138	4834.82
472.51	4915.94
472.882	5051.99
473.253	5055.15
473.625	5180.57
473.997	5259.66
474.369	5292.66
474.74	5300.79
475.112	5444.74
475.484	5551.18
475.855	5581.92
476.227	5676.15
476.598	5843.38
476.97	5913.21
477.341	5971.51
477.713	6121.79
478.084	6104.84
478.455	6326.08
478.827	6321.56
479.198	6505.05
479.569	6600.19
479.94	6741.66
480.311	6757.7
480.682	6943.46
481.053	7066.85
481.424	7153.17
481.795	7207.41
482.166	7372.38
482.537	7445.6
482.908	7694.4
483.279	7625.03
483.65	7826.38
484.021	7949.31
484.391	8110.66
484.762	8125.35
485.133	8246.7
485.503	8372.12
485.874	8542.29
486.244	8576.64
486.615	8724.66
486.985	8822.96
487.356	9060.92
487.726	9123.74
488.097	9253.46
488.467	9336.84
488.837	9540.91
489.207	9667.46
489.578	9749.04
489.948	9888.24
490.318	10012.53
490.688	9989.03
491.058	10202.58
491.428	10368.68
491.798	10437.15
492.168	10680.99
492.538	10683.48
492.908	10836.69
493.278	10964.37
493.648	10989.46
494.017	11158.04
494.387	11262.22
494.757	11273.07
495.126	11485.94
495.496	11548.54
495.866	11589.89
496.235	11750.57
496.605	11900.17
496.974	11953.27
497.344	12096.09
497.713	12141.29
498.082	12238.69
498.452	12466.93
498.821	12452.7
499.19	12492.24
499.559	12593.71
499.928	12786.92
500.298	12742.18
500.667	12889.07
501.036	12887.94
501.405	13035.73
501.774	13110.76
502.143	13168.61
502.512	13389.62
502.88	13441.37
503.249	13455.83
503.618	13601.37
503.987	13701.48
504.356	13819.66
504.724	13927.01
505.093	13937.4
505.462	14083.16
505.83	14127.45
506.199	14215.59
506.567	14451.51
506.936	14421.91
507.304	14636.14
507.672	14721.34
508.041	14746.19
508.409	14943.03
508.777	15077.48
509.145	15081.1
509.514	15232.51
509.882	15293.52
510.25	15368.78
510.618	15468.66
510.986	15547.98
511.354	15774.87
511.722	15859.84
512.09	16022.09
512.458	16026.84
512.826	16181.18
513.193	16247.85
513.561	16393.83
513.929	16537.33
514.297	16551.34
514.664	16761.73
515.032	16869.53
515.4	17010.09
515.767	17138.22
516.135	17207.15
516.502	17059.58
516.869	17468.16
517.237	17532.34
517.604	17561.04
517.972	17808.49
518.339	17829.5
518.706	17923.96
519.073	18186.78
519.44	18255.71
519.808	18412.99
520.175	18468.36
520.542	18721.68
520.909	18820.89
521.276	18819.76
521.643	19125.97
522.009	19143.59
522.376	19394.66
522.743	19420.65
523.11	19634.88
523.477	19815.67
523.843	19946.28
524.21	20101.76
524.577	20361.87
524.943	20462.43
525.31	20605.02
525.676	20836.88
526.043	20907.16
526.409	21028.97
526.776	21309.41
527.142	21299.02
527.508	21380.37
527.874	21647.03
528.241	21665.56
528.607	21804.31
528.973	22177.86
529.339	22080.24
529.705	22253.79
530.071	22556.38
530.437	22626.44
530.803	22754.8
531.169	22924.28
531.535	22898.75
531.901	22997.95
532.267	23066.65
532.632	23229.13
532.998	23409.7
533.364	23523.82
533.73	23506.42
534.095	23733.75
534.461	23901.89
534.826	24044.48
535.192	24068.21
535.557	24330.57
535.923	24379.16
536.288	24416.67
536.653	24549.55
537.019	24596.78
537.384	24718.36
537.749	24897.79
538.114	24903.67
538.479	24949.77
538.845	25108.86
539.21	25134.4
539.575	25213.26
539.94	25290.78
540.305	25514.05
540.67	25436.76
541.034	25598.56
541.399	25739.8
541.764	25754.72
542.129	25934.83
542.494	26081.49
542.858	26122.17
543.223	26138.66
543.587	26345.89
543.952	26282.16
544.316	26411.2
544.681	26493.23
545.045	26627.46
545.41	26633.34
545.774	26818.19
546.138	26758.31
546.503	26985.19
546.867	26966.21
547.231	27176.15
547.595	27238.75
547.959	27346.99
548.324	27379.31
548.688	27522.36
549.052	27543.37
549.416	27706.76
549.779	27697.72
550.143	27852.97
550.507	28170.7
550.871	28166.63
551.235	27984.94
551.599	28247.08
551.962	28423.35
552.326	28441.88
552.689	28614.08
553.053	28498.37
553.417	28725.04
553.78	29119.83
554.143	28941.98
554.507	29040.96
554.87	29184.23
555.234	29652.02
555.597	29425.81
555.96	29539.03
556.323	29676.42
556.686	29765.91
557.05	29970.2
557.413	30117.54
557.776	30237.99
558.139	30463.97
558.502	30552.78
558.865	30553.69
559.228	30701.71
559.59	30932.66
559.953	30940.8
560.316	31372.42
560.679	31374.23
561.041	31414.46
561.404	31646.99
561.767	31781
562.129	31657.39
562.492	32116.81
562.854	32079.07
563.217	32136.7
563.579	32249.46
563.941	32501.89
564.304	32848.09
564.666	33075.66
565.028	32951.14
565.39	33119.27
565.753	33279.94
566.115	33259.15
566.477	33552.71
566.839	33597.22
567.201	33945.92
567.563	33888.74
567.925	34182.97
568.287	34236.98
568.648	34249.64
569.01	34454.38
569.372	34630.42
569.734	34511.32
570.095	34861.37
570.457	34993.8
570.819	35165.09
571.18	35133.45
571.542	35354.01
571.903	35312.89
572.265	35507.46
572.626	35516.95
572.987	35512.88
573.349	35818.86
573.71	35810.27
574.071	35834
574.432	35955.81
574.794	36241
575.155	36227.66
575.516	36170.72
575.877	36209.36
576.238	36313.76
576.599	36570.25
576.96	36614.55
577.32	36630.82
577.681	36673.53
578.042	36752.85
578.403	36835.33
578.763	36888.44
579.124	36870.13
579.485	37014.76
579.845	37195.1
580.206	37150.58
580.566	37099.05
580.927	37201.2
581.287	37395.32
581.648	37193.74
582.008	37414.07
582.368	37276
582.728	37442.32
583.089	37404.81
583.449	37303.79
583.809	37457.24
584.169	37451.13
584.529	37468.53
584.889	37669.43
585.249	37475.09
585.609	37487.29
585.969	37581.98
586.329	37488.2
586.688	37467.4
587.048	37483.22
587.408	37375.43
587.768	37469.21
588.127	37455.2
588.487	37263.57
588.846	37527.97
589.206	37409.55
589.565	37318.71
589.925	37657
590.284	37455.43
590.643	37440.51
591.003	37629.66
591.362	37657.23
591.721	37610
592.08	37482.77
592.44	37664.46
592.799	37730.45
593.158	37605.48
593.517	37668.53
593.876	37714.63
594.235	37759.6
594.593	37666.5
594.952	37766.61
595.311	37574.52
595.67	37654.29
596.029	37935.41
596.387	37786.49
596.746	38080.5
597.104	37887.05
597.463	37666.95
597.822	37930.22
598.18	37655.42
598.538	37807.73
598.897	37919.82
599.255	37541.08
599.613	38165.01
599.972	37929.09
600.33	38082.3
600.688	37957.79
601.046	38147.16
601.404	38373.82
601.762	38128.86
602.12	38234.16
602.478	38332.92
602.836	38296.99
603.194	38063.55
603.552	38201.17
603.91	38161.62
604.268	38404.1
604.625	38371.11
604.983	38529.3
605.341	38286.82
605.698	38561.61
606.056	38604.55
606.413	38438.23
606.771	38557.77
607.128	38703.3
607.485	38499.24
607.843	38468.06
608.2	38693.59
608.557	38890.19
608.914	38696.3
609.272	39069.4
609.629	39027.59
609.986	39176.74
610.343	38822.85
610.7	39062.16
611.057	39089.51
611.414	39035.73
611.771	39188.04
612.127	39230.52
612.484	39268.71
612.841	39415.38
613.198	39075.05
613.554	39126.12
613.911	39298.32
614.267	39265.55
614.624	39350.29
614.98	39514.36
615.337	39675.03
615.693	39458.76
616.05	39363.4
616.406	39807.46
616.762	39599.55
617.118	39642.26
617.475	39535.82
617.831	39790.73
618.187	39666.22
618.543	39738.98
618.899	40083.61
619.255	39913.22
619.611	39885.87
619.967	40136.04
620.323	40183.27
620.678	40009.48
621.034	39836.83
621.39	40117.28
621.746	39892.88
622.101	40436.82
622.457	40103.95
622.812	40121.12
623.168	40136.49
623.523	40168.58
623.879	40150.5
624.234	39981.46
624.589	40250.61
624.945	40106.66
625.3	40097.17
625.655	40146.43
626.01	40103.49
626.365	40144.85
626.72	40024.4
627.075	40082.48
627.43	40095.36
627.785	40057.39
628.14	40098.75
628.495	40017.39
628.85	39984.63
629.205	39914.12
629.559	40074.57
629.914	40011.97
630.269	39987.11
630.623	39805.65
630.978	39908.92
631.332	39947.11
631.687	39946.66
632.041	39971.07
632.396	39967.23
632.75	39849.04
633.104	39841.35
633.459	39642.71
633.813	39665.99
634.167	39680.68
634.521	39482.94
634.875	39669.38
635.229	39397.75
635.583	39161.15
635.937	39329.73
636.291	39290.18
636.645	39160.24
636.999	39037.53
637.352	39272.55
637.706	38956.18
638.06	39117.08
638.413	38852
638.767	38783.75
639.121	38868.95
639.474	38653.59
639.828	38560.71
640.181	38685
640.534	38722.74
640.888	38431.22
641.241	38390.09
641.594	38439.36
641.947	38558.9
642.301	38522.74
642.654	38494.72
643.007	38395.06
643.36	38340.38
643.713	38157.1
644.066	38316.42
644.419	38083.21
644.771	37878.24
645.124	37562.54
645.477	37482.32
645.83	37092.95
646.182	36958.49
646.535	36918.27
646.888	36970.92
647.24	36746.29
647.593	37005.04
647.945	36891.37
648.298	36768.44
648.65	36657.93
649.002	36594.66
649.355	36657.71
649.707	36636.69
650.059	36748.33
650.411	37210.24
650.763	37140.18
651.115	37535.2
651.467	37429.67
651.819	37459.5
652.171	37343.34
652.523	37310.8
652.875	37220.86
653.227	37163.23
653.578	37341.76
653.93	37125.27
654.282	36985.38
654.633	37021.54
654.985	37072.84
655.337	37125.04
655.688	37031.94
656.039	37077.58
656.391	36832.17
656.742	37000.07
657.094	36992.61
657.445	37017.02
657.796	36876.91
658.147	36810.7
658.498	36907.19
658.849	36782
659.2	36789.46
659.551	36678.72
659.902	36791.72
660.253	36744.03
660.604	36756.24
660.955	36590.59
661.306	36663.81
661.656	36668.78
662.007	36719.4
662.358	36769.12
662.708	36785.16
663.059	36567.77
663.409	36444.83
663.76	36762.79
664.11	36876.01
664.461	36749.68
664.811	36720.08
665.161	36720.98
665.511	36662.91
665.862	36507.88
666.212	36664.94
666.562	36632.4
666.912	36510.82
667.262	36502.01
667.612	36565.28
667.962	36494.77
668.312	36346.08
668.662	36455.68
669.011	36411.61
669.361	36377.72
669.711	36325.97
670.06	36437.15
670.41	36377.72
670.76	36282.35
671.109	36388.11
671.459	36235.35
671.808	36193.99
672.157	36260.66
672.507	36058.18
672.856	36085.97
673.205	36130.72
673.554	36278.28
673.904	35948.12
674.253	36191.96
674.602	36028.35
674.951	35542.94
675.3	35344.52
675.649	36144.95
675.998	35958.97
676.346	35829.03
676.695	35907.9
677.044	35678.3
677.393	35924.62
677.741	35907.67
678.09	35823.38
678.438	35809.14
678.787	35861.12
679.135	35818.41
679.484	35530.73
679.832	35700.9
680.181	35455.93
680.529	35620
680.877	35414.13
681.225	35288.7
681.573	35472.2
681.922	35254.58
682.27	35173.91
682.618	35255.94
682.966	35041.93
683.314	35088.48
683.661	35085.55
684.009	34829.96
684.357	34850.98
684.705	34652.79
685.053	34751.09
685.4	34644.88
685.748	34504.54
686.095	34489.86
686.443	34358.56
686.79	34290.31
687.138	34301.61
687.485	34371.89
687.832	34202.18
688.18	34242.63
688.527	33959.25
688.874	34017.33
689.221	34006.48
689.568	33705.02
689.915	33621.86
690.262	33751.8
690.609	33690.78
690.956	33620.05
691.303	33535.53
691.65	33490.79
691.997	33420.05
692.344	33138.48
692.69	33302.09
693.037	33107.97
693.383	33004.47
693.73	33131.93
694.077	32807.64
694.423	32815.1
694.769	32650.36
695.116	32571.71
695.462	32496.01
695.808	32343.02
696.155	32547.08
696.501	32284.49
696.847	32249.46
697.193	32153.19
697.539	32192.74
697.885	31910.04
698.231	31765.86
698.577	31862.81
698.923	31864.39
699.269	31667.33
699.614	31598.18
699.96	31378.53
700.306	31436.38
700.651	31265.53
700.997	31261.47
701.342	31145.76
701.688	31162.94
702.033	31017.18
702.379	30985.77
702.724	30788.94
703.069	30902.38
703.415	30468.04
703.76	30553.24
704.105	30479.34
704.45	30451.32
704.795	30127.48
705.14	30209.97
705.485	30145.34
705.83	30096.07
706.175	30140.82
706.52	30054.04
706.865	29924.78
707.209	29823.76
707.554	29832.58
707.899	29734.05
708.243	29621.96
708.588	29541.06
708.932	29426.26
709.277	29314.62
709.621	29379.48
709.966	29118.02
710.31	29290.9
710.654	29023.11
710.998	29019.72
711.342	29038.7
711.687	29102.65
712.031	28827.41
712.375	28697.69
712.719	28891.13
713.063	28761.87
713.407	28688.88
713.75	28610.01
714.094	28624.02
714.438	28453.63
714.782	28548.32
715.125	28238.04
715.469	28397.59
715.812	28240.53
716.156	28059.06
716.499	28118.27
716.843	28063.13
717.186	27910.14
717.53	28095.22
717.873	28000.99
718.216	27902.91
718.559	27801.67
718.902	27546.08
719.246	27599.42
719.589	27463.6
719.932	27335.69
720.275	27325.98
720.617	27372.98
720.96	27320.78
721.303	27278.97
721.646	27277.16
721.989	27074.01
722.331	27259.76
722.674	27101.8
723.016	27050.28
723.359	27044.4
723.701	27119.88
724.044	26931.86
724.386	26848.02
724.729	26881.92
725.071	26751.53
725.413	26818.65
725.755	26762.83
726.097	26598.99
726.439	26537.52
726.782	26668.59
727.124	26727.57
727.465	26552.44
727.807	26554.92
728.149	26497.75
728.491	26370.52
728.833	26420.69
729.175	26311.77
729.516	26213.24
729.858	26137.53
730.199	26236.74
730.541	26108.61
730.882	26050.76
731.224	26163.52
731.565	25921.27
731.906	25920.59
732.248	26070.64
732.589	25636.53
732.93	25664.1
733.271	25761.5
733.612	25708.17
733.953	25776.64
734.294	25515.63
734.635	25538.23
734.976	25703.87
735.317	25529.19
735.658	25414.39
735.999	25478.57
736.339	25441.28
736.68	25415.74
737.021	25407.38
737.361	25224.56
737.702	25311.57
738.042	25245.81
738.383	25075.19
738.723	25232.92
739.063	25151.34
739.404	25133.94
739.744	25010.78
740.084	24994.74
740.424	24891.01
740.764	24856.89
741.104	24924.91
741.444	24812.14
741.784	24726.27
742.124	24867.74
742.464	24719.49
742.804	24687.4
743.143	24642.66
743.483	24549.78
743.823	24355.89
744.162	24464.13
744.502	24648.31
744.841	24430.46
745.181	24491.47
745.52	24302.1
745.86	24326.06
746.199	24357.01
746.538	24324.47
746.877	24249
747.216	24308.88
747.556	24138.04
747.895	24188.66
748.234	24222.56
748.573	24091.03
748.911	24093.29
749.25	24018.49
749.589	23936.46
749.928	23910.47
750.267	23859.4
750.605	23695.34
750.944	23630.03
751.283	23630.93
751.621	23759.06
751.96	23442.69
752.298	23395.23
752.636	23455.57
752.975	23359.08
753.313	23401.56
753.651	23305.97
