Data from foam_black_FLMS001491_00019.txt Node
Date: Wed Feb 08 10:43:36 GMT 2017
User: dcchb
Spectrometer: FLMS00149
Trigger mode: 0
Integration Time (sec): 2.000000E-2
Scans to average: 10
Electric dark correction enabled: true
Nonlinearity correction enabled: false
Boxcar width: 0
XAxis mode: Wavelengths
Number of Pixels in Spectrum: 2048
>>>>>Begin Spectral Data<<<<<
341.393	-21.17
341.776	-21.17
342.16	-21.17
342.543	-55.52
342.927	-75.63
343.31	-58.23
343.693	-69.53
344.077	-66.82
344.46	-53.49
344.843	-62.98
345.226	-30.21
345.61	-20.49
345.993	-35.18
346.376	8.43
346.759	22.67
347.142	11.82
347.525	45.27
347.908	41.65
348.291	71.48
348.674	85.04
349.057	110.58
349.44	104.47
349.823	146.28
350.206	161.2
350.588	183.79
350.971	205.49
351.354	218.37
351.737	222.21
352.119	238.03
352.502	268.54
352.884	267.63
353.267	320.51
353.65	282.32
354.032	290.01
354.414	293.85
354.797	289.33
355.179	339.95
355.562	326.16
355.944	317.35
356.326	324.36
356.709	319.38
357.091	338.37
357.473	334.53
357.855	352.38
358.238	327.29
358.62	342.43
359.002	330.46
359.384	339.72
359.766	335.43
360.148	336.11
360.53	337.46
360.912	328.88
361.294	320.06
361.676	315.54
362.057	325.94
362.439	333.17
362.821	330.23
363.203	323.23
363.584	326.39
363.966	330.46
364.348	310.34
364.729	319.16
365.111	320.74
365.493	327.29
365.874	323.23
366.256	318.03
366.637	314.64
367.019	330.91
367.4	331.81
367.781	326.39
368.163	311.02
368.544	306.05
368.925	308.99
369.306	319.16
369.688	329.55
370.069	308.76
370.45	330.91
370.831	320.74
371.212	309.67
371.593	299.95
371.974	305.83
372.355	312.38
372.736	317.8
373.117	317.12
373.498	311.47
373.879	331.36
374.26	327.52
374.641	323.9
375.021	315.77
375.402	332.04
375.783	336.78
376.163	334.3
376.544	348.31
376.925	327.97
377.305	332.72
377.686	348.31
378.066	334.3
378.447	337.69
378.827	346.5
379.208	353.51
379.588	340.63
379.968	338.14
380.349	349.67
380.729	337.01
381.109	336.78
381.489	379.04
381.87	344.24
382.25	355.09
382.63	364.13
383.01	370.68
383.39	374.3
383.77	365.03
384.15	368.42
384.53	355.09
384.91	358.25
385.29	376.11
385.67	380.63
386.049	383.11
386.429	377.69
386.809	370.46
387.189	374.98
387.568	363.9
387.948	384.24
388.328	398.7
388.707	388.76
389.087	388.08
389.466	385.82
389.846	372.72
390.225	388.08
390.605	367.52
390.984	387.18
391.363	376.11
391.743	389.66
392.122	409.33
392.501	412.94
392.881	407.74
393.26	405.71
393.639	401.64
394.018	412.72
394.397	411.59
394.776	413.17
395.155	438.03
395.534	396.67
395.913	442.09
396.292	425.82
396.671	414.97
397.05	432.83
397.429	447.52
397.808	414.52
398.186	430.79
398.565	430.12
398.944	420.85
399.323	452.26
399.701	438.93
400.08	452.71
400.458	445.93
400.837	452.94
401.215	458.14
401.594	462.66
401.972	459.95
402.351	466.73
402.729	447.74
403.107	462.43
403.486	463.56
403.864	489.32
404.242	469.89
404.62	474.41
404.999	478.25
405.377	476.44
405.755	473.05
406.133	497.91
406.511	488.65
406.889	494.97
407.267	505.59
407.645	502.66
408.023	507.63
408.401	496.33
408.779	504.24
409.156	533.16
409.534	512.37
409.912	526.38
410.29	527.51
410.667	522.32
411.045	547.63
411.422	527.51
411.8	549.89
412.178	549.89
412.555	562.32
412.933	557.57
413.31	573.61
413.687	551.92
414.065	563.9
414.442	567.74
414.819	595.08
415.197	602.54
415.574	593.73
415.951	595.99
416.328	568.87
416.705	586.72
417.082	615.65
417.46	603.44
417.837	621.07
418.214	614.52
418.591	599.83
418.967	638.02
419.344	644.35
419.721	623.11
420.098	619.94
420.475	631.69
420.852	656.1
421.228	624.46
421.605	640.51
421.982	644.8
422.358	652.93
422.735	675.53
423.111	647.74
423.488	664.01
423.864	673.95
424.241	676.89
424.617	680.28
424.994	688.87
425.37	701.97
425.746	706.04
426.123	700.84
426.499	725.93
426.875	718.47
427.251	733.16
427.627	746.94
428.003	743.1
428.379	725.7
428.756	751.46
429.132	734.29
429.507	763.21
429.883	762.99
430.259	763.67
430.635	781.29
431.011	796.43
431.387	819.48
431.763	805.93
432.138	816.77
432.514	832.59
432.89	842.76
433.265	838.24
433.641	854.29
434.016	859.48
434.392	852.93
434.767	863.55
435.143	856.09
435.518	875.98
435.894	897.22
436.269	880.5
436.644	896.32
437.02	903.32
437.395	919.37
437.77	932.7
438.145	919.82
438.52	935.87
438.895	934.06
439.271	948.07
439.646	968.18
440.021	950.55
440.395	956.2
440.77	967.95
441.145	962.76
441.52	990.78
441.895	984.68
442.27	1032.59
442.645	1004.34
443.019	1034.62
443.394	1019.7
443.769	1029.42
444.143	1017.44
444.518	1019.03
444.892	1035.75
445.267	1037.78
445.641	1040.27
446.016	1049.53
446.39	1060.38
446.764	1092.47
447.139	1045.69
447.513	1073.49
447.887	1073.49
448.262	1084.34
448.636	1097.22
449.01	1125.92
449.384	1109.87
449.758	1097.89
450.132	1105.8
450.506	1141.74
450.88	1126.59
451.254	1142.64
451.628	1134.05
452.002	1178.8
452.376	1172.7
452.75	1191.45
453.123	1192.13
453.497	1168.63
453.871	1200.27
454.244	1180.6
454.618	1230.55
454.992	1242.98
455.365	1260.15
455.739	1253.15
456.112	1264.44
456.486	1303.54
456.859	1295.4
457.232	1332.24
457.606	1331.11
457.979	1345.12
458.352	1387.15
458.725	1379.02
459.099	1402.07
459.472	1397.1
459.845	1398.23
460.218	1420.6
460.591	1426.02
460.964	1446.13
461.337	1473.48
461.71	1485.91
462.083	1495.17
462.456	1487.94
462.829	1500.37
463.201	1506.92
463.574	1552.8
463.947	1545.57
464.32	1595.06
464.692	1581.27
465.065	1601.38
465.438	1626.92
465.81	1661.72
466.183	1681.16
466.555	1709.86
466.928	1727.26
467.3	1712.34
467.672	1718.22
468.045	1797.54
468.417	1790.53
468.789	1769.29
469.161	1819.91
469.534	1863.3
469.906	1851.32
470.278	1897.87
470.65	1901.26
471.022	1927.48
471.394	1955.95
471.766	1955.73
472.138	2012.9
472.51	1996.63
472.882	2037.76
473.253	2052.9
473.625	2097.64
473.997	2131.77
474.369	2160.01
474.74	2152.78
475.112	2207.7
475.484	2227.13
475.855	2259.45
476.227	2261.25
476.598	2327.92
476.97	2390.29
477.341	2391.87
477.713	2428.26
478.084	2460.12
478.455	2490.4
478.827	2532.66
479.198	2607.01
479.569	2565.43
479.94	2666.22
480.311	2699.43
480.682	2744.63
481.053	2802.71
481.424	2804.97
481.795	2835.25
482.166	2866.66
482.537	2927.23
482.908	3011.29
483.279	2999.99
483.65	3055.81
484.021	3088.13
484.391	3141.23
484.762	3185.75
485.133	3227.1
485.503	3208.35
485.874	3325.41
486.244	3318.4
486.615	3377.83
486.985	3433.88
487.356	3462.8
487.726	3501.67
488.097	3560.65
488.467	3554.33
488.837	3622.57
489.207	3649.47
489.578	3739.63
489.948	3735.57
490.318	3859.86
490.688	3773.53
491.058	3852.17
491.428	3897.6
491.798	3945.73
492.168	4077.48
492.538	4050.59
492.908	4081.77
493.278	4112.96
493.648	4133.3
494.017	4175.55
494.387	4219.85
494.757	4237.93
495.126	4334.19
495.496	4316.34
495.866	4388.88
496.235	4385.94
496.605	4449.22
496.974	4479.95
497.344	4479.05
497.713	4554.3
498.082	4603.11
498.452	4633.62
498.821	4660.51
499.19	4658.25
499.559	4676.56
499.928	4723.34
500.298	4769.66
500.667	4809.89
501.036	4798.81
501.405	4825.25
501.774	4844.91
502.143	4873.61
502.512	4889.43
502.88	4871.35
503.249	4937.12
503.618	4989.32
503.987	5037.45
504.356	5078.36
504.724	5103.89
505.093	5107.28
505.462	5148.18
505.83	5173.27
506.199	5228.86
506.567	5313.6
506.936	5258.46
507.304	5366.48
507.672	5361.51
508.041	5407.61
508.409	5461.17
508.777	5497.55
509.145	5563.99
509.514	5541.39
509.882	5587.27
510.25	5646.93
510.618	5672.92
510.986	5660.49
511.354	5711.56
511.722	5718.56
512.09	5811.9
512.458	5795.62
512.826	5857.54
513.193	5848.96
513.561	5928.05
513.929	5892.35
514.297	5962.17
514.664	6054.37
515.032	6066.35
515.4	6100.25
515.767	6134.37
516.135	6206.69
516.502	6196.52
516.869	6267.25
517.237	6303.86
517.604	6332.56
517.972	6446.45
518.339	6463.63
518.706	6547.92
519.073	6613.46
519.44	6632.89
519.808	6664.08
520.175	6715.15
520.542	6841.25
520.909	6766.9
521.276	6842.6
521.643	6899.55
522.009	6947.01
522.376	7000.11
522.743	6947.68
523.11	7074.01
523.477	7107.23
523.843	7132.76
524.21	7170.05
524.577	7243.95
524.943	7290.5
525.31	7331.18
525.676	7361.01
526.043	7454.34
526.409	7462.93
526.776	7604.84
527.142	7630.15
527.508	7703.82
527.874	7757.83
528.241	7835.12
528.607	7841.45
528.973	7937.49
529.339	7949.92
529.705	8017.26
530.071	8162.12
530.437	8134.55
530.803	8213.64
531.169	8281.66
531.535	8250.48
531.901	8370.47
532.267	8359.17
532.632	8417.93
532.998	8461.09
533.364	8458.15
533.73	8521.65
534.095	8532.28
534.461	8478.49
534.826	8551.26
535.192	8583.12
535.557	8635.1
535.923	8716.68
536.288	8684.59
536.653	8730.24
537.019	8699.5
537.384	8783.79
537.749	8865.15
538.114	8846.17
538.479	8856.79
538.845	8944.92
539.21	8977.01
539.575	8969.78
539.94	9066.27
540.305	9127.06
540.67	9160.51
541.034	9242.31
541.399	9322.09
541.764	9258.58
542.129	9445.25
542.494	9386.26
542.858	9446.6
543.223	9481.86
543.587	9475.53
543.952	9522.76
544.316	9522.98
544.681	9516.66
545.045	9562.08
545.41	9626.94
545.774	9619.7
546.138	9622.42
546.503	9672.58
546.867	9712.81
547.231	9779.7
547.595	9766.37
547.959	9787.38
548.324	9835.97
548.688	9841.85
549.052	9828.96
549.416	9946.93
549.779	9941.73
550.143	10005.46
550.507	10080.03
550.871	10121.16
551.235	10174.94
551.599	10274.15
551.962	10308.05
552.326	10333.58
552.689	10416.75
553.053	10396.86
553.417	10455.61
553.78	10612.9
554.143	10500.59
554.507	10645.89
554.87	10633.69
555.234	10753.46
555.597	10630.75
555.96	10706.46
556.323	10720.69
556.686	10759.79
557.05	10866.9
557.413	10818.32
557.776	10913
558.139	10943.51
558.502	10903.29
558.865	10986.22
559.228	11093.79
559.59	11161.36
559.953	11158.2
560.316	11336.04
560.679	11350.28
561.041	11420.79
561.404	11482.03
561.767	11531.74
562.129	11496.27
562.492	11690.38
562.854	11651.97
563.217	11718.63
563.579	11763.38
563.941	11964.28
564.304	11899.87
564.666	11997.04
565.028	12016.25
565.39	12055.57
565.753	12181.67
566.115	12207.66
566.477	12300.99
566.839	12276.13
567.201	12378.5
567.563	12403.13
567.925	12448.56
568.287	12515.22
568.648	12471.38
569.01	12585.28
569.372	12629.57
569.734	12637.48
570.095	12749.79
570.457	12815.33
570.819	12791.82
571.18	12806.74
571.542	12921.76
571.903	12889.45
572.265	12974.42
572.626	12990.24
572.987	13023.68
573.349	13134.64
573.71	13250.8
574.071	13203.79
574.432	13277.69
574.794	13394.75
575.155	13295.77
575.516	13293.96
575.877	13368.31
576.238	13389.55
576.599	13538.47
576.96	13499.83
577.32	13563.78
577.681	13548.64
578.042	13617.11
578.403	13541.64
578.763	13592.48
579.124	13711.57
579.485	13731.69
579.845	13846.71
580.206	13754.06
580.566	13804.91
580.927	13805.13
581.287	13874.51
581.648	13822.98
582.008	13926.03
582.368	13845.13
582.728	13886.71
583.089	13897.56
583.449	13936.65
583.809	13886.71
584.169	13934.17
584.529	13858.92
584.889	14062.3
585.249	13951.79
585.609	13900.72
585.969	13923.32
586.329	13908.18
586.688	13983.21
587.048	13889.2
587.408	13908.86
587.768	13853.72
588.127	13803.32
588.487	13869.31
588.846	13946.6
589.206	13866.82
589.565	13848.97
589.925	13889.42
590.284	13873.38
590.643	13950.66
591.003	13932.13
591.362	14048.51
591.721	14001.74
592.08	14028.85
592.44	14045.13
592.799	14123.54
593.158	14043.32
593.517	14072.47
593.876	14062.98
594.235	14143.43
594.593	14199.92
594.952	14229.75
595.311	14149.3
595.67	14201.73
596.029	14269.3
596.387	14371.22
596.746	14324.21
597.104	14257.77
597.463	14261.16
597.822	14443.08
598.18	14313.82
598.538	14328.96
598.897	14387.94
599.255	14317.43
599.613	14398.11
599.972	14317.66
600.33	14394.72
600.688	14293.48
601.046	14275.63
601.404	14377.55
601.762	14318.11
602.12	14371.22
602.478	14286.47
602.836	14446.47
603.194	14256.64
603.552	14320.37
603.91	14138.91
604.268	14337.55
604.625	14222.75
604.983	14303.88
605.341	14320.15
605.698	14359.69
606.056	14452.35
606.413	14331.22
606.771	14456.87
607.128	14490.31
607.485	14460.48
607.843	14527.6
608.2	14486.7
608.557	14725.56
608.914	14693.7
609.272	14724.43
609.629	14758.55
609.986	14845.78
610.343	14726.92
610.7	14886.68
611.057	14878.78
611.414	14891.66
611.771	14933.46
612.127	14864.99
612.484	14978.43
612.841	14912.9
613.198	14928.04
613.554	14905.22
613.911	14933.01
614.267	14948.83
614.624	14830.64
614.98	14961.26
615.337	15027.25
615.693	14900.02
616.05	14901.6
616.406	15051.88
616.762	14920.36
617.118	14958.55
617.475	14996.96
617.831	14999.45
618.187	14959.68
618.543	14990.41
618.899	14983.86
619.255	14991.31
619.611	15027.02
619.967	15107.02
620.323	15169.16
620.678	15014.82
621.034	15019.34
621.39	15070.18
621.746	15069.5
622.101	15232.89
622.457	15108.6
622.812	15211.87
623.168	15295.04
623.523	15303.62
623.879	15406.9
624.234	15201.93
624.589	15429.04
624.945	15451.19
625.3	15405.77
625.655	15446.22
626.01	15475.37
626.365	15373.68
626.72	15380.01
627.075	15503.17
627.43	15325.54
627.785	15381.81
628.14	15425.65
628.495	15438.08
628.85	15294.81
629.205	15195.38
629.559	15409.16
629.914	15221.37
630.269	15249.61
630.623	15160.12
630.978	15168.49
631.332	15131.88
631.687	15138.2
632.041	15061.14
632.396	14999.9
632.75	15079.22
633.104	14983.86
633.459	14934.14
633.813	14882.84
634.167	14852.79
634.521	14916.29
634.875	14994.48
635.229	14903.18
635.583	14828.38
635.937	14821.38
636.291	14798.1
636.645	14791.09
636.999	14751.32
637.352	14814.82
637.706	14729.63
638.06	14830.64
638.413	14815.27
638.767	14759.23
639.121	14706.58
639.474	14702.51
639.828	14747.71
640.181	14674.71
640.534	14758.1
640.888	14694.15
641.241	14581.83
641.594	14696.18
641.947	14766.46
642.301	14686.69
642.654	14750.64
643.007	14720.59
643.36	14690.31
643.713	14589.29
644.066	14630.19
644.419	14575.05
644.771	14480.82
645.124	14357.89
645.477	14260.26
645.83	14182.3
646.182	14205.12
646.535	14209.41
646.888	14281.73
647.24	14179.58
647.593	14301.62
647.945	14235.63
648.298	14142.3
648.65	14173.71
649.002	14072.02
649.355	14066.37
649.707	14052.81
650.059	13993.15
650.411	14200.38
650.763	14204.44
651.115	14378.68
651.467	14342.07
651.819	14326.25
652.171	14273.82
652.523	14232.69
652.875	14198.57
653.227	14198.57
653.578	14149.3
653.93	14189.3
654.282	14168.29
654.633	14093.94
654.985	14129.87
655.337	14118.8
655.688	14051.9
656.039	14142.07
656.391	14055.52
656.742	14035.63
657.094	14033.83
657.445	14122.64
657.796	14115.41
658.147	14002.41
658.498	14090.55
658.849	14035.63
659.2	14085.58
659.551	14051.23
659.902	14034.28
660.253	14026.59
660.604	14077.44
660.955	14071.11
661.306	14084.22
661.656	14046.71
662.007	14134.16
662.358	14067.5
662.708	14134.84
663.059	14139.36
663.409	13950.21
663.76	14127.38
664.11	14095.75
664.461	14145.01
664.811	14159.25
665.161	14058.01
665.511	14053.03
665.862	13978.01
666.212	14107.5
666.562	14067.5
666.912	14101.17
667.262	14138.23
667.612	14053.71
667.962	14006.93
668.312	13952.47
668.662	14066.14
669.011	13962.64
669.361	13933.94
669.711	13965.35
670.06	13937.56
670.41	13869.76
670.76	13765.58
671.109	13879.03
671.459	13875.41
671.808	13843.77
672.157	13859.37
672.507	13710.44
672.856	13786.83
673.205	13699.6
673.554	13746.38
673.904	13765.13
674.253	13737.79
674.602	13684.23
674.951	13439.04
675.3	13409.44
675.649	13680.61
675.998	13589.54
676.346	13611.92
676.695	13665.47
677.044	13637.45
677.393	13655.98
677.741	13635.42
678.09	13608.98
678.438	13628.86
678.787	13713.16
679.135	13714.06
679.484	13671.8
679.832	13714.51
680.181	13651.46
680.529	13695.3
680.877	13631.8
681.225	13616.44
681.573	13749.09
681.922	13633.61
682.27	13526.04
682.618	13565.36
682.966	13535.53
683.314	13596.78
683.661	13534.4
684.009	13422.32
684.357	13428.42
684.705	13425.93
685.053	13475.42
685.4	13453.73
685.748	13403.33
686.095	13251.93
686.443	13255.99
686.79	13237.24
687.138	13235.2
687.485	13218.48
687.832	13169.89
688.18	13204.92
688.527	12994.31
688.874	13117.47
689.221	13036.79
689.568	12998.37
689.915	12895.32
690.262	12910.47
690.609	12808.1
690.956	12743.24
691.303	12818.72
691.65	12725.61
691.997	12724.26
692.344	12643.13
692.69	12669.12
693.037	12727.19
693.383	12588.89
693.73	12631.15
694.077	12584.6
694.423	12555.22
694.769	12446.52
695.116	12503.47
695.462	12447.88
695.808	12363.36
696.155	12454.21
696.501	12334.89
696.847	12369.69
697.193	12279.3
697.539	12361.78
697.885	12235.23
698.231	12264.83
698.577	12224.38
698.923	12188.9
699.269	12270.48
699.614	12139.19
699.96	12110.49
700.306	12212.4
700.651	12155.68
700.997	11997.72
701.342	12057.83
701.688	11919.76
702.033	11938.29
702.379	12019.19
702.724	11927.89
703.069	11917.5
703.415	11822.36
703.76	11790.27
704.105	11790.27
704.45	11750.04
704.795	11646.54
705.14	11544.17
705.485	11564.96
705.83	11484.74
706.175	11537.62
706.52	11548.24
706.865	11462.82
707.209	11429.83
707.554	11352.54
707.899	11310.96
708.243	11305.54
708.588	11333.11
708.932	11239.78
709.277	11264.18
709.621	11297.4
709.966	11188.03
710.31	11172.43
710.654	11125.43
710.998	11113
711.342	11190.28
711.687	11040.68
712.031	11090.17
712.375	10964.53
712.719	11007.24
713.063	11006.33
713.407	11066.22
713.75	11017.63
714.094	11009.27
714.438	10935.83
714.782	10965.21
715.125	10934.25
715.469	10889.05
715.812	10804.08
716.156	10880.01
716.499	10865.32
716.843	10869.39
717.186	10773.35
717.53	10910.07
717.873	10868.26
718.216	10837.3
718.559	10758.88
718.902	10683.63
719.246	10783.52
719.589	10718.88
719.932	10735.16
720.275	10653.58
720.617	10660.58
720.96	10644.08
721.303	10557.76
721.646	10699
721.989	10468.95
722.331	10625.1
722.674	10532
723.016	10547.59
723.359	10456.29
723.701	10499
724.044	10431.43
724.386	10330.19
724.729	10391.89
725.071	10416.29
725.413	10421.04
725.755	10303.53
726.097	10293.59
726.439	10263.76
726.782	10291.1
727.124	10287.71
727.465	10244.1
727.807	10183.31
728.149	10244.1
728.491	10172.91
728.833	10188.96
729.175	10135.17
729.516	10099.24
729.858	10121.16
730.199	10022.41
730.541	10057.89
730.882	10094.72
731.224	10176.75
731.565	10061.05
731.906	10033.48
732.248	10087.71
732.589	10020.6
732.93	10008.17
733.271	9985.34
733.612	10013.37
733.953	10012.69
734.294	9909.41
734.635	9924.1
734.976	9970.43
735.317	9919.36
735.658	9946.02
735.999	9931.56
736.339	9833.03
736.68	9956.19
737.021	9874.39
737.361	9843.65
737.702	9865.12
738.042	9852.47
738.383	9871.45
738.723	9886.82
739.063	9831
739.404	9818.57
739.744	9748.74
740.084	9791.45
740.424	9769.98
740.764	9741.74
741.104	9721.62
741.444	9710.32
741.784	9737.89
742.124	9687.95
742.464	9681.62
742.804	9662.42
743.143	9666.71
743.483	9591.91
743.823	9625.81
744.162	9489.99
744.502	9583.1
744.841	9586.71
745.181	9589.87
745.52	9513.49
745.86	9512.59
746.199	9553.49
746.538	9550.1
746.877	9514.17
747.216	9519.37
747.556	9430.33
747.895	9440.27
748.234	9418.58
748.573	9402.31
748.911	9373.61
749.25	9453.83
749.589	9313.72
749.928	9355.3
750.267	9330.67
750.605	9291.35
750.944	9255.42
751.283	9261.52
751.621	9327.51
751.96	9198.02
752.298	9244.12
752.636	9244.35
752.975	9156.21
753.313	9117.8
753.651	9142.88
753.989	9067.63
754.327	9043.9
754.666	9053.84
755.004	9068.98
755.342	9048.87
755.679	8956.9
756.017	9021.53
756.355	8974.3
756.693	8929.33
757.031	8931.59
757.368	8824.7
757.706	8870.8
758.044	8873.96
758.381	8872.83
758.719	8811.82
759.056	8840.74
759.394	8773.4
