Data from foam_black_FLMS001491_00069.txt Node
Date: Wed Feb 08 10:44:25 GMT 2017
User: dcchb
Spectrometer: FLMS00149
Trigger mode: 0
Integration Time (sec): 2.000000E-2
Scans to average: 10
Electric dark correction enabled: true
Nonlinearity correction enabled: false
Boxcar width: 0
XAxis mode: Wavelengths
Number of Pixels in Spectrum: 2048
>>>>>Begin Spectral Data<<<<<
341.393	0.56
341.776	0.56
342.16	0.56
342.543	-80.34
342.927	-55.03
343.31	-78.3
343.693	-64.52
344.077	-69.26
344.46	-68.59
344.843	-55.7
345.226	-20
345.61	-39.43
345.993	-1.47
346.376	-15.48
346.759	13.45
347.142	20.68
347.525	38.53
347.908	52.09
348.291	66.1
348.674	96.83
349.057	125.08
349.44	125.31
349.823	153.56
350.206	172.99
350.588	180
350.971	198.3
351.354	198.53
351.737	207.11
352.119	200.56
352.502	241.01
352.884	250.5
353.267	274.46
353.65	264.29
354.032	282.59
354.414	281.01
354.797	298.64
355.179	308.58
355.562	295.92
355.944	306.55
356.326	319.65
356.709	322.36
357.091	329.37
357.473	325.08
357.855	323.04
358.238	309.71
358.62	334.34
359.002	340.22
359.384	300.9
359.766	315.13
360.148	343.83
360.53	325.75
360.912	307.22
361.294	328.92
361.676	335.92
362.057	323.72
362.439	313.1
362.821	300.67
363.203	315.81
363.584	311.07
363.966	315.36
364.348	312.42
364.729	298.41
365.111	282.59
365.493	320.1
365.874	308.13
366.256	304.29
366.637	276.26
367.019	315.58
367.4	325.3
367.781	291.18
368.163	294.79
368.544	273.33
368.925	277.85
369.306	309.71
369.688	302.25
370.069	284.4
370.45	298.41
370.831	285.98
371.212	292.31
371.593	294.34
371.974	316.04
372.355	295.25
372.736	294.34
373.117	297.28
373.498	293.89
373.879	304.06
374.26	286.66
374.641	281.01
375.021	307.22
375.402	307.45
375.783	307.9
376.163	310.84
376.544	321.69
376.925	304.96
377.305	302.93
377.686	300.9
378.066	313.55
378.447	329.6
378.827	297.28
379.208	317.62
379.588	334.57
379.968	331.18
380.349	341.35
380.729	338.18
381.109	330.27
381.489	333.66
381.87	328.92
382.25	331.4
382.63	311.97
383.01	330.95
383.39	342.93
383.77	347
384.15	321.91
384.53	335.7
384.91	356.26
385.29	329.14
385.67	341.35
386.049	344.28
386.429	323.95
386.809	341.57
387.189	342.48
387.568	320.33
387.948	327.11
388.328	352.87
388.707	363.04
389.087	330.27
389.466	345.19
389.846	340.22
390.225	351.74
390.605	328.24
390.984	348.35
391.363	368.46
391.743	363.49
392.122	346.77
392.501	318.07
392.881	353.32
393.26	350.39
393.639	351.97
394.018	335.92
394.397	342.7
394.776	343.61
395.155	361.23
395.534	379.09
395.913	372.31
396.292	374.57
396.671	352.42
397.05	360.33
397.429	372.76
397.808	375.47
398.186	362.14
398.565	359.88
398.944	366.66
399.323	356.04
399.701	379.09
400.08	369.59
400.458	383.38
400.837	403.72
401.215	391.52
401.594	370.5
401.972	374.11
402.351	395.13
402.729	381.8
403.107	399.65
403.486	394.45
403.864	393.32
404.242	403.27
404.62	382.93
404.999	371.85
405.377	396.49
405.755	403.49
406.133	387.67
406.511	388.58
406.889	386.09
407.267	410.5
407.645	400.55
408.023	423.15
408.401	390.16
408.779	402.81
409.156	420.89
409.534	410.95
409.912	419.09
410.29	426.77
410.667	408.92
411.045	407.11
411.422	443.49
411.8	438.07
412.178	419.99
412.555	421.57
412.933	422.25
413.31	447.56
413.687	459.54
414.065	457.5
414.442	434.68
414.819	444.4
415.197	442.14
415.574	449.82
415.951	470.61
416.328	450.95
416.705	441.91
417.082	460.44
417.46	449.14
417.837	456.82
418.214	472.19
418.591	459.54
418.967	488.24
419.344	470.61
419.721	484.85
420.098	459.76
420.475	469.25
420.852	471.51
421.228	475.81
421.605	479.42
421.982	480.33
422.358	501.12
422.735	499.08
423.111	501.79
423.488	493.43
423.864	490.95
424.241	505.18
424.617	499.53
424.994	509.03
425.37	506.77
425.746	521.46
426.123	514.68
426.499	511.96
426.875	519.65
427.251	538.4
427.627	530.72
428.003	525.52
428.379	508.35
428.756	537.27
429.132	532.98
429.507	548.8
429.883	525.75
430.259	524.84
430.635	555.8
431.011	551.51
431.387	575.92
431.763	567.56
432.138	571.17
432.514	600.32
432.89	547.44
433.265	589.25
433.641	563.71
434.016	582.24
434.392	583.6
434.767	601.68
435.143	592.41
435.518	593.09
435.894	589.93
436.269	608.23
436.644	635.12
437.02	603.49
437.395	608.01
437.77	630.15
438.145	620.66
438.52	645.29
438.895	653.66
439.271	614.56
439.646	649.81
440.021	639.87
440.395	650.94
440.77	659.3
441.145	649.14
441.52	640.77
441.895	662.02
442.27	640.77
442.645	661.34
443.019	640.77
443.394	664.05
443.769	672.86
444.143	671.96
444.518	672.86
444.892	671.06
445.267	688.23
445.641	685.29
446.016	669.25
446.39	672.41
446.764	686.65
447.139	681.45
447.513	671.28
447.887	674.67
448.262	706.54
448.636	697.5
449.01	695.46
449.384	691.62
449.758	708.79
450.132	709.02
450.506	731.85
450.88	719.64
451.254	708.57
451.628	716.03
452.002	710.15
452.376	752.86
452.75	735.91
453.123	761.45
453.497	733.88
453.871	744.05
454.244	766.42
454.618	792.18
454.992	789.92
455.365	775.01
455.739	753.99
456.112	812.3
456.486	809.13
456.859	805.74
457.232	798.96
457.606	826.53
457.979	818.4
458.352	822.01
458.725	842.35
459.099	860.43
459.472	869.92
459.845	848.68
460.218	879.41
460.591	878.51
460.964	872.63
461.337	881.45
461.71	868.56
462.083	902.46
462.456	913.31
462.829	892.07
463.201	916.7
463.574	899.75
463.947	924.38
464.32	936.59
464.692	951.5
465.065	951.05
465.438	958.73
465.81	962.35
466.183	984.27
466.555	968
466.928	981.1
467.3	1013.19
467.672	993.76
468.045	1026.3
468.417	1029.92
468.789	1025.4
469.161	1051.61
469.534	1022.91
469.906	1064.72
470.278	1097.71
470.65	1086.64
471.022	1100.42
471.394	1134.55
471.766	1142.91
472.138	1139.07
472.51	1151.04
472.882	1153.08
473.253	1176.35
473.625	1166.41
473.997	1226.07
474.369	1208.67
474.74	1218.16
475.112	1233.07
475.484	1240.98
475.855	1303.81
476.227	1236.01
476.598	1292.06
476.97	1294.77
477.341	1302.9
477.713	1366.4
478.084	1325.5
478.455	1356.24
478.827	1385.16
479.198	1393.75
479.569	1413.41
479.94	1437.36
480.311	1451.37
480.682	1445.95
481.053	1471.26
481.424	1522.33
481.795	1526.17
482.166	1540.41
482.537	1568.43
482.908	1608.21
483.279	1606.85
483.65	1650.69
484.021	1638.04
484.391	1654.76
484.762	1666.74
485.133	1695.66
485.503	1697.47
485.874	1730.69
486.244	1763.91
486.615	1786.51
486.985	1796.68
487.356	1837.13
487.726	1814.75
488.097	1854.08
488.467	1869.89
488.837	1895.88
489.207	1918.03
489.578	1908.09
489.948	1955.32
490.318	1983.11
490.688	1967.29
491.058	2012.72
491.428	2024.69
491.798	2064.47
492.168	2082.54
492.538	2080.74
492.908	2101.75
493.278	2098.59
493.648	2113.5
494.017	2157.34
494.387	2128.19
494.757	2171.58
495.126	2177.91
495.496	2180.17
495.866	2221.07
496.235	2229.43
496.605	2235.53
496.974	2274.86
497.344	2267.17
497.713	2285.25
498.082	2336.77
498.452	2277.79
498.821	2307.62
499.19	2335.64
499.559	2341.52
499.928	2388.98
500.298	2389.65
500.667	2412.03
501.036	2397.34
501.405	2416.32
501.774	2418.13
502.143	2424.68
502.512	2435.3
502.88	2510.33
503.249	2477.34
503.618	2487.05
503.987	2506.26
504.356	2526.37
504.724	2558.24
505.093	2574.28
505.462	2573.6
505.83	2585.13
506.199	2583.32
506.567	2583.55
506.936	2612.93
507.304	2627.39
507.672	2623.55
508.041	2664.22
508.409	2698.35
508.777	2712.58
509.145	2734.5
509.514	2726.59
509.882	2787.84
510.25	2764.33
510.618	2789.42
510.986	2767.27
511.354	2837.55
511.722	2871
512.09	2850.43
512.458	2878.68
512.826	2857.44
513.193	2906.25
513.561	2900.83
513.929	2914.84
514.297	2935.86
514.664	2963.42
515.032	3006.14
515.4	3040.49
515.767	3014.72
516.135	3044.55
516.502	3060.15
516.869	3059.24
517.237	3113.7
517.604	3096.53
517.972	3141.27
518.339	3162.74
518.706	3176.3
519.073	3205.9
519.44	3183.53
519.808	3195.96
520.175	3188.96
520.542	3277.09
520.909	3291.1
521.276	3275.06
521.643	3343.08
522.009	3317.31
522.376	3346.92
522.743	3371.78
523.11	3436.63
523.477	3449.97
523.843	3462.62
524.21	3490.87
524.577	3509.17
524.943	3516.86
525.31	3560.02
525.676	3636.63
526.043	3647.47
526.409	3638.89
526.776	3703.07
527.142	3720.92
527.508	3695.16
527.874	3692.22
528.241	3727.47
528.607	3710.52
528.973	3778.09
529.339	3770.86
529.705	3827.13
530.071	3851.99
530.437	3844.31
530.803	3882.95
531.169	3884.53
531.535	3860.12
531.901	3886.34
532.267	3937.41
532.632	3948.71
532.998	3945.55
533.364	3964.53
533.73	3972.66
534.095	4061.7
534.461	4040.23
534.826	4079.33
535.192	4076.39
535.557	4053.79
535.923	4090.63
536.288	4103.96
536.653	4149.83
537.019	4119.55
537.384	4172.88
537.749	4209.04
538.114	4223.73
538.479	4206.56
538.845	4242.26
539.21	4238.42
539.575	4268.7
539.94	4300.56
540.305	4264.63
540.67	4308.93
541.034	4298.08
541.399	4323.39
541.764	4316.61
542.129	4312.99
542.494	4365.65
542.858	4363.61
543.223	4354.35
543.587	4439.09
543.952	4380.79
544.316	4403.39
544.681	4396.38
545.045	4423.73
545.41	4456.04
545.774	4501.01
546.138	4471.86
546.503	4489.49
546.867	4469.6
547.231	4534.68
547.595	4568.58
547.959	4602.7
548.324	4607.22
548.688	4609.48
549.052	4613.33
549.416	4652.42
549.779	4647.45
550.143	4679.99
550.507	4694.23
550.871	4756.82
551.235	4737.62
551.599	4747.56
551.962	4801.12
552.326	4815.35
552.689	4805.41
553.053	4795.69
553.417	4808.12
553.78	4890.38
554.143	4808.57
554.507	4847.67
554.87	4923.37
555.234	4952.07
555.597	4915.46
555.96	4976.71
556.323	4922.02
556.686	4974.9
557.05	5007.44
557.413	5043.82
557.776	5027.1
558.139	5106.87
558.502	5064.39
558.865	5053.77
559.228	5130.37
559.59	5203.37
559.953	5159.07
560.316	5192.07
560.679	5166.3
561.041	5224.61
561.404	5251.27
561.767	5324.94
562.129	5283.59
562.492	5338.73
562.854	5375.56
563.217	5345.51
563.579	5369.69
563.941	5409.46
564.304	5451.72
564.666	5484.26
565.028	5463.25
565.39	5517.26
565.753	5535.79
566.115	5591.6
566.477	5569.23
566.839	5580.31
567.201	5686.07
567.563	5648.33
567.925	5689.68
568.287	5681.32
568.648	5685.61
569.01	5735.33
569.372	5789.11
569.734	5757.02
570.095	5833.63
570.457	5846.74
570.819	5850.58
571.18	5859.62
571.542	5845.38
571.903	5903.91
572.265	5934.19
572.626	5876.12
572.987	5927.41
573.349	5964.93
573.71	5956.79
574.071	5975.78
574.432	5985.72
574.794	6002.22
575.155	6030.46
575.516	6030.01
575.877	6019.62
576.238	6052.38
576.599	6066.39
576.96	6056.68
577.32	6060.52
577.681	6096.9
578.042	6095.32
578.403	6147.75
578.763	6133.96
579.124	6171.7
579.485	6191.81
579.845	6158.37
580.206	6191.81
580.566	6239.72
580.927	6145.26
581.287	6244.24
581.648	6235.88
582.008	6258.71
582.368	6264.58
582.728	6261.64
583.089	6238.37
583.449	6266.39
583.809	6305.48
584.169	6284.24
584.529	6218.25
584.889	6289.44
585.249	6323.79
585.609	6287.86
585.969	6292.38
586.329	6301.64
586.688	6282.21
587.048	6271.81
587.408	6248.99
587.768	6308.42
588.127	6290.57
588.487	6262.77
588.846	6303
589.206	6211.25
589.565	6284.69
589.925	6317.01
590.284	6258.25
590.643	6319.27
591.003	6244.24
591.362	6246.95
591.721	6283.56
592.08	6298.7
592.44	6352.49
592.799	6282.43
593.158	6312.72
593.517	6281.3
593.876	6310
594.235	6248.76
594.593	6306.39
594.952	6316.33
595.311	6282.89
595.67	6373.05
596.029	6354.3
596.387	6334.86
596.746	6324.24
597.104	6324.47
597.463	6337.12
597.822	6370.79
598.18	6382.09
598.538	6328.99
598.897	6379.83
599.255	6350
599.613	6408.31
599.972	6401.75
600.33	6326.73
600.688	6352.94
601.046	6383.45
601.404	6390.91
601.762	6381.64
602.12	6497.57
602.478	6440.17
602.836	6392.94
603.194	6351.58
603.552	6394.07
603.91	6406.05
604.268	6397.46
604.625	6400.17
604.983	6381.19
605.341	6430.9
605.698	6389.32
606.056	6390
606.413	6406.95
606.771	6462.54
607.128	6415.99
607.485	6456.89
607.843	6436.55
608.2	6439.27
608.557	6495.76
608.914	6406.27
609.272	6481.98
609.629	6521.52
609.986	6479.94
610.343	6440.85
610.7	6554.29
611.057	6499.6
611.414	6558.81
611.771	6523.56
612.127	6572.14
612.484	6494.86
612.841	6596.78
613.198	6546.16
613.554	6583.22
613.911	6593.39
614.267	6554.74
614.624	6566.95
614.98	6598.81
615.337	6590.67
615.693	6612.37
616.05	6558.13
616.406	6633.84
616.762	6590
617.118	6621.86
617.475	6630.67
617.831	6591.8
618.187	6669.09
618.543	6640.39
618.899	6655.76
619.255	6679.94
619.611	6617.11
619.967	6611.46
620.323	6645.36
620.678	6626.15
621.034	6615.98
621.39	6628.64
621.746	6611.92
622.101	6656.89
622.457	6648.3
622.812	6674.51
623.168	6612.37
623.523	6676.1
623.879	6684.91
624.234	6598.36
624.589	6704.12
624.945	6665.02
625.3	6682.2
625.655	6660.5
626.01	6649.88
626.365	6723.1
626.72	6681.97
627.075	6734.63
627.43	6695.53
627.785	6623.89
628.14	6688.75
628.495	6683.1
628.85	6637.45
629.205	6706.6
629.559	6730.78
629.914	6690.56
630.269	6675.64
630.623	6635.87
630.978	6644.01
631.332	6704.12
631.687	6659.6
632.041	6641.52
632.396	6634.29
632.75	6578.7
633.104	6571.69
633.459	6576.21
633.813	6634.97
634.167	6575.76
634.521	6580.28
634.875	6615.98
635.229	6561.07
635.583	6517
635.937	6572.6
636.291	6535.99
636.645	6507.74
636.999	6506.61
637.352	6498.02
637.706	6453.73
638.06	6484.91
638.413	6516.78
638.767	6486.04
639.121	6439.94
639.474	6416.67
639.828	6455.08
640.181	6431.58
640.534	6439.94
640.888	6437.46
641.241	6431.58
641.594	6413.05
641.947	6458.93
642.301	6368.08
642.654	6406.05
643.007	6392.71
643.36	6400.62
643.713	6407.4
644.066	6379.15
644.419	6377.8
644.771	6267.29
645.124	6159.27
645.477	6191.59
645.83	6172.38
646.182	6168.99
646.535	6187.97
646.888	6187.52
647.24	6192.49
647.593	6222.32
647.945	6154.53
648.298	6142.78
648.65	6131.7
649.002	6106.85
649.355	6157.24
649.707	6145.49
650.059	6114.75
650.411	6184.36
650.763	6199.27
651.115	6266.39
651.467	6229.33
651.819	6207.63
652.171	6290.12
652.523	6185.49
652.875	6148.65
653.227	6192.27
653.578	6220.29
653.93	6145.49
654.282	6219.84
654.633	6148.2
654.985	6169.22
655.337	6167.86
655.688	6157.01
656.039	6166.5
656.391	6157.69
656.742	6105.26
657.094	6167.86
657.445	6205.6
657.796	6211.02
658.147	6089.22
658.498	6125.38
658.849	6140.52
659.2	6139.16
659.551	6076.79
659.902	6047.41
660.253	6074.76
660.604	6043.8
660.955	6018.49
661.306	6150.69
661.656	6102.33
662.007	6080.18
662.358	6077.24
662.708	6062.78
663.059	6077.02
663.409	6058.71
663.76	6123.57
664.11	6066.85
664.461	6067.3
664.811	6021.88
665.161	6123.12
665.511	5993.4
665.862	6095.09
666.212	6091.25
666.562	6114.08
666.912	6027.53
667.262	6004.93
667.612	6027.3
667.962	6010.8
668.312	6016.9
668.662	6030.91
669.011	6043.12
669.361	5984.59
669.711	5990.01
670.06	5972.84
670.41	5982.78
670.76	6001.99
671.109	6006.51
671.459	6039.73
671.808	5991.82
672.157	5989.79
672.507	5978.49
672.856	5953.4
673.205	5950.69
673.554	5965.83
673.904	5975.1
674.253	5979.39
674.602	5923.57
674.951	5848.32
675.3	5866.85
675.649	5914.31
675.998	5964.25
676.346	5931.03
676.695	5917.7
677.044	5911.37
677.393	5906.4
677.741	5905.95
678.09	5868.66
678.438	5860.3
678.787	5886.51
679.135	5867.76
679.484	5817.36
679.832	5848.77
680.181	5825.04
680.529	5828.43
680.877	5802.9
681.225	5834.31
681.573	5812.16
681.922	5800.64
682.27	5800.64
682.618	5790.24
682.966	5757.93
683.314	5804.71
683.661	5775.33
684.009	5731.26
684.357	5696.23
684.705	5774.65
685.053	5760.41
685.4	5760.19
685.748	5735.56
686.095	5694.2
686.443	5724.93
686.79	5636.35
687.138	5725.84
687.485	5716.12
687.832	5715.22
688.18	5728.32
688.527	5661.89
688.874	5647.87
689.221	5652.62
689.568	5656.24
689.915	5665.95
690.262	5613.98
690.609	5673.18
690.956	5590.7
691.303	5557.26
691.65	5528.78
691.997	5563.58
692.344	5550.25
692.69	5513.19
693.037	5537.59
693.383	5522.68
693.73	5523.13
694.077	5487.2
694.423	5442.68
694.769	5455.56
695.116	5388.9
695.462	5390.25
695.808	5318.39
696.155	5340.31
696.501	5315.91
696.847	5334.21
697.193	5262.8
697.539	5314.55
697.885	5248.79
698.231	5245.17
698.577	5232.07
698.923	5204.95
699.269	5157.94
699.614	5178.96
699.96	5163.37
700.306	5143.03
700.651	5101.45
700.997	5134.67
701.342	5096.25
701.688	5090.15
702.033	5090.37
702.379	5064.39
702.724	5039.08
703.069	5070.04
703.415	5038.62
703.76	4980.77
704.105	5010.15
704.45	5026.2
704.795	5034.56
705.14	4977.84
705.485	5039.3
705.83	4998.17
706.175	4956.37
706.52	5007.66
706.865	4950.72
707.209	4963.15
707.554	4938.97
707.899	4933.99
708.243	4910.27
708.588	4946.42
708.932	4904.84
709.277	4904.16
709.621	4864.84
709.966	4862.81
710.31	4874.79
710.654	4868.91
710.998	4837.27
711.342	4846.31
711.687	4825.3
712.031	4806.31
712.375	4830.95
712.719	4809.48
713.063	4842.7
713.407	4816.71
713.75	4772.87
714.094	4745.98
714.438	4757.28
714.782	4773.09
715.125	4702.14
715.469	4679.54
715.812	4694.45
716.156	4673.44
716.499	4692.87
716.843	4691.52
717.186	4629.6
717.53	4675.47
717.873	4603.61
718.216	4623.04
718.559	4578.52
718.902	4591.86
719.246	4535.13
719.589	4542.82
719.932	4538.07
720.275	4547.11
720.617	4543.72
720.96	4516.6
721.303	4514.57
721.646	4530.39
721.989	4484.06
722.331	4480.9
722.674	4458.98
723.016	4472.99
723.359	4465.76
723.701	4456.04
724.044	4478.19
724.386	4400.9
724.729	4434.12
725.071	4438.87
725.413	4381.47
725.755	4443.84
726.097	4455.59
726.439	4378.08
726.782	4402.26
727.124	4395.25
727.465	4393.44
727.807	4432.54
728.149	4389.83
728.491	4394.57
728.833	4380.79
729.175	4340.34
729.516	4383.5
729.858	4361.13
730.199	4383.05
730.541	4378.75
730.882	4345.31
731.224	4337.17
731.565	4336.72
731.906	4350.28
732.248	4364.74
732.589	4294.92
732.93	4308.47
733.271	4325.87
733.612	4330.62
733.953	4337.63
734.294	4311.19
734.635	4301.47
734.976	4316.16
735.317	4314.35
735.658	4307.12
735.999	4283.84
736.339	4247.23
736.68	4283.39
737.021	4252.2
737.361	4219.66
737.702	4268.93
738.042	4218.31
738.383	4240.68
738.723	4195.26
739.063	4170.62
739.404	4219.44
739.744	4218.99
740.084	4142.83
740.424	4123.39
740.764	4196.84
741.104	4193.68
741.444	4179.89
741.784	4124.3
742.124	4136.5
742.464	4096.73
742.804	4102.83
743.143	4137.86
743.483	4110.29
743.823	4084.53
744.162	4053.34
744.502	4129.95
744.841	4071.64
745.181	4103.73
745.52	4067.58
745.86	4063.73
746.199	4107.8
746.538	4052.44
746.877	4013.79
747.216	4026.22
747.556	4007.24
747.895	3976.05
748.234	3983.06
748.573	4010.4
748.911	3974.02
749.25	3977.86
749.589	3946.22
749.928	3958.2
750.267	3974.25
750.605	3946
750.944	3957.75
751.283	3901.93
751.621	3943.74
751.96	3887.47
752.298	3939.9
752.636	3938.09
752.975	3928.82
753.313	3887.47
753.651	3885.43
753.989	3858.54
754.327	3881.59
754.666	3862.16
755.004	3898.99
755.342	3873.01
755.679	3848.15
756.017	3841.14
756.355	3837.3
756.693	3844.08
757.031	3865.55
757.368	3841.14
757.706	3842.95
758.044	3804.31
758.381	3812.67
758.719	3835.72
759.056	3849.28
759.394	3809.28
759.731	3753.91
760.068	3765.44
760.405	3747.36
760.743	3760.69
761.08	3747.81
761.417	3742.39
761.754	3751.2
762.091	3682.73
762.428	3716.17
762.765	3701.03
763.102	3713.24
763.438	3679.79
763.775	3673.91
764.112	3665.78
764.449	3701.48
764.785	3649.73
765.122	3663.29
765.458	3613.13
765.795	3634.14
766.131	3563.64
766.467	3608.15
766.804	3591.88
767.14	3564.09
767.476	3590.98
767.812	3555.05
768.148	3522.51
768.485	3503.52
768.821	3538.78
769.157	3488.16
769.492	3452.45
769.828	3421.27
770.164	3442.51
770.5	3434.15
770.836	3409.74
771.171	3377.43
771.507	3401.83
771.842	3413.58
