Data from foam2_polystyrene_foam_FLMS001491_00058.txt Node
Date: Wed Feb 08 10:58:10 GMT 2017
User: dcchb
Spectrometer: FLMS00149
Trigger mode: 0
Integration Time (sec): 2.000000E-2
Scans to average: 10
Electric dark correction enabled: true
Nonlinearity correction enabled: false
Boxcar width: 0
XAxis mode: Wavelengths
Number of Pixels in Spectrum: 2048
>>>>>Begin Spectral Data<<<<<
341.393	-25.54
341.776	-25.54
342.16	-25.54
342.543	-50.62
342.927	-67.12
343.31	-63.95
343.693	-66.66
344.077	-63.95
344.46	-54.91
344.843	-58.98
345.226	-43.16
345.61	-30.06
345.993	-25.76
346.376	0.9
346.759	30.96
347.142	11.53
347.525	42.71
347.908	62.6
348.291	65.08
348.674	64.41
349.057	129.26
349.44	126.55
349.823	150.96
350.206	155.02
350.588	182.59
350.971	215.59
351.354	221.92
351.737	231.86
352.119	281.57
352.502	261.01
352.884	275.92
353.267	288.58
353.65	297.62
354.032	304.85
354.414	300.11
354.797	311.4
355.179	323.83
355.562	330.39
355.944	332.65
356.326	361.8
356.709	349.82
357.091	344.17
357.473	346.21
357.855	358.18
358.238	352.53
358.62	351.4
359.002	344.62
359.384	345.08
359.766	369.93
360.148	341.46
360.53	372.65
360.912	355.24
361.294	346.66
361.676	357.5
362.057	361.35
362.439	350.05
362.821	339.43
363.203	352.53
363.584	353.21
363.966	353.21
364.348	322.93
364.729	339.2
365.111	345.53
365.493	359.76
365.874	329.93
366.256	343.04
366.637	330.84
367.019	338.07
367.4	348.69
367.781	356.15
368.163	337.39
368.544	337.39
368.925	334.23
369.306	352.08
369.688	344.85
370.069	335.36
370.45	341.69
370.831	318.64
371.212	361.8
371.593	346.21
371.974	346.43
372.355	366.09
372.736	350.27
373.117	338.75
373.498	360.44
373.879	350.73
374.26	337.62
374.641	377.84
375.021	347.79
375.402	345.08
375.783	378.75
376.163	363.61
376.544	378.3
376.925	392.08
377.305	347.11
377.686	376.49
378.066	374.68
378.447	357.05
378.827	365.87
379.208	379.43
379.588	404.51
379.968	397.05
380.349	405.41
380.729	404.96
381.109	396.6
381.489	397.96
381.87	383.72
382.25	404.28
382.63	386.43
383.01	408.58
383.39	399.54
383.77	423.94
384.15	410.16
384.53	438.18
384.91	416.26
385.29	423.04
385.67	429.82
386.049	422.36
386.429	426.2
386.809	421.46
387.189	430.72
387.568	433.43
387.948	430.5
388.328	456.71
388.707	438.86
389.087	466.2
389.466	458.07
389.846	468.69
390.225	452.64
390.605	458.97
390.984	469.14
391.363	470.72
391.743	475.02
392.122	464.85
392.501	496.71
392.881	460.55
393.26	494.68
393.639	493.55
394.018	501.23
394.397	504.39
394.776	501.46
395.155	507.56
395.534	503.94
395.913	510.5
396.292	525.41
396.671	520.21
397.05	507.78
397.429	544.39
397.808	512.75
398.186	540.32
398.565	532.19
398.944	536.26
399.323	557.05
399.701	565.63
400.08	541
400.458	558.18
400.837	574
401.215	570.15
401.594	562.47
401.972	607.67
402.351	595.46
402.729	583.49
403.107	577.16
403.486	597.72
403.864	596.82
404.242	598.18
404.62	584.39
404.999	623.49
405.377	632.53
405.755	648.8
406.133	610.61
406.511	648.8
406.889	624.39
407.267	648.8
407.645	658.29
408.023	684.95
408.401	651.73
408.779	672.98
409.156	699.19
409.534	678.85
409.912	699.19
410.29	733.99
410.667	706.65
411.045	724.5
411.422	725.86
411.8	730.15
412.178	752.07
412.555	756.59
412.933	737.61
413.31	772.18
413.687	780.77
414.065	779.19
414.442	789.13
414.819	800.66
415.197	787.1
415.574	811.73
415.951	798.4
416.328	839.98
416.705	832.97
417.082	832.07
417.46	851.95
417.837	855.8
418.214	836.81
418.591	867.1
418.967	862.8
419.344	885.63
419.721	917.26
420.098	918.17
420.475	898.28
420.852	919.52
421.228	923.82
421.605	930.6
421.982	912.97
422.358	949.81
422.735	941.44
423.111	961.1
423.488	943.25
423.864	987.77
424.241	1001.33
424.617	1017.15
424.994	1018.5
425.37	1018.73
425.746	1021.44
426.123	1044.94
426.499	1044.49
426.875	1044.49
427.251	1058.05
427.627	1080.42
428.003	1090.37
428.379	1107.77
428.756	1130.59
429.132	1136.02
429.507	1133.98
429.883	1146.64
430.259	1155.22
430.635	1187.31
431.011	1173.08
431.387	1232.06
431.763	1213.08
432.138	1225.73
432.514	1265.28
432.89	1239.74
433.265	1275.22
433.641	1298.04
434.016	1299.4
434.392	1320.64
434.767	1365.61
435.143	1346.18
435.518	1363.81
435.894	1374.88
436.269	1354.09
436.644	1430.7
437.02	1442.9
437.395	1421.66
437.77	1463.69
438.145	1469.79
438.52	1496.91
438.895	1507.98
439.271	1520.86
439.646	1534.65
440.021	1560.41
440.395	1565.16
440.77	1561.54
441.145	1580.75
441.52	1617.58
441.895	1589.56
442.27	1617.36
442.645	1632.05
443.019	1662.33
443.394	1671.37
443.769	1689.45
444.143	1653.74
444.518	1687.19
444.892	1696.9
445.267	1705.27
445.641	1765.83
446.016	1721.31
446.39	1769.44
446.764	1792.04
447.139	1782.78
447.513	1802.21
447.887	1797.47
448.262	1812.61
448.636	1836.11
449.01	1821.87
449.384	1851.02
449.758	1875.88
450.132	1919.27
450.506	1913.85
450.88	1924.7
451.254	1925.15
451.628	1963.79
452.002	2005.6
452.376	2006.95
452.75	2023.68
453.123	2028.87
453.497	2078.82
453.871	2097.8
454.244	2121.3
454.618	2142.99
454.992	2164.69
455.365	2139.38
455.739	2238.59
456.112	2209.43
456.486	2246.49
456.859	2249.66
457.232	2304.8
457.606	2308.87
457.979	2315.65
458.352	2355.64
458.725	2360.39
459.099	2402.87
459.472	2408.75
459.845	2464.12
460.218	2474.29
460.591	2511.8
460.964	2497.56
461.337	2568.52
461.71	2607.62
462.083	2626.6
462.456	2626.82
462.829	2596.32
463.201	2654.17
463.574	2704.79
463.947	2695.07
464.32	2771.68
464.692	2825.91
465.065	2839.25
465.438	2868.85
465.81	2902.75
466.183	2913.14
466.555	2993.37
466.928	3013.03
467.3	3020.71
467.672	3063.42
468.045	3110.43
468.417	3125.12
468.789	3189.29
469.161	3176.64
469.534	3232.46
469.906	3310.87
470.278	3303.87
470.65	3348.84
471.022	3414.37
471.394	3467.71
471.766	3482.39
472.138	3538.44
472.51	3617.31
472.882	3667.93
473.253	3728.04
473.625	3744.76
473.997	3816.62
474.369	3863.4
474.74	3890.52
475.112	3992.89
475.484	4046.67
475.855	4061.59
476.227	4125.09
476.598	4226.56
476.97	4271.98
477.341	4295.03
477.713	4441.92
478.084	4430.84
478.455	4574.34
478.827	4593.33
479.198	4695.24
479.569	4721.23
479.94	4885.3
480.311	4892.07
480.682	5078.06
481.053	5137.04
481.424	5158.28
481.795	5225.85
482.166	5337.94
482.537	5407.77
482.908	5503.13
483.279	5595.11
483.65	5675.33
484.021	5727.31
484.391	5827.19
484.762	5868.55
485.133	5940.18
485.503	5991.48
485.874	6125.94
486.244	6158.03
486.615	6273.51
486.985	6330.46
487.356	6518.92
487.726	6536.55
488.097	6663.1
488.467	6714.85
488.837	6812.93
489.207	6872.81
489.578	6991.68
489.948	7105.58
490.318	7099.93
490.688	7163.43
491.058	7302.86
491.428	7379.02
491.798	7519.58
492.168	7572.91
492.538	7673.02
492.908	7740.81
493.278	7859.45
493.648	7924.31
494.017	7974.48
494.387	8107.13
494.757	8109.39
495.126	8227.58
495.496	8256.96
495.866	8350.29
496.235	8486.78
496.605	8451.76
496.974	8528.59
497.344	8655.82
497.713	8661.02
498.082	8764.97
498.452	8778.98
498.821	8889.94
499.19	8883.83
499.559	8975.13
499.928	9089.25
500.298	9084.05
500.667	9203.83
501.036	9234.11
501.405	9383.93
501.774	9346.42
502.143	9487.43
502.512	9523.59
502.88	9591.16
503.249	9618.05
503.618	9696.92
503.987	9687.2
504.356	9816.69
504.724	9824.15
505.093	9906.63
505.462	10002.22
505.83	10027.98
506.199	10201.99
506.567	10307.98
506.936	10241.99
507.304	10296
507.672	10444.25
508.041	10506.16
508.409	10523.79
508.777	10630
509.145	10698.48
509.514	10806.5
509.882	10861.64
510.25	10823.67
510.618	10954.06
510.986	11072.25
511.354	11148.41
511.722	11200.16
512.09	11276.99
512.458	11352.47
512.826	11481.73
513.193	11453.26
513.561	11552.69
513.929	11706.13
514.297	11787.26
514.664	11907.48
515.032	11876.75
515.4	12018.44
515.767	12141.6
516.135	12171.43
516.502	12162.17
516.869	12402.16
517.237	12435.83
517.604	12346.79
517.972	12545.66
518.339	12670.18
518.706	12649.61
519.073	12739.33
519.44	12810.51
519.808	12999.88
520.175	13030.39
520.542	13207.79
520.909	13226.54
521.276	13326.88
521.643	13530.72
522.009	13533.2
522.376	13672.63
522.743	13767.55
523.11	13836.02
523.477	14001.89
523.843	14037.82
524.21	14276.01
524.577	14384.48
524.943	14485.49
525.31	14559.84
525.676	14678.48
526.043	14735.88
526.409	14791.48
526.776	14976.56
527.142	15008.42
527.508	15161.64
527.874	15306.94
528.241	15363.44
528.607	15393.27
528.973	15605.47
529.339	15529.31
529.705	15691.79
530.071	15810.66
530.437	15915.29
530.803	15964.55
531.169	16120.03
531.535	16106.7
531.901	16153.47
532.267	16275.28
532.632	16331.32
532.998	16428.04
533.364	16535.38
533.73	16546.91
534.095	16706.68
534.461	16827.13
534.826	16828.03
535.192	16889.27
535.557	17054.69
535.923	17085.43
536.288	17091.53
536.653	17298.08
537.019	17277.29
537.384	17395.47
537.749	17441.35
538.114	17539.65
538.479	17544.62
538.845	17570.61
539.21	17565.64
539.575	17816.48
539.94	17870.49
540.305	17905.97
540.67	17918.85
541.034	17965.18
541.399	18135.12
541.764	18234.32
542.129	18230.48
542.494	18287.88
542.858	18319.29
543.223	18352.74
543.587	18486.29
543.952	18507.99
544.316	18596.12
544.681	18624.14
545.045	18725.38
545.41	18699.62
545.774	18899.16
546.138	18783.69
546.503	18915.89
546.867	19017.13
547.231	19215.31
547.595	19114.53
547.959	19192.72
548.324	19325.82
548.688	19326.5
549.052	19420.96
549.416	19362.88
549.779	19573.95
550.143	19559.03
550.507	19640.84
550.871	19701.85
551.235	19669.09
551.599	19884
551.962	19925.8
552.326	20036.99
552.689	20198.56
553.053	20067.04
553.417	20225.68
553.78	20497.54
554.143	20415.06
554.507	20458.67
554.87	20524.88
555.234	20773.47
555.597	20667.93
555.96	20724.88
556.323	20922.84
556.686	21020.24
557.05	21069.05
557.413	21112.89
557.776	21090.07
558.139	21319.67
558.502	21346.11
558.865	21459.1
559.228	21592.65
559.59	21654.8
559.953	21727.34
560.316	21906.09
560.679	21990.61
561.041	22027.9
561.404	22087.55
561.767	22272.86
562.129	22231.05
562.492	22431.5
562.854	22495.23
563.217	22470.14
563.579	22583.14
563.941	22790.36
564.304	22856.8
564.666	22985.16
565.028	23013.18
565.39	23120.75
565.753	23271.25
566.115	23285.72
566.477	23481.19
566.839	23482.77
567.201	23645.71
567.563	23763.67
567.925	23829.43
568.287	23835.76
568.648	23993.27
569.01	24150.1
569.372	24280.04
569.734	24163.88
570.095	24377.66
570.457	24532.91
570.819	24526.13
571.18	24552.8
571.542	24605.91
571.903	24697.43
572.265	24747.37
572.626	24856.75
572.987	24927.03
573.349	24852
573.71	25019.68
574.071	25157.08
574.432	25138.32
574.794	25282.73
575.155	25337.19
575.516	25255.61
575.877	25482.49
576.238	25537.41
576.599	25535.83
576.96	25626.9
577.32	25538.99
577.681	25777.4
578.042	25919.77
578.403	25753.9
578.763	25813.11
579.124	25931.52
579.485	25903.95
579.845	25988.7
580.206	25881.81
580.566	25891.97
580.927	26022.59
581.287	26106.88
581.648	26028.24
582.008	26189.37
582.368	26088.35
582.728	26189.37
583.089	26170.61
583.449	26218.52
583.809	26099.88
584.169	26154.57
584.529	26184.85
584.889	26309.82
585.249	26173.78
585.609	26039.09
585.969	26295.58
586.329	26219.88
586.688	26194.79
587.048	26254
587.408	26141.91
587.768	26076.15
588.127	26205.19
588.487	26061.24
588.846	26272.53
589.206	26115.25
589.565	26207.67
589.925	26331.74
590.284	26111.63
590.643	26204.96
591.003	26310.27
591.362	26315.01
591.721	26360.66
592.08	26297.16
592.44	26323.83
592.799	26461.23
593.158	26318.4
593.517	26364.05
593.876	26317.95
594.235	26412.64
594.593	26448.12
594.952	26500.77
595.311	26340.55
595.67	26383.94
596.029	26500.32
596.387	26522.24
596.746	26515.91
597.104	26437.5
597.463	26490.38
597.822	26492.18
598.18	26430.72
598.538	26363.83
598.897	26560.21
599.255	26401.79
599.613	26811.95
599.972	26684.72
600.33	26728.79
600.688	26612.63
601.046	26665.74
601.404	26879.52
601.762	26759.3
602.12	26905.51
602.478	26987.54
602.836	27006.3
603.194	26833.64
603.552	26900.31
603.91	26872.74
604.268	27063.02
604.625	26956.35
604.983	26923.36
605.341	26877.94
605.698	27027.99
606.056	27086.97
606.413	26993.87
606.771	27120.19
607.128	27278.15
607.485	27024.83
607.843	27097.14
608.2	27197.48
608.557	27326.97
608.914	27126.74
609.272	27340.3
609.629	27328.55
609.986	27331.71
610.343	27213.07
610.7	27516.11
611.057	27481.99
611.414	27402.9
611.771	27588.88
612.127	27564.47
612.484	27576
612.841	27619.39
613.198	27588.88
613.554	27557.69
613.911	27716.56
614.267	27813.51
614.624	27663.68
614.98	27755.88
615.337	27826.61
615.693	27756.78
616.05	27708.2
616.406	27892.6
616.762	27810.79
617.118	27944.35
617.475	27914.75
617.831	28011.47
618.187	27972.15
618.543	27974.63
618.899	28098.7
619.255	27983.67
619.611	27945.71
619.967	28151.58
620.323	28105.25
620.678	28066.15
621.034	27988.19
621.39	28059.83
621.746	27930.34
622.101	28364.23
622.457	28077.45
622.812	28127.4
623.168	28085.36
623.523	28029.77
623.879	28206.26
624.234	27995.87
624.589	28160.62
624.945	28048.53
625.3	28037
625.655	28030.68
626.01	28070.22
626.365	28144.34
626.72	28091.69
627.075	28001.07
627.43	28087.17
627.785	27890.11
628.14	28116.55
628.495	28083.33
628.85	27998.36
629.205	27954.52
629.559	28204.46
629.914	27972.37
630.269	27964.69
630.623	27870.68
630.978	27916.78
631.332	27894.86
631.687	27980.28
632.041	27863
632.396	27854.18
632.75	27851.25
633.104	27773.51
633.459	27476.79
633.813	27596.34
634.167	27677.92
634.521	27555.66
634.875	27662.32
635.229	27510.69
635.583	27407.87
635.937	27437.02
636.291	27447.41
636.645	27356.12
636.999	27281.99
637.352	27330.58
637.706	27243.58
638.06	27336.23
638.413	27190.7
638.767	27208.55
639.121	27186.63
639.474	27076.8
639.828	27173.3
640.181	27039.97
640.534	26971.95
640.888	27004.71
641.241	26860.54
641.594	26881.33
641.947	26970.59
642.301	26920.87
642.654	26752.97
643.007	26998.84
643.36	26805.85
643.713	26792.52
644.066	26720.43
644.419	26607.66
644.771	26475.46
645.124	26210.38
645.477	26120.22
645.83	25955.7
646.182	25798.19
646.535	25758.87
646.888	25856.27
647.24	25656.95
647.593	25863.95
647.945	25668.03
648.298	25665.09
648.65	25462.61
649.002	25476.17
649.355	25617.41
649.707	25639.55
650.059	25714.13
650.411	26028.92
650.763	25864.63
651.115	26251.06
651.467	26136.26
651.819	26033.44
652.171	25980.33
652.523	26032.76
652.875	26004.74
653.227	25888.58
653.578	26072.76
653.93	25940.79
654.282	25877.74
654.633	25807.01
654.985	26025.98
655.337	25860.11
655.688	25907.12
656.039	25920.45
656.391	25709.38
656.742	25682.49
657.094	25818.08
657.445	25787.8
657.796	25751.64
658.147	25767.46
658.498	25693.56
658.849	25795.25
659.2	25713.67
659.551	25539.67
659.902	25626.67
660.253	25599.1
660.604	25579.89
660.955	25562.49
661.306	25583.96
661.656	25594.81
662.007	25538.09
662.358	25542.15
662.708	25433.46
663.059	25449.95
663.409	25261.26
663.76	25593.45
664.11	25476.84
664.461	25505.54
664.811	25443.85
665.161	25434.81
665.511	25342.38
665.862	25397.07
666.212	25353.01
666.562	25484.08
666.912	25450.86
667.262	25231.88
667.612	25346.9
667.962	25411.76
668.312	25376.73
668.662	25470.29
669.011	25360.69
669.361	25295.83
669.711	25200.47
670.06	25332.22
670.41	25267.81
670.76	25133.58
671.109	25398.65
671.459	25212.67
671.808	25244.53
672.157	25157.76
672.507	24944.2
672.856	25070.3
673.205	25079.79
673.554	25041.15
673.904	25019.23
674.253	25008.16
674.602	25098.78
674.951	24673.48
675.3	24482.52
675.649	24921.38
675.998	24995.95
676.346	24949.17
676.695	25050.87
677.044	24903.07
677.393	24949.63
677.741	24929.29
678.09	24858.78
678.438	24812.68
678.787	24768.84
679.135	24792.79
679.484	24721.61
679.832	24843.87
680.181	24599.81
680.529	24734.72
680.877	24560.26
681.225	24472.58
681.573	24765.68
681.922	24481.62
682.27	24359.13
682.618	24495.4
682.966	24356.2
683.314	24516.42
683.661	24365.91
684.009	24222.64
684.357	24289.98
684.705	24200.49
685.053	24155.52
685.4	24171.34
685.748	24052.47
686.095	24115.3
686.443	23919.15
686.79	23909.65
687.138	23904
687.485	23900.61
687.832	23743.78
688.18	23774.06
688.527	23681.64
688.874	23645.03
689.221	23675.31
689.568	23628.53
689.915	23510.57
690.262	23606.84
690.609	23441.19
690.956	23293.17
691.303	23289.33
691.65	23419.05
691.997	23295.88
692.344	23137.7
692.69	23110.35
693.037	23079.17
693.383	22911.49
693.73	22991.26
694.077	22824.48
694.423	22816.35
694.769	22747.88
695.116	22669.91
695.462	22664.49
695.808	22487.09
696.155	22592.85
696.501	22420.65
696.847	22570.25
697.193	22189.25
697.539	22359.64
697.885	22237.16
698.231	22171.17
698.577	22145.63
698.923	22091.17
699.269	22013.66
699.614	21879.88
699.96	21827.67
700.306	21778.18
700.651	21735.93
700.997	21650.5
701.342	21602.14
701.688	21616.61
702.033	21488.7
702.379	21599.88
702.724	21379.55
703.069	21435.59
703.415	21217.75
703.76	21236.05
704.105	21220.68
704.45	21169.39
704.795	21068.15
705.14	20919.45
705.485	21036.96
705.83	20853.46
706.175	20919.68
706.52	20860.69
706.865	20792.67
707.209	20694.82
707.554	20671.32
707.899	20735.05
708.243	20569.4
708.588	20565.11
708.932	20400.37
709.277	20353.59
709.621	20342.29
709.966	20256.87
710.31	20366.92
710.654	20050.55
710.998	20149.07
711.342	20059.59
711.687	20069.98
712.031	19892.13
712.375	19861.17
712.719	19924.9
713.063	19901.62
713.407	19805.35
713.75	19755.41
714.094	19714.06
714.438	19654.62
714.782	19739.14
715.125	19579.82
715.469	19611.69
715.812	19549.77
716.156	19398.59
716.499	19406.5
716.843	19375.31
717.186	19358.81
717.53	19398.36
717.873	19411.47
718.216	19378.02
718.559	19176.9
718.902	19163.11
719.246	19219.16
719.589	19089.67
719.932	18963.8
720.275	18975.55
720.617	19206.95
720.96	19015.09
721.303	18976.9
721.646	18973.29
721.989	18812.61
722.331	18839.5
722.674	18746.85
723.016	18746.85
723.359	18839.05
723.701	18818.26
724.044	18595.9
724.386	18584.6
724.729	18723.8
725.071	18572.84
725.413	18618.95
725.755	18600.64
726.097	18425.5
726.439	18401.78
726.782	18389.57
727.124	18405.62
727.465	18326.52
727.807	18344.15
728.149	18252.63
728.491	18249.46
728.833	18229.8
729.175	18073.88
729.516	18093.31
729.858	18105.96
730.199	18041.79
730.541	17944.84
730.882	17991.62
731.224	18055.34
731.565	18023.25
731.906	17949.13
732.248	17874.56
732.589	17819.87
732.93	17835.24
733.271	17837.27
733.612	17766.99
733.953	17755.92
734.294	17670.27
734.635	17641.8
734.976	17662.81
735.317	17675.02
735.658	17601.8
735.999	17674.11
736.339	17561.8
736.68	17541.69
737.021	17548.92
737.361	17434.34
737.702	17478.64
738.042	17524.96
738.383	17378.75
738.723	17395.93
739.063	17281.81
739.404	17438.86
739.744	17366.55
740.084	17336.72
740.424	17310.96
740.764	17208.59
741.104	17278.42
741.444	17126.33
741.784	17129.04
742.124	17081.36
742.464	17098.99
742.804	17121.36
743.143	17030.96
743.483	17070.06
743.823	16903.96
744.162	16929.05
744.502	16877.97
744.841	16844.98
745.181	16972.66
745.52	16813.8
745.86	16807.02
746.199	16727.02
746.538	16657.87
746.877	16735.61
747.216	16666.45
747.556	16654.03
747.895	16616.29
748.234	16529.28
748.573	16496.52
748.911	16498.1
749.25	16510.98
749.589	16439.57
749.928	16398.66
750.267	16420.13
750.605	16359.8
750.944	16258.78
751.283	16280.02
751.621	16275.28
751.96	16219.01
752.298	16138.33
752.636	16233.25
752.975	16083.42
753.313	16012.91
753.651	16176.3
753.989	16018.79
754.327	15997.55
754.666	15879.13
