Data from foam1_polythene_foam_FLMS001491_00042.txt Node
Date: Wed Feb 08 10:54:52 GMT 2017
User: dcchb
Spectrometer: FLMS00149
Trigger mode: 0
Integration Time (sec): 2.000000E-2
Scans to average: 10
Electric dark correction enabled: true
Nonlinearity correction enabled: false
Boxcar width: 0
XAxis mode: Wavelengths
Number of Pixels in Spectrum: 2048
>>>>>Begin Spectral Data<<<<<
341.393	-9.79
341.776	-9.79
342.16	-9.79
342.543	-66.51
342.927	-72.16
343.31	-63.35
343.693	-46.85
344.077	-65.15
344.46	-55.89
344.843	-46.17
345.226	-54.31
345.61	-35.32
345.993	-17.25
346.376	-10.69
346.759	25.24
347.142	18.69
347.525	37.22
347.908	66.14
348.291	56.2
348.674	83.99
349.057	107.5
349.44	101.17
349.823	108.18
350.206	159.93
350.588	185.91
350.971	202.64
351.354	216.19
351.737	208.06
352.119	211.68
352.502	260.04
352.884	262.3
353.267	265.46
353.65	253.93
354.032	292.13
354.414	295.06
354.797	284.44
355.179	291.9
355.562	290.32
355.944	308.62
356.326	310.2
356.709	334.38
357.091	332.35
357.473	330.09
357.855	312.01
358.238	331.9
358.62	317.66
359.002	299.81
359.384	304.55
359.766	316.53
360.148	349.3
360.53	330.32
360.912	306.81
361.294	314.5
361.676	314.5
362.057	306.14
362.439	328.06
362.821	320.6
363.203	326.02
363.584	316.08
363.966	320.15
364.348	288.96
364.729	328.28
365.111	299.36
365.493	299.36
365.874	302.75
366.256	307.49
366.637	272.92
367.019	292.13
367.4	299.58
367.781	304.78
368.163	300.71
368.544	291.22
368.925	284.67
369.306	302.52
369.688	289.64
370.069	304.55
370.45	290.32
370.831	277.44
371.212	294.84
371.593	297.32
371.974	298.45
372.355	296.87
372.736	303.2
373.117	308.62
373.498	299.58
373.879	298.68
374.26	307.94
374.641	288.74
375.021	305.23
375.402	311.11
375.783	296.19
376.163	291.22
376.544	299.13
376.925	312.01
377.305	298.45
377.686	301.84
378.066	287.15
378.447	329.86
378.827	309.53
379.208	323.99
379.588	302.07
379.968	316.53
380.349	311.11
380.729	304.78
381.109	313.14
381.489	294.84
381.87	328.96
382.25	307.72
382.63	334.16
383.01	336.64
383.39	317.89
383.77	326.25
384.15	330.99
384.53	315.85
384.91	340.03
385.29	334.84
385.67	361.05
386.049	334.38
386.429	330.77
386.809	349.98
387.189	372.8
387.568	337.32
387.948	348.62
388.328	351.78
388.707	353.59
389.087	346.59
389.466	355.4
389.846	338.45
390.225	384.78
390.605	360.6
390.984	364.67
391.363	352.01
391.743	352.24
392.122	357.21
392.501	359.47
392.881	373.93
393.26	360.82
393.639	354.95
394.018	379.58
394.397	354.95
394.776	360.15
395.155	369.41
395.534	361.05
395.913	382.97
396.292	388.62
396.671	396.53
397.05	393.14
397.429	390.2
397.808	386.81
398.186	399.24
398.565	418.22
398.944	353.59
399.323	393.14
399.701	394.27
400.08	396.53
400.458	397.43
400.837	394.72
401.215	408.05
401.594	426.13
401.972	394.04
402.351	383.87
402.729	411.22
403.107	405.57
403.486	398.79
403.864	431.33
404.242	415.06
404.62	424.1
404.999	415.06
405.377	426.81
405.755	430.43
406.133	420.94
406.511	440.82
406.889	430.65
407.267	426.81
407.645	455.28
408.023	453.7
408.401	444.21
408.779	452.12
409.156	438.34
409.534	456.19
409.912	466.58
410.29	496.41
410.667	476.98
411.045	477.2
411.422	487.37
411.8	469.97
412.178	478.79
412.555	482.18
412.933	506.58
413.31	488.05
413.687	499.8
414.065	507.94
414.442	515.62
414.819	516.07
415.197	523.53
415.574	533.7
415.951	529.18
416.328	524.21
416.705	533.47
417.082	527.37
417.46	531.89
417.837	532.57
418.214	556.3
418.591	545.23
418.967	557.65
419.344	534.38
419.721	560.82
420.098	567.82
420.475	561.04
420.852	564.21
421.228	563.08
421.605	562.85
421.982	588.84
422.358	588.84
422.735	597.43
423.111	603.76
423.488	591.33
423.864	591.55
424.241	588.84
424.617	579.12
424.994	623.87
425.37	597.88
425.746	630.42
426.123	633.59
426.499	636.3
426.875	646.47
427.251	632.91
427.627	657.31
428.003	660.48
428.379	679.46
428.756	680.59
429.132	698.44
429.507	702.96
429.883	678.33
430.259	703.87
430.635	707.71
431.011	712
431.387	714.94
431.763	749.97
432.138	733.47
432.514	754.71
432.89	782.73
433.265	771.21
433.641	778.21
434.016	768.04
434.392	797.87
434.767	803.07
435.143	797.42
435.518	819.57
435.894	812.34
436.269	806.24
436.644	851.88
437.02	842.62
437.395	834.26
437.77	865.44
438.145	862.28
438.52	855.95
438.895	906.35
439.271	913.13
439.646	872.9
440.021	909.51
440.395	902.28
440.77	913.8
441.145	910.41
441.52	942.96
441.895	931.88
442.27	930.3
442.645	941.83
443.019	967.14
443.394	965.78
443.769	973.92
444.143	975.5
444.518	979.11
444.892	1004.87
445.267	1017.3
445.641	1038.09
446.016	1030.86
446.39	1055.95
446.764	1062.05
447.139	1016.63
447.513	1062.27
447.887	1076.74
448.262	1055.72
448.636	1061.6
449.01	1103.86
449.384	1114.48
449.758	1128.49
450.132	1127.13
450.506	1129.84
450.88	1143.18
451.254	1148.37
451.628	1153.57
452.002	1192.21
452.376	1175.27
452.75	1182.5
453.123	1191.54
453.497	1189.73
453.871	1220.46
454.244	1214.59
454.618	1252.55
454.992	1257.75
455.365	1263.4
455.739	1257.3
456.112	1268.37
456.486	1288.71
456.859	1302.72
457.232	1325.54
457.606	1333.23
457.979	1321.93
458.352	1349.27
458.725	1373.9
459.099	1393.11
459.472	1380.68
459.845	1430.17
460.218	1394.02
460.591	1394.47
460.964	1421.81
461.337	1468.14
461.71	1443.96
462.083	1509.95
462.456	1475.14
462.829	1506.78
463.201	1497.97
463.574	1523.51
463.947	1541.81
464.32	1581.13
464.692	1593.56
465.065	1573.9
465.438	1602.83
465.81	1597.4
466.183	1652.09
466.555	1691.41
466.928	1673.56
467.3	1709.94
467.672	1731.18
468.045	1741.13
468.417	1775.25
468.789	1774.12
469.161	1829.26
469.534	1818.64
469.906	1854.12
470.278	1868.35
470.65	1873.55
471.022	1901.8
471.394	1931.4
471.766	1946.54
472.138	1997.84
472.51	2005.75
472.882	2050.5
473.253	2056.37
473.625	2071.29
473.997	2108.12
474.369	2149.03
474.74	2161.23
475.112	2176.82
475.484	2216.37
475.855	2271.96
476.227	2264.05
476.598	2341.34
476.97	2361
477.341	2379.53
477.713	2412.97
478.084	2431.96
478.455	2504.95
478.827	2528.45
479.198	2571.84
479.569	2586.3
479.94	2629.69
480.311	2682.12
480.682	2731.83
481.053	2816.13
481.424	2820.87
481.795	2836.01
482.166	2939.74
482.537	2933.64
482.908	2957.59
483.279	3009.57
483.65	3048.89
484.021	3116.23
484.391	3143.35
484.762	3224.03
485.133	3213.4
485.503	3272.84
485.874	3338.82
486.244	3361.65
486.615	3422.44
486.985	3437.81
487.356	3533.62
487.726	3532.49
488.097	3599.38
488.467	3617.46
488.837	3701.53
489.207	3797.12
489.578	3814.97
489.948	3815.2
490.318	3903.33
490.688	3911.92
491.058	3970.9
491.428	4053.38
491.798	4085.25
492.168	4162.53
492.538	4195.98
492.908	4226.48
493.278	4266.48
493.648	4315.07
494.017	4383.54
494.387	4405.69
494.757	4388.51
495.126	4479.36
495.496	4455.63
495.866	4506.7
496.235	4569.98
496.605	4611.56
496.974	4642.07
497.344	4707.83
497.713	4703.99
498.082	4763.87
498.452	4841.84
498.821	4857.43
499.19	4837.54
499.559	4896.98
499.928	4958.67
500.298	4965.22
500.667	5049.06
501.036	5029.63
501.405	5073.69
501.774	5106.91
502.143	5178.32
502.512	5203.41
502.88	5267.81
503.249	5277.98
503.618	5297.19
503.987	5339.68
504.356	5383.52
504.724	5395.04
505.093	5387.13
505.462	5460.12
505.83	5458.54
506.199	5486.11
506.567	5567.01
506.936	5638.43
507.304	5710.06
507.672	5689.72
508.041	5714.58
508.409	5773.11
508.777	5841.81
509.145	5890.4
509.514	5911.19
509.882	5978.98
510.25	5992.99
510.618	6026.44
510.986	6060.79
511.354	6164.97
511.722	6192.08
512.09	6230.27
512.458	6233.66
512.826	6282.48
513.193	6303.04
513.561	6395.47
513.929	6472.75
514.297	6493.32
514.664	6566.31
515.032	6548.46
515.4	6671.17
515.767	6698.28
516.135	6740.32
516.502	6733.09
516.869	6863.25
517.237	6855.79
517.604	6810.82
517.972	6921.56
518.339	6980.08
518.706	7032.96
519.073	7064.6
519.44	7143.02
519.808	7231.6
520.175	7163.13
520.542	7265.28
520.909	7319.06
521.276	7339.85
521.643	7476.79
522.009	7543.69
522.376	7623.23
522.743	7617.81
523.11	7665.04
523.477	7763.12
523.843	7786.39
524.21	7856.22
524.577	7936.9
524.943	7954.97
525.31	8057.8
525.676	8077.01
526.043	8166.49
526.409	8181.41
526.776	8283.33
527.142	8279.26
527.508	8415.3
527.874	8444.23
528.241	8527.16
528.607	8505.69
528.973	8614.17
529.339	8652.81
529.705	8725.58
530.071	8832.24
530.437	8839.47
530.803	8821.39
531.169	8989.75
531.535	8953.59
531.901	8951.56
532.267	9000.37
532.632	9123.08
532.998	9067.26
533.364	9206.02
533.73	9215.96
534.095	9259.35
534.461	9274.94
534.826	9316.52
535.192	9364.88
535.557	9463.86
535.923	9449.62
536.288	9492.79
536.653	9520.13
537.019	9635.38
537.384	9655.72
537.749	9736.85
538.114	9762.61
538.479	9765.55
538.845	9786.79
539.21	9786.11
539.575	9843.96
539.94	9937.3
540.305	9961.93
540.67	9952.66
541.034	9979.33
541.399	9980.68
541.764	9998.08
542.129	10084.18
542.494	10175.26
542.858	10116.95
543.223	10229.94
543.587	10225.2
543.952	10212.77
544.316	10330.51
544.681	10290.05
545.045	10436.72
545.41	10376.38
545.774	10434.68
546.138	10468.13
546.503	10580.44
546.867	10535.92
547.231	10683.49
547.595	10636.26
547.959	10726.43
548.324	10689.37
548.688	10759.65
549.052	10812.3
549.416	10828.8
549.779	10798.06
550.143	10876.93
550.507	10911.51
550.871	10975.91
551.235	10874.45
551.599	11064.27
551.962	11036.02
552.326	11125.74
552.689	11233.31
553.053	11154.21
553.417	11207.54
553.78	11294.55
554.143	11307.43
554.507	11379.74
554.87	11395.79
555.234	11532.51
555.597	11365.28
555.96	11472.85
556.323	11588.78
556.686	11525.05
557.05	11676.01
557.413	11622.9
557.776	11680.98
558.139	11842.78
558.502	11836.45
558.865	11959.16
559.228	11978.15
559.59	12038.03
559.953	12051.59
560.316	12216.56
560.679	12169.55
561.041	12287.74
561.404	12358.47
561.767	12460.84
562.129	12334.52
562.492	12489.09
562.854	12472.37
563.217	12498.13
563.579	12535.19
563.941	12627.62
564.304	12650.67
564.666	12771.8
565.028	12759.14
565.39	12779.93
565.753	12892.25
566.115	12977.22
566.477	12964.33
566.839	13085.46
567.201	13161.84
567.563	13143.54
567.925	13263.99
568.287	13279.81
568.648	13318
569.01	13387.37
569.372	13440.03
569.734	13405.9
570.095	13583.53
570.457	13525.45
570.819	13640.93
571.18	13594.6
571.542	13693.58
571.903	13684.32
572.265	13727.25
572.626	13890.41
572.987	13841.37
573.349	13874.37
573.71	13870.53
574.071	14011.09
574.432	13962.5
574.794	14072.1
575.155	14073.46
575.516	14093.34
575.877	14070.97
576.238	14196.17
576.599	14253.57
576.96	14175.38
577.32	14253.79
577.681	14282.72
578.042	14212.44
578.403	14259.44
578.763	14316.39
579.124	14352.77
579.485	14431.64
579.845	14427.12
580.206	14417.86
580.566	14424.18
580.927	14402.04
581.287	14369.04
581.648	14440.23
582.008	14579.66
582.368	14516.16
582.728	14602.94
583.089	14589.38
583.449	14538.08
583.809	14556.16
584.169	14604.07
584.529	14547.57
584.889	14682.48
585.249	14571.07
585.609	14522.71
585.969	14630.05
586.329	14619.88
586.688	14599.09
587.048	14608.58
587.408	14577.63
587.768	14645.42
588.127	14592.54
588.487	14565.2
588.846	14662.82
589.206	14528.81
589.565	14648.36
589.925	14609.71
590.284	14617.17
590.643	14627.34
591.003	14713.89
591.362	14714.8
591.721	14653.78
592.08	14730.16
592.44	14694.68
592.799	14805.64
593.158	14725.87
593.517	14763.83
593.876	14692.42
594.235	14707.34
594.593	14648.13
594.952	14731.97
595.311	14741.91
595.67	14778.07
596.029	14840.9
596.387	14819.65
596.746	14895.13
597.104	14840.22
597.463	14799.99
597.822	14821.01
598.18	14771.74
598.538	14830.95
598.897	14933.55
599.255	14738.07
599.613	14972.87
599.972	14851.52
600.33	14889.71
600.688	14886.77
601.046	14853.55
601.404	14920.67
601.762	14854.91
602.12	14960.89
602.478	15056.26
602.836	15025.3
603.194	14856.26
603.552	15041.12
603.91	14878.18
604.268	15012.42
604.625	15018.74
604.983	15010.38
605.341	14965.64
605.698	15066.65
606.056	15095.35
606.413	15118.4
606.771	15198.17
607.128	15209.25
607.485	15040.89
607.843	15076.37
608.2	15162.69
608.557	15233.2
608.914	15193.43
609.272	15266.19
609.629	15242.24
609.986	15407.21
610.343	15300.77
610.7	15453.08
611.057	15309.13
611.414	15301.9
611.771	15328.57
612.127	15419.41
612.484	15352.97
612.841	15500.31
613.198	15402.69
613.554	15436.81
613.911	15514.1
614.267	15496.47
614.624	15531.27
614.98	15485.17
615.337	15577.15
615.693	15544.15
616.05	15533.98
616.406	15563.14
616.762	15596.36
617.118	15539.86
617.475	15604.49
617.831	15640.65
618.187	15662.12
618.543	15706.86
618.899	15745.5
619.255	15596.13
619.611	15632.74
619.967	15726.52
620.323	15741.44
620.678	15685.84
621.034	15631.61
621.39	15700.53
621.746	15745.28
622.101	15818.5
622.457	15646.07
622.812	15774.88
623.168	15765.62
623.523	15658.5
623.879	15749.12
624.234	15669.12
624.589	15707.76
624.945	15824.15
625.3	15789.12
625.655	15781.21
626.01	15688.78
626.365	15794.09
626.72	15749.12
627.075	15650.59
627.43	15627.99
627.785	15699.86
628.14	15658.5
628.495	15720.42
628.85	15783.02
629.205	15642.68
629.559	15746.18
629.914	15651.72
630.269	15626.86
630.623	15594.77
630.978	15519.97
631.332	15616.92
631.687	15703.02
632.041	15611.95
632.396	15613.08
632.75	15516.81
633.104	15546.41
633.459	15527.43
633.813	15421.67
634.167	15502.35
634.521	15324.72
634.875	15507.09
635.229	15406.3
635.583	15372.18
635.937	15443.37
636.291	15314.55
636.645	15416.47
636.999	15260.55
637.352	15449.92
637.706	15226.42
638.06	15246.08
638.413	15287.66
638.767	15268.91
639.121	15251.51
639.474	15154.11
639.828	15228.23
640.181	15183.48
640.534	15201.79
640.888	15086.09
641.241	15116.59
641.594	15088.57
641.947	15143.71
642.301	15160.89
642.654	15070.72
643.007	15141.9
643.36	15114.56
643.713	15080.21
644.066	15145.75
644.419	14997.05
644.771	14998.18
645.124	14913.66
645.477	14905.98
645.83	14745.76
646.182	14591.18
646.535	14457.4
646.888	14492.2
647.24	14356.84
647.593	14418.08
647.945	14420.57
648.298	14249.72
648.65	14260.57
649.002	14218.31
649.355	14288.14
649.707	14334.24
650.059	14425.76
650.411	14590.51
650.763	14577.63
651.115	14722.48
651.467	14709.6
651.819	14618.98
652.171	14649.94
652.523	14731.97
652.875	14539.89
653.227	14552.54
653.578	14666.89
653.93	14558.87
654.282	14493.33
654.633	14471.87
654.985	14410.17
655.337	14491.3
655.688	14505.99
656.039	14611.97
656.391	14367.69
656.742	14449.49
657.094	14427.12
657.445	14548.7
657.796	14515.71
658.147	14444.3
658.498	14445.43
658.849	14462.6
659.2	14388.93
659.551	14359.1
659.902	14364.52
660.253	14371.75
660.604	14349.38
660.955	14275.49
661.306	14339.44
661.656	14296.5
662.007	14326.33
662.358	14209.5
662.708	14271.19
663.059	14246.56
663.409	14174.25
663.76	14273.68
664.11	14221.7
664.461	14318.2
664.811	14279.33
665.161	14229.84
665.511	14225.32
665.862	14234.58
666.212	14240.68
666.562	14324.3
666.912	14219.44
667.262	14168.6
667.612	14222.83
667.962	14159.56
668.312	14208.14
668.662	14236.84
669.011	14198.2
669.361	14181.7
669.711	14180.12
670.06	14160.24
670.41	14119.33
670.76	14120.46
671.109	14155.04
671.459	14138.99
671.808	14022.61
672.157	14160.69
672.507	14010.18
672.856	14023.97
673.205	14068.49
673.554	14094.47
673.904	13943.97
674.253	14127.47
674.602	14030.07
674.951	13851.09
675.3	13875.04
675.649	14003.4
675.998	14037.75
676.346	13981.93
676.695	14040.46
677.044	13901.26
677.393	13931.54
677.741	13944.87
678.09	13954.36
678.438	13870.75
678.787	13971.77
679.135	13902.16
679.484	13838.44
679.832	13894.03
680.181	13751.43
680.529	13882.95
680.877	13844.54
681.225	13726.8
681.573	13826.01
681.922	13771.09
682.27	13603.87
682.618	13731.32
682.966	13561.83
683.314	13659.23
683.661	13610.87
684.009	13501.72
684.357	13566.58
684.705	13516.41
685.053	13543.3
685.4	13459.69
685.748	13397.77
686.095	13521.61
686.443	13380.59
686.79	13380.59
687.138	13456.98
687.485	13471.67
687.832	13357.54
688.18	13433.93
688.527	13318.22
688.874	13218.34
689.221	13248.85
689.568	13253.59
689.915	13173.37
690.262	13208.85
690.609	13143.54
690.956	13080.49
691.303	13111.68
691.65	12967.27
691.997	13026.93
692.344	12864.68
692.69	12875.52
693.037	12911.45
693.383	12765.02
693.73	12793.72
694.077	12704.23
694.423	12756.2
694.769	12664.91
695.116	12624
695.462	12582.65
695.808	12569.09
696.155	12618.13
696.501	12519.83
696.847	12512.37
697.193	12440.28
697.539	12576.1
697.885	12510.56
698.231	12332.49
698.577	12380.85
698.923	12353.5
699.269	12285.26
699.614	12275.99
699.96	12266.05
700.306	12208.42
700.651	12206.39
700.997	12171.59
701.342	12184.92
701.688	12058.6
702.033	12089.78
702.379	12027.18
702.724	12073.06
703.069	11936.34
703.415	11931.82
703.76	11935.43
704.105	11902.89
704.45	11908.99
704.795	11795.1
705.14	11816.34
705.485	11825.16
705.83	11735.89
706.175	11731.15
706.52	11676.23
706.865	11591.26
707.209	11539.51
707.554	11558.27
707.899	11589.23
708.243	11477.59
708.588	11456.35
708.932	11417.03
709.277	11424.71
709.621	11443.24
709.966	11383.13
710.31	11395.79
710.654	11278.95
710.998	11348.33
711.342	11377.48
711.687	11295.9
712.031	11221.1
712.375	11193.08
712.719	11155.57
713.063	11205.74
713.407	11176.13
713.75	11131.16
714.094	11153.31
714.438	11111.95
714.782	11081.22
715.125	11086.19
715.469	11137.04
715.812	11011.17
716.156	10968
716.499	10993.54
716.843	11012.52
717.186	10875.58
717.53	10959.64
717.873	11002.13
718.216	10864.95
718.559	10908.57
718.902	10813.43
719.246	10755.13
719.589	10732.98
719.932	10748.12
720.275	10689.14
720.617	10703.83
720.96	10753.77
721.303	10613.44
721.646	10642.81
721.989	10620.22
722.331	10634.9
722.674	10580.67
723.016	10579.76
723.359	10521.23
723.701	10593.78
724.044	10548.13
724.386	10473.78
724.729	10521.46
725.071	10452.99
725.413	10438.07
725.755	10448.24
726.097	10436.72
726.439	10425.19
726.782	10337.74
727.124	10420.22
727.465	10375.93
727.807	10384.29
728.149	10297.74
728.491	10226.33
728.833	10350.62
729.175	10309.71
729.516	10253.9
729.858	10212.77
730.199	10267.46
730.541	10260.68
730.882	10173.9
731.224	10250.06
731.565	10189.04
731.906	10253.67
732.248	10210.73
732.589	10220.45
732.93	10114.47
733.271	10073.79
733.612	10093.68
733.953	9994.92
734.294	10056.39
734.635	9984.07
734.976	10003.28
735.317	9982.04
735.658	9958.54
735.999	9985.2
736.339	9992.21
736.68	10023.39
737.021	9923.28
737.361	9944.98
737.702	9982.27
738.042	9925.09
738.383	9930.06
738.723	9906.34
739.063	9943.85
739.404	9913.57
739.744	9839.67
740.084	9810.07
740.424	9761.93
740.764	9734.36
741.104	9756.28
741.444	9669.51
741.784	9659.11
742.124	9659.56
742.464	9657.3
742.804	9696.17
743.143	9623.86
743.483	9681.48
743.823	9622.5
744.162	9489.17
744.502	9652.1
744.841	9537.98
745.181	9566.68
745.52	9526.01
745.86	9577.53
746.199	9519.23
746.538	9573.24
746.877	9581.37
747.216	9529.85
747.556	9526.46
747.895	9514.48
748.234	9387.25
748.573	9426.12
748.911	9411.43
749.25	9414.6
749.589	9378.21
749.928	9380.93
750.267	9405.78
750.605	9418.44
750.944	9442.17
751.283	9335.73
751.621	9314.49
751.96	9272.45
752.298	9303.19
752.636	9310.65
752.975	9241.27
753.313	9228.84
753.651	9272
753.989	9236.07
754.327	9106.36
754.666	9112.68
755.004	9175.51
755.342	9150.88
755.679	9037.66
756.017	9036.08
756.355	9027.04
756.693	8959.02
757.031	8985
757.368	8933.25
757.706	8889.41
758.044	8904.55
758.381	8936.87
758.719	8864.78
759.056	8888.74
