Data from foam1_polythene_foam_FLMS001491_00065.txt Node
Date: Wed Feb 08 10:55:13 GMT 2017
User: dcchb
Spectrometer: FLMS00149
Trigger mode: 0
Integration Time (sec): 2.000000E-2
Scans to average: 10
Electric dark correction enabled: true
Nonlinearity correction enabled: false
Boxcar width: 0
XAxis mode: Wavelengths
Number of Pixels in Spectrum: 2048
>>>>>Begin Spectral Data<<<<<
341.393	-15.96
341.776	-15.96
342.16	-15.96
342.543	-73.13
342.927	-67.94
343.31	-69.74
343.693	-65.22
344.077	-40.37
344.46	-67.48
344.843	-66.35
345.226	-50.08
345.61	-16.86
345.993	-32.23
346.376	9.58
346.759	20.42
347.142	29.91
347.525	60.42
347.908	36.24
348.291	72.4
348.674	72.4
349.057	106.97
349.44	141.55
349.823	126.18
350.206	164.6
350.588	151.04
350.971	181.1
351.354	203.92
351.737	238.5
352.119	224.03
352.502	222.9
352.884	277.59
353.267	274.2
353.65	252.06
354.032	272.62
354.414	281.43
354.797	280.76
355.179	315.33
355.562	302.68
355.944	320.75
356.326	306.97
356.709	310.13
357.091	288.66
357.473	312.62
357.855	321.88
358.238	325.5
358.62	332.96
359.002	324.14
359.384	299.96
359.766	302.45
360.148	321.21
360.53	317.82
360.912	299.29
361.294	319.4
361.676	309.68
362.057	297.25
362.439	295.22
362.821	292.96
363.203	303.58
363.584	297.7
363.966	299.29
364.348	297.7
364.729	285.5
365.111	298.16
365.493	288.89
365.874	293.18
366.256	280.76
366.637	298.16
367.019	279.85
367.4	292.05
367.781	305.84
368.163	288.66
368.544	281.89
368.925	293.18
369.306	282.56
369.688	304.26
370.069	274.43
370.45	284.15
370.831	277.82
371.212	279.85
371.593	291.15
371.974	300.87
372.355	268.55
372.736	299.29
373.117	281.66
373.498	285.5
373.879	284.15
374.26	295.22
374.641	280.08
375.021	288.66
375.402	284.15
375.783	283.02
376.163	300.19
376.544	317.59
376.925	314.43
377.305	287.99
377.686	285.95
378.066	287.31
378.447	296.35
378.827	295.44
379.208	294.54
379.588	296.57
379.968	294.99
380.349	309.23
380.729	297.03
381.109	289.34
381.489	299.06
381.87	323.47
382.25	296.8
382.63	304.71
383.01	307.87
383.39	292.51
383.77	308.55
384.15	311.71
384.53	302.68
384.91	338.15
385.29	313.52
385.67	337.7
386.049	321.43
386.429	312.39
386.809	305.39
387.189	293.86
387.568	298.38
387.948	312.17
388.328	320.08
388.707	327.53
389.087	323.69
389.466	319.85
389.846	316.69
390.225	309.46
390.605	339.28
390.984	333.41
391.363	323.47
391.743	323.47
392.122	327.08
392.501	308.1
392.881	334.31
393.26	307.2
393.639	319.62
394.018	312.62
394.397	330.92
394.776	332.96
395.155	328.44
395.534	352.17
395.913	322.79
396.292	339.06
396.671	333.18
397.05	335.22
397.429	350.13
397.808	325.73
398.186	336.8
398.565	334.31
398.944	330.92
399.323	342.67
399.701	354.43
400.08	361.21
400.458	352.17
400.837	339.51
401.215	346.74
401.594	350.81
401.972	337.03
402.351	363.92
402.729	351.04
403.107	367.31
403.486	366.63
403.864	352.62
404.242	350.13
404.62	349.23
404.999	335.9
405.377	358.72
405.755	342.9
406.133	346.06
406.511	386.29
406.889	351.71
407.267	356.46
407.645	363.92
408.023	365.05
408.401	384.26
408.779	358.95
409.156	364.37
409.534	368.44
409.912	361.66
410.29	367.31
410.667	366.63
411.045	362.34
411.422	376.12
411.8	381.54
412.178	360.53
412.555	367.98
412.933	394.42
413.31	372.96
413.687	368.89
414.065	375.67
414.442	379.96
414.819	379.28
415.197	382.22
415.574	388.78
415.951	397.59
416.328	399.4
416.705	390.36
417.082	395.55
417.46	385.39
417.837	382
418.214	412.73
418.591	403.01
418.967	406.4
419.344	390.81
419.721	399.85
420.098	382.45
420.475	403.24
420.852	409.57
421.228	420.19
421.605	416.57
421.982	380.19
422.358	408.89
422.735	408.89
423.111	420.86
423.488	415.22
423.864	411.6
424.241	426.97
424.617	431.71
424.994	407.53
425.37	428.77
425.746	428.1
426.123	427.42
426.499	415.89
426.875	433.07
427.251	453.41
427.627	446.85
428.003	452.05
428.379	453.86
428.756	441.43
429.132	458.15
429.507	458.6
429.883	445.5
430.259	430.81
430.635	460.64
431.011	454.31
431.387	468.32
431.763	467.87
432.138	465.16
432.514	492.5
432.89	471.71
433.265	468.77
433.641	478.26
434.016	472.84
434.392	470.13
434.767	500.18
435.143	486.4
435.518	492.95
435.894	491.15
436.269	507.64
436.644	495.89
437.02	526.62
437.395	505.61
437.77	516
438.145	521.65
438.52	532.73
438.895	530.92
439.271	534.53
439.646	521.65
440.021	519.85
440.395	543.35
440.77	540.86
441.145	552.61
441.52	534.31
441.895	546.74
442.27	554.87
442.645	563.69
443.019	563.01
443.394	560.52
443.769	574.31
444.143	550.58
444.518	554.19
444.892	584.25
445.267	575.66
445.641	591.93
446.016	605.94
446.39	603.91
446.764	590.8
447.139	594.87
447.513	628.09
447.887	600.52
448.262	632.61
448.636	637.58
449.01	611.82
449.384	623.12
449.758	632.84
450.132	637.81
450.506	645.49
450.88	643.23
451.254	667.64
451.628	665.6
452.002	660.63
452.376	662.89
452.75	696.56
453.123	660.86
453.497	647.98
453.871	674.19
454.244	682.55
454.618	678.26
454.992	665.6
455.365	680.07
455.739	692.27
456.112	694.53
456.486	705.38
456.859	690.69
457.232	706.05
457.606	700.63
457.979	694.53
458.352	706.28
458.725	698.6
459.099	698.37
459.472	714.19
459.845	722.1
460.218	723.91
460.591	706.28
460.964	735.21
461.337	703.57
461.71	741.76
462.083	719.39
462.456	740.4
462.829	722.78
463.201	729.56
463.574	733.85
463.947	741.76
464.32	765.26
464.692	741.76
465.065	742.89
465.438	772.27
465.81	774.53
466.183	793.51
466.555	771.36
466.928	779.95
467.3	782.21
467.672	798.03
468.045	792.83
468.417	773.62
468.789	794.87
469.161	814.53
469.534	819.95
469.906	835.54
470.278	838.48
470.65	835.54
471.022	853.85
471.394	833.28
471.766	855.88
472.138	846.62
472.51	840.29
472.882	860.85
473.253	879.84
473.625	879.38
473.997	865.37
474.369	925.26
474.74	908.08
475.112	916.67
475.484	907.18
475.855	947.86
476.227	938.59
476.598	954.18
476.97	965.94
477.341	976.33
477.713	988.76
478.084	958.7
478.455	998.02
478.827	1002.32
479.198	1009.1
479.569	1019.94
479.94	1029.21
480.311	1038.7
480.682	1056.55
481.053	1069.44
481.424	1086.38
481.795	1080.06
482.166	1134.07
482.537	1118.47
482.908	1135.65
483.279	1159.15
483.65	1117.34
484.021	1175.65
484.391	1165.93
484.762	1193.73
485.133	1197.34
485.503	1213.39
485.874	1240.05
486.244	1248.87
486.615	1256.1
486.985	1278.24
487.356	1272.14
487.726	1297.9
488.097	1320.05
488.467	1291.12
488.837	1327.96
489.207	1355.98
489.578	1360.27
489.948	1344.23
490.318	1396.66
490.688	1376.32
491.058	1392.59
491.428	1401.86
491.798	1418.13
492.168	1455.64
492.538	1466.26
492.908	1493.83
493.278	1471.23
493.648	1501.51
494.017	1493.15
494.387	1530.89
494.757	1551.46
495.126	1545.13
495.496	1526.15
495.866	1585.35
496.235	1572.25
496.605	1590.1
496.974	1561.4
497.344	1587.61
497.713	1579.7
498.082	1618.57
498.452	1643.88
498.821	1665.8
499.19	1657.89
499.559	1675.75
499.928	1688.4
500.298	1672.58
500.667	1717.33
501.036	1709.19
501.405	1711.9
501.774	1721.17
502.143	1741.73
502.512	1718.46
502.88	1755.29
503.249	1762.75
503.618	1739.93
503.987	1763.2
504.356	1778.12
504.724	1806.36
505.093	1811.56
505.462	1846.36
505.83	1844.1
506.199	1863.76
506.567	1848.85
506.936	1845.23
507.304	1859.02
507.672	1909.87
508.041	1895.63
508.409	1917.55
508.777	1930.88
509.145	1931.79
509.514	1922.75
509.882	1948.73
510.25	1970.65
510.618	1974.95
510.986	1952.35
511.354	1965.91
511.722	2002.97
512.09	1998.45
512.458	2032.12
512.826	2066.92
513.193	2070.54
513.561	2084.1
513.929	2091.1
514.297	2107.37
514.664	2081.16
515.032	2110.09
515.4	2112.35
515.767	2155.06
516.135	2132.68
516.502	2125.45
516.869	2178.78
517.237	2184.89
517.604	2205.9
517.972	2211.78
518.339	2229.18
518.706	2219.91
519.073	2268.95
519.44	2258.33
519.808	2277.99
520.175	2274.38
520.542	2293.58
520.909	2327.03
521.276	2324.32
521.643	2339.91
522.009	2359.57
522.376	2355.5
522.743	2386.69
523.11	2382.85
523.477	2425.33
523.843	2458.1
524.21	2490.87
524.577	2484.09
524.943	2451.32
525.31	2512.34
525.676	2502.17
526.043	2507.14
526.409	2544.65
526.776	2532.45
527.142	2556.18
527.508	2557.53
527.874	2604.08
528.241	2611.99
528.607	2618.77
528.973	2663.29
529.339	2639.34
529.705	2664.2
530.071	2696.96
530.437	2729.96
530.803	2690.86
531.169	2729.73
531.535	2723.85
531.901	2692.9
532.267	2765.66
532.632	2768.37
532.998	2779.22
533.364	2798.43
533.73	2809.5
534.095	2823.29
534.461	2807.02
534.826	2847.92
535.192	2853.12
535.557	2896.05
535.923	2882.04
536.288	2882.95
536.653	2873.91
537.019	2882.72
537.384	2899.67
537.749	2905.09
538.114	2925.88
538.479	2971.08
538.845	2926.56
539.21	2939.44
539.575	2907.8
539.94	2946.22
540.305	2957.52
540.67	2974.7
541.034	2957.3
541.399	3013.56
541.764	2999.78
542.129	3014.02
542.494	3065.31
542.858	3044.52
543.223	3022.83
543.587	3070.74
543.952	3065.09
544.316	3096.5
544.681	3096.95
545.045	3073.22
545.41	3092.43
545.774	3114.13
546.138	3110.74
546.503	3133.56
546.867	3129.27
547.231	3143.05
547.595	3161.13
547.959	3174.01
548.324	3183.73
548.688	3210.4
549.052	3190.74
549.416	3232.54
549.779	3196.16
550.143	3197.06
550.507	3234.58
550.871	3218.08
551.235	3248.59
551.599	3304.86
551.962	3259.43
552.326	3293.11
552.689	3284.97
553.053	3308.92
553.417	3283.61
553.78	3370.84
554.143	3351.41
554.507	3375.82
554.87	3352.09
555.234	3421.24
555.597	3350.51
555.96	3410.62
556.323	3318.87
556.686	3380.79
557.05	3451.29
557.413	3439.54
557.776	3458.75
558.139	3476.15
558.502	3521.57
558.865	3480.45
559.228	3471.63
559.59	3518.86
559.953	3518.86
560.316	3527
560.679	3531.29
561.041	3566.77
561.404	3552.99
561.767	3615.36
562.129	3599.09
562.492	3623.04
562.854	3612.42
563.217	3638.18
563.579	3652.87
563.941	3720.89
564.304	3685.64
564.666	3749.14
565.028	3749.14
565.39	3727.44
565.753	3727.22
566.115	3770.83
566.477	3798.18
566.839	3835.92
567.201	3853.54
567.563	3788.01
567.925	3867.1
568.287	3861.45
568.648	3842.02
569.01	3892.86
569.372	3882.24
569.734	3879.3
570.095	3945.52
570.457	3915.46
570.819	3936.48
571.18	3963.14
571.542	3966.53
571.903	3972.41
572.265	3964.73
572.626	3978.74
572.987	4006.99
573.349	3997.49
573.71	4013.76
574.071	4062.8
574.432	4060.32
574.794	4069.81
575.155	4059.64
575.516	4035.91
575.877	4065.06
576.238	4074.33
576.599	4090.6
576.96	4099.41
577.32	4082.69
577.681	4096.93
578.042	4115.91
578.403	4123.14
578.763	4141.67
579.124	4145.96
579.485	4130.15
579.845	4108.68
580.206	4148
580.566	4157.72
580.927	4164.27
581.287	4176.92
581.648	4146.64
582.008	4177.83
582.368	4143.7
582.728	4178.05
583.089	4155.46
583.449	4153.65
583.809	4185.96
584.169	4175.57
584.529	4183.93
584.889	4196.13
585.249	4186.87
585.609	4169.47
585.969	4165.17
586.329	4183.7
586.688	4164.04
587.048	4158.39
587.408	4209.01
587.768	4185.29
588.127	4168.79
588.487	4169.92
588.846	4199.3
589.206	4197.94
589.565	4151.61
589.925	4177.15
590.284	4136.7
590.643	4195.91
591.003	4223.93
591.362	4233.19
591.721	4178.73
592.08	4177.83
592.44	4180.77
592.799	4195.45
593.158	4125.17
593.517	4196.58
593.876	4218.96
594.235	4149.13
594.593	4215.12
594.952	4216.02
595.311	4187.55
595.67	4243.59
596.029	4209.69
596.387	4202.23
596.746	4214.21
597.104	4162.46
597.463	4224.38
597.822	4189.35
598.18	4177.83
598.538	4171.73
598.897	4197.71
599.255	4169.69
599.613	4270.71
599.972	4177.6
600.33	4251.72
600.688	4190.26
601.046	4256.92
601.404	4213.31
601.762	4229.13
602.12	4243.59
602.478	4204.27
602.836	4233.87
603.194	4185.29
603.552	4248.11
603.91	4202.01
604.268	4269.58
604.625	4172.63
604.983	4223.93
605.341	4175.34
605.698	4240.88
606.056	4239.52
606.413	4205.85
606.771	4222.12
607.128	4217.37
607.485	4220.09
607.843	4223.93
608.2	4223.93
608.557	4271.61
608.914	4220.76
609.272	4243.59
609.629	4259.41
609.986	4264.61
610.343	4225.96
610.7	4250.14
611.057	4215.12
611.414	4252.63
611.771	4226.64
612.127	4265.51
612.484	4240.43
612.841	4302.12
613.198	4270.93
613.554	4246.75
613.911	4289.01
614.267	4272.74
614.624	4271.84
614.98	4298.73
615.337	4284.04
615.693	4305.06
616.05	4281.78
616.406	4284.72
616.762	4285.62
617.118	4261.44
617.475	4279.75
617.831	4330.37
618.187	4266.19
618.543	4263.7
618.899	4291.27
619.255	4281.55
619.611	4254.89
619.967	4302.57
620.323	4307.32
620.678	4274.77
621.034	4262.12
621.39	4261.22
621.746	4291.5
622.101	4251.72
622.457	4246.53
622.812	4282.23
623.168	4300.54
623.523	4278.16
623.879	4284.94
624.234	4281.33
624.589	4264.38
624.945	4243.59
625.3	4254.44
625.655	4231.39
626.01	4232.06
626.365	4273.19
626.72	4206.75
627.075	4233.19
627.43	4209.01
627.785	4200.65
628.14	4218.28
628.495	4251.72
628.85	4221.22
629.205	4238.62
629.559	4192.52
629.914	4231.84
630.269	4180.09
630.623	4190.48
630.978	4207.88
631.332	4181.22
631.687	4196.13
632.041	4144.38
632.396	4172.86
632.75	4192.74
633.104	4172.4
633.459	4144.61
633.813	4113.2
634.167	4127.66
634.521	4129.02
634.875	4120.43
635.229	4125.63
635.583	4091.95
635.937	4103.48
636.291	4087.89
636.645	4095.57
636.999	4059.64
637.352	4117.94
637.706	4023.71
638.06	4044.05
638.413	4067.55
638.767	4028.45
639.121	4043.14
639.474	4050.37
639.828	4056.25
640.181	4003.82
640.534	4026.87
640.888	4011.28
641.241	4001.56
641.594	4026.19
641.947	3998.62
642.301	4003.37
642.654	3953.88
643.007	3959.08
643.36	3977.38
643.713	3937.38
644.066	3934.67
644.419	3933.99
644.771	3926.76
645.124	3831.62
645.477	3809.25
645.83	3829.81
646.182	3833.43
646.535	3795.47
646.888	3815.58
647.24	3816.93
647.593	3891.73
647.945	3812.41
648.298	3824.62
648.65	3806.31
649.002	3778.97
649.355	3774.67
649.707	3760.44
650.059	3796.6
650.411	3769.03
650.763	3799.08
651.115	3846.54
651.467	3837.05
651.819	3810.15
652.171	3825.07
652.523	3861.9
652.875	3797.95
653.227	3800.21
653.578	3796.37
653.93	3793.88
654.282	3768.35
654.633	3773.32
654.985	3801.34
655.337	3786.65
655.688	3776.71
656.039	3778.52
656.391	3733.77
656.742	3802.92
657.094	3739.87
657.445	3768.35
657.796	3717.95
658.147	3707.78
658.498	3745.75
658.849	3754.79
659.2	3731.74
659.551	3732.64
659.902	3730.38
660.253	3730.16
660.604	3705.3
660.955	3692.64
661.306	3653.77
661.656	3691.29
662.007	3725.41
662.358	3726.54
662.708	3659.88
663.059	3695.13
663.409	3654.45
663.76	3670.72
664.11	3698.97
664.461	3702.59
664.811	3708.24
665.161	3684.73
665.511	3672.76
665.862	3661.91
666.212	3697.16
666.562	3659.42
666.912	3679.08
667.262	3690.38
667.612	3710.72
667.962	3652.19
668.312	3619.2
668.662	3634.57
669.011	3651.06
669.361	3637.5
669.711	3659.88
670.06	3610.39
670.41	3604.28
670.76	3592.76
671.109	3667.56
671.459	3661.01
671.808	3634.11
672.157	3621.01
672.507	3609.03
672.856	3612.42
673.205	3606.77
673.554	3574.45
673.904	3559.99
674.253	3591.63
674.602	3573.32
674.951	3519.99
675.3	3470.95
675.649	3557.28
675.998	3533.33
676.346	3574.91
676.695	3574
677.044	3507.11
677.393	3530.84
677.741	3568.35
678.09	3517.51
678.438	3536.94
678.787	3565.41
679.135	3522.48
679.484	3496.26
679.832	3540.78
680.181	3518.18
680.529	3508.24
680.877	3495.81
681.225	3489.03
681.573	3524.51
681.922	3495.81
682.27	3451.07
682.618	3459.65
682.966	3455.36
683.314	3467.34
683.661	3459.2
684.009	3440.9
684.357	3433.67
684.705	3444.06
685.053	3413.55
685.4	3438.41
685.748	3416.94
686.095	3445.64
686.443	3405.42
686.79	3363.16
687.138	3377.17
687.485	3391.86
687.832	3392.31
688.18	3345.76
688.527	3355.7
688.874	3335.36
689.221	3323.84
689.568	3321.13
689.915	3354.12
690.262	3324.52
690.609	3300.11
690.956	3247.46
691.303	3308.47
691.65	3273.67
691.997	3272.99
692.344	3241.36
692.69	3279.32
693.037	3278.87
693.383	3228.47
693.73	3294.91
694.077	3259.66
694.423	3213.11
694.769	3234.12
695.116	3208.59
695.462	3200.68
695.808	3207.91
696.155	3202.26
696.501	3172.43
696.847	3187.57
697.193	3162.26
697.539	3183.05
697.885	3128.82
698.231	3125.65
698.577	3118.19
698.923	3120.68
699.269	3121.13
699.614	3087.69
699.96	3097.63
700.306	3067.35
700.651	3060.8
700.997	3065.54
701.342	3034.81
701.688	3075.03
702.033	3021.47
702.379	3066.9
702.724	3025.54
703.069	3040.23
703.415	2982.61
703.76	2993.9
704.105	2981.93
704.45	2998.88
704.795	2992.77
705.14	2943.96
705.485	2982.61
705.83	2971.76
706.175	2955.26
706.52	2941.48
706.865	2908.93
707.209	2935.37
707.554	2944.64
707.899	2918.43
708.243	2929.05
708.588	2941.02
708.932	2902.16
709.277	2887.92
709.621	2867.13
709.966	2872.78
710.31	2867.58
710.654	2852.21
710.998	2872.1
711.342	2863.74
711.687	2837.98
712.031	2843.4
712.375	2822.38
712.719	2858.31
713.063	2811.76
713.407	2801.14
713.75	2795.04
714.094	2817.19
714.438	2802.72
714.782	2830.74
715.125	2790.97
715.469	2771.09
715.812	2779.67
716.156	2753.46
716.499	2753.01
716.843	2739.45
717.186	2739.67
717.53	2753.46
717.873	2778.77
718.216	2761.59
718.559	2719.79
718.902	2742.39
719.246	2740.13
719.589	2713.01
719.932	2712.56
720.275	2720.01
720.617	2725.44
720.96	2719.11
721.303	2716.85
721.646	2725.44
721.989	2700.8
722.331	2668.04
722.674	2684.76
723.016	2727.7
723.359	2667.59
723.701	2676.17
724.044	2642.28
724.386	2624.65
724.729	2648.38
725.071	2599.34
725.413	2668.94
725.755	2645.66
726.097	2599.56
726.439	2633.91
726.782	2616.74
727.124	2624.2
727.465	2610.19
727.807	2617.19
728.149	2625.78
728.491	2612.67
728.833	2638.66
729.175	2609.73
729.516	2538.1
729.858	2576.29
730.199	2607.02
730.541	2564.76
730.882	2605.67
731.224	2608.38
731.565	2548.72
731.906	2580.36
732.248	2535.84
732.589	2536.52
732.93	2560.92
733.271	2544.65
733.612	2568.83
733.953	2550.75
734.294	2520.7
734.635	2537.19
734.976	2546.68
735.317	2523.41
735.658	2512.79
735.999	2498.78
736.339	2501.94
736.68	2542.16
737.021	2524.76
737.361	2500.81
737.702	2504.43
738.042	2519.79
738.383	2515.27
738.723	2494.48
739.063	2493.8
739.404	2464.2
739.744	2492.9
740.084	2467.82
740.424	2456.07
740.764	2514.14
741.104	2458.1
741.444	2453.58
741.784	2469.17
742.124	2436.63
742.464	2476.86
742.804	2456.52
743.143	2461.94
743.483	2444.31
743.823	2430.08
744.162	2443.86
744.502	2438.21
744.841	2404.32
745.181	2433.24
745.52	2416.29
745.86	2441.15
746.199	2419.91
746.538	2398.89
746.877	2435.73
747.216	2404.77
747.556	2402.96
747.895	2428.95
748.234	2368.84
748.573	2402.51
748.911	2375.84
749.25	2395.28
749.589	2358.21
749.928	2385.78
750.267	2370.19
750.605	2362.96
750.944	2347.59
751.283	2382.62
751.621	2341.72
751.96	2346.92
752.298	2349.85
752.636	2335.62
752.975	2336.07
753.313	2323.41
753.651	2347.37
753.989	2333.36
754.327	2334.03
754.666	2307.59
755.004	2313.7
755.342	2340.36
755.679	2286.35
756.017	2313.7
756.355	2315.73
756.693	2270.08
757.031	2295.62
757.368	2296.07
757.706	2258.33
758.044	2237.54
758.381	2264.66
758.719	2244.32
759.056	2270.76
759.394	2248.39
759.731	2228.95
760.068	2201.83
760.405	2212.46
760.743	2217.2
761.08	2223.3
761.417	2204.77
761.754	2215.39
762.091	2204.32
762.428	2189.18
762.765	2201.16
763.102	2181.72
763.438	2191.21
763.775	2141.72
764.112	2183.08
764.449	2159.12
764.785	2153.47
765.122	2151.89
765.458	2130.42
765.795	2133.59
766.131	2110.76
766.467	2107.37
766.804	2102.63
767.14	2110.31
767.476	2090.65
767.812	2107.83
768.148	2106.24
768.485	2079.35
768.821	2078.22
769.157	2070.54
769.492	2082.29
769.828	2069.41
770.164	2017.88
770.5	2038.45
770.836	2069.86
771.171	2034.16
771.507	2012.69
