Data from foam_black_FLMS001491_00073.txt Node
Date: Wed Feb 08 10:44:36 GMT 2017
User: dcchb
Spectrometer: FLMS00149
Trigger mode: 0
Integration Time (sec): 2.000000E-2
Scans to average: 10
Electric dark correction enabled: true
Nonlinearity correction enabled: false
Boxcar width: 0
XAxis mode: Wavelengths
Number of Pixels in Spectrum: 2048
>>>>>Begin Spectral Data<<<<<
341.393	-33.35
341.776	-33.35
342.16	-33.35
342.543	-57.75
342.927	-40.35
343.31	-81.71
343.693	-67.7
344.077	-55.72
344.46	-46.91
344.843	-51.65
345.226	-55.49
345.61	-37.64
345.993	-30.18
346.376	6.43
346.759	7.56
347.142	18.86
347.525	36.48
347.908	57.95
348.291	78.29
348.674	101.57
349.057	119.87
349.44	123.49
349.823	154.22
350.206	146.54
350.588	157.61
350.971	190.15
351.354	218.4
351.737	213.88
352.119	247.55
352.502	238.51
352.884	265.18
353.267	261.79
353.65	262.69
354.032	264.5
354.414	282.13
354.797	294.1
355.179	313.54
355.562	324.16
355.944	301.56
356.326	321.45
356.709	320.54
357.091	302.24
357.473	326.19
357.855	317.6
358.238	317.83
358.62	324.84
359.002	324.61
359.384	337.27
359.766	296.81
360.148	312.41
360.53	317.15
360.912	310.6
361.294	299.75
361.676	293.42
362.057	323.71
362.439	291.62
362.821	322.58
363.203	288.9
363.584	308.34
363.966	301.33
364.348	294.78
364.729	306.53
365.111	314.89
365.493	317.83
365.874	293.88
366.256	308.79
366.637	301.56
367.019	295.91
367.4	292.97
367.781	289.13
368.163	282.8
368.544	309.92
368.925	278.06
369.306	292.07
369.688	299.07
370.069	307.44
370.45	285.97
370.831	290.03
371.212	292.97
371.593	304.05
371.974	299.53
372.355	304.95
372.736	307.66
373.117	298.17
373.498	302.24
373.879	310.83
374.26	315.8
374.641	299.3
375.021	304.95
375.402	283.93
375.783	293.65
376.163	303.82
376.544	333.42
376.925	287.1
377.305	301.11
377.686	293.88
378.066	305.85
378.447	305.4
378.827	316.02
379.208	322.58
379.588	308.57
379.968	302.24
380.349	323.03
380.729	309.24
381.109	326.64
381.489	329.36
381.87	307.21
382.25	330.26
382.63	328
383.01	335.01
383.39	325.29
383.77	319.64
384.15	332.29
384.53	304.27
384.91	325.06
385.29	295.23
385.67	337.94
386.049	329.58
386.429	315.57
386.809	334.1
387.189	335.68
387.568	329.36
387.948	333.88
388.328	331.84
388.707	330.26
389.087	323.25
389.466	354.67
389.846	340.65
390.225	351.28
390.605	332.52
390.984	348.34
391.363	329.58
391.743	366.87
392.122	345.85
392.501	346.08
392.881	372.52
393.26	359.19
393.639	345.63
394.018	349.92
394.397	384.04
394.776	370.94
395.155	379.75
395.534	362.58
395.913	369.81
396.292	377.49
396.671	368
397.05	372.29
397.429	372.52
397.808	379.3
398.186	370.48
398.565	376.81
398.944	366.42
399.323	374.55
399.701	371.84
400.08	390.37
400.458	374.33
400.837	395.12
401.215	406.87
401.594	379.3
401.972	392.18
402.351	390.37
402.729	391.28
403.107	409.35
403.486	395.34
403.864	394.21
404.242	398.73
404.62	398.51
404.999	404.83
405.377	405.51
405.755	406.64
406.133	399.41
406.511	425.62
406.889	432.18
407.267	421.33
407.645	401.67
408.023	431.05
408.401	401.22
408.779	407.77
409.156	429.01
409.534	439.86
409.912	431.5
410.29	435.34
410.667	452.97
411.045	442.12
411.422	447.32
411.8	460.88
412.178	458.39
412.555	475.57
412.933	454.1
413.31	469.69
413.687	477.6
414.065	448.22
414.442	464.49
414.819	459.75
415.197	463.36
415.574	469.24
415.951	478.05
416.328	498.16
416.705	480.99
417.082	485.96
417.46	481.89
417.837	467.43
418.214	491.84
418.591	500.2
418.967	462.69
419.344	501.78
419.721	509.92
420.098	518.96
420.475	519.63
420.852	525.28
421.228	499.29
421.605	483.48
421.982	513.98
422.358	521.44
422.735	545.17
423.111	540.2
423.488	546.98
423.864	537.94
424.241	531.61
424.617	539.52
424.994	544.94
425.37	533.87
425.746	545.4
426.123	558.5
426.499	560.31
426.875	569.58
427.251	538.39
427.627	564.83
428.003	586.75
428.379	560.99
428.756	579.07
429.132	585.62
429.507	573.64
429.883	575.68
430.259	604.6
430.635	589.69
431.011	607.99
431.387	606.41
431.763	626.52
432.138	621.33
432.514	631.27
432.89	635.56
433.265	624.72
433.641	641.21
434.016	636.69
434.392	639.4
434.767	664.94
435.143	649.12
435.518	656.8
435.894	671.49
436.269	667.88
436.644	667.88
437.02	675.34
437.395	720.53
437.77	701.32
438.145	694.77
438.52	696.35
438.895	708.78
439.271	697.48
439.646	681.89
440.021	715.11
440.395	714.2
440.77	693.64
441.145	705.84
441.52	736.8
441.895	744.26
442.27	729.57
442.645	746.75
443.019	743.58
443.394	739.97
443.769	759.4
444.143	741.77
444.518	758.05
444.892	755.33
445.267	747.65
445.641	768.89
446.016	782.68
446.39	756.46
446.764	769.34
447.139	758.5
447.513	779.51
447.887	784.03
448.262	794.88
448.636	787.2
449.01	810.7
449.384	807.76
449.758	811.6
450.132	837.82
450.506	828.55
450.88	826.97
451.254	844.82
451.628	838.27
452.002	831.49
452.376	854.09
452.75	860.87
453.123	858.16
453.497	897.48
453.871	901.09
454.244	897.7
454.618	885.5
454.992	892.96
455.365	906.29
455.739	927.76
456.112	911.71
456.486	945.16
456.859	957.59
457.232	931.37
457.606	955.55
457.979	963.92
458.352	996
458.725	996.46
459.099	1011.82
459.472	1021.09
459.845	1003.91
460.218	1029
460.591	1009.79
460.964	1000.52
461.337	1023.57
461.71	1053.86
462.083	1064.7
462.456	1042.33
462.829	1070.35
463.201	1101.76
463.574	1104.93
463.947	1073.97
464.32	1131.37
464.692	1132.95
465.065	1123.01
465.438	1139.96
465.81	1173.63
466.183	1174.98
466.555	1172.72
466.928	1191.03
467.3	1191.71
467.672	1218.15
468.045	1223.12
468.417	1232.38
468.789	1259.95
469.161	1246.17
469.534	1285.71
469.906	1270.57
470.278	1295.66
470.65	1312.15
471.022	1354.64
471.394	1382.44
471.766	1384.02
472.138	1400.06
472.51	1418.37
472.882	1406.39
473.253	1439.61
473.625	1453.39
473.997	1492.71
474.369	1456.56
474.74	1520.06
475.112	1523.67
475.484	1568.19
475.855	1574.29
476.227	1583.11
476.598	1649.1
476.97	1619.04
477.341	1655.87
477.713	1664.01
478.084	1685.48
478.455	1697.23
478.827	1732.93
479.198	1792.37
479.569	1784.23
479.94	1852.48
480.311	1840.95
480.682	1835.98
481.053	1905.59
481.424	1919.14
481.795	1950.33
482.166	1969.54
482.537	1998.24
482.908	2018.58
483.279	2052.47
483.65	2084.79
484.021	2124.56
484.391	2164.56
484.762	2148.97
485.133	2183.77
485.503	2177.89
485.874	2256.08
486.244	2236.65
486.615	2256.31
486.985	2323.2
487.356	2328.17
487.726	2359.81
488.097	2365.23
488.467	2416.76
488.837	2458.79
489.207	2517.55
489.578	2481.62
489.948	2501.95
490.318	2582.18
490.688	2545.79
491.058	2652.91
491.428	2687.49
491.798	2639.58
492.168	2687.94
492.538	2733.81
492.908	2734.72
493.278	2741.95
493.648	2819.46
494.017	2774.04
494.387	2844.09
494.757	2841.61
495.126	2926.58
495.496	2877.76
495.866	2929.97
496.235	2927.71
496.605	2913.69
496.974	2973.35
497.344	2983.75
497.713	3045.44
498.082	3021.94
498.452	3050.64
498.821	3073.24
499.19	3115.27
499.559	3144.2
499.928	3121.37
500.298	3155.27
500.667	3207.7
501.036	3246.12
501.405	3209.51
501.774	3276.85
502.143	3295.61
502.512	3315.04
502.88	3303.74
503.249	3294.93
503.618	3369.5
503.987	3364.98
504.356	3389.84
504.724	3431.87
505.093	3465.09
505.462	3475.94
505.83	3476.62
506.199	3546.22
506.567	3596.16
506.936	3555.26
507.304	3594.13
507.672	3615.15
508.041	3659.66
508.409	3625.77
508.777	3676.39
509.145	3678.42
509.514	3685.2
509.882	3718.65
510.25	3752.32
510.618	3805.65
510.986	3762.71
511.354	3774.91
511.722	3857.62
512.09	3889.71
512.458	3859.21
512.826	3906.21
513.193	3928.13
513.561	3954.8
513.929	3934.23
514.297	4001.8
514.664	4050.39
515.032	4047.68
515.4	4098.3
515.767	4114.11
516.135	4131.29
516.502	4116.83
516.869	4205.19
517.237	4164.06
517.604	4198.41
517.972	4221.91
518.339	4303.71
518.706	4318.63
519.073	4353.43
519.44	4365.86
519.808	4399.76
520.175	4371.28
520.542	4443.82
520.909	4474.56
521.276	4489.25
521.643	4560.88
522.009	4553.88
522.376	4646.53
522.743	4641.78
523.11	4656.02
523.477	4730.37
523.843	4751.39
524.21	4813.31
524.577	4802.46
524.943	4847.88
525.31	4863.25
525.676	4944.15
526.043	4971.95
526.409	4985.05
526.776	5040.64
527.142	5005.39
527.508	5047.2
527.874	5114.09
528.241	5133.07
528.607	5169.68
528.973	5185.05
529.339	5204.26
529.705	5282.9
530.071	5289.9
530.437	5340.3
530.803	5396.34
531.169	5380.07
531.535	5426.4
531.901	5458.03
532.267	5445.15
532.632	5502.78
532.998	5522.67
533.364	5540.29
533.73	5582.78
534.095	5657.8
534.461	5668.65
534.826	5621.65
535.192	5709.1
535.557	5708.42
535.923	5735.09
536.288	5772.6
536.653	5783.68
537.019	5811.7
537.384	5809.66
537.749	5846.72
538.114	5771.92
538.479	5870.45
538.845	5912.03
539.21	5846.72
539.575	5930.34
539.94	6006.72
540.305	5966.72
540.67	6022.31
541.034	5978.02
541.399	5999.04
541.764	5987.51
542.129	6116.77
542.494	6133.95
542.858	6101.41
543.223	6121.97
543.587	6185.47
543.952	6204.46
544.316	6164.46
544.681	6131.46
545.045	6178.92
545.41	6225.7
545.774	6269.31
546.138	6274.06
546.503	6268.86
546.867	6272.48
547.231	6284.23
547.595	6319.93
547.959	6367.39
548.324	6386.37
548.688	6370.1
549.052	6338.92
549.416	6436.09
549.779	6392.02
550.143	6420.95
550.507	6507.5
550.871	6465.24
551.235	6507.95
551.599	6523.54
551.962	6580.49
552.326	6583.2
552.689	6658.91
553.053	6595.63
553.417	6651.22
553.78	6725.12
554.143	6745.23
554.507	6786.81
554.87	6799.24
555.234	6837.89
555.597	6855.29
555.96	6865.68
556.323	6905
556.686	6938.9
557.05	7046.02
557.413	7052.79
557.776	7005.11
558.139	7027.71
558.502	7108.39
558.865	7109.74
559.228	7189.06
559.59	7232.9
559.953	7208.27
560.316	7307.48
560.679	7392.9
561.041	7300.25
561.404	7425.89
561.767	7474.25
562.129	7449.17
562.492	7492.56
562.854	7490.3
563.217	7546.34
563.579	7579.11
563.941	7633.57
564.304	7711.53
564.666	7764.64
565.028	7732.1
565.39	7775.49
565.753	7841.7
566.115	7869.72
566.477	7827.01
566.839	7888.71
567.201	7947.23
567.563	7886.9
567.925	7955.37
568.287	7973.45
568.648	8038.08
569.01	8081.69
569.372	8098.64
569.734	8071.07
570.095	8144.97
570.457	8163.05
570.819	8173.9
571.18	8138.42
571.542	8227.23
571.903	8271.29
572.265	8308.13
572.626	8304.97
572.987	8360.33
573.349	8364.17
573.71	8466.32
574.071	8472.19
574.432	8436.26
574.794	8589.03
575.155	8610.49
575.516	8562.59
575.877	8620.89
576.238	8583.15
576.599	8617.27
576.96	8579.31
577.32	8635.13
577.681	8631.51
578.042	8729.59
578.403	8757.83
578.763	8789.92
579.124	8723.03
579.485	8822.24
579.845	8756.48
580.206	8819.3
580.566	8764.39
580.927	8838.51
581.287	8875.12
581.648	8837.15
582.008	8883.93
582.368	8912.86
582.728	8918.73
583.089	8900.88
583.449	8908.34
583.809	8912.86
584.169	8902.01
584.529	8914.44
584.889	8959.19
585.249	8908.57
585.609	8868.57
585.969	8928.68
586.329	8909.7
586.688	8883.03
587.048	8976.59
587.408	8853.65
587.768	8883.26
588.127	8900.88
588.487	8884.16
588.846	8927.32
589.206	8887.55
589.565	8875.12
589.925	8946.3
590.284	8903.82
590.643	8925.51
591.003	8915.57
591.362	8972.74
591.721	8930.26
592.08	8952.63
592.44	8926.42
592.799	8939.07
593.158	8945.85
593.517	8937.72
593.876	8855.91
594.235	8955.34
594.593	8893.65
594.952	8932.07
595.311	8927.55
595.67	8962.58
596.029	8973.87
596.387	8983.82
596.746	8954.89
597.104	8931.84
597.463	8942.46
597.822	9008.45
598.18	8985.85
598.538	8939.52
598.897	9002.12
599.255	8973.42
599.613	9093.65
599.972	9036.47
600.33	9038.05
600.688	9039.41
601.046	9036.92
601.404	9032.86
601.762	9122.34
602.12	9111.5
602.478	9057.04
602.836	9136.58
603.194	9104.04
603.552	9045.28
603.91	9053.87
604.268	9125.73
604.625	9086.64
604.983	9128.22
605.341	9064.72
605.698	9107.66
606.056	9179.97
606.413	9189.91
606.771	9152.63
607.128	9143.81
607.485	9194.21
607.843	9251.61
608.2	9214.55
608.557	9233.98
608.914	9274.21
609.272	9193.53
609.629	9338.61
609.986	9270.59
610.343	9229.23
610.7	9330.93
611.057	9341.77
611.414	9251.61
611.771	9271.95
612.127	9337.48
612.484	9310.59
612.841	9325.05
613.198	9333.41
613.554	9325.05
613.911	9386.52
614.267	9350.59
614.624	9333.19
614.98	9407.99
615.337	9325.96
615.693	9359.63
616.05	9405.05
616.406	9451.83
616.762	9345.62
617.118	9324.15
617.475	9394.65
617.831	9459.96
618.187	9390.36
618.543	9380.87
618.899	9468.32
619.255	9441.66
619.611	9403.24
619.967	9452.51
620.323	9471.94
620.678	9443.92
621.034	9381.32
621.39	9407.99
621.746	9396.69
622.101	9560.3
622.457	9437.82
622.812	9474.65
623.168	9420.87
623.523	9478.72
623.879	9474.65
624.234	9443.47
624.589	9520.98
624.945	9576.57
625.3	9572.28
625.655	9430.13
626.01	9474.65
626.365	9581.32
626.72	9450.7
627.075	9504.93
627.43	9515.78
627.785	9519.17
628.14	9560.3
628.495	9600.52
628.85	9607.08
629.205	9540.64
629.559	9642.33
629.914	9544.48
630.269	9545.38
630.623	9543.8
630.978	9534.31
631.332	9651.82
631.687	9651.14
632.041	9523.69
632.396	9523.01
632.75	9513.52
633.104	9555.33
633.459	9525.5
633.813	9567.3
634.167	9593.29
634.521	9582.67
634.875	9561.66
635.229	9562.11
635.583	9539.28
635.937	9569.11
636.291	9468.32
636.645	9497.25
636.999	9417.7
637.352	9491.37
637.706	9419.96
638.06	9472.39
638.413	9386.74
638.767	9405.05
639.121	9390.59
639.474	9373.86
639.828	9364.82
640.181	9387.65
640.534	9379.29
640.888	9354.2
641.241	9303.81
641.594	9381.32
641.947	9315.33
642.301	9319.63
642.654	9364.82
643.007	9312.17
643.36	9257.48
643.713	9238.27
644.066	9229.23
644.419	9213.19
644.771	9136.81
645.124	9067.66
645.477	9031.05
645.83	8909.47
646.182	8902.46
646.535	8853.43
646.888	8942.46
647.24	8880.77
647.593	8972.29
647.945	8895.23
648.298	8833.54
648.65	8862.24
649.002	8808.45
649.355	8851.84
649.707	8769.81
650.059	8792.86
650.411	8885.74
650.763	8899.98
651.115	8997.83
651.467	8921.22
651.819	8969.81
652.171	8970.94
652.523	8918.73
652.875	8961.22
653.227	8898.17
653.578	8975
653.93	8940.88
654.282	8880.09
654.633	8907.21
654.985	8859.3
655.337	8898.62
655.688	8931.84
656.039	8982.91
656.391	8926.87
656.742	8911.73
657.094	8844.16
657.445	8928.23
657.796	8894.33
658.147	8809.13
658.498	8863.37
658.849	8925.06
659.2	8840.54
659.551	8858.62
659.902	8867.21
660.253	8913.76
660.604	8885.97
660.955	8813.65
661.306	8854.1
661.656	8883.26
662.007	8846.65
662.358	8905.85
662.708	8871.28
663.059	8947.43
663.409	8814.78
663.76	8951.73
664.11	8819.75
664.461	8791.73
664.811	8840.77
665.161	8837.15
665.511	8836.02
665.862	8796.25
666.212	8883.48
666.562	8840.77
666.912	8751.96
667.262	8760.55
667.612	8810.49
667.962	8837.15
668.312	8785.86
668.662	8799.87
669.011	8787.89
669.361	8752.19
669.711	8746.31
670.06	8676.03
670.41	8710.83
670.76	8665.86
671.109	8707.67
671.459	8675.8
671.808	8711.28
672.157	8696.59
672.507	8652.53
672.856	8633.09
673.205	8643.71
673.554	8669.25
673.904	8658.85
674.253	8692.3
674.602	8613.43
674.951	8433.55
675.3	8460.67
675.649	8524.62
675.998	8568.24
676.346	8554.9
676.695	8565.07
677.044	8505.64
677.393	8517.39
677.741	8503.38
678.09	8417.05
678.438	8497.28
678.787	8495.02
679.135	8431.97
679.484	8389.03
679.832	8400.78
680.181	8415.7
680.529	8432.19
680.877	8387.9
681.225	8355.81
681.573	8382.93
681.922	8349.26
682.27	8341.12
682.618	8325.3
682.966	8315.81
683.314	8373.66
683.661	8279.43
684.009	8247.11
684.357	8275.14
684.705	8239.88
685.053	8278.07
685.4	8308.58
685.748	8264.51
686.095	8239.88
686.443	8182.48
686.79	8174.57
687.138	8164.86
687.485	8174.8
687.832	8161.01
688.18	8147.68
688.527	8121.02
688.874	8138.19
689.221	8104.97
689.568	8103.84
689.915	8067.68
690.262	8074.91
690.609	8093.22
690.956	8058.87
691.303	8074.46
691.65	8028.59
691.997	8073.33
692.344	8013
692.69	7970.96
693.037	8040.79
693.383	7921.7
693.73	7919.44
694.077	7912.89
694.423	7858.65
694.769	7864.98
695.116	7847.35
695.462	7871.3
695.808	7820.23
696.155	7863.62
696.501	7821.81
696.847	7774.81
697.193	7711.31
697.539	7782.72
697.885	7660.91
698.231	7664.53
698.577	7622.95
698.923	7707.24
699.269	7645.32
699.614	7562.16
699.96	7557.19
700.306	7617.53
700.651	7568.04
700.997	7510.18
701.342	7479.9
701.688	7498.43
702.033	7556.96
702.379	7511.77
702.724	7448.72
703.069	7433.8
703.415	7394.48
703.76	7358.32
704.105	7348.61
704.45	7344.99
704.795	7296.4
705.14	7281.26
705.485	7271.09
705.83	7232
706.175	7256.86
706.52	7199.01
706.865	7205.33
707.209	7219.8
707.554	7159.01
707.899	7185.9
708.243	7100.7
708.588	7089.86
708.932	6995.17
709.277	7017.54
709.621	7027.26
709.966	6993.81
710.31	6974.6
710.654	6938.67
710.998	6960.82
711.342	6903.65
711.687	6886.25
712.031	6855.96
712.375	6887.83
712.719	6872.01
713.063	6876.3
713.407	6869.07
713.75	6806.02
714.094	6825.23
714.438	6766.25
714.782	6791.56
715.125	6781.84
715.469	6715.63
715.812	6686.93
716.156	6687.15
716.499	6721.5
716.843	6714.72
717.186	6654.84
717.53	6672.24
717.873	6706.14
718.216	6642.86
718.559	6662.75
718.902	6586.82
719.246	6608.51
719.589	6572.81
719.932	6560.15
720.275	6548.63
720.617	6547.05
720.96	6579.36
721.303	6542.98
721.646	6563.32
721.989	6488.97
722.331	6550.66
722.674	6474.73
723.016	6523.09
723.359	6495.75
723.701	6486.26
724.044	6496.43
724.386	6504.79
724.729	6471.79
725.071	6469.76
725.413	6452.58
725.755	6389.08
726.097	6453.04
726.439	6436.31
726.782	6426.82
727.124	6474.28
727.465	6452.58
727.807	6445.13
728.149	6439.93
728.491	6437.44
728.833	6428.4
729.175	6380.72
729.516	6364.45
729.858	6364
730.199	6456.2
730.541	6380.5
730.882	6383.66
731.224	6333.04
731.565	6354.06
731.906	6367.62
732.248	6378.46
732.589	6361.29
732.93	6370.55
733.271	6320.16
733.612	6391.57
733.953	6377.11
734.294	6321.74
734.635	6323.77
734.976	6326.49
735.317	6282.42
735.658	6260.05
735.999	6323.55
736.339	6322.42
736.68	6269.09
737.021	6301.85
737.361	6303.66
737.702	6291.68
738.042	6222.76
738.383	6252.14
738.723	6255.75
739.063	6262.99
739.404	6191.57
739.744	6231.8
740.084	6227.51
740.424	6188.86
740.764	6194.96
741.104	6234.74
741.444	6225.92
741.784	6187.51
742.124	6213.95
742.464	6244.23
742.804	6151.12
743.143	6084.68
743.483	6131.92
743.823	6101.63
744.162	6082.88
744.502	6130.79
744.841	6058.7
745.181	6093.27
745.52	6048.53
745.86	6073.84
746.199	6078.13
746.538	6043.56
746.877	6034.97
747.216	6052.6
747.556	6071.35
747.895	6002.88
748.234	6017.57
748.573	5966.72
748.911	5966.27
749.25	6020.73
749.589	5920.62
749.928	5920.4
750.267	5933.5
750.605	5907.97
750.944	5863
751.283	5806.5
751.621	5899.83
751.96	5768.99
752.298	5798.14
752.636	5856.44
752.975	5779.61
753.313	5778.03
753.651	5748.2
753.989	5721.76
754.327	5727.63
754.666	5716.56
755.004	5697.58
755.342	5721.3
755.679	5702.1
756.017	5637.01
756.355	5667.97
756.693	5638.59
757.031	5664.81
757.368	5576.9
757.706	5545.04
758.044	5578.03
758.381	5527.86
758.719	5508.88
759.056	5540.07
759.394	5534.64
759.731	5479.73
760.068	5492.16
760.405	5458.03
760.743	5435.44
761.08	5430.46
761.417	5357.47
761.754	5439.5
762.091	5447.41
762.428	5390.69
762.765	5392.73
763.102	5356.57
763.438	5362.9
763.775	5309.11
764.112	5307.98
764.449	5315.67
764.785	5300.3
765.122	5302.78
765.458	5263.92
765.795	5213.07
766.131	5238.61
766.467	5252.16
766.804	5145.05
767.14	5202.67
767.476	5206.52
767.812	5162.9
768.148	5113.41
768.485	5160.64
768.821	5080.19
769.157	5114.31
769.492	5091.49
769.828	5093.75
770.164	4997.03
770.5	5046.52
770.836	5024.6
771.171	5031.6
