Data from foam1_polythene_foam_FLMS001491_00013.txt Node
Date: Wed Feb 08 10:54:27 GMT 2017
User: dcchb
Spectrometer: FLMS00149
Trigger mode: 0
Integration Time (sec): 2.000000E-2
Scans to average: 10
Electric dark correction enabled: true
Nonlinearity correction enabled: false
Boxcar width: 0
XAxis mode: Wavelengths
Number of Pixels in Spectrum: 2048
>>>>>Begin Spectral Data<<<<<
341.393	-16.98
341.776	-16.98
342.16	-16.98
342.543	-61.27
342.927	-53.13
343.31	-69.4
343.693	-72.57
344.077	-54.94
344.46	-60.14
344.843	-54.04
345.226	-35.51
345.61	-20.59
345.993	-16.75
346.376	-5.45
346.759	18.05
347.142	25.28
347.525	33.42
347.908	52.63
348.291	68.9
348.674	77.03
349.057	114.09
349.44	131.27
349.823	150.25
350.206	154.09
350.588	178.27
350.971	200.42
351.354	206.52
351.737	244.03
352.119	227.08
352.502	246.07
352.884	269.8
353.267	252.85
353.65	270.02
354.032	283.81
354.414	287.87
354.797	295.56
355.179	307.31
355.562	312.96
355.944	303.47
356.326	300.53
356.709	318.61
357.091	320.42
357.473	335.56
357.855	329.23
358.238	311.15
358.62	299.62
359.002	326.52
359.384	334.65
359.766	326.97
360.148	314.54
360.53	348.66
360.912	324.03
361.294	322.45
361.676	311.15
362.057	319.29
362.439	294.88
362.821	303.24
363.203	334.43
363.584	319.74
363.966	302.34
364.348	317.25
364.729	311.6
365.111	307.31
365.493	309.57
365.874	296.46
366.256	289.68
366.637	310.02
367.019	313.64
367.4	301.66
367.781	289
368.163	305.05
368.544	294.2
368.925	286.74
369.306	289.68
369.688	283.81
370.069	299.4
370.45	298.27
370.831	315.67
371.212	281.09
371.593	317.25
371.974	302.56
372.355	297.14
372.736	312.96
373.117	301.21
373.498	322
373.879	309.79
374.26	298.27
374.641	298.95
375.021	286.29
375.402	316.57
375.783	304.14
376.163	283.35
376.544	311.15
376.925	303.69
377.305	302.56
377.686	302.56
378.066	303.92
378.447	314.77
378.827	316.12
379.208	331.26
379.588	318.16
379.968	297.59
380.349	319.74
380.729	303.24
381.109	309.12
381.489	325.61
381.87	315.67
382.25	320.19
382.63	324.93
383.01	336.01
383.39	326.52
383.77	329.91
384.15	334.43
384.53	323.58
384.91	336.91
385.29	336.46
385.67	330.36
386.049	351.37
386.429	355.22
386.809	350.47
387.189	337.82
387.568	340.75
387.948	359.28
388.328	320.64
388.707	359.28
389.087	321.55
389.466	336.69
389.846	326.06
390.225	337.14
390.605	346.18
390.984	331.71
391.363	363.58
391.743	348.21
392.122	363.58
392.501	356.57
392.881	357.93
393.26	365.16
393.639	364.71
394.018	363.13
394.397	354.54
394.776	364.71
395.155	352.05
395.534	358.61
395.913	373.52
396.292	357.02
396.671	347.31
397.05	383.92
397.429	393.63
397.808	381.43
398.186	354.76
398.565	377.81
398.944	379.4
399.323	368.78
399.701	372.84
400.08	382.79
400.458	377.81
400.837	368.78
401.215	369.23
401.594	387.76
401.972	394.31
402.351	392.28
402.729	376.91
403.107	383.92
403.486	401.32
403.864	378.04
404.242	387.76
404.62	397.48
404.999	383.46
405.377	391.15
405.755	378.94
406.133	370.58
406.511	392.28
406.889	398.38
407.267	412.62
407.645	404.25
408.023	417.81
408.401	422.56
408.779	422.33
409.156	420.07
409.534	417.36
409.912	395.67
410.29	416.68
410.667	423.24
411.045	420.53
411.422	444.03
411.8	415.55
412.178	427.98
412.555	449.23
412.933	446.97
413.31	442.22
413.687	436.12
414.065	427.31
414.442	443.35
414.819	438.38
415.197	448.55
415.574	442.22
415.951	460.98
416.328	453.07
416.705	472.05
417.082	461.65
417.46	446.74
417.837	474.99
418.214	463.46
418.591	491.26
418.967	497.81
419.344	444.48
419.721	467.76
420.098	488.77
420.475	490.35
420.852	478.6
421.228	479.06
421.605	483.57
421.982	493.29
422.358	481.77
422.735	487.64
423.111	497.81
423.488	482.9
423.864	514.76
424.241	481.09
424.617	500.98
424.994	490.58
425.37	506.17
425.746	496.91
426.123	503.46
426.499	502.78
426.875	510.24
427.251	515.21
427.627	523.57
428.003	525.38
428.379	531.71
428.756	544.59
429.132	535.78
429.507	544.14
429.883	533.97
430.259	569.45
430.635	538.04
431.011	554.31
431.387	565.15
431.763	593.85
432.138	549.79
432.514	595.89
432.89	591.37
433.265	575.78
433.641	601.54
434.016	563.35
434.392	582.1
434.767	604.7
435.143	614.19
435.518	618.94
435.894	612.16
436.269	623.23
436.644	626.4
437.02	628.66
437.395	644.7
437.77	626.85
438.145	662.55
438.52	639.05
438.895	662.55
439.271	664.14
439.646	662.1
440.021	653.06
440.395	650.12
440.77	672.27
441.145	658.49
441.52	690.12
441.895	679.28
442.27	676.34
442.645	703.91
443.019	677.69
443.394	701.42
443.769	727.64
444.143	736.68
444.518	703.46
444.892	710.91
445.267	716.79
445.641	727.64
446.016	698.94
446.39	754.08
446.764	747.52
447.139	760.86
447.513	741.65
447.887	737.35
448.262	777.58
448.636	764.02
449.01	767.86
449.384	774.41
449.758	777.35
450.132	785.94
450.506	787.75
450.88	795.88
451.254	814.41
451.628	793.62
452.002	812.15
452.376	811.7
452.75	812.15
453.123	828.65
453.497	843.11
453.871	808.54
454.244	864.58
454.618	855.99
454.992	843.57
455.365	835.88
455.739	857.8
456.112	848.31
456.486	871.14
456.859	852.38
457.232	873.17
457.606	841.76
457.979	852.38
458.352	900.51
458.725	878.59
459.099	874.3
459.472	894.19
459.845	896.45
460.218	891.02
460.591	886.5
460.964	902.32
461.337	924.69
461.71	912.94
462.083	936.67
462.456	949.1
462.829	915.2
463.201	950.46
463.574	945.94
463.947	947.97
464.32	971.25
464.692	941.19
465.065	971.92
465.438	971.02
465.81	994.97
466.183	991.81
466.555	1027.29
466.928	1016.44
467.3	1010.11
467.672	1026.61
468.045	1022.77
468.417	1036.55
468.789	1022.54
469.161	1051.92
469.534	1070.68
469.906	1075.2
470.278	1077.23
470.65	1058.7
471.022	1116.1
471.394	1110.45
471.766	1123.33
472.138	1136.21
472.51	1147.74
472.882	1138.92
473.253	1168.98
473.625	1171.47
473.997	1185.25
474.369	1174.4
474.74	1191.8
475.112	1212.14
475.484	1231.13
475.855	1249.2
476.227	1244.01
476.598	1287.17
476.97	1305.02
477.341	1299.37
477.713	1324.23
478.084	1334.63
478.455	1352.03
478.827	1387.96
479.198	1375.75
479.569	1367.17
479.94	1421.63
480.311	1417.79
480.682	1469.76
481.053	1427.73
481.424	1495.53
481.795	1503.21
482.166	1533.04
482.537	1532.36
482.908	1564.9
483.279	1539.82
483.65	1587.27
484.021	1583.43
484.391	1608.07
484.762	1639.93
485.133	1653.26
485.503	1673.6
485.874	1711.34
486.244	1704.33
486.615	1722.86
486.985	1691.45
487.356	1762.86
487.726	1775.74
488.097	1786.59
488.467	1784.56
488.837	1836.99
489.207	1892.8
489.578	1854.61
489.948	1894.39
490.318	1901.16
490.688	1942.07
491.058	1956.08
491.428	1970.32
491.798	1981.39
492.168	2000.6
492.538	2021.84
492.908	2043.31
493.278	2062.74
493.648	2075.17
494.017	2078.79
494.387	2101.84
494.757	2098.22
495.126	2140.25
495.496	2127.83
495.866	2165.11
496.235	2176.19
496.605	2198.56
496.974	2214.6
497.344	2242.4
497.713	2238.78
498.082	2241.95
498.452	2287.37
498.821	2297.76
499.19	2290.98
499.559	2325.56
499.928	2325.11
500.298	2314.49
500.667	2329.63
501.036	2352.68
501.405	2376.86
501.774	2367.59
502.143	2389.06
502.512	2424.31
502.88	2429.51
503.249	2437.65
503.618	2459.57
503.987	2471.55
504.356	2494.82
504.724	2490.3
505.093	2529.62
505.462	2497.99
505.83	2505.89
506.199	2563.07
506.567	2559
506.936	2582.5
507.304	2605.1
507.672	2611.43
508.041	2612.33
508.409	2644.65
508.777	2678.09
509.145	2697.08
509.514	2687.13
509.882	2714.7
510.25	2739.33
510.618	2735.49
510.986	2735.49
511.354	2778.2
511.722	2791.54
512.09	2817.3
512.458	2828.82
512.826	2832.67
513.193	2847.81
513.561	2852.55
513.929	2874.47
514.297	2928.03
514.664	2926.67
515.032	2960.35
515.4	2985.43
515.767	2984.98
516.135	3021.14
516.502	3005.99
516.869	3013.23
517.237	3033.11
517.604	3045.54
517.972	3049.16
518.339	3124.41
518.706	3131.41
519.073	3151.3
519.44	3142.71
519.808	3149.95
520.175	3179.78
520.542	3268.81
520.909	3228.14
521.276	3241.92
521.643	3232.43
522.009	3295.25
522.376	3312.88
522.743	3364.18
523.11	3384.52
523.477	3349.26
523.843	3396.72
524.21	3409.15
524.577	3467.9
524.943	3528.92
525.31	3517.17
525.676	3518.07
526.043	3539.77
526.409	3544.51
526.776	3599.2
527.142	3593.32
527.508	3604.85
527.874	3643.94
528.241	3649.37
528.607	3695.92
528.973	3733.88
529.339	3726.43
529.705	3759.42
530.071	3738.63
530.437	3794
530.803	3802.36
531.169	3866.08
531.535	3797.39
531.901	3890.72
532.267	3890.04
532.632	3885.52
532.998	3889.59
533.364	3916.03
533.73	3940.43
534.095	3990.6
534.461	3994.89
534.826	3946.99
535.192	4006.19
535.557	4034.67
535.923	4039.87
536.288	4052.52
536.653	4066.76
537.019	4065.63
537.384	4116.02
537.749	4161.67
538.114	4161.67
538.479	4153.53
538.845	4186.75
539.21	4152.86
539.575	4204.15
539.94	4217.26
540.305	4197.6
540.67	4211.16
541.034	4246.19
541.399	4215
541.764	4302.68
542.129	4280.99
542.494	4318.5
542.858	4320.76
543.223	4353.76
543.587	4366.64
543.952	4356.02
544.316	4374.55
544.681	4329.58
545.045	4397.37
545.41	4447.31
545.774	4439.4
546.138	4451.38
546.503	4505.84
546.867	4481.66
547.231	4512.4
547.595	4531.15
547.959	4511.04
548.324	4531.6
548.688	4531.38
549.052	4554.2
549.416	4619.51
549.779	4614.99
550.143	4636.91
550.507	4664.93
550.871	4688.89
551.235	4684.82
551.599	4720.75
551.962	4681.2
552.326	4704.25
552.689	4713.29
553.053	4708.1
553.417	4764.82
553.78	4830.81
554.143	4842.33
554.507	4854.53
554.87	4864.02
555.234	4889.56
555.597	4898.6
555.96	4943.8
556.323	4950.35
556.686	4932.72
557.05	4972.04
557.413	4994.19
557.776	5064.92
558.139	5086.17
558.502	5088.65
558.865	5101.31
559.228	5093.4
559.59	5066.51
559.953	5068.99
560.316	5211.81
560.679	5218.82
561.041	5264.01
561.404	5299.04
561.767	5315.76
562.129	5282.77
562.492	5359.83
562.854	5315.99
563.217	5374.75
563.579	5388.3
563.941	5411.81
564.304	5419.49
564.666	5500.39
565.028	5464.23
565.39	5578.81
565.753	5567.28
566.115	5537
566.477	5577
566.839	5601.18
567.201	5642.54
567.563	5628.52
567.925	5675.75
568.287	5708.07
568.648	5712.14
569.01	5768.86
569.372	5900.61
569.734	5796.88
570.095	5771.57
570.457	5801.85
570.819	5853.38
571.18	5824
571.542	5851.8
571.903	5884.34
572.265	5882.53
572.626	5899.25
572.987	5942.64
573.349	6010.66
573.71	6028.06
574.071	6036.2
574.432	6061.06
574.794	6088.17
575.155	6093.82
575.516	6097.21
575.877	6074.61
576.238	6126.59
576.599	6181.73
576.96	6173.59
577.32	6177.66
577.681	6196.42
578.042	6171.33
578.403	6195.06
578.763	6181.73
579.124	6233.25
579.485	6195.06
579.845	6134.95
580.206	6252.91
580.566	6254.04
580.927	6266.25
581.287	6286.36
581.648	6221.96
582.008	6319.13
582.368	6293.59
582.728	6300.6
583.089	6290.43
583.449	6231.45
583.809	6245.46
584.169	6297.66
584.529	6268.96
584.889	6350.31
585.249	6321.84
585.609	6303.53
585.969	6357.54
586.329	6327.94
586.688	6321.16
587.048	6356.64
587.408	6263.08
587.768	6316.19
588.127	6287.26
588.487	6275.06
588.846	6270.54
589.206	6305.12
589.565	6289.75
589.925	6353.48
590.284	6336.75
590.643	6353.03
591.003	6372.23
591.362	6349.18
591.721	6392.35
592.08	6365.68
592.44	6399.13
592.799	6356.64
593.158	6387.15
593.517	6382.63
593.876	6378.79
594.235	6314.38
594.593	6359.8
594.952	6327.26
595.311	6357.32
595.67	6364.32
596.029	6400.71
596.387	6392.57
596.746	6406.36
597.104	6424.66
597.463	6377.21
597.822	6424.21
598.18	6399.58
598.538	6395.51
598.897	6434.6
599.255	6349.64
599.613	6447.49
599.972	6422.4
600.33	6453.14
600.688	6390.99
601.046	6441.84
601.404	6468.5
601.762	6435.28
602.12	6482.29
602.478	6482.51
602.836	6448.84
603.194	6405.45
603.552	6466.02
603.91	6468.5
604.268	6463.3
604.625	6426.24
604.983	6486.35
605.341	6423.08
605.698	6539.01
606.056	6479.35
606.413	6500.59
606.771	6499.91
607.128	6539.91
607.485	6509.86
607.843	6482.74
608.2	6559.12
608.557	6587.14
608.914	6496.3
609.272	6547.82
609.629	6590.76
609.986	6568.39
610.343	6529.74
610.7	6627.37
611.057	6575.84
611.414	6534.49
611.771	6605.45
612.127	6598.44
612.484	6572.68
612.841	6585.56
613.198	6594.37
613.554	6588.73
613.911	6624.88
614.267	6653.81
614.624	6604.09
614.98	6629.18
615.337	6696.74
615.693	6645.45
616.05	6666.46
616.406	6642.73
616.762	6654.03
617.118	6630.53
617.475	6589.4
617.831	6619.91
618.187	6593.02
618.543	6617.88
618.899	6725.22
619.255	6677.76
619.611	6716.63
619.967	6617.88
620.323	6660.14
620.678	6621.04
621.034	6667.59
621.39	6676.86
621.746	6661.27
622.101	6740.59
622.457	6686.58
622.812	6655.62
623.168	6692
623.523	6694.94
623.879	6728.38
624.234	6588.27
624.589	6623.75
624.945	6678.67
625.3	6704.2
625.655	6696.74
626.01	6671.66
626.365	6642.73
626.72	6682.96
627.075	6669.17
627.43	6637.09
627.785	6593.24
628.14	6616.52
628.495	6658.78
628.85	6618.78
629.205	6652.68
629.559	6672.56
629.914	6647.48
630.269	6626.24
630.623	6586.92
630.978	6589.63
631.332	6577.88
631.687	6588.05
632.041	6572.45
632.396	6534.49
632.75	6560.03
633.104	6605
633.459	6558.44
633.813	6554.38
634.167	6510.31
634.521	6485.68
634.875	6529.52
635.229	6509.63
635.583	6435.06
635.937	6558.44
636.291	6529.29
636.645	6497.43
636.999	6428.05
637.352	6463.08
637.706	6475.73
638.06	6450.88
638.413	6435.06
638.767	6393.25
639.121	6412.68
639.474	6384.44
639.828	6394.61
640.181	6406.81
640.534	6415.85
640.888	6396.87
641.241	6334.95
641.594	6370.88
641.947	6336.08
642.301	6329.07
642.654	6329.52
643.007	6289.98
643.36	6374.72
643.713	6348.96
644.066	6340.14
644.419	6296.08
644.771	6176.08
645.124	6144.89
645.477	6096.31
645.83	6070.32
646.182	6028.51
646.535	6045.01
646.888	6140.83
647.24	6115.29
647.593	6147.83
647.945	6215.63
648.298	6159.81
648.65	6146.02
649.002	6099.47
649.355	6082.52
649.707	6059.93
650.059	6019.02
650.411	6140.83
650.763	6052.92
651.115	6155.06
651.467	6169.53
651.819	6153.71
652.171	6118
652.523	6088.4
652.875	6071.9
653.227	6067.83
653.578	6137.89
653.93	6129.08
654.282	6066.25
654.633	6080.04
654.985	6069.64
655.337	6069.42
655.688	6087.5
656.039	6087.04
656.391	6018.12
656.742	6104.44
657.094	6041.62
657.445	6063.99
657.796	6085.46
658.147	6018.57
658.498	6073.03
658.849	5986.48
659.2	6018.34
659.551	5984.22
659.902	6005.01
660.253	6035.07
660.604	5970.66
660.955	5987.38
661.306	5980.83
661.656	5941.96
662.007	5967.27
662.358	5955.3
662.708	5931.57
663.059	5933.15
663.409	5899.93
663.76	6002.07
664.11	5984.9
664.461	6000.72
664.811	6005.69
665.161	6006.14
665.511	5929.99
665.862	5957.56
666.212	5957.56
666.562	5944.9
666.912	5925.24
667.262	5957.78
667.612	5968.85
667.962	5921.4
668.312	5892.47
668.662	5941.28
669.011	5946.26
669.361	5898.57
669.711	5892.25
670.06	5910.78
670.41	5913.26
670.76	5885.01
671.109	5896.77
671.459	5915.97
671.808	5919.82
672.157	5896.99
672.507	5850.89
672.856	5854.96
673.205	5899.93
673.554	5861.96
673.904	5804.11
674.253	5868.97
674.602	5847.05
674.951	5803.66
675.3	5759.59
675.649	5859.25
675.998	5821.74
676.346	5854.96
676.695	5857.22
677.044	5786.49
677.393	5867.84
677.741	5831.68
678.09	5834.85
678.438	5797.56
678.787	5799.37
679.135	5835.07
679.484	5745.58
679.832	5754.4
680.181	5777.67
680.529	5781.51
680.877	5761.63
681.225	5752.14
681.573	5755.75
681.922	5709.2
682.27	5732.48
682.618	5742.87
682.966	5682.76
683.314	5684.12
683.661	5657
684.009	5653.38
684.357	5635.08
684.705	5645.7
685.053	5611.58
685.4	5595.3
685.748	5607.28
686.095	5602.54
686.443	5578.13
686.79	5561.86
687.138	5567.51
687.485	5542.42
687.832	5519.15
688.18	5539.71
688.527	5520.96
688.874	5528.87
689.221	5544.46
689.568	5503.33
689.915	5508.53
690.262	5511.69
690.609	5479.6
690.956	5428.3
691.303	5456.78
691.65	5402.09
691.997	5424.01
692.344	5405.71
692.69	5424.46
693.037	5363.22
693.383	5364.58
693.73	5387.63
694.077	5318.93
694.423	5311.92
694.769	5311.02
695.116	5319.83
695.462	5316.89
695.808	5241.87
696.155	5238.7
696.501	5256.78
696.847	5225.15
697.193	5194.19
697.539	5200.96
697.885	5205.26
698.231	5203
698.577	5177.69
698.923	5149.21
699.269	5158.25
699.614	5153.73
699.96	5163.45
700.306	5137.46
700.651	5093.62
700.997	5083
701.342	5075.09
701.688	5014.3
702.033	5008.2
702.379	5074.19
702.724	5009.78
703.069	5004.36
703.415	4941.08
703.76	4986.06
704.105	4932.5
704.45	4938.82
704.795	4935.44
705.14	4896.11
705.485	4939.73
705.83	4959.84
706.175	4945.38
706.52	4933.85
706.865	4917.58
707.209	4910.8
707.554	4865.38
707.899	4908.54
708.243	4873.29
708.588	4828.09
708.932	4789.68
709.277	4804.37
709.621	4785.83
709.966	4786.96
710.31	4795.55
710.654	4721.2
710.998	4741.09
711.342	4758.72
711.687	4696.12
712.031	4710.13
712.375	4692.96
712.719	4752.84
713.063	4704.25
713.407	4716.46
713.75	4676.68
714.094	4651.37
714.438	4675.56
714.782	4655.22
715.125	4611.83
715.469	4657.7
715.812	4600.75
716.156	4566.63
716.499	4575.9
716.843	4644.82
717.186	4628.1
717.53	4621.09
717.873	4623.13
718.216	4603.01
718.559	4587.87
718.902	4553.98
719.246	4569.8
719.589	4576.57
719.932	4533.64
720.275	4544.49
720.617	4532.51
720.96	4525.28
721.303	4483.47
721.646	4483.24
721.989	4439.18
722.331	4433.3
722.674	4424.26
723.016	4424.26
723.359	4419.74
723.701	4478.72
724.044	4407.31
724.386	4383.59
724.729	4446.18
725.071	4491.38
725.413	4466.52
725.755	4424.26
726.097	4443.7
726.439	4395.56
726.782	4398.5
727.124	4403.7
727.465	4355.79
727.807	4383.81
728.149	4389.01
728.491	4326.19
728.833	4380.65
729.175	4331.84
729.516	4318.95
729.858	4301.55
730.199	4306.75
730.541	4306.98
730.882	4303.81
731.224	4320.31
731.565	4308.56
731.906	4320.08
732.248	4316.02
732.589	4284.83
732.93	4232.63
733.271	4303.59
733.612	4270.59
733.953	4287.54
734.294	4262.68
734.635	4209.58
734.976	4235.57
735.317	4191.05
735.658	4179.75
735.999	4202.35
736.339	4225.62
736.68	4211.84
737.021	4146.53
737.361	4194.44
737.702	4179.75
738.042	4235.79
738.383	4193.08
738.723	4203.03
739.063	4186.98
739.404	4205.28
739.744	4196.47
740.084	4160.31
740.424	4133.2
740.764	4148.11
741.104	4176.59
741.444	4145.4
741.784	4093.42
742.124	4109.92
742.464	4118.51
742.804	4106.08
743.143	4065.18
743.483	4079.86
743.823	4081.67
744.162	4079.19
744.502	4064.05
744.841	4075.12
745.181	4097.72
745.52	4068.11
745.86	4068.79
746.199	4109.24
746.538	4061.56
746.877	4058.85
747.216	4040.54
747.556	4062.92
747.895	4054.1
748.234	4021.33
748.573	3974.78
748.911	3983.82
749.25	3963.03
749.589	3978.17
749.928	4012.07
750.267	3962.13
750.605	3935.01
750.944	3953.77
751.283	3941.34
751.621	3978.85
751.96	3942.69
752.298	3909.47
752.636	3950.38
752.975	3895.69
753.313	3948.57
753.651	3945.63
753.989	3890.94
754.327	3890.26
754.666	3877.61
755.004	3885.29
755.342	3915.35
755.679	3851.17
756.017	3824.73
756.355	3808.69
756.693	3807.56
757.031	3824.96
757.368	3815.01
757.706	3799.87
758.044	3782.47
758.381	3787.22
758.719	3789.48
759.056	3789.93
759.394	3789.25
759.731	3768.46
760.068	3766.43
760.405	3717.16
760.743	3729.14
761.08	3768.46
761.417	3755.35
761.754	3734.34
762.091	3714.68
762.428	3713.32
762.765	3667.67
763.102	3703.83
763.438	3634.9
763.775	3672.87
764.112	3599.43
764.449	3688.91
764.785	3605.53
765.122	3615.47
765.458	3582.93
765.795	3607.11
766.131	3577.05
766.467	3604.4
766.804	3564.17
767.14	3544.74
767.476	3588.8
767.812	3529.37
768.148	3549.93
768.485	3479.65
768.821	3507.68
769.157	3489.15
769.492	3468.58
769.828	3509.26
770.164	3416.38
770.5	3426.1
770.836	3415.02
771.171	3427.68
