Data from foam2_polystyrene_foam_FLMS001491_00064.txt Node
Date: Wed Feb 08 10:58:19 GMT 2017
User: dcchb
Spectrometer: FLMS00149
Trigger mode: 0
Integration Time (sec): 2.000000E-2
Scans to average: 10
Electric dark correction enabled: true
Nonlinearity correction enabled: false
Boxcar width: 0
XAxis mode: Wavelengths
Number of Pixels in Spectrum: 2048
>>>>>Begin Spectral Data<<<<<
341.393	-10.32
341.776	-10.32
342.16	-10.32
342.543	-76.31
342.927	-60.72
343.31	-66.37
343.693	-60.04
344.077	-64.33
344.46	-55.97
344.843	-44
345.226	-48.74
345.61	-22.98
345.993	-16.88
346.376	-16.88
346.759	3.69
347.142	22.22
347.525	44.36
347.908	64.48
348.291	74.42
348.674	82.55
349.057	104.47
349.44	124.81
349.823	157.58
350.206	175.66
350.588	176.56
350.971	206.39
351.354	216.11
351.737	241.42
352.119	252.49
352.502	235.77
352.884	274.19
353.267	281.65
353.65	308.76
354.032	297.24
354.414	316.67
354.797	332.72
355.179	309.44
355.562	324.58
355.944	341.76
356.326	353.96
356.709	331.81
357.091	342.66
357.473	335.88
357.855	349.44
358.238	330.68
358.62	343.11
359.002	354.86
359.384	359.61
359.766	337.69
360.148	357.12
360.53	352.83
360.912	339.95
361.294	346.28
361.676	349.44
362.057	327.75
362.439	341.53
362.821	331.36
363.203	384.47
363.584	327.97
363.966	328.2
364.348	326.16
364.729	338.59
365.111	335.2
365.493	324.81
365.874	337.91
366.256	337.46
366.637	329.1
367.019	337.46
367.4	346.05
367.781	333.4
368.163	321.19
368.544	316.22
368.925	341.53
369.306	341.98
369.688	337.46
370.069	341.3
370.45	331.59
370.831	339.04
371.212	337.46
371.593	356.22
371.974	349.21
372.355	334.75
372.736	360.51
373.117	344.47
373.498	345.37
373.879	338.37
374.26	353.06
374.641	318.03
375.021	318.71
375.402	363.68
375.783	346.5
376.163	359.84
376.544	355.54
376.925	369.55
377.305	346.95
377.686	355.54
378.066	357.8
378.447	395.09
378.827	386.73
379.208	368.87
379.588	384.24
379.968	383.79
380.349	381.08
380.729	383.56
381.109	374.3
381.489	383.79
381.87	377.01
382.25	405.26
382.63	381.76
383.01	413.17
383.39	408.2
383.77	396.9
384.15	417.01
384.53	411.13
384.91	400.29
385.29	413.39
385.67	398.7
386.049	430.12
386.429	403.45
386.809	414.97
387.189	408.42
387.568	418.59
387.948	426.05
388.328	420.85
388.707	433.73
389.087	445.26
389.466	429.21
389.846	429.21
390.225	441.64
390.605	461.98
390.984	459.27
391.363	440.51
391.743	444.8
392.122	441.19
392.501	461.53
392.881	478.25
393.26	458.82
393.639	460.4
394.018	466.95
394.397	482.54
394.776	486.61
395.155	479.83
395.534	492.94
395.913	484.13
396.292	499.49
396.671	491.36
397.05	494.97
397.429	495.88
397.808	471.92
398.186	505.59
398.565	486.16
398.944	521.64
399.323	514.41
399.701	527.97
400.08	521.41
400.458	517.35
400.837	534.75
401.215	519.15
401.594	545.37
401.972	522.09
402.351	557.12
402.729	546.04
403.107	548.08
403.486	566.84
403.864	555.31
404.242	569.1
404.62	579.94
404.999	574.52
405.377	588.3
405.755	596.89
406.133	553.05
406.511	587.63
406.889	598.47
407.267	589.21
407.645	570.9
408.023	603.44
408.401	606.61
408.779	621.07
409.156	611.35
409.534	641.18
409.912	615.42
410.29	647.96
410.667	625.82
411.045	664.46
411.422	675.31
411.8	685.25
412.178	661.3
412.555	694.74
412.933	704.46
413.31	681.63
413.687	693.39
414.065	710.56
414.442	693.84
414.819	715.98
415.197	720.5
415.574	732.48
415.951	735.64
416.328	761.86
416.705	744.01
417.082	738.81
417.46	743.1
417.837	753.5
418.214	778.36
418.591	761.86
418.967	768.64
419.344	793.27
419.721	805.93
420.098	787.39
420.475	812.93
420.852	795.3
421.228	783.78
421.605	834.17
421.982	831.01
422.358	822.2
422.735	834.62
423.111	850.44
423.488	850.44
423.864	860.61
424.241	879.14
424.617	861.06
424.994	877.79
425.37	884.34
425.746	889.99
426.123	906.49
426.499	888.18
426.875	911.23
427.251	915.3
427.627	944.9
428.003	960.5
428.379	969.54
428.756	967.28
429.132	993.04
429.507	991.91
429.883	1032.59
430.259	1049.31
430.635	1032.13
431.011	1041.63
431.387	1041.63
431.763	1077.56
432.138	1040.95
432.514	1059.93
432.89	1099.7
433.265	1112.58
433.641	1114.62
434.016	1135.63
434.392	1150.77
434.767	1181.06
435.143	1176.76
435.518	1158.91
435.894	1177.89
436.269	1229.64
436.644	1189.87
437.02	1215.41
437.395	1216.54
437.77	1252.47
438.145	1285.01
438.52	1266.03
438.895	1265.35
439.271	1281.62
439.646	1304.22
440.021	1330.21
440.395	1351
440.77	1336.08
441.145	1338.11
441.52	1379.47
441.895	1382.41
442.27	1365.91
442.645	1386.25
443.019	1400.03
443.394	1387.38
443.769	1431.67
444.143	1417.21
444.518	1434.84
444.892	1430.99
445.267	1446.59
445.641	1470.54
446.016	1488.39
446.39	1471.9
446.764	1483.87
447.139	1494.72
447.513	1548.96
447.887	1492.91
448.262	1525.45
448.636	1529.97
449.01	1575.62
449.384	1563.87
449.758	1585.79
450.132	1625.79
450.506	1586.02
450.88	1622.4
451.254	1667.6
451.628	1661.5
452.002	1685
452.376	1672.12
452.75	1683.87
453.123	1709.4
453.497	1716.41
453.871	1720.93
454.244	1770.19
454.618	1790.08
454.992	1798.89
455.365	1781.49
455.739	1838.67
456.112	1876.41
456.486	1844.32
456.859	1857.87
457.232	1919.79
457.606	1925.67
457.979	1901.04
458.352	1945.56
458.725	1947.82
459.099	1977.65
459.472	1995.5
459.845	2016.06
460.218	2050.19
460.591	2065.78
460.964	2058.77
461.337	2097.87
461.71	2110.07
462.083	2133.57
462.456	2146
462.829	2128.15
463.201	2216.51
463.574	2193.69
463.947	2255.83
464.32	2263.97
464.692	2303.96
465.065	2291.99
465.438	2346.45
465.81	2346.45
466.183	2395.94
466.555	2479.33
466.928	2443.17
467.3	2446.56
467.672	2462.83
468.045	2548.03
468.417	2557.29
468.789	2599.32
469.161	2633.22
469.534	2634.13
469.906	2694.92
470.278	2698.76
470.65	2739.89
471.022	2737.4
471.394	2789.6
471.766	2821.24
472.138	2846.55
472.51	2908.24
472.882	2966.09
473.253	3009.03
473.625	3007
473.997	3068.69
474.369	3078.63
474.74	3123.38
475.112	3198.4
475.484	3252.19
475.855	3284.05
476.227	3294.67
476.598	3376.03
476.97	3411.28
477.341	3501
477.713	3530.15
478.084	3621.67
478.455	3630.94
478.827	3639.52
479.198	3754.32
479.569	3748.45
479.94	3917.03
480.311	3887.43
480.682	3969.68
481.053	4037.03
481.424	4100.75
481.795	4126.06
482.166	4220.3
482.537	4272.73
482.908	4333.06
483.279	4387.07
483.65	4440.41
484.021	4531.48
484.391	4602.21
484.762	4642.43
485.133	4679.72
485.503	4740.74
485.874	4826.38
486.244	4861.86
486.615	4959.04
486.985	5041.97
487.356	5075.64
487.726	5165.36
488.097	5203.32
488.467	5278.58
488.837	5357.22
489.207	5440.83
489.578	5525.58
489.948	5581.17
490.318	5571.9
490.688	5664.1
491.058	5755.17
491.428	5793.59
491.798	5848.73
492.168	5980.7
492.538	6031.78
492.908	6054.83
493.278	6113.13
493.648	6179.8
494.017	6208.04
494.387	6276.29
494.757	6360.36
495.126	6390.19
495.496	6427.25
495.866	6441.48
496.235	6536.17
496.605	6596.28
496.974	6643.06
497.344	6727.58
497.713	6756.05
498.082	6785.43
498.452	6859.78
498.821	6902.94
499.19	6928.93
499.559	7020
499.928	7003.73
500.298	7074.46
500.667	7153.1
501.036	7113.33
501.405	7233.55
501.774	7264.06
502.143	7297.73
502.512	7310.39
502.88	7394.68
503.249	7423.38
503.618	7578.4
503.987	7582.7
504.356	7563.49
504.724	7672.86
505.093	7666.54
505.462	7719.64
505.83	7785.18
506.199	7832.41
506.567	7934.78
506.936	7930.94
507.304	8041.44
507.672	8084.83
508.041	8071.5
508.409	8154.21
508.777	8234.43
509.145	8356.46
509.514	8309.68
509.882	8438.72
510.25	8414.09
510.618	8538.83
510.986	8575.44
511.354	8616.57
511.722	8683.46
512.09	8749.45
512.458	8784.7
512.826	8805.94
513.193	8977.01
513.561	8916.9
513.929	9048.42
514.297	9121.41
514.664	9187.85
515.032	9207.51
515.4	9229.21
515.767	9284.12
516.135	9341.52
516.502	9383.78
516.869	9503.78
517.237	9577.22
517.604	9498.35
517.972	9728.4
518.339	9718.69
518.706	9873.03
519.073	9905.8
519.44	9895.18
519.808	10004.55
520.175	10015.85
520.542	10183.53
520.909	10244.1
521.276	10218.56
521.643	10285
522.009	10401.15
522.376	10448.16
522.743	10529.51
523.11	10663.07
523.477	10779
523.843	10831.65
524.21	10902.83
524.577	10924.3
524.943	11038.65
525.31	11160.91
525.676	11207.91
526.043	11347.34
526.409	11310.28
526.776	11403.84
527.142	11525.64
527.508	11571.74
527.874	11708.46
528.241	11700.1
528.607	11751.85
528.973	11866.2
529.339	11933.32
529.705	12065.74
530.071	12236.13
530.437	12217.83
530.803	12261.22
531.169	12348.22
531.535	12319.52
531.901	12395.68
532.267	12443.59
532.632	12603.13
532.998	12624.15
533.364	12694.65
533.73	12735.55
534.095	12777.36
534.461	12860.75
534.826	12974.19
535.192	12962.44
535.557	13051.93
535.923	13037.69
536.288	13108.65
536.653	13201.98
537.019	13154.75
537.384	13258.25
537.749	13336.67
538.114	13320.4
538.479	13412.15
538.845	13497.12
539.21	13561.97
539.575	13517.68
539.94	13541.41
540.305	13715.19
540.67	13684.23
541.034	13789.09
541.399	13827.05
541.764	13810.1
542.129	13973.71
542.494	14047.16
542.858	14009.87
543.223	14041.74
543.587	14151.79
543.952	14079.7
544.316	14298.9
544.681	14181.17
545.045	14229.98
545.41	14350.2
545.774	14453.7
546.138	14382.97
546.503	14415.96
546.867	14474.94
547.231	14689.4
547.595	14615.28
547.959	14708.61
548.324	14717.65
548.688	14715.16
549.052	14658.89
549.416	14737.31
549.779	14889.17
550.143	14914.03
550.507	14969.39
550.871	15065.66
551.235	15000.81
551.599	15212.78
551.962	15156.28
552.326	15253.23
552.689	15386.11
553.053	15253.91
553.417	15446.9
553.78	15537.06
554.143	15541.81
554.507	15605.99
554.87	15760.33
555.234	15822.71
555.597	15790.16
555.96	15840.33
556.323	15874.91
556.686	15971.85
557.05	16110.16
557.413	16165.97
557.776	16165.75
558.139	16270.83
558.502	16297.95
558.865	16346.76
559.228	16569.8
559.59	16629.69
559.953	16671.72
560.316	16805.96
560.679	16745.39
561.041	16943.58
561.404	16979.96
561.767	17011.37
562.129	17099.51
562.492	17251.37
562.854	17297.02
563.217	17385.38
563.579	17323
563.941	17459.27
564.304	17511.93
564.666	17607.52
565.028	17669.44
565.39	17697.46
565.753	17936.55
566.115	17952.14
566.477	17974.97
566.839	17989.2
567.201	18121.18
567.563	18191.46
567.925	18299.48
568.287	18392.36
568.648	18459.92
569.01	18472.81
569.372	18613.14
569.734	18536.53
570.095	18767.26
570.457	18788.73
570.819	18792.57
571.18	18876.41
571.542	18865.56
571.903	18859.01
572.265	19141.04
572.626	19161.6
572.987	19216.06
573.349	19227.59
573.71	19310.07
574.071	19392.1
574.432	19345.78
574.794	19567.47
575.155	19592.55
575.516	19531.99
575.877	19536.73
576.238	19612.44
576.599	19633.68
576.96	19748.7
577.32	19762.71
577.681	19823.28
578.042	19848.14
578.403	19919.09
578.763	19977.4
579.124	19919.55
579.485	20015.14
579.845	20080.67
580.206	20030.73
580.566	20023.72
580.927	20043.61
581.287	20134.68
581.648	20187.11
582.008	20128.81
582.368	20186.66
582.728	20141.46
583.089	20179.88
583.449	20159.77
583.809	20186.88
584.169	20268.24
584.529	20195.92
584.889	20297.16
585.249	20257.17
585.609	20238.18
585.969	20214
586.329	20219.43
586.688	20278.63
587.048	20353.21
587.408	20200.67
587.768	20159.99
588.127	20197.28
588.487	20246.09
588.846	20369.48
589.206	20226.21
589.565	20217.84
589.925	20491.28
590.284	20241.12
590.643	20427.78
591.003	20410.61
591.362	20410.83
591.721	20291.97
592.08	20363.83
592.44	20334.68
592.799	20421.91
593.158	20331.29
593.517	20370.16
593.876	20396.6
594.235	20337.16
594.593	20368.35
594.952	20505.52
595.311	20398.18
595.67	20449.7
596.029	20692.63
596.387	20574.9
596.746	20574.9
597.104	20472.98
597.463	20460.55
597.822	20649.47
598.18	20564.28
598.538	20540.1
598.897	20556.37
599.255	20474.11
599.613	20794.55
599.972	20538.74
600.33	20658.51
600.688	20638.62
601.046	20670.49
601.404	20783.7
601.762	20696.7
602.12	20836.36
602.478	20817.83
602.836	20694.89
603.194	20610.38
603.552	20778.06
603.91	20640.66
604.268	20836.36
604.625	20655.12
604.983	20879.3
605.341	20754.55
605.698	20843.14
606.056	20886.08
606.413	20823.7
606.771	20873.87
607.128	20898.96
607.485	20763.14
607.843	20849.92
608.2	20906.87
608.557	21045.62
608.914	21024.15
609.272	21111.61
609.629	21031.38
609.986	21194.77
610.343	21016.47
610.7	21243.58
611.057	21087.2
611.414	21110.7
611.771	21193.41
612.127	21244.03
612.484	21150.02
612.841	21396.34
613.198	21188.89
613.554	21223.24
613.911	21316.35
614.267	21308.21
614.624	21323.13
614.98	21368.1
615.337	21523.8
615.693	21491.26
616.05	21444.93
616.406	21498.04
616.762	21313.86
617.118	21537.36
617.475	21486.06
617.831	21390.69
618.187	21551.59
618.543	21606.28
618.899	21624.59
619.255	21616.68
619.611	21500.75
619.967	21655.77
620.323	21776.45
620.678	21658.94
621.034	21583.46
621.39	21571.25
621.746	21631.82
622.101	21835.2
622.457	21611.03
622.812	21496.91
623.168	21588.88
623.523	21655.77
623.879	21713.17
624.234	21601.99
624.589	21705.26
624.945	21649.22
625.3	21682.21
625.655	21531.48
626.01	21608.54
626.365	21632.27
626.72	21663.68
627.075	21581.2
627.43	21522.67
627.785	21575.77
628.14	21661.87
628.495	21561.31
628.85	21555.44
629.205	21483.12
629.559	21610.58
629.914	21509.79
630.269	21570.35
630.623	21437.25
630.978	21401.77
631.332	21547.3
631.687	21491.93
632.041	21371.94
632.396	21391.15
632.75	21333.29
633.104	21353.63
633.459	21320.19
633.813	21181.66
634.167	21191.38
634.521	21189.12
634.875	21252.39
635.229	21213.98
635.583	21066.64
635.937	21052.17
636.291	20931.05
636.645	21043.36
636.999	20954.55
637.352	20910.48
637.706	20847.21
638.06	20929.01
638.413	20829.81
638.767	20796.13
639.121	20779.86
639.474	20698.96
639.828	20732.41
640.181	20769.24
640.534	20765.4
640.888	20579.87
641.241	20559.3
641.594	20532.86
641.947	20532.19
642.301	20597.27
642.654	20613.31
643.007	20490.61
643.36	20566.99
643.713	20588.23
644.066	20527.67
644.419	20472.3
644.771	20224.4
645.124	19960.68
645.477	19923.39
645.83	19802.94
646.182	19807.91
646.535	19777.86
646.888	19876.38
647.24	19689.04
647.593	19893.56
647.945	19788.93
648.298	19654.47
648.65	19707.12
649.002	19595.04
649.355	19675.03
649.707	19548.94
650.059	19546
650.411	19783.28
650.763	19843.39
651.115	20105.98
651.467	20025.31
651.819	20055.81
652.171	19863.5
652.523	19911.64
652.875	19875.25
653.227	19848.14
653.578	19886.1
653.93	19876.84
654.282	19713.22
654.633	19667.8
654.985	19725.43
655.337	19798.65
655.688	19656.95
656.039	19766.33
656.391	19551.65
656.742	19612.89
657.094	19632.55
657.445	19701.93
657.796	19659.67
658.147	19605.88
658.498	19559.33
658.849	19660.34
659.2	19498.77
659.551	19480.01
659.902	19558.43
660.253	19456.28
660.604	19587.8
660.955	19465.1
661.306	19454.47
661.656	19441.82
662.007	19510.97
662.358	19546
662.708	19347.58
663.059	19353.01
663.409	19309.62
663.76	19415.15
664.11	19392.1
664.461	19373.12
664.811	19432.1
665.161	19318.88
665.511	19260.58
665.862	19288.83
666.212	19287.7
666.562	19360.01
666.912	19297.42
667.262	19212.22
667.612	19228.94
667.962	19256.29
668.312	19188.27
668.662	19301.26
669.011	19270.3
669.361	19197.53
669.711	19155.73
670.06	19079.34
670.41	19136.74
670.76	19124.09
671.109	19163.18
671.459	19105.1
671.808	19068.04
672.157	19181.04
672.507	19052.68
672.856	19061.04
673.205	19126.12
673.554	19049.29
673.904	18946.24
674.253	19187.59
674.602	19063.3
674.951	18828.28
675.3	18608.62
675.649	18878.44
675.998	18911.89
676.346	18941.27
676.695	19026.69
677.044	18852.46
677.393	18859.46
677.741	18880.03
678.09	18819.91
678.438	18775.85
678.787	18856.52
679.135	18821.04
679.484	18742.85
679.832	18833.47
680.181	18690.43
680.529	18689.3
680.877	18589.41
681.225	18513.93
681.573	18755.06
681.922	18551.22
682.27	18423.32
682.618	18577.89
682.966	18502.86
683.314	18491.11
683.661	18455.86
684.009	18289.08
684.357	18307.16
684.705	18424.44
685.053	18313.94
685.4	18224.68
685.748	18158.46
686.095	18147.16
686.443	18270.55
686.79	18024
687.138	18103.32
687.485	18124.57
687.832	17896.32
688.18	18015.87
688.527	17964.57
688.874	17828.75
689.221	17822.43
689.568	17796.66
689.915	17624.47
690.262	17755.31
690.609	17682.54
690.956	17656.78
691.303	17615.2
691.65	17484.58
691.997	17487.75
692.344	17468.99
692.69	17439.39
693.037	17421.99
693.383	17227.64
693.73	17344.93
694.077	17193.74
694.423	17205.95
694.769	17189.9
695.116	17108.55
695.462	17007.98
695.808	16948.78
696.155	17022.22
696.501	16885.5
696.847	16930.02
697.193	16740.42
697.539	16802.57
697.885	16710.59
698.231	16752.62
698.577	16625.17
698.923	16679.18
699.269	16582.01
699.614	16444.16
699.96	16467.43
700.306	16433.76
700.651	16357.15
700.997	16253.43
701.342	16293.65
701.688	16294.11
702.033	16186.99
702.379	16195.13
702.724	16100.44
703.069	16132.75
703.415	15916.49
703.76	16011.18
704.105	15990.38
704.45	15968.01
704.795	15875.81
705.14	15786.32
705.485	15820.67
705.83	15723.72
706.175	15766.44
706.52	15664.74
706.865	15591.98
707.209	15634.46
707.554	15559.89
707.899	15591.75
708.243	15514.69
708.588	15502.94
708.932	15322.38
709.277	15355.6
709.621	15391.53
709.966	15236.51
710.31	15282.38
710.654	15156.96
710.998	15208.71
711.342	15130.97
711.687	15149.28
712.031	15053.46
712.375	14971.43
712.719	15064.99
713.063	14920.58
713.407	15044.19
713.75	14996.51
714.094	14968.94
714.438	14956.51
714.782	14812.56
715.125	14786.8
715.469	14854.37
715.812	14683.3
716.156	14592.46
716.499	14695.96
716.843	14667.93
717.186	14524.43
717.53	14667.93
717.873	14646.24
718.216	14594.72
718.559	14513.59
718.902	14411.22
719.246	14431.56
719.589	14465.23
719.932	14330.32
720.275	14285.8
720.617	14328.96
720.96	14338.9
721.303	14248.74
721.646	14306.81
721.989	14207.38
722.331	14209.19
722.674	14111.56
723.016	14185.23
723.359	14123.32
723.701	14130.09
724.044	14038.57
724.386	14033.83
724.729	14098.68
725.071	14032.02
725.413	14032.47
725.755	13995.63
726.097	13933.26
726.439	13918.12
726.782	13884.68
727.124	14012.58
727.465	13803.78
727.807	13919.25
728.149	13864.56
728.491	13750.44
728.833	13820.05
729.175	13726.04
729.516	13657.34
729.858	13682.87
730.199	13660.05
730.541	13665.02
730.882	13661.86
731.224	13656.89
731.565	13629.54
731.906	13523.56
732.248	13564.01
732.589	13484.01
732.93	13521.75
733.271	13547.96
733.612	13515.65
733.953	13528.98
734.294	13485.37
734.635	13382.77
734.976	13475.2
735.317	13323.11
735.658	13309.1
735.999	13283.11
736.339	13311.81
736.68	13342.54
737.021	13220.29
737.361	13300.51
737.702	13277.24
738.042	13259.16
738.383	13153.17
738.723	13255.99
739.063	13125.6
739.404	13110.91
739.744	13183.9
740.084	13059.84
740.424	13030.01
740.764	12990.46
741.104	13042.67
741.444	12872.27
741.784	12930.35
742.124	12907.53
742.464	12949.11
742.804	12900.3
743.143	12857.36
743.483	12919.73
743.823	12828.43
744.162	12748.89
744.502	12805.38
744.841	12776.01
745.181	12772.62
745.52	12760.19
745.86	12718.15
746.199	12720.41
746.538	12666.4
746.877	12763.12
747.216	12690.81
747.556	12627.99
747.895	12620.98
748.234	12512.96
748.573	12545.05
748.911	12584.37
749.25	12599.74
749.589	12447.43
749.928	12437.94
750.267	12444.94
750.605	12427.54
750.944	12370.14
751.283	12317.71
751.621	12380.54
751.96	12318.16
752.298	12265.28
752.636	12330.14
752.975	12239.07
753.313	12205.17
753.651	12257.83
753.989	12128.57
754.327	12178.28
754.666	12042.69
755.004	12129.7
755.342	12074.78
755.679	12095.57
756.017	11971.28
