Data from foam2_polystyrene_foam_FLMS001491_00021.txt Node
Date: Wed Feb 08 10:57:43 GMT 2017
User: dcchb
Spectrometer: FLMS00149
Trigger mode: 0
Integration Time (sec): 2.000000E-2
Scans to average: 10
Electric dark correction enabled: true
Nonlinearity correction enabled: false
Boxcar width: 0
XAxis mode: Wavelengths
Number of Pixels in Spectrum: 2048
>>>>>Begin Spectral Data<<<<<
341.393	-5.71
341.776	-5.71
342.16	-5.71
342.543	-59.49
342.927	-80.73
343.31	-70.56
343.693	-61.52
344.077	-60.62
344.46	-53.84
344.843	-50.9
345.226	-43.67
345.61	-26.95
345.993	-24.01
346.376	-4.35
346.759	18.93
347.142	8.76
347.525	46.04
347.908	52.15
348.291	59.83
348.674	112.48
349.057	98.25
349.44	125.14
349.823	154.97
350.206	158.58
350.588	210.56
350.971	220.05
351.354	241.97
351.737	245.13
352.119	253.27
352.502	265.02
352.884	289.65
353.267	294.4
353.65	290.78
354.032	310.67
354.414	324.68
354.797	317.22
355.179	333.72
355.562	330.56
355.944	355.87
356.326	334.62
356.709	349.76
357.091	358.35
357.473	367.39
357.855	346.38
358.238	360.61
358.62	363.1
359.002	369.65
359.384	369.2
359.766	370.33
360.148	367.62
360.53	356.77
360.912	383.66
361.294	357.22
361.676	369.65
362.057	371.46
362.439	358.13
362.821	357.45
363.203	367.17
363.584	352.48
363.966	354.74
364.348	372.59
364.729	366.94
365.111	370.78
365.493	369.88
365.874	363.55
366.256	352.25
366.637	353.38
367.019	360.39
367.4	331.01
367.781	361.52
368.163	347.05
368.544	345.47
368.925	368.52
369.306	379.37
369.688	350.67
370.069	353.61
370.45	369.65
370.831	366.04
371.212	364.23
371.593	366.71
371.974	350.89
372.355	384.11
372.736	368.75
373.117	362.42
373.498	357.22
373.879	372.82
374.26	364.45
374.641	346.6
375.021	382.98
375.402	396.32
375.783	385.92
376.163	423.44
376.544	418.69
376.925	398.58
377.305	399.71
377.686	394.28
378.066	393.38
378.447	409.42
378.827	392.02
379.208	410.33
379.588	415.53
379.968	418.24
380.349	425.47
380.729	433.38
381.109	417.33
381.489	421.4
381.87	437.67
382.25	418.46
382.63	435.41
383.01	445.81
383.39	441.74
383.77	458.46
384.15	435.19
384.53	441.29
384.91	456.65
385.29	471.34
385.67	450.33
386.049	458.69
386.429	473.38
386.809	474.28
387.189	496.2
387.568	479.25
387.948	488.29
388.328	479.93
388.707	493.26
389.087	487.39
389.466	490.78
389.846	515.18
390.225	519.03
390.605	515.41
390.984	540.95
391.363	533.26
391.743	530.33
392.122	538.23
392.501	546.6
392.881	536.43
393.26	554.96
393.639	529.65
394.018	549.99
394.397	561.51
394.776	565.58
395.155	564.9
395.534	556.77
395.913	565.8
396.292	598.8
396.671	585.69
397.05	601.06
397.429	584.33
397.808	594.73
398.186	601.28
398.565	595.63
398.944	603.54
399.323	603.77
399.701	629.31
400.08	624.56
400.458	634.5
400.837	653.71
401.215	659.59
401.594	654.84
401.972	661.4
402.351	666.59
402.729	669.53
403.107	651.45
403.486	681.06
403.864	690.77
404.242	696.2
404.62	678.34
404.999	703.2
405.377	694.16
405.755	684.22
406.133	737.55
406.511	754.5
406.889	761.05
407.267	760.38
407.645	784.78
408.023	759.47
408.401	772.13
408.779	794.5
409.156	790.43
409.534	820.49
409.912	802.18
410.29	816.19
410.667	847.15
411.045	829.53
411.422	846.02
411.8	855.97
412.178	854.61
412.555	888.06
412.933	895.29
413.31	876.53
413.687	909.07
414.065	913.82
414.442	932.8
414.819	947.04
415.197	928.28
415.574	963.31
415.951	969.41
416.328	984.55
416.705	970.77
417.082	985.91
417.46	1008.5
417.837	1001.5
418.214	1002.85
418.591	997.43
418.967	1020.93
419.344	1035.62
419.721	1051.67
420.098	1050.54
420.475	1084.89
420.852	1072.01
421.228	1092.34
421.605	1107.94
421.982	1127.82
422.358	1120.37
422.735	1142.74
423.111	1144.77
423.488	1183.19
423.864	1170.76
424.241	1199.69
424.617	1168.5
424.994	1175.28
425.37	1201.95
425.746	1222.06
426.123	1236.52
426.499	1233.13
426.875	1272.9
427.251	1262.74
427.627	1305.45
428.003	1314.26
428.379	1335.28
428.756	1338.21
429.132	1351.32
429.507	1388.61
429.883	1380.7
430.259	1416.18
430.635	1406.91
431.011	1430.87
431.387	1471.77
431.763	1475.16
432.138	1504.99
432.514	1515.61
432.89	1539.56
433.265	1549.28
433.641	1577.3
434.016	1621.82
434.392	1580.69
434.767	1631.54
435.143	1619.11
435.518	1660.01
435.894	1689.39
436.269	1714.47
436.644	1728.03
437.02	1723.06
437.395	1730.52
437.77	1768.48
438.145	1801.03
438.52	1836.96
438.895	1841.48
439.271	1818.2
439.646	1862.49
440.021	1902.72
440.395	1890.52
440.77	1900.46
441.145	1930.06
441.52	1939.78
441.895	1964.86
442.27	1967.8
442.645	1989.72
443.019	1983.62
443.394	1990.4
443.769	2001.47
444.143	2013
444.518	2069.04
444.892	2042.6
445.267	2101.81
445.641	2069.72
446.016	2107.23
446.39	2119.44
446.764	2159.21
447.139	2148.81
447.513	2187
447.887	2167.34
448.262	2192.2
448.636	2230.85
449.01	2233.11
449.384	2230.17
449.758	2290.5
450.132	2300.22
450.506	2303.39
450.88	2410.95
451.254	2298.41
451.628	2386.77
452.002	2389.94
452.376	2433.78
452.75	2435.13
453.123	2459.99
453.497	2488.69
453.871	2520.33
454.244	2549.48
454.618	2588.8
454.992	2627.67
455.365	2607.33
455.739	2666.31
456.112	2690.49
456.486	2737.95
456.859	2753.32
457.232	2823.6
457.606	2800.32
457.979	2837.83
458.352	2893.2
458.725	2924.61
459.099	2937.95
459.472	2943.14
459.845	3036.02
460.218	3050.48
460.591	3066.76
460.964	3081.44
461.337	3169.58
461.71	3193.31
462.083	3204.15
462.456	3247.77
462.829	3232.17
463.201	3321.21
463.574	3337.26
463.947	3381.32
464.32	3453.41
464.692	3457.48
465.065	3490.7
465.438	3520.08
465.81	3565.95
466.183	3614.76
466.555	3724.14
466.928	3700.64
467.3	3732.95
467.672	3793.52
468.045	3876.68
468.417	3852.5
468.789	3903.34
469.161	3958.94
469.534	4014.98
469.906	4120.97
470.278	4153.73
470.65	4193.73
471.022	4275.54
471.394	4311.69
471.766	4356.44
472.138	4422.43
472.51	4504.01
472.882	4579.26
473.253	4609.09
473.625	4688.86
473.997	4780.38
474.369	4773.83
474.74	4870.55
475.112	4982.41
475.484	5040.04
475.855	5120.49
476.227	5146.7
476.598	5318.45
476.97	5388.28
477.341	5504.88
477.713	5519.57
478.084	5605.9
478.455	5751.2
478.827	5818.77
479.198	5946.45
479.569	5965.66
479.94	6075.72
480.311	6164.3
480.682	6329.95
481.053	6437.74
481.424	6584.18
481.795	6589.6
482.166	6646.55
482.537	6799.09
482.908	6948.01
483.279	7009.02
483.65	7155.01
484.021	7251.28
484.391	7369.47
484.762	7468.22
485.133	7408.79
485.503	7642.91
485.874	7782.79
486.244	7853.97
486.615	8003.8
486.985	8016
487.356	8233.63
487.726	8328.09
488.097	8470.91
488.467	8455.77
488.837	8670.9
489.207	8828.64
489.578	9030.21
489.948	8973.49
490.318	9107.05
490.688	9136.65
491.058	9300.49
491.428	9400.83
491.798	9543.42
492.168	9641.27
492.538	9761.27
492.908	9794.49
493.278	9952.45
493.648	9933.69
494.017	10180.01
494.387	10176.85
494.757	10293.68
495.126	10435.83
495.496	10509.5
495.866	10567.12
496.235	10693.67
496.605	10802.6
496.974	10836.04
497.344	11019.99
497.713	11003.5
498.082	11066.09
498.452	11238.07
498.821	11176.37
499.19	11318.74
499.559	11427.89
499.928	11504.27
500.298	11565.29
500.667	11726.41
501.036	11745.4
501.405	11824.04
501.774	11777.49
502.143	11906.07
502.512	12095.67
502.88	12163.01
503.249	12196.23
503.618	12231.03
503.987	12328.21
504.356	12403.91
504.724	12516.45
505.093	12500.86
505.462	12662.66
505.83	12700.4
506.199	12830.79
506.567	12940.85
506.936	12955.31
507.304	13125.47
507.672	13167.51
508.041	13324.56
508.409	13356.2
508.777	13522.98
509.145	13637.78
509.514	13602.98
509.882	13726.14
510.25	13844.78
510.618	13881.16
510.986	13979.69
511.354	14152.34
511.722	14251.55
512.09	14452.67
512.458	14448.15
512.826	14589.16
513.193	14640.46
513.561	14645.66
513.929	14851.53
514.297	14983.5
514.664	15039.77
515.032	15119.55
515.4	15318.86
515.767	15310.95
516.135	15414.68
516.502	15471.4
516.869	15780.55
517.237	15809.25
517.604	15818.28
517.972	16050.82
518.339	16093.53
518.706	16140.31
519.073	16314.99
519.44	16417.36
519.808	16562.9
520.175	16504.59
520.542	16853.06
520.909	16962.21
521.276	16952.04
521.643	17110.45
522.009	17320.84
522.376	17424.57
522.743	17475.19
523.11	17725.58
523.477	17783.43
523.843	17990.88
524.21	18168.51
524.577	18330.08
524.943	18366.01
525.31	18443.3
525.676	18630.64
526.043	18697.3
526.409	18835.15
526.776	19058.2
527.142	19043.74
527.508	19224.97
527.874	19329.6
528.241	19527.79
528.607	19661.35
528.973	19783.6
529.339	19808.69
529.705	20181.79
530.071	20290.71
530.437	20361.22
530.803	20445.51
531.169	20611.6
531.535	20530.03
531.901	20683.69
532.267	20773.18
532.632	20844.37
532.998	20880.75
533.364	21162.32
533.73	21164.13
534.095	21303.34
534.461	21403.22
534.826	21555.99
535.192	21655.19
535.557	21815.64
535.923	21815.19
536.288	21838.47
536.653	22044.34
537.019	21984.68
537.384	22032.13
537.749	22310.54
538.114	22285.01
538.479	22308.74
538.845	22515.28
539.21	22516.41
539.575	22607.03
539.94	22867.14
540.305	22829.4
540.67	22969.96
541.034	22924.99
541.399	23063.29
541.764	23179.22
542.129	23197.98
542.494	23282.04
542.858	23346.67
543.223	23442.26
543.587	23618.08
543.952	23549.38
544.316	23750.05
544.681	23643.62
545.045	23761.58
545.41	23899.65
545.774	24002.93
546.138	24106.65
546.503	24168.35
546.867	24232.98
547.231	24459.87
547.595	24520.43
547.959	24654.44
548.324	24664.38
548.688	24769.01
549.052	24886.97
549.416	24868.67
549.779	25022.11
550.143	25033.41
550.507	25104.82
550.871	25292.61
551.235	25199.51
551.599	25492.38
551.962	25488.76
552.326	25554.07
552.689	25739.15
553.053	25641.98
553.417	25820.73
553.78	26192.25
554.143	26095.75
554.507	26180.27
554.87	26329.65
555.234	26494.39
555.597	26487.83
555.96	26645.34
556.323	26686.47
556.686	26747.26
557.05	27029.97
557.413	27007.59
557.776	27074.49
558.139	27303.63
558.502	27444.42
558.865	27503.63
559.228	27708.82
559.59	27729.61
559.953	27893.45
560.316	28163.95
560.679	28061.58
561.041	28395.58
561.404	28483.71
561.767	28561.68
562.129	28508.12
562.492	28887.09
562.854	28879.18
563.217	28934.32
563.579	29096.81
563.941	29325.05
564.304	29416.57
564.666	29562.1
565.028	29679.16
565.39	29761.19
565.753	29971.58
566.115	29981.3
566.477	30218.58
566.839	30286.83
567.201	30430.56
567.563	30582.19
567.925	30713.94
568.287	30725.92
568.648	30791.68
569.01	31023.31
569.372	31125.68
569.734	31033.93
570.095	31406.58
570.457	31390.98
570.819	31368.38
571.18	31534.48
571.542	31650.18
571.903	31764.31
572.265	31859.44
572.626	31962.27
572.987	32014.69
573.349	32154.35
573.71	32274.35
574.071	32345.08
574.432	32323.61
574.794	32743.72
575.155	32633.21
575.516	32498.75
575.877	32656.26
576.238	32678.63
576.599	32935.35
576.96	32793.43
577.32	32957.5
577.681	33082.46
578.042	33101.45
578.403	33034.56
578.763	33228
579.124	33324.27
579.485	33282.01
579.845	33375.79
580.206	33270.48
580.566	33289.69
580.927	33310.71
581.287	33414.88
581.648	33456.46
582.008	33635.67
582.368	33602.45
582.728	33696.01
583.089	33488.55
583.449	33600.64
583.809	33635.44
584.169	33729
584.529	33647.42
584.889	34009.22
585.249	33766.29
585.609	33672.96
585.969	33859.62
586.329	33786.85
586.688	33949.79
587.048	33902.78
587.408	33729
587.768	33760.86
588.127	33721.54
588.487	33884.7
588.846	34008.54
589.206	33754.76
589.565	33899.62
589.925	33982.33
590.284	33887.41
590.643	33912.27
591.003	33899.84
591.362	34070.01
591.721	33816
592.08	33804.25
592.44	33992.5
592.799	33954.3
593.158	33770.13
593.517	33964.02
593.876	34001.76
594.235	33999.28
594.593	33921.54
594.952	34105.94
595.311	33937.13
595.67	34059.61
596.029	34193.85
596.387	34156.11
596.746	34274.75
597.104	34079.27
597.463	34111.14
597.822	34425.25
598.18	34228.42
598.538	34199.27
598.897	34435.87
599.255	34016.68
599.613	34573.95
599.972	34278.59
600.33	34503.22
600.688	34234.52
601.046	34454.86
601.404	34507.96
601.762	34422.54
602.12	34667.05
602.478	34709.99
602.836	34668.18
603.194	34477.46
603.552	34535.31
603.91	34422.32
604.268	34763.55
604.625	34597.9
604.983	34661.41
605.341	34589.54
605.698	34812.14
606.056	34736.21
606.413	34845.58
606.771	34844.9
607.128	34974.17
607.485	34691.01
607.843	34960.83
608.2	35124.67
608.557	35201.28
608.914	35041.73
609.272	35209.19
609.629	35186.36
609.986	35477.65
610.343	35217.1
610.7	35420.26
611.057	35331.22
611.414	35290.09
611.771	35286.25
612.127	35505
612.484	35427.49
612.841	35599.46
613.198	35440.37
613.554	35498.22
613.911	35587.93
614.267	35596.52
614.624	35625
614.98	35674.26
615.337	35717.87
615.693	35687.82
616.05	35732.34
616.406	35881.94
616.762	35867.02
617.118	35806.01
617.475	35811.43
617.831	36066.11
618.187	36052.55
618.543	36068.83
618.899	36146.34
619.255	36154.7
619.611	36257.75
619.967	36246.45
620.323	36360.12
620.678	36116.96
621.034	36089.39
621.39	36189.05
621.746	36034.93
622.101	36406.44
622.457	36221.14
622.812	36305.88
623.168	36408.7
623.523	36356.95
623.879	36413.22
624.234	36334.81
624.589	36320.12
624.945	36453.67
625.3	36484.86
625.655	36327.8
626.01	36383.85
626.365	36500.45
626.72	36373.45
627.075	36452.77
627.43	36345.65
627.785	36198.99
628.14	36315.15
628.495	36313.34
628.85	36323.73
629.205	36207.58
629.559	36425.88
629.914	36297.52
630.269	36351.98
630.623	36196.28
630.978	36130.07
631.332	36127.58
631.687	36222.95
632.041	35977.53
632.396	36027.7
632.75	35883.97
633.104	35899.56
633.459	35785.22
633.813	35707.71
634.167	35727.14
634.521	35705.22
634.875	35628.16
635.229	35711.77
635.583	35508.61
635.937	35519.69
636.291	35475.39
636.645	35514.94
636.999	35463.42
637.352	35705.67
637.706	35341.84
638.06	35407.6
638.413	35396.98
638.767	35300.03
639.121	35365.57
639.474	35160.15
639.828	35148.62
640.181	35173.71
640.534	35187.72
640.888	35047.84
641.241	34804.68
641.594	35045.35
641.947	35019.81
642.301	34965.35
642.654	34829.31
643.007	34698.69
643.36	34717.67
643.713	34722.19
644.066	34830.21
644.419	34497.57
644.771	34282.21
645.124	33926.51
645.477	33764.03
645.83	33755.67
646.182	33502.34
646.535	33475.45
646.888	33648.78
647.24	33484.26
647.593	33652.39
647.945	33482.23
648.298	33426.41
648.65	33321.1
649.002	33224.15
649.355	33428.67
649.707	33269.58
650.059	33286.98
650.411	33863.91
650.763	33742.11
651.115	34204.24
651.467	33997.69
651.819	34053.74
652.171	33839.05
652.523	33844.25
652.875	33785.95
653.227	33717.48
653.578	33927.64
653.93	33822.56
654.282	33616.01
654.633	33590.25
654.985	33685.39
655.337	33671.6
655.688	33610.59
656.039	33813.74
656.391	33456.24
656.742	33420.53
657.094	33476.58
657.445	33550.7
657.796	33461.66
658.147	33531.72
658.498	33392.29
658.849	33442
659.2	33352.74
659.551	33325.85
659.902	33416.92
660.253	33372.85
660.604	33326.3
660.955	33133.54
661.306	33329.91
661.656	33286.3
662.007	33115.68
662.358	33143.25
662.708	33199.3
663.059	33167.88
663.409	32899.42
663.76	33204.04
664.11	33054.22
664.461	33094.89
664.811	33058.51
665.161	33029.13
665.511	32972.64
665.862	32997.04
666.212	33054.67
666.562	32961.56
666.912	33035.01
667.262	32949.13
667.612	32777.61
667.962	32856.25
668.312	32815.35
668.662	32905.74
669.011	32800.89
669.361	32767.67
669.711	32882.47
670.06	32825.75
670.41	32820.1
670.76	32715.69
671.109	32804.28
671.459	32608.58
671.808	32720.67
672.157	32662.36
672.507	32542.36
672.856	32469.82
673.205	32490.61
673.554	32568.58
673.904	32399.77
674.253	32612.65
674.602	32476.83
674.951	31865.55
675.3	31832.33
675.649	32178.31
675.998	32244.97
676.346	32244.29
676.695	32318.87
677.044	31999.78
677.393	32078.87
677.741	32098.99
678.09	32022.6
678.438	31987.8
678.787	31963.17
679.135	32022.6
679.484	31915.94
679.832	31858.09
680.181	31798.2
680.529	31975.6
680.877	31756.85
681.225	31737.87
681.573	32071.42
681.922	31701.71
682.27	31602.73
682.618	31794.81
682.966	31586.23
683.314	31765.21
683.661	31598.89
684.009	31492.22
684.357	31487.93
684.705	31458.33
685.053	31381.72
685.4	31354.83
685.748	31263.53
686.095	31230.99
686.443	30967.49
686.79	30960.49
687.138	31044.1
687.485	30917.77
687.832	30758.23
688.18	30776.54
688.527	30632.81
688.874	30649.76
689.221	30596.2
689.568	30421.29
689.915	30482.76
690.262	30310.11
690.609	30148.08
690.956	30207.74
691.303	30226.27
691.65	30086.84
691.997	30011.58
692.344	29999.15
692.69	29891.81
693.037	29889.1
693.383	29711.25
693.73	29789.22
694.077	29668.77
694.423	29654.98
694.769	29536.12
695.116	29424.25
695.462	29424.48
695.808	29256.58
696.155	29311.49
696.501	29152.62
696.847	29090.25
697.193	28951.05
697.539	29093.19
697.885	28824.5
698.231	28801.67
698.577	28879.41
698.923	28662.01
699.269	28657.5
699.614	28376.6
699.96	28342.48
700.306	28336.6
700.651	28182.25
700.997	28087.34
701.342	28088.24
701.688	28115.59
702.033	27963.28
702.379	27831.98
702.724	27770.51
703.069	27890.74
703.415	27547.47
703.76	27557.41
704.105	27542.5
704.45	27383.18
704.795	27226.57
705.14	27172.34
705.485	26986.35
705.83	27048.95
706.175	27198.78
706.52	27014.6
706.865	26828.62
707.209	26919.24
707.554	26721.5
707.899	26802.85
708.243	26594.5
708.588	26750.65
708.932	26476.31
709.277	26437.44
709.621	26527.83
709.966	26376.2
710.31	26483.99
710.654	26201.97
710.998	26267.05
711.342	26185.24
711.687	26143.66
712.031	26090.33
712.375	25985.7
712.719	26161.06
713.063	25901.18
713.407	26105.47
713.75	25753.16
714.094	25777.57
714.438	25547.97
714.782	25650.57
715.125	25609.44
715.469	25511.14
715.812	25342.33
716.156	25347.75
716.499	25253.74
716.843	25274.53
717.186	25084.48
717.53	25246.96
717.873	25294.65
718.216	25038.83
718.559	24976.69
718.902	24820.53
719.246	24903.24
719.589	24868.44
719.932	24727.2
720.275	24868.22
720.617	24747.99
720.96	24693.08
721.303	24712.29
721.646	24696.02
721.989	24583.48
722.331	24642.46
722.674	24493.31
723.016	24627.32
723.359	24612.18
723.701	24618.05
724.044	24233.66
724.386	24235.24
724.729	24370.6
725.071	24389.36
725.413	24312.75
725.755	24246.54
726.097	24179.19
726.439	24077.5
726.782	24177.84
727.124	24207.89
727.465	24121.57
727.807	24053.77
728.149	23914.12
728.491	23808.36
728.833	23916.6
729.175	23705.08
729.516	23696.72
729.858	23635.71
730.199	23632.09
730.541	23630.51
730.882	23652.2
731.224	23665.31
731.565	23470.51
731.906	23542.83
732.248	23549.83
732.589	23536.27
732.93	23329.27
733.271	23267.81
733.612	23296.96
733.953	23349.16
734.294	23141.03
734.635	23160.24
734.976	23207.24
735.317	23008.83
735.658	23025.33
735.999	23073.69
736.339	23055.38
736.68	23113.69
737.021	23058.77
737.361	22990.3
737.702	22986.68
738.042	22899.91
738.383	22824.88
738.723	22860.59
739.063	22807.93
739.404	22821.49
739.744	22732.68
740.084	22727.26
740.424	22631.89
740.764	22594.6
741.104	22753.92
741.444	22493.82
741.784	22581.27
742.124	22623.3
742.464	22529.07
742.804	22591.67
743.143	22442.07
743.483	22372.01
743.823	22453.14
744.162	22248.17
744.502	22504.66
744.841	22372.69
745.181	22393.48
745.52	22123.43
745.86	22252.01
746.199	22279.58
746.538	22168.17
746.877	22100.83
747.216	22067.16
747.556	22153.71
747.895	22061.06
748.234	21923.66
748.573	21859.26
748.911	21962.08
749.25	21720.28
749.589	21680.73
749.928	21766.15
750.267	21794.17
750.605	21693.84
750.944	21612.71
751.283	21562.54
751.621	21579.94
751.96	21424.69
752.298	21452.49
752.636	21427.4
752.975	21243
753.313	21221.53
753.651	21323.68
753.989	21101.31
