Data from foam2_polystyrene_foam_FLMS001491_00054.txt Node
Date: Wed Feb 08 10:58:09 GMT 2017
User: dcchb
Spectrometer: FLMS00149
Trigger mode: 0
Integration Time (sec): 2.000000E-2
Scans to average: 10
Electric dark correction enabled: true
Nonlinearity correction enabled: false
Boxcar width: 0
XAxis mode: Wavelengths
Number of Pixels in Spectrum: 2048
>>>>>Begin Spectral Data<<<<<
341.393	5.85
341.776	5.85
342.16	5.85
342.543	-37.99
342.927	-47.03
343.31	-75.05
343.693	-71.44
344.077	-82.96
344.46	-54.94
344.843	-45.68
345.226	-45.22
345.61	-9.29
345.993	-24.89
346.376	-6.81
346.759	12.17
347.142	31.38
347.525	30.25
347.908	57.37
348.291	77.26
348.674	102.57
349.057	105.28
349.44	140.53
349.823	139.86
350.206	178.95
350.588	203.36
350.971	206.75
351.354	230.25
351.737	246.52
352.119	256.46
352.502	281.09
352.884	282.45
353.267	279.51
353.65	294.2
354.032	324.71
354.414	318.38
354.797	319.29
355.179	329
355.562	337.14
355.944	355.89
356.326	336.91
356.709	352.96
357.091	359.51
357.473	372.17
357.855	366.29
358.238	358.83
358.62	350.02
359.002	358.15
359.384	361.32
359.766	365.61
360.148	331.26
360.53	345.95
360.912	371.49
361.294	367.87
361.676	373.07
362.057	340.98
362.439	340.75
362.821	373.97
363.203	349.79
363.584	344.37
363.966	337.14
364.348	367.19
364.729	354.76
365.111	322
365.493	356.35
365.874	339.17
366.256	326.29
366.637	327.19
367.019	340.08
367.4	339.62
367.781	330.81
368.163	352.05
368.544	338.95
368.925	350.47
369.306	361.77
369.688	367.65
370.069	360.41
370.45	347.53
370.831	356.8
371.212	340.98
371.593	340.3
371.974	354.09
372.355	339.85
372.736	351.15
373.117	343.69
373.498	343.92
373.879	357.25
374.26	339.85
374.641	348.44
375.021	346.18
375.402	373.97
375.783	374.65
376.163	383.01
376.544	376.91
376.925	365.16
377.305	378.72
377.686	388.66
378.066	386.85
378.447	380.75
378.827	397.7
379.208	380.75
379.588	373.52
379.968	382.11
380.349	389.79
380.729	406.74
381.109	383.01
381.489	383.01
381.87	391.6
382.25	416.23
382.63	412.62
383.01	396.12
383.39	426.63
383.77	409.9
384.15	411.94
384.53	432.95
384.91	409
385.29	425.5
385.67	429.79
386.049	435.44
386.429	429.56
386.809	426.63
387.189	416.46
387.568	448.77
387.948	445.38
388.328	445.16
388.707	477.02
389.087	458.26
389.466	443.58
389.846	455.33
390.225	462.33
390.605	465.95
390.984	474.54
391.363	471.15
391.743	497.81
392.122	478.83
392.501	477.93
392.881	503.69
393.26	514.53
393.639	507.76
394.018	511.37
394.397	495.33
394.776	502.78
395.155	507.3
395.534	498.72
395.913	517.02
396.292	517.47
396.671	527.87
397.05	525.16
397.429	515.21
397.808	539.62
398.186	548.88
398.565	535.78
398.944	539.17
399.323	558.6
399.701	550.47
400.08	572.16
400.458	561.31
400.837	578.71
401.215	576.91
401.594	579.17
401.972	579.62
402.351	600.41
402.729	587.07
403.107	589.11
403.486	577.81
403.864	598.83
404.242	586.62
404.62	597.92
404.999	613.29
405.377	629.33
405.755	644.25
406.133	630.69
406.511	641.76
406.889	628.2
407.267	663.23
407.645	637.7
408.023	703.23
408.401	674.98
408.779	663.68
409.156	690.12
409.534	686.06
409.912	682.44
410.29	693.96
410.667	712.04
411.045	732.61
411.422	726.51
411.8	731.03
412.178	757.69
412.555	765.15
412.933	766.96
413.31	784.36
413.687	786.84
414.065	801.76
414.442	773.74
414.819	799.5
415.197	795.43
415.574	833.62
415.951	811.93
416.328	825.49
416.705	846.73
417.082	841.08
417.46	849.89
417.837	855.99
418.214	869.1
418.591	879.04
418.967	864.13
419.344	868.88
419.721	897.35
420.098	876.11
420.475	910.68
420.852	927.86
421.228	894.41
421.605	932.6
421.982	933.51
422.358	961.08
422.735	943.22
423.111	959.72
423.488	950.23
423.864	986.61
424.241	973.05
424.617	987.97
424.994	1016.67
425.37	989.32
425.746	1023
426.123	1018.25
426.499	1036.1
426.875	1048.53
427.251	1072.26
427.627	1103.22
428.003	1098.25
428.379	1118.13
428.756	1116.33
429.132	1125.37
429.507	1138.02
429.883	1142.99
430.259	1157.46
430.635	1185.93
431.011	1195.42
431.387	1190.22
431.763	1183.44
432.138	1235.42
432.514	1239.26
432.89	1267.28
433.265	1293.05
433.641	1314.97
434.016	1302.08
434.392	1337.34
434.767	1359.48
435.143	1333.72
435.518	1354.06
435.894	1373.04
436.269	1389.54
436.644	1405.58
437.02	1424.34
437.395	1428.86
437.77	1455.53
438.145	1476.77
438.52	1506.6
438.895	1497.11
439.271	1476.32
439.646	1561.06
440.021	1561.06
440.395	1528.97
440.77	1529.42
441.145	1596.77
441.52	1604
441.895	1605.35
442.27	1625.47
442.645	1644
443.019	1665.92
443.394	1639.48
443.769	1670.66
444.143	1641.28
444.518	1673.15
444.892	1694.62
445.267	1714.28
445.641	1727.16
446.016	1723.77
446.39	1765.58
446.764	1755.18
447.139	1782.3
447.513	1815.74
447.887	1818.68
448.262	1854.39
448.636	1858.91
449.01	1851
449.384	1881.28
449.758	1876.76
450.132	1871.79
450.506	1910.88
450.88	1935.29
451.254	1900.71
451.628	1962.63
452.002	2006.47
452.376	2008.05
452.75	2012.57
453.123	2013.25
453.497	2080.82
453.871	2091.22
454.244	2118.33
454.618	2119.24
454.992	2155.17
455.365	2166.24
455.739	2192.68
456.112	2204.66
456.486	2238.56
456.859	2280.59
457.232	2334.83
457.606	2291.44
457.979	2343.86
458.352	2352.68
458.725	2394.03
459.099	2392.68
459.472	2448.49
459.845	2443.3
460.218	2492.11
460.591	2487.59
460.964	2536.85
461.337	2561.94
461.71	2609.85
462.083	2630.64
462.456	2633.57
462.829	2617.98
463.201	2703.63
463.574	2687.58
463.947	2728.04
464.32	2763.29
464.692	2771.2
465.065	2840.12
465.438	2831.31
465.81	2909.95
466.183	2961.48
466.555	2968.93
466.928	3041.93
467.3	3030.63
467.672	3050.51
468.045	3107.46
468.417	3150.4
468.789	3138.87
469.161	3217.29
469.534	3257.29
469.906	3328.7
470.278	3311.07
470.65	3372.09
471.022	3419.77
471.394	3495.02
471.766	3527.11
472.138	3538.86
472.51	3651.63
472.882	3680.1
473.253	3675.58
473.625	3736.37
473.997	3824.73
474.369	3848.91
474.74	3892.3
475.112	3993.31
475.484	4037.15
475.855	4055.01
476.227	4126.19
476.598	4253.65
476.97	4255.23
477.341	4354.89
477.713	4411.16
478.084	4454.77
478.455	4559.85
478.827	4587.2
479.198	4725.27
479.569	4731.37
479.94	4852.05
480.311	4934.08
480.682	5017.24
481.053	5141.53
481.424	5198.93
481.795	5255.88
482.166	5337.46
482.537	5383.78
482.908	5482.09
483.279	5547.62
483.65	5691.12
484.021	5764.11
484.391	5787.16
484.762	5863.09
485.133	5968.4
485.503	5999.59
485.874	6111.45
486.244	6190.09
486.615	6284.1
486.985	6360.48
487.356	6511.89
487.726	6532.23
488.097	6673.02
488.467	6709.63
488.837	6778.55
489.207	6916.85
489.578	6969.96
489.948	7055.83
490.318	7185.77
490.688	7194.13
491.058	7298.76
491.428	7425.09
491.798	7487.91
492.168	7609.49
492.538	7680.45
492.908	7751.63
493.278	7898.75
493.648	7883.83
494.017	8051.29
494.387	8072.98
494.757	8116.37
495.126	8251.28
495.496	8199.3
495.866	8352.52
496.235	8371.28
496.605	8516.81
496.974	8527.43
497.344	8629.35
497.713	8636.81
498.082	8730.14
498.452	8827.54
498.821	8895.78
499.19	8916.35
499.559	8980.98
499.928	9073.86
500.298	9115.66
500.667	9254.19
501.036	9197.02
501.405	9310.24
501.774	9322.89
502.143	9474.75
502.512	9495.32
502.88	9601.98
503.249	9644.46
503.618	9717.68
503.987	9767.4
504.356	9815.31
504.724	9833.84
505.093	9914.51
505.462	9958.81
505.83	10073.38
506.199	10123.55
506.567	10241.51
506.936	10186.6
507.304	10435.18
507.672	10419.58
508.041	10486.7
508.409	10588.85
508.777	10662.29
509.145	10651.9
509.514	10741.84
509.882	10787.71
510.25	10904.54
510.618	10987.25
510.986	11004.88
511.354	11083.07
511.722	11156.97
512.09	11324.65
512.458	11244.2
512.826	11387.92
513.193	11530.06
513.561	11554.02
513.929	11676.27
514.297	11761.92
514.664	11922.37
515.032	11916.95
515.4	11987.45
515.767	12109.26
516.135	12177.05
516.502	12113.78
516.869	12415.24
517.237	12466.99
517.604	12339.99
517.972	12597.15
518.339	12608.23
518.706	12610.49
519.073	12735.91
519.44	12864.49
519.808	12991.27
520.175	12987.65
520.542	13194.2
520.909	13306.06
521.276	13239.85
521.643	13496.57
522.009	13591.25
522.376	13711.48
522.743	13801.87
523.11	13868.08
523.477	14045.48
523.843	14033.05
524.21	14257.68
524.577	14306.49
524.943	14372.7
525.31	14543.32
525.676	14571.79
526.043	14784.67
526.409	14880.03
526.776	15038.22
527.142	15018.56
527.508	15153.25
527.874	15303.52
528.241	15329.96
528.607	15404.76
528.973	15537.19
529.339	15524.76
529.705	15643.18
530.071	15785.09
530.437	15876.62
530.803	16018.99
531.169	16117.51
531.535	16096.05
531.901	16258.98
532.267	16225.76
532.632	16379.65
532.998	16393.66
533.364	16579.65
533.73	16578.29
534.095	16766.99
534.461	16757.27
534.826	16814.67
535.192	16945.97
535.557	17187.77
535.923	17092.18
536.288	17184.83
536.653	17288.1
537.019	17130.59
537.384	17338.95
537.749	17486.97
538.114	17475.67
538.479	17546.63
538.845	17685.83
539.21	17633.41
539.575	17799.28
539.94	17863.68
540.305	17870.24
540.67	17873.4
541.034	18009.67
541.399	18068.42
541.764	18148.65
542.129	18200.4
542.494	18249.21
542.858	18381.64
543.223	18337.79
543.587	18438.81
543.952	18458.47
544.316	18567.62
544.681	18642.42
545.045	18660.95
545.41	18774.85
545.774	18857.1
546.138	18965.35
546.503	18851
546.867	18970.55
547.231	19012.58
547.595	19188.85
547.959	19194.5
548.324	19235.85
548.688	19319.92
549.052	19410.76
549.416	19421.38
549.779	19403.53
550.143	19544.54
550.507	19639.46
550.871	19648.27
551.235	19776.4
551.599	19876.96
551.962	19928.26
552.326	19990.41
552.689	20099.78
553.053	20071.99
553.417	20257.52
553.78	20438.08
554.143	20392.2
554.507	20573.44
554.87	20506.78
555.234	20720.78
555.597	20681.46
555.96	20727.11
556.323	20791.06
556.686	20943.83
557.05	20996.03
557.413	21162.35
557.776	21243.93
558.139	21213.2
558.502	21290.26
558.865	21417.26
559.228	21580.2
559.59	21678.05
559.953	21642.34
560.316	21938.83
560.679	21897.02
561.041	22043.91
561.404	22143.8
561.767	22323.9
562.129	22235.32
562.492	22443
562.854	22342.66
563.217	22468.31
563.579	22631.92
563.941	22719.37
564.304	22909.2
564.666	23115.3
565.028	23065.81
565.39	23041.17
565.753	23183.77
566.115	23402.75
566.477	23485.68
566.839	23534.27
567.201	23712.57
567.563	23635.28
567.925	23939.46
568.287	23862.4
568.648	23990.3
569.01	24153.01
569.372	24287.69
569.734	24271.42
570.095	24370.86
570.457	24520.68
570.819	24471.64
571.18	24459.44
571.542	24679.77
571.903	24745.54
572.265	24719.32
572.626	24867.57
572.987	24881.58
573.349	24898.53
573.71	25000.9
574.071	25173.55
574.432	25145.53
574.794	25224.62
575.155	25321.34
575.516	25294.45
575.877	25274.34
576.238	25473.65
576.599	25575.8
576.96	25579.41
577.32	25547.1
577.681	25763.59
578.042	25711.16
578.403	25743.02
578.763	25811.5
579.124	25872.96
579.485	25837.26
579.845	25963.36
580.206	25838.61
580.566	26022.79
580.927	25964.26
581.287	25980.76
581.648	26002.23
582.008	26145.95
582.368	26106.4
582.728	26093.52
583.089	26091.26
583.449	26089.68
583.809	26124.26
584.169	26130.58
584.529	26017.37
584.889	26249.45
585.249	26134.88
585.609	26123.13
585.969	26147.08
586.329	26143.01
586.688	26224.14
587.048	26193.86
587.408	26077.03
587.768	26197.02
588.127	26228.21
588.487	26128.1
588.846	26269.79
589.206	26049
589.565	26050.36
589.925	26333.52
590.284	26206.51
590.643	26250.81
591.003	26244.93
591.362	26381.42
591.721	26262.56
592.08	26287.42
592.44	26392.72
592.799	26249.9
593.158	26244.71
593.517	26341.65
593.876	26433.63
594.235	26217.81
594.593	26381.2
594.952	26445.83
595.311	26373.74
595.67	26461.87
596.029	26475.89
596.387	26482.67
596.746	26581.19
597.104	26477.02
597.463	26462.78
597.822	26487.64
598.18	26482.89
598.538	26434.08
598.897	26512.49
599.255	26334.42
599.613	26825.26
599.972	26560.4
600.33	26648.08
600.688	26657.12
601.046	26683.11
601.404	26897.57
601.762	26830.45
602.12	26840.4
602.478	26896.89
602.836	26891.69
603.194	26848.76
603.552	26919.49
603.91	26872.94
604.268	26976.66
604.625	26857.8
604.983	27063.21
605.341	26858.25
605.698	27124
606.056	27068.86
606.413	26994.97
606.771	27171.91
607.128	27170.78
607.485	27002.65
607.843	27026.83
608.2	27245.13
608.557	27241.97
608.914	27208.75
609.272	27257.33
609.629	27266.6
609.986	27430.89
610.343	27293.72
610.7	27410.32
611.057	27455.52
611.414	27466.59
611.771	27338.91
612.127	27648.28
612.484	27635.86
612.841	27699.36
613.198	27437.67
613.554	27659.13
613.911	27663.43
614.267	27622.3
614.624	27646.02
614.98	27670.66
615.337	27837.66
615.693	27787.04
616.05	27630.43
616.406	27874.95
616.762	27742.97
617.118	27799.24
617.475	27937.77
617.831	27986.58
618.187	28043.53
618.543	27976.86
618.899	28183.19
619.255	28002.85
619.611	28087.14
619.967	28087.37
620.323	28140.7
620.678	27955.85
621.034	28015.28
621.39	27909.29
621.746	27914.27
622.101	28282.62
622.457	28028.84
622.812	28091.66
623.168	28095.96
623.523	28043.3
623.879	28316.29
624.234	27930.99
624.589	28203.98
624.945	28098.22
625.3	28048.27
625.655	28046.01
626.01	28088.27
626.365	28039.01
626.72	28097.99
627.075	28121.04
627.43	28003.98
627.785	27972.34
628.14	28057.77
628.495	28059.35
628.85	28003.3
629.205	27824.55
629.559	28025.68
629.914	27960.82
630.269	27915.62
630.623	27985.68
630.978	27864.32
631.332	27891.44
631.687	28043.75
632.041	27877.88
632.396	27915.17
632.75	27761.5
633.104	27707.72
633.459	27525.12
633.813	27531.68
634.167	27658.45
634.521	27610.77
634.875	27648.96
635.229	27533.26
635.583	27414.62
635.937	27447.16
636.291	27328.52
636.645	27409.87
636.999	27316.99
637.352	27308.18
637.706	27174.17
638.06	27359.25
638.413	27324.45
638.767	27159.03
639.121	27214.62
639.474	27154.06
639.828	27053.05
640.181	27145.47
640.534	27130.56
640.888	26944.35
641.241	26893.95
641.594	26889.66
641.947	27075.19
642.301	26859.38
642.654	26863.9
643.007	26890.79
643.36	26703.22
643.713	26649.67
644.066	26724.47
644.419	26532.16
644.771	26423.91
645.124	26169.45
645.477	26112.73
645.83	25942.34
646.182	25775.79
646.535	25732.63
646.888	25915.9
647.24	25724.72
647.593	25802.68
647.945	25771.27
648.298	25638.39
648.65	25472.3
649.002	25556.81
649.355	25588.68
649.707	25594.33
650.059	25617.83
650.411	25901.89
650.763	25969.68
651.115	26305.72
651.467	26126.97
651.819	26107.08
652.171	26004.26
652.523	26030.47
652.875	26071.83
653.227	26033.41
653.578	26030.47
653.93	25979.63
654.282	25946.63
654.633	25914.77
654.985	25855.79
655.337	26002.68
655.688	25872.96
656.039	25971.04
656.391	25835.9
656.742	25817.6
657.094	25718.84
657.445	25817.82
657.796	25702.12
658.147	25594.1
658.498	25654.89
658.849	25654.21
659.2	25557.94
659.551	25592.75
659.902	25599.98
660.253	25645.85
660.604	25486.99
660.955	25518.4
661.306	25634.33
661.656	25521.79
662.007	25530.83
662.358	25470.26
662.708	25456.25
663.059	25462.13
663.409	25265.3
663.76	25430.04
664.11	25458.96
664.461	25477.72
664.811	25526.31
665.161	25378.06
665.511	25320.89
665.862	25411.96
666.212	25399.53
666.562	25484.27
666.912	25321.11
667.262	25371.96
667.612	25364.95
667.962	25504.39
668.312	25324.73
668.662	25553.65
669.011	25477.27
669.361	25227.56
669.711	25206.54
670.06	25196.82
670.41	25116.37
670.76	25166.09
671.109	25253.55
671.459	25213.09
671.808	25105.98
672.157	25117.73
672.507	24989.82
672.856	25063.49
673.205	25041.8
673.554	25130.38
673.904	25063.72
674.253	25192.08
674.602	24908.92
674.951	24669.38
675.3	24582.6
675.649	24915.93
675.998	24904.63
676.346	24837.74
676.695	25004.74
677.044	24855.59
677.393	24844.74
677.741	24943.95
678.09	24889.49
678.438	24828.7
678.787	24860.79
679.135	24847
679.484	24656.27
679.832	24717.97
680.181	24686.55
680.529	24851.52
680.877	24654.46
681.225	24664.86
681.573	24592.77
681.922	24465.32
682.27	24414.92
682.618	24414.25
682.966	24436.39
683.314	24415.6
683.661	24352.33
684.009	24259.22
684.357	24179.67
684.705	24221.26
685.053	24261.48
685.4	24120.92
685.748	24095.38
686.095	23996.63
686.443	23879.8
686.79	23807.48
687.138	24002.5
687.485	23936.29
687.832	23710.31
688.18	23783.98
688.527	23788.27
688.874	23617.66
689.221	23624.66
689.568	23507.6
689.915	23443.2
690.262	23510.99
690.609	23498.34
690.956	23278.91
691.303	23406.59
691.65	23303.09
691.997	23277.78
692.344	23101.51
692.69	23135.86
693.037	23028.74
693.383	22957.11
693.73	23058.12
694.077	22782.2
694.423	22876.43
694.769	22723.22
695.116	22681.18
695.462	22673.95
695.808	22604.12
696.155	22598.25
696.501	22453.84
696.847	22488.42
697.193	22236.9
697.539	22344.47
697.885	22141.31
698.231	22081.2
698.577	22123.23
698.923	22055.21
699.269	21969.34
699.614	21794.2
699.96	21853.63
700.306	21728.44
700.651	21649.35
700.997	21542
701.342	21563.02
701.688	21557.82
702.033	21484.15
702.379	21501.1
702.724	21368
703.069	21506.98
703.415	21140.66
703.76	21188.12
704.105	21135.91
704.45	21133.65
704.795	21099.53
705.14	20906.31
705.485	20898.63
705.83	20896.6
706.175	20858.63
706.52	20829.71
706.865	20800.78
707.209	20778.86
707.554	20673.1
707.899	20633.33
708.243	20497.96
708.588	20554.01
708.932	20370.74
709.277	20330.74
709.621	20380.68
709.966	20222.49
710.31	20351.75
710.654	19960.58
710.998	20046.9
711.342	20118.99
711.687	19955.83
712.031	19895.04
712.375	19926
712.719	19938.66
713.063	19846
713.407	19902.05
713.75	19704.76
714.094	19762.62
714.438	19602.85
714.782	19650.08
715.125	19602.17
715.469	19626.12
715.812	19575.5
716.156	19471.55
716.499	19478.56
716.843	19483.53
717.186	19272.23
717.53	19479.91
717.873	19416.41
718.216	19308.84
718.559	19239.24
718.902	19079.92
719.246	19202.63
719.589	19095.74
719.932	19088.06
720.275	19150.88
720.617	19032.69
720.96	19046.02
721.303	19019.13
721.646	18935.07
721.989	18890.55
722.331	18933.49
722.674	18824.11
723.016	18751.12
723.359	18801.51
723.701	18770.33
724.044	18695.53
724.386	18620.95
724.729	18667.28
725.071	18590.44
725.413	18618.24
725.755	18534.85
726.097	18469.99
726.439	18295.08
726.782	18383.9
727.124	18497.56
727.465	18321.52
727.807	18311.35
728.149	18298.7
728.491	18191.36
728.833	18291.92
729.175	18138.93
729.516	18103.68
729.858	18029.33
730.199	18050.57
730.541	18006.28
730.882	18024.13
731.224	18038.14
731.565	17896.68
731.906	17881.54
732.248	17909.78
732.589	17793.85
732.93	17683.35
733.271	17797.7
733.612	17796.57
733.953	17742.56
734.294	17684.7
734.635	17630.02
734.976	17747.75
735.317	17620.75
735.658	17627.76
735.999	17628.66
736.339	17566.29
736.68	17605.84
737.021	17576.23
737.361	17501.21
737.702	17502.79
738.042	17447.65
738.383	17380.76
738.723	17441.32
739.063	17382.11
739.404	17366.75
739.744	17351.61
740.084	17373.53
740.424	17322.45
740.764	17279.29
741.104	17353.41
741.444	17108
741.784	17109.35
742.124	17144.38
742.464	17094.66
742.804	17119.52
743.143	16966.53
743.483	16996.14
743.823	16890.38
744.162	16798.17
744.502	16861.68
744.841	16827.78
745.181	16900.54
745.52	16832.07
745.86	16801.34
746.199	16695.35
746.538	16716.59
746.877	16727.89
747.216	16614.68
747.556	16679.53
747.895	16670.95
748.234	16607.67
748.573	16583.94
748.911	16544.17
749.25	16492.42
749.589	16457.39
749.928	16387.34
750.267	16403.16
750.605	16325.87
750.944	16364.51
751.283	16197.74
751.621	16357.06
751.96	16283.39
752.298	16187.57
752.636	16201.58
752.975	16104.86
753.313	16060.57
753.651	15993
753.989	16014.92
754.327	15960.23
754.666	15939.89
755.004	15911.19
755.342	15886.33
