Data from foam1_polythene_foam_FLMS001491_00060.txt Node
Date: Wed Feb 08 10:55:04 GMT 2017
User: dcchb
Spectrometer: FLMS00149
Trigger mode: 0
Integration Time (sec): 2.000000E-2
Scans to average: 10
Electric dark correction enabled: true
Nonlinearity correction enabled: false
Boxcar width: 0
XAxis mode: Wavelengths
Number of Pixels in Spectrum: 2048
>>>>>Begin Spectral Data<<<<<
341.393	4.35
341.776	4.35
342.16	4.35
342.543	-56.44
342.927	-48.3
343.31	-57.57
343.693	-54.86
344.077	-61.18
344.46	-66.83
344.843	-58.47
345.226	-50.56
345.61	-29.32
345.993	-23.22
346.376	-6.27
346.759	21.3
347.142	24.69
347.525	20.85
347.908	49.77
348.291	80.28
348.674	108.98
349.057	102.43
349.44	124.35
349.823	144.46
350.206	168.19
350.588	195.31
350.971	205.47
351.354	205.7
351.737	239.82
352.119	251.12
352.502	265.13
352.884	261.07
353.267	277.56
353.65	288.18
354.032	285.25
354.414	300.61
354.797	296.55
355.179	299.71
355.562	306.49
355.944	310.56
356.326	308.75
356.709	342.19
357.091	315.08
357.473	327.96
357.855	339.26
358.238	325.25
358.62	320.73
359.002	323.66
359.384	315.53
359.766	326.38
360.148	331.57
360.53	313.27
360.912	322.08
361.294	320.95
361.676	342.42
362.057	321.86
362.439	321.63
362.821	317.34
363.203	318.92
363.584	326.38
363.966	303.78
364.348	299.26
364.729	284.79
365.111	311.01
365.493	326.38
365.874	309.43
366.256	298.58
366.637	314.4
367.019	318.69
367.4	295.87
367.781	287.73
368.163	313.95
368.544	312.59
368.925	302.87
369.306	315.3
369.688	307.62
370.069	326.6
370.45	291.8
370.831	312.14
371.212	294.51
371.593	285.92
371.974	304.91
372.355	290.67
372.736	307.62
373.117	298.35
373.498	287.51
373.879	311.46
374.26	295.42
374.641	293.61
375.021	321.63
375.402	303.1
375.783	326.83
376.163	315.98
376.544	307.17
376.925	308.3
377.305	312.14
377.686	328.64
378.066	319.14
378.447	306.26
378.827	328.64
379.208	318.69
379.588	317.34
379.968	329.09
380.349	318.69
380.729	299.03
381.109	313.27
381.489	310.78
381.87	350.78
382.25	321.63
382.63	323.89
383.01	342.42
383.39	337.9
383.77	318.24
384.15	346.94
384.53	331.12
384.91	347.62
385.29	344
385.67	351.01
386.049	348.75
386.429	349.43
386.809	344.91
387.189	333.61
387.568	351.69
387.948	354.62
388.328	359.37
388.707	348.07
389.087	381.29
389.466	348.97
389.846	347.39
390.225	344.23
390.605	349.65
390.984	364.34
391.363	367.73
391.743	342.65
392.122	353.72
392.501	355.3
392.881	350.78
393.26	386.94
393.639	357.79
394.018	357.11
394.397	365.92
394.776	373.38
395.155	379.48
395.534	356.43
395.913	388.75
396.292	402.53
396.671	386.49
397.05	384.23
397.429	368.86
397.808	373.38
398.186	378.58
398.565	403.21
398.944	391.23
399.323	410.67
399.701	393.72
400.08	408.86
400.458	415.19
400.837	402.98
401.215	403.21
401.594	412.93
401.972	391.23
402.351	409.09
402.729	421.97
403.107	394.85
403.486	404.79
403.864	383.32
404.242	433.04
404.62	418.12
404.999	405.24
405.377	436.66
405.755	416.09
406.133	428.52
406.511	430.55
406.889	440.72
407.267	451.34
407.645	453.83
408.023	463.32
408.401	424
408.779	456.09
409.156	441.4
409.534	446.37
409.912	466.94
410.29	458.35
410.667	463.77
411.045	453.38
411.422	480.95
411.8	466.71
412.178	485.24
412.555	482.08
412.933	469.42
413.31	495.64
413.687	489.99
414.065	507.84
414.442	493.38
414.819	500.16
415.197	496.09
415.574	497.9
415.951	517.33
416.328	530.66
416.705	524.11
417.082	533.83
417.46	537.22
417.837	533.6
418.214	544.22
418.591	538.12
418.967	543.09
419.344	524.79
419.721	533.83
420.098	558.91
420.475	549.42
420.852	550.32
421.228	545.58
421.605	581.74
421.982	558.46
422.358	566.37
422.735	563.21
423.111	557.1
423.488	555.52
423.864	577.67
424.241	581.74
424.617	581.96
424.994	617.89
425.37	589.19
425.746	590.1
426.123	615.18
426.499	612.47
426.875	612.02
427.251	606.59
427.627	637.33
428.003	617.67
428.379	619.25
428.756	658.34
429.132	652.02
429.507	668.29
429.883	662.86
430.259	674.39
430.635	685.24
431.011	688.85
431.387	683.43
431.763	684.78
432.138	702.86
432.514	706.25
432.89	723.88
433.265	716.87
433.641	727.95
434.016	742.18
434.392	748.06
434.767	759.58
435.143	736.53
435.518	762.07
435.894	763.43
436.269	797.55
436.644	787.83
437.02	783.99
437.395	777.44
437.77	804.33
438.145	806.36
438.52	844.1
438.895	838.23
439.271	850.43
439.646	854.72
440.021	848.85
440.395	855.18
440.77	857.21
441.145	877.1
441.52	870.54
441.895	880.94
442.27	873.48
442.645	885.46
443.019	915.29
443.394	908.73
443.769	893.59
444.143	922.74
444.518	927.04
444.892	964.55
445.267	944.89
445.641	963.87
446.016	937.66
446.39	960.71
446.764	987.83
447.139	969.52
447.513	973.36
447.887	990.54
448.262	1002.74
448.636	1005
449.01	1034.83
449.384	1008.62
449.758	1023.31
450.132	1035.28
450.506	1063.08
450.88	1069.41
451.254	1070.31
451.628	1062.18
452.002	1065.34
452.376	1076.41
452.75	1088.16
453.123	1109.18
453.497	1137.2
453.871	1134.26
454.244	1130.65
454.618	1168.39
454.992	1158.9
455.365	1159.12
455.739	1176.52
456.112	1183.3
456.486	1189.86
456.859	1192.79
457.232	1226.69
457.606	1194.6
457.979	1219.69
458.352	1255.62
458.725	1274.37
459.099	1264.2
459.472	1258.55
459.845	1275.96
460.218	1311.66
460.591	1287.03
460.964	1307.37
461.337	1329.74
461.71	1351.21
462.083	1363.64
462.456	1381.49
462.829	1360.47
463.201	1369.29
463.574	1388.49
463.947	1405.22
464.32	1428.72
464.692	1454.03
465.065	1426.91
465.438	1462.62
465.81	1471.43
466.183	1487.7
466.555	1543.52
466.928	1535.16
467.3	1550.98
467.672	1529.28
468.045	1574.48
468.417	1586
468.789	1583.29
469.161	1629.17
469.534	1640.24
469.906	1650.63
470.278	1653.57
470.65	1666.23
471.022	1703.29
471.394	1775.6
471.766	1766.11
472.138	1796.17
472.51	1793.68
472.882	1835.49
473.253	1843.17
473.625	1868.03
473.997	1892.21
474.369	1914.81
474.74	1915.94
475.112	1929.05
475.484	1976.05
475.855	2015.14
476.227	2036.16
476.598	2073
476.97	2082.94
477.341	2115.26
477.713	2117.06
478.084	2143.73
478.455	2213.33
478.827	2219.43
479.198	2276.83
479.569	2302.37
479.94	2360.22
480.311	2382.59
480.682	2431.63
481.053	2480.22
481.424	2500.33
481.795	2552.98
482.166	2556.6
482.537	2632.53
482.908	2623.72
483.279	2638.41
483.65	2698.06
484.021	2741
484.391	2782.81
484.762	2818.29
485.133	2813.54
485.503	2875.46
485.874	2929.02
486.244	2936.7
486.615	3001.11
486.985	3060.54
487.356	3112.07
487.726	3138.51
488.097	3176.24
488.467	3176.02
488.837	3285.39
489.207	3298.73
489.578	3350.7
489.948	3360.65
490.318	3406.52
490.688	3463.69
491.058	3491.26
491.428	3525.84
491.798	3592.28
492.168	3610.58
492.538	3702.78
492.908	3652.39
493.278	3751.6
493.648	3762.67
494.017	3816.91
494.387	3825.72
494.757	3816.91
495.126	3894.64
495.496	3947.52
495.866	3918.15
496.235	4007.63
496.605	4030.01
496.974	4029.78
497.344	4097.58
497.713	4084.24
498.082	4131.7
498.452	4155.65
498.821	4178.48
499.19	4235.88
499.559	4258.48
499.928	4268.64
500.298	4281.98
500.667	4375.31
501.036	4363.78
501.405	4384.57
501.774	4444.01
502.143	4458.24
502.512	4521.97
502.88	4553.16
503.249	4558.13
503.618	4587.73
503.987	4587.05
504.356	4607.39
504.724	4640.61
505.093	4683.78
505.462	4697.79
505.83	4765.13
506.199	4805.13
506.567	4813.26
506.936	4866.14
507.304	4883.32
507.672	4933.94
508.041	5051.9
508.409	5015.52
508.777	5031.56
509.145	5086.7
509.514	5079.24
509.882	5178.23
510.25	5153.37
510.618	5184.1
510.986	5269.3
511.354	5262.29
511.722	5356.98
512.09	5388.39
512.458	5372.12
512.826	5431.78
513.193	5473.36
513.561	5516.75
513.929	5468.61
514.297	5618.21
514.664	5642.17
515.032	5653.02
515.4	5682.17
515.767	5692.11
516.135	5859.34
516.502	5756.06
516.869	5810.98
517.237	5835.84
517.604	5888.26
517.972	5916.06
518.339	5989.28
518.706	5974.14
519.073	6063.4
519.44	6096.17
519.808	6202.61
520.175	6201.7
520.542	6313.11
520.909	6266.33
521.276	6318.08
521.643	6358.76
522.009	6435.82
522.376	6430.4
522.743	6481.92
523.11	6567.57
523.477	6589.49
523.843	6700.22
524.21	6696.6
524.577	6774.79
524.943	6854.11
525.31	6904.28
525.676	6886.43
526.043	6972.75
526.409	7026.54
526.776	7035.8
527.142	7104.5
527.508	7154.44
527.874	7220.88
528.241	7288.45
528.607	7286.64
528.973	7412.29
529.339	7373.65
529.705	7425.85
530.071	7472.85
530.437	7560.31
530.803	7612.29
531.169	7621.33
531.535	7655
531.901	7695.22
532.267	7657.48
532.632	7770.25
532.998	7819.74
533.364	7845.95
533.73	7837.59
534.095	7982.45
534.461	8028.55
534.826	8005.5
535.192	8021.31
535.557	8131.82
535.923	8138.37
536.288	8203.23
536.653	8162.78
537.019	8215.21
537.384	8227.86
537.749	8266.05
538.114	8288.2
538.479	8299.95
538.845	8307.86
539.21	8395.09
539.575	8434.41
539.94	8399.16
540.305	8522.32
540.67	8516.44
541.034	8522.09
541.399	8553.05
541.764	8572.49
542.129	8621.75
542.494	8646.16
542.858	8699.26
543.223	8747.4
543.587	8706.49
543.952	8700.84
544.316	8855.64
544.681	8736.78
545.045	8835.08
545.41	8856.55
545.774	8930.22
546.138	8936.09
546.503	8970.44
546.867	9074.39
547.231	9086.6
547.595	9033.27
547.959	9047.5
548.324	9151.23
548.688	9129.53
549.052	9201.17
549.416	9240.04
549.779	9225.12
550.143	9245.24
550.507	9357.1
550.871	9304.44
551.235	9359.81
551.599	9380.37
551.962	9452.24
552.326	9436.87
552.689	9543.76
553.053	9479.13
553.417	9556.42
553.78	9608.84
554.143	9667.37
554.507	9693.81
554.87	9719.12
555.234	9769.74
555.597	9776.07
555.96	9815.17
556.323	9824.88
556.686	9872.34
557.05	9938.78
557.413	9970.64
557.776	10025.78
558.139	10093.58
558.502	10064.42
558.865	10174.93
559.228	10205.21
559.59	10257.19
559.953	10201.37
560.316	10351.65
560.679	10322.27
561.041	10444.75
561.404	10487.24
561.767	10572.89
562.129	10465.54
562.492	10614.01
562.854	10686.33
563.217	10659.44
563.579	10705.31
563.941	10710.96
564.304	10795.25
564.666	10818.76
565.028	10873.67
565.39	10933.33
565.753	11076.6
566.115	11043.61
566.477	11082.93
566.839	11125.64
567.201	11195.69
567.563	11179.65
567.925	11244.73
568.287	11308.69
568.648	11312.75
569.01	11406.08
569.372	11459.19
569.734	11483.82
570.095	11505.29
570.457	11551.17
570.819	11559.07
571.18	11619.64
571.542	11710.94
571.903	11632.07
572.265	11732.4
572.626	11790.93
572.987	11773.31
573.349	11807.43
573.71	11839.07
574.071	11918.39
574.432	11963.13
574.794	12012.62
575.155	11990.02
575.516	11942.34
575.877	12017.14
576.238	12005.16
576.599	12164.03
576.96	12063.47
577.32	12180.98
577.681	12211.49
578.042	12190.24
578.403	12215.1
578.763	12215.1
579.124	12153.41
579.485	12262.11
579.845	12375.55
580.206	12296
580.566	12237.93
580.927	12350.24
581.287	12425.04
581.648	12333.97
582.008	12464.81
582.368	12424.36
582.728	12524.92
583.089	12343.01
583.449	12350.92
583.809	12481.54
584.169	12392.27
584.529	12423.91
584.889	12466.85
585.249	12458.03
585.609	12483.34
585.969	12571.25
586.329	12541.42
586.688	12558.82
587.048	12503.91
587.408	12439.96
587.768	12491.93
588.127	12411.71
588.487	12421.65
588.846	12481.08
589.206	12359.73
589.565	12437.47
589.925	12514.76
590.284	12461.88
590.643	12561.76
591.003	12579.84
591.362	12594.3
591.721	12598.14
592.08	12544.36
592.44	12588.88
592.799	12637.69
593.158	12517.02
593.517	12585.26
593.876	12543.46
594.235	12552.72
594.593	12552.95
594.952	12648.31
595.311	12524.25
595.67	12654.19
596.029	12719.27
596.387	12685.6
596.746	12750.46
597.104	12684.92
597.463	12636.56
597.822	12672.49
598.18	12690.34
598.538	12635.66
598.897	12660.97
599.255	12606.28
599.613	12759.72
599.972	12721.76
600.33	12653.74
600.688	12739.38
601.046	12807.63
601.404	12783.45
601.762	12792.26
602.12	12845.82
602.478	12837.91
602.836	12845.37
603.194	12816.44
603.552	12705.26
603.91	12694.86
604.268	12789.78
604.625	12732.83
604.983	12844.46
605.341	12788.65
605.698	12920.17
606.056	12915.88
606.413	12923.11
606.771	13021.41
607.128	13016.21
607.485	12888.08
607.843	12845.14
608.2	12943.9
608.557	13032.03
608.914	13004.01
609.272	12979.6
609.629	13068.64
609.986	13068.41
610.343	13071.13
610.7	13102.31
611.057	13134.63
611.414	13132.14
611.771	13080.84
612.127	13155.42
612.484	13105.7
612.841	13140.05
613.198	13168.75
613.554	13160.61
613.911	13242.65
614.267	13242.87
614.624	13115.19
614.98	13182.99
615.337	13280.84
615.693	13232.7
616.05	13298.69
616.406	13333.72
616.762	13371.68
617.118	13291.46
617.475	13270.22
617.831	13321.97
618.187	13408.29
618.543	13288.97
618.899	13392.92
619.255	13346.6
619.611	13298.46
619.967	13404.9
620.323	13336.43
620.678	13394.05
621.034	13385.24
621.39	13354.51
621.746	13304.11
622.101	13453.26
622.457	13442.19
622.812	13492.13
623.168	13446.48
623.523	13394.05
623.879	13508.4
624.234	13279.26
624.589	13350.89
624.945	13406.71
625.3	13390.66
625.655	13378.24
626.01	13449.87
626.365	13354.51
626.72	13416.2
627.075	13438.57
627.43	13358.8
627.785	13351.8
628.14	13348.63
628.495	13375.75
628.85	13326.94
629.205	13289.2
629.559	13387.73
629.914	13312.47
630.269	13325.36
630.623	13373.72
630.978	13247.17
631.332	13364
631.687	13322.19
632.041	13202.87
632.396	13355.41
632.75	13194.29
633.104	13258.69
633.459	13205.81
633.813	13209.88
634.167	13226.83
634.521	13222.76
634.875	13260.72
635.229	13179.6
635.583	13058.02
635.937	13169.88
636.291	13200.39
636.645	13123.33
636.999	13065.7
637.352	13082.88
637.706	12975.99
638.06	12996.78
638.413	13087.62
638.767	13001.52
639.121	13000.17
639.474	12950.68
639.828	12930.34
640.181	12994.97
640.534	12990.9
640.888	12969.43
641.241	12851.24
641.594	12877.68
641.947	12970.34
642.301	12888.98
642.654	12910.68
643.007	12859.15
643.36	12864.58
643.713	12791.13
644.066	12826.39
644.419	12727.18
644.771	12695.54
645.124	12640.18
645.477	12597.69
645.83	12550.46
646.182	12467.75
646.535	12357.92
646.888	12357.92
647.24	12258.27
647.593	12360.18
647.945	12269.79
648.298	12260.98
648.65	12260.75
649.002	12190.47
649.355	12311.82
649.707	12246.06
650.059	12270.69
650.411	12374.87
650.763	12418.71
651.115	12532.61
651.467	12449.67
651.819	12425.27
652.171	12447.64
652.523	12423.01
652.875	12463.91
653.227	12351.14
653.578	12454.42
653.93	12438.83
654.282	12336.68
654.633	12272.28
654.985	12421.2
655.337	12340.07
655.688	12293.07
656.039	12298.04
656.391	12274.54
656.742	12323.12
657.094	12269.34
657.445	12306.4
657.796	12281.09
658.147	12286.97
658.498	12262.78
658.849	12283.35
659.2	12287.87
659.551	12181.21
659.902	12347.3
660.253	12254.65
660.604	12216.91
660.955	12189.79
661.306	12249.45
661.656	12245.84
662.007	12189.57
662.358	12249.23
662.708	12237.93
663.059	12154.99
663.409	12051.72
663.76	12220.53
664.11	12155.67
664.461	12163.13
664.811	12159.96
665.161	12128.33
665.511	12119.96
665.862	12034.09
666.212	12195.22
666.562	12154.77
666.912	12159.28
667.262	12182.11
667.612	12099.4
667.962	12114.31
668.312	12123.58
668.662	12141.43
669.011	12060.53
669.361	12044.94
669.711	12102.56
670.06	12084.48
670.41	12004.94
670.76	11971.04
671.109	12057.59
671.459	11964.26
671.808	11973.3
672.157	11980.53
672.507	11963.58
672.856	11978.27
673.205	11952.96
673.554	12017.59
673.904	12025.5
674.253	12011.49
674.602	12109.12
674.951	11855.11
675.3	11765.4
675.649	11960.19
675.998	11911.83
676.346	11969.91
676.695	11947.31
677.044	11808.11
677.393	11889.91
677.741	11884.49
678.09	11868.9
678.438	11845.17
678.787	11801.1
679.135	11826.19
679.484	11755.68
679.832	11890.14
680.181	11706.19
680.529	11834.32
680.877	11707.77
681.225	11795.68
681.573	11874.32
681.922	11811.5
682.27	11698.51
682.618	11708.68
682.966	11620.77
683.314	11635.68
683.661	11631.62
684.009	11534.89
684.357	11586.42
684.705	11548.45
685.053	11523.82
685.4	11470.49
685.748	11450.38
686.095	11451.51
686.443	11424.16
686.79	11428.23
687.138	11433.43
687.485	11494.44
687.832	11349.59
688.18	11391.4
688.527	11324.73
688.874	11347.1
689.221	11343.71
689.568	11293.54
689.915	11296.03
690.262	11259.65
690.609	11161.34
690.956	11138.29
691.303	11096.49
691.65	11075.92
691.997	11066.43
692.344	10995.47
692.69	10984.4
693.037	11020.11
693.383	10894.23
693.73	10948.47
694.077	10911.63
694.423	10881.58
694.769	10952.54
695.116	10824.4
695.462	10849.04
695.808	10825.08
696.155	10815.82
696.501	10757.06
696.847	10772.43
697.193	10622.15
697.539	10658.31
697.885	10592.77
698.231	10556.84
698.577	10543.96
698.923	10484.3
699.269	10492.89
699.614	10413.79
699.96	10406.79
700.306	10414.92
700.651	10376.05
700.997	10335.15
701.342	10376.51
701.688	10324.3
702.033	10346.45
702.379	10293.57
702.724	10285.44
703.069	10228.04
703.415	10113.24
703.76	10186.91
704.105	10160.47
704.45	10114.37
704.795	10077.76
705.14	10000.92
705.485	10053.35
705.83	9958.44
706.175	10026.46
706.52	9917.08
706.865	9905.11
707.209	9932.45
707.554	9891.55
707.899	9969.29
708.243	9892
708.588	9863.07
708.932	9822.17
709.277	9873.92
709.621	9787.82
709.966	9772.68
710.31	9752.12
710.654	9725.9
710.998	9717.32
711.342	9701.5
711.687	9658.79
712.031	9562.52
712.375	9545.34
712.719	9522.52
713.063	9441.62
713.407	9564.1
713.75	9448.17
714.094	9481.16
714.438	9435.74
714.782	9479.13
715.125	9430.09
715.469	9448.85
715.812	9427.38
716.156	9415.85
716.499	9374.05
716.843	9351.68
717.186	9318
717.53	9391.22
717.873	9385.8
718.216	9330.43
718.559	9204.56
718.902	9211.57
719.246	9190.55
719.589	9222.19
719.932	9139.48
720.275	9162.53
720.617	9141.29
720.96	9151.68
721.303	9066.71
721.646	9152.58
721.989	9068.29
722.331	9121.4
722.674	9033.04
723.016	9089.54
723.359	9095.64
723.701	9070.78
724.044	9017.9
724.386	8955.98
724.729	9078.46
725.071	9018.58
725.413	9009.31
725.755	8973.61
726.097	8971.12
726.439	8852.48
726.782	8893.61
727.124	8889.77
727.465	8831.69
727.807	8836.89
728.149	8812.93
728.491	8819.71
728.833	8801.18
729.175	8735.65
729.516	8692.94
729.858	8666.95
730.199	8830.78
730.541	8747.4
730.882	8737
731.224	8793.72
731.565	8728.19
731.906	8690.45
732.248	8765.48
732.589	8673.5
732.93	8727.06
733.271	8715.31
733.612	8704.46
733.953	8725.7
734.294	8671.92
734.635	8605.93
734.976	8575.2
735.317	8523.9
735.658	8519.61
735.999	8491.81
736.339	8473.96
736.68	8507.4
737.021	8471.02
737.361	8399.38
737.702	8501.3
738.042	8408.2
738.383	8435.54
738.723	8482.55
739.063	8441.19
739.404	8486.16
739.744	8470.12
740.084	8393.96
740.424	8447.74
740.764	8442.32
741.104	8405.94
741.444	8428.31
741.784	8339.72
742.124	8283.68
742.464	8344.24
742.804	8327.3
743.143	8289.56
743.483	8272.61
743.823	8168.2
744.162	8170.69
744.502	8196.45
744.841	8162.55
745.181	8215.66
745.52	8185.15
745.86	8133.63
746.199	8155.55
746.538	8153.51
746.877	8148.09
747.216	8242.33
747.556	8154.64
747.895	8193.29
748.234	8145.15
748.573	8142.44
748.911	8092.5
749.25	8087.98
749.589	8085.04
749.928	8106.96
750.267	8066.96
750.605	7985.84
750.944	8008.21
751.283	7948.32
751.621	7986.29
751.96	7908.78
752.298	7903.35
752.636	7936.34
752.975	7916.68
753.313	7876.01
753.651	7863.8
753.989	7850.25
754.327	7807.76
754.666	7738.16
755.004	7820.64
755.342	7797.82
755.679	7810.02
756.017	7761.21
756.355	7825.39
756.693	7744.26
757.031	7772.06
757.368	7755.78
757.706	7709.91
758.044	7681.89
758.381	7677.82
758.719	7664.26
759.056	7663.13
759.394	7605.28
759.731	7549.01
760.068	7576.13
760.405	7476.24
760.743	7435.57
761.08	7494.32
761.417	7395.57
761.754	7458.39
762.091	7357.15
