Data from foam_black_FLMS001491_00068.txt Node
Date: Wed Feb 08 10:44:25 GMT 2017
User: dcchb
Spectrometer: FLMS00149
Trigger mode: 0
Integration Time (sec): 2.000000E-2
Scans to average: 10
Electric dark correction enabled: true
Nonlinearity correction enabled: false
Boxcar width: 0
XAxis mode: Wavelengths
Number of Pixels in Spectrum: 2048
>>>>>Begin Spectral Data<<<<<
341.393	-20.42
341.776	-20.42
342.16	-20.42
342.543	-80.53
342.927	-79.63
343.31	-73.3
343.693	-68.56
344.077	-57.94
344.46	-46.19
344.843	-44.15
345.226	-39.18
345.61	-40.31
345.993	-25.39
346.376	-9.12
346.759	15.51
347.142	2.63
347.525	47.82
347.908	35.39
348.291	94.83
348.674	99.12
349.057	108.84
349.44	146.58
349.823	139.8
350.206	133.92
350.588	161.94
350.971	198.1
351.354	200.36
351.737	213.47
352.119	219.12
352.502	252.34
352.884	250.08
353.267	280.81
353.65	274.71
354.032	242.85
354.414	276.97
354.797	295.95
355.179	281.04
355.562	288.95
355.944	290.3
356.326	306.12
356.709	313.81
357.091	323.52
357.473	321.71
357.855	286.91
358.238	323.3
358.62	322.62
359.002	311.55
359.384	310.19
359.766	298.89
360.148	308.38
360.53	326.69
360.912	319.68
361.294	303.41
361.676	314.48
362.057	317.2
362.439	314.26
362.821	312.22
363.203	301.15
363.584	295.95
363.966	309.06
364.348	310.42
364.729	293.24
365.111	294.82
365.493	313.58
365.874	292.34
366.256	296.4
366.637	295.95
367.019	293.92
367.4	302.73
367.781	283.98
368.163	269.29
368.544	304.31
368.925	293.24
369.306	277.65
369.688	295.27
370.069	285.33
370.45	273.35
370.831	299.79
371.212	279.91
371.593	285.11
371.974	309.51
372.355	295.73
372.736	293.24
373.117	285.78
373.498	280.59
373.879	283.98
374.26	286.24
374.641	288.27
375.021	308.83
375.402	302.28
375.783	300.25
376.163	312.68
376.544	313.13
376.925	291.43
377.305	298.66
377.686	296.86
378.066	292.56
378.447	310.87
378.827	313.58
379.208	292.11
379.588	325.56
379.968	300.25
380.349	319
380.729	305.67
381.109	307.93
381.489	319.45
381.87	309.06
382.25	318.1
382.63	298.44
383.01	297.08
383.39	322.39
383.77	306.35
384.15	321.26
384.53	316.74
384.91	322.39
385.29	321.26
385.67	319.23
386.049	320.13
386.429	313.58
386.809	344.99
387.189	337.76
387.568	316.07
387.948	312.68
388.328	340.7
388.707	325.78
389.087	308.38
389.466	318.78
389.846	335.95
390.225	336.18
390.605	322.17
390.984	333.01
391.363	327.14
391.743	333.47
392.122	346.12
392.501	344.76
392.881	342.96
393.26	347.02
393.639	341.83
394.018	343.41
394.397	333.24
394.776	344.54
395.155	355.39
395.534	355.84
395.913	331.21
396.292	343.41
396.671	346.57
397.05	375.05
397.429	348.38
397.808	358.32
398.186	373.69
398.565	374.14
398.944	353.35
399.323	368.72
399.701	395.16
400.08	366.69
400.458	363.07
400.837	355.84
401.215	366.23
401.594	350.41
401.972	369.17
402.351	392
402.729	382.73
403.107	373.01
403.486	369.17
403.864	388.83
404.242	389.96
404.62	380.47
404.999	390.87
405.377	386.57
405.755	397.42
406.133	392.45
406.511	406.46
406.889	381.6
407.267	400.13
407.645	382.05
408.023	390.87
408.401	402.16
408.779	398.1
409.156	402.84
409.534	420.92
409.912	407.36
410.29	400.81
410.667	418.21
411.045	421.15
411.422	414.82
411.8	428.83
412.178	422.05
412.555	425.67
412.933	422.28
413.31	413.46
413.687	425.21
414.065	432.45
414.442	424.76
414.819	443.52
415.197	443.52
415.574	438.1
415.951	452.11
416.328	438.77
416.705	442.84
417.082	450.07
417.46	422.5
417.837	460.92
418.214	458.66
418.591	461.37
418.967	476.06
419.344	437.42
419.721	451.65
420.098	445.1
420.475	456.17
420.852	457.98
421.228	485.33
421.605	476.51
421.982	465.21
422.358	480.35
422.735	492.33
423.111	471.77
423.488	482.61
423.864	493.46
424.241	459.79
424.617	491.65
424.994	478.09
425.37	488.94
425.746	498.66
426.123	484.2
426.499	481.48
426.875	494.14
427.251	502.95
427.627	508.15
428.003	530.97
428.379	509.28
428.756	511.54
429.132	529.84
429.507	510.86
429.883	521.71
430.259	542.05
430.635	520.81
431.011	548.83
431.387	556.74
431.763	539.34
432.138	544.08
432.514	551.77
432.89	556.96
433.265	566.91
433.641	559.45
434.016	557.64
434.392	580.69
434.767	612.33
435.143	582.72
435.518	593.8
435.894	597.64
436.269	587.92
436.644	584.08
437.02	618.2
437.395	610.52
437.77	628.6
438.145	602.84
438.52	626.57
438.895	624.31
439.271	604.42
439.646	632.22
440.021	618.88
440.395	633.12
440.77	637.86
441.145	621.14
441.52	621.82
441.895	641.93
442.27	653.91
442.645	649.84
443.019	651.42
443.394	647.58
443.769	665.89
444.143	636.73
444.518	636.73
444.892	648.03
445.267	678.32
445.641	672.21
446.016	648.49
446.39	669.05
446.764	677.86
447.139	671.99
447.513	676.51
447.887	669.28
448.262	697.52
448.636	690.52
449.01	691.42
449.384	681.25
449.758	698.88
450.132	707.02
450.506	691.42
450.88	710.63
451.254	704.76
451.628	703.4
452.002	719.9
452.376	733.91
452.75	711.08
453.123	723.51
453.497	758.99
453.871	749.73
454.244	732.33
454.618	740.23
454.992	754.7
455.365	768.48
455.739	780.91
456.112	784.3
456.486	779.1
456.859	773
457.232	781.59
457.606	798.31
457.979	797.63
458.352	820.68
458.725	838.76
459.099	834.47
459.472	806.45
459.845	852.32
460.218	844.64
460.591	855.94
460.964	853.9
461.337	876.95
461.71	893
462.083	875.37
462.456	882.15
462.829	890.74
463.201	911.3
463.574	909.04
463.947	924.86
464.32	924.18
464.692	955.37
465.065	937.29
465.438	947.91
465.81	958.99
466.183	974.8
466.555	979.78
466.928	979.78
467.3	967.12
467.672	1002.37
468.045	985.88
468.417	1016.84
468.789	989.72
469.161	1025.88
469.534	1036.72
469.906	1060
470.278	1038.08
470.65	1090.51
471.022	1077.18
471.394	1121.24
471.766	1094.12
472.138	1128.02
472.51	1119.43
472.882	1141.13
473.253	1160.11
473.625	1162.82
473.997	1177.51
474.369	1162.14
474.74	1198.98
475.112	1225.42
475.484	1205.08
475.855	1254.35
476.227	1264.51
476.598	1307.68
476.97	1281.92
477.341	1290.73
477.713	1330.28
478.084	1326.89
478.455	1350.61
478.827	1373.66
479.198	1393.55
479.569	1412.53
479.94	1419.76
480.311	1461.12
480.682	1489.82
481.053	1485.75
481.424	1483.49
481.795	1498.86
482.166	1551.96
482.537	1551.96
482.908	1591.51
483.279	1577.05
483.65	1599.2
484.021	1631.51
484.391	1626.09
484.762	1644.39
485.133	1677.39
485.503	1703.6
485.874	1730.72
486.244	1721
486.615	1752.19
486.985	1788.57
487.356	1787.89
487.726	1803.03
488.097	1833.31
488.467	1821.34
488.837	1854.1
489.207	1902.92
489.578	1904.05
489.948	1926.42
490.318	1958.28
490.688	1925.74
491.058	2005.96
491.428	1999.86
491.798	2028.79
492.168	2055.45
492.538	2054.55
492.908	2083.7
493.278	2103.81
493.648	2087.54
494.017	2128.9
494.387	2144.49
494.757	2136.81
495.126	2151.5
495.496	2178.16
495.866	2183.36
496.235	2250.03
496.605	2239.18
496.974	2224.72
497.344	2260.42
497.713	2301.55
498.082	2278.95
498.452	2299.06
498.821	2320.53
499.19	2320.53
499.559	2316.46
499.928	2372.51
500.298	2390.81
500.667	2391.04
501.036	2383.13
501.405	2401.89
501.774	2387.88
502.143	2420.87
502.512	2417.25
502.88	2475.56
503.249	2441.66
503.618	2505.61
503.987	2490.02
504.356	2527.08
504.724	2492.28
505.093	2507.87
505.462	2564.14
505.83	2556.91
506.199	2605.27
506.567	2616.34
506.936	2618.38
507.304	2637.36
507.672	2607.76
508.041	2665.38
508.409	2652.5
508.777	2716
509.145	2725.27
509.514	2744.25
509.882	2726.85
510.25	2764.59
510.618	2753.52
510.986	2784.25
511.354	2814.53
511.722	2845.94
512.09	2819.05
512.458	2846.17
512.826	2876.22
513.193	2867.64
513.561	2906.73
513.929	2945.6
514.297	2940.85
514.664	2965.71
515.032	2949.22
515.4	2984.02
515.767	3036.45
516.135	3054.07
516.502	3007.75
516.869	3067.86
517.237	3060.17
517.604	3049.1
517.972	3134.07
518.339	3118.7
518.706	3147.86
519.073	3100.17
519.44	3213.39
519.808	3186.27
520.175	3160.28
520.542	3247.51
520.909	3201.86
521.276	3247.74
521.643	3302.65
522.009	3307.4
522.376	3350.56
522.743	3373.39
523.11	3359.15
523.477	3427.17
523.843	3448.86
524.21	3467.17
524.577	3483.21
524.943	3503.1
525.31	3538.35
525.676	3560.05
526.043	3546.49
526.409	3596.2
526.776	3615.64
527.142	3636.66
527.508	3645.02
527.874	3668.75
528.241	3665.58
528.607	3731.79
528.973	3780.61
529.339	3781.06
529.705	3743.32
530.071	3776.09
530.437	3788.29
530.803	3795.97
531.169	3844.79
531.535	3851.57
531.901	3878.91
532.267	3867.16
532.632	3873.49
532.998	3888.85
533.364	3979.92
533.73	3903.77
534.095	3952.13
534.461	4018.11
534.826	4010.43
535.192	4017.44
535.557	4056.53
535.923	4062.18
536.288	4095.85
536.653	4116.19
537.019	4123.65
537.384	4113.71
537.749	4124.55
538.114	4158.22
538.479	4171.78
538.845	4151.67
539.21	4179.01
539.575	4235.96
539.94	4264.21
540.305	4214.49
540.67	4252.46
541.034	4287.94
541.399	4314.83
541.764	4324.1
542.129	4320.48
542.494	4342.85
542.858	4366.58
543.223	4312.12
543.587	4328.16
543.952	4377.2
544.316	4352.8
544.681	4396.86
545.045	4382.85
545.41	4413.81
545.774	4477.09
546.138	4438.67
546.503	4417.43
546.867	4456.52
547.231	4529.74
547.595	4511.66
547.959	4527.48
548.324	4552.56
548.688	4595.05
549.052	4629.4
549.416	4600.25
549.779	4600.02
550.143	4595.73
550.507	4663.97
550.871	4716.4
551.235	4670.98
551.599	4735.16
551.962	4722.5
552.326	4757.98
552.689	4760.69
553.053	4739.23
553.417	4848.38
553.78	4830.97
554.143	4826
554.507	4872.33
554.87	4894.7
555.234	4921.82
555.597	4906.9
555.96	4928.83
556.323	4952.1
556.686	4978.77
557.05	4977.41
557.413	5005.89
557.776	5014.7
558.139	4974.7
558.502	5047.69
558.865	5046.56
559.228	5069.16
559.59	5078.65
559.953	5113.45
560.316	5139.22
560.679	5138.31
561.041	5165.66
561.404	5210.4
561.767	5243.17
562.129	5231.19
562.492	5290.85
562.854	5255.14
563.217	5312.09
563.579	5338.53
563.941	5371.07
564.304	5398.42
564.666	5456.27
565.028	5447
565.39	5497.4
565.753	5457.85
566.115	5569.71
566.477	5580.79
566.839	5574.01
567.201	5610.84
567.563	5623.27
567.925	5635.25
568.287	5633.44
568.648	5641.12
569.01	5711.4
569.372	5776.49
569.734	5713.44
570.095	5740.56
570.457	5843.15
570.819	5771.97
571.18	5843.6
571.542	5851.06
571.903	5847.45
572.265	5896.48
572.626	5892.64
572.987	5916.82
573.349	5887.9
573.71	5952.3
574.071	5916.6
574.432	5953.21
574.794	5995.92
575.155	5978.74
575.516	5976.93
575.877	6006.99
576.238	5999.08
576.599	6027.78
576.96	6046.31
577.32	6039.08
577.681	6012.64
578.042	6085.63
578.403	6086.53
578.763	6063.03
579.124	6112.97
579.485	6125.4
579.845	6164.5
580.206	6075.46
580.566	6112.97
580.927	6143.48
581.287	6226.42
581.648	6199.75
582.008	6190.94
582.368	6259.64
582.728	6260.99
583.089	6220.77
583.449	6184.61
583.809	6246.08
584.169	6239.98
584.529	6214.44
584.889	6235.01
585.249	6234.78
585.609	6188.23
585.969	6253.54
586.329	6258.51
586.688	6251.5
587.048	6293.54
587.408	6197.94
587.768	6219.41
588.127	6235.01
588.487	6210.83
588.846	6285.4
589.206	6184.84
589.565	6245.4
589.925	6253.08
590.284	6177.38
590.643	6262.35
591.003	6243.59
591.362	6219.19
591.721	6218.73
592.08	6267.32
592.44	6244.04
592.799	6232.97
593.158	6193.2
593.517	6207.89
593.876	6240.88
594.235	6191.84
594.593	6224.16
594.952	6240.66
595.311	6260.77
595.67	6204.27
596.029	6320.65
596.387	6345.06
596.746	6294.21
597.104	6255.34
597.463	6293.54
597.822	6269.13
598.18	6242.46
598.538	6282.24
598.897	6338.51
599.255	6262.8
599.613	6350.93
599.972	6312.52
600.33	6278.85
600.688	6264.61
601.046	6329.47
601.404	6323.59
601.762	6355.45
602.12	6366.53
602.478	6356.58
602.836	6418.28
603.194	6297.15
603.552	6346.64
603.91	6366.98
604.268	6349.58
604.625	6326.3
604.983	6364.04
605.341	6293.76
605.698	6388.9
606.056	6363.14
606.413	6362.46
606.771	6416.47
607.128	6391.39
607.485	6375.11
607.843	6330.6
608.2	6378.05
608.557	6455.56
608.914	6410.14
609.272	6417.6
609.629	6423.02
609.986	6451.95
610.343	6472.29
610.7	6483.13
611.057	6496.92
611.414	6456.92
611.771	6489.69
612.127	6517.94
612.484	6489.91
612.841	6505.51
613.198	6543.02
613.554	6469.8
613.911	6571.72
614.267	6512.06
614.624	6483.13
614.98	6577.37
615.337	6519.74
615.693	6569.91
616.05	6571.04
616.406	6564.94
616.762	6540.99
617.118	6557.03
617.475	6525.17
617.831	6549.35
618.187	6547.31
618.543	6606.97
618.899	6598.61
619.255	6592.96
619.611	6577.37
619.967	6600.87
620.323	6648.55
620.678	6555.9
621.034	6585.05
621.39	6624.83
621.746	6585.5
622.101	6633.87
622.457	6616.69
622.812	6600.42
623.168	6604.71
623.523	6616.01
623.879	6632.74
624.234	6575.79
624.589	6610.14
624.945	6678.38
625.3	6639.06
625.655	6635.67
626.01	6605.39
626.365	6628.67
626.72	6628.67
627.075	6630.93
627.43	6600.87
627.785	6633.19
628.14	6663.92
628.495	6647.42
628.85	6659.85
629.205	6634.32
629.559	6683.13
629.914	6603.36
630.269	6613.75
630.623	6587.09
630.978	6597.26
631.332	6622.11
631.687	6601.78
632.041	6589.8
632.396	6618.27
632.75	6615.56
633.104	6657.59
633.459	6561.1
633.813	6529.01
634.167	6602.45
634.521	6568.33
634.875	6506.41
635.229	6503.7
635.583	6547.77
635.937	6517.48
636.291	6487.2
636.645	6474.55
636.999	6425.96
637.352	6456.02
637.706	6401.78
638.06	6466.19
638.413	6427.32
638.767	6482
639.121	6389.8
639.474	6376.24
639.828	6416.47
640.181	6389.8
640.534	6377.6
640.888	6376.47
641.241	6337.83
641.594	6301.22
641.947	6355.68
642.301	6344.38
642.654	6326.75
643.007	6342.8
643.36	6338.73
643.713	6290.37
644.066	6322.46
644.419	6277.49
644.771	6242.01
645.124	6118.4
645.477	6129.25
645.83	6138.28
646.182	6110.04
646.535	6062.58
646.888	6152.3
647.24	6098.06
647.593	6169.02
647.945	6148.23
648.298	6084.5
648.65	6104.16
649.002	6058.29
649.355	6089.02
649.707	6011.28
650.059	6100.09
650.411	6113.2
650.763	6158.85
651.115	6187.78
651.467	6213.54
651.819	6186.19
652.171	6177.83
652.523	6175.35
652.875	6103.26
653.227	6127.89
653.578	6137.16
653.93	6178.28
654.282	6122.69
654.633	6117.95
654.985	6146.19
655.337	6087.89
655.688	6129.25
656.039	6154.1
656.391	6048.57
656.742	6067.33
657.094	6126.08
657.445	6073.88
657.796	6101.45
658.147	6074.33
658.498	6021.45
658.849	6077.72
659.2	6055.58
659.551	6054.9
659.902	6075.46
660.253	6016.93
660.604	6016.48
660.955	6047.67
661.306	6033.2
661.656	6064.16
662.007	6001.11
662.358	6039.53
662.708	5998.18
663.059	6019.42
663.409	6000.44
663.76	6044.05
664.11	6077.27
664.461	6062.35
664.811	6025.75
665.161	6065.07
665.511	6021.45
665.862	6042.24
666.212	6084.95
666.562	6019.19
666.912	6025.97
667.262	6036.59
667.612	6040.66
667.962	6016.93
668.312	6022.13
668.662	6049.47
669.011	6006.76
669.361	5944.17
669.711	6003.6
670.06	5994.11
670.41	5969.7
670.76	5957.27
671.109	5931.51
671.459	5957.27
671.808	5985.52
672.157	6023.49
672.507	5909.36
672.856	5904.17
673.205	5935.13
673.554	5925.64
673.904	5881.57
674.253	5960.66
674.602	5886.99
674.951	5854
675.3	5809.48
675.649	5854.45
675.998	5845.86
676.346	5878.63
676.695	5930.15
677.044	5851.51
677.393	5852.87
677.741	5882.02
678.09	5851.96
678.438	5780.1
678.787	5819.42
679.135	5877.27
679.484	5784.17
679.832	5801.34
680.181	5806.99
680.529	5786.2
680.877	5762.48
681.225	5761.8
681.573	5792.53
681.922	5721.8
682.27	5706.88
682.618	5730.16
682.966	5762.48
683.314	5755.92
683.661	5705.3
684.009	5684.96
684.357	5715.02
684.705	5686.55
685.053	5679.99
685.4	5710.05
685.748	5652.42
686.095	5675.92
686.443	5666.66
686.79	5673.66
687.138	5718.41
687.485	5678.18
687.832	5678.86
688.18	5684.74
688.527	5616.72
688.874	5620.78
689.221	5633.44
689.568	5598.64
689.915	5588.02
690.262	5602.25
690.609	5610.84
690.956	5560.45
691.303	5531.75
691.65	5507.57
691.997	5562.71
692.344	5528.36
692.69	5514.57
693.037	5440
693.383	5507.12
693.73	5470.73
694.077	5399.32
694.423	5415.59
694.769	5388.47
695.116	5334.01
695.462	5389.15
695.808	5322.26
696.155	5320.23
696.501	5278.87
696.847	5278.87
697.193	5284.07
697.539	5263.05
697.885	5188.25
698.231	5184.19
698.577	5199.1
698.923	5176.95
699.269	5151.42
699.614	5143.06
699.96	5121.14
700.306	5122.49
700.651	5108.48
700.997	5093.79
701.342	5114.58
701.688	5059.44
702.033	5051.08
702.379	5021.03
702.724	4991.87
703.069	5041.59
703.415	4960.69
703.76	4980.58
704.105	4998.43
704.45	4951.42
704.795	4927.47
705.14	4950.07
705.485	4929.5
705.83	4938.77
706.175	4939.9
706.52	4922.5
706.865	4936.28
707.209	4909.39
707.554	4897.41
707.899	4920.69
708.243	4868.94
708.588	4866.68
708.932	4852.22
709.277	4811.09
709.621	4871.2
709.966	4832.56
710.31	4858.09
710.654	4798.66
710.998	4826.91
711.342	4797.3
711.687	4789.85
712.031	4842.73
712.375	4770.41
712.719	4762.05
713.063	4777.19
713.407	4752.11
713.75	4742.84
714.094	4729.73
714.438	4670.07
714.782	4706.23
715.125	4693.58
715.469	4670.98
715.812	4635.27
716.156	4642.28
716.499	4612.68
716.843	4685.22
717.186	4598.44
717.53	4581.04
717.873	4571.32
718.216	4622.17
718.559	4559.34
718.902	4520.93
719.246	4506.01
719.589	4499.46
719.932	4507.82
720.275	4490.19
720.617	4460.59
720.96	4474.83
721.303	4472.11
721.646	4483.64
721.989	4447.71
722.331	4475.05
722.674	4399.12
723.016	4444.77
723.359	4414.49
723.701	4426.47
724.044	4424.88
724.386	4405.22
724.729	4404.09
725.071	4450.65
725.413	4383.3
725.755	4382.17
726.097	4341.27
726.439	4386.24
726.782	4405.45
727.124	4404.77
727.465	4390.99
727.807	4376.52
728.149	4367.94
728.491	4363.42
728.833	4376.98
729.175	4343.08
729.516	4361.61
729.858	4328.39
730.199	4345.34
730.541	4328.84
730.882	4359.35
731.224	4293.59
731.565	4296.98
731.906	4333.36
732.248	4355.51
732.589	4328.16
732.93	4298.11
733.271	4287.71
733.612	4279.35
733.953	4289.07
734.294	4296.75
734.635	4237.09
734.976	4275.06
735.317	4222.86
735.658	4247.04
735.999	4229.18
736.339	4222.4
736.68	4269.86
737.021	4239.58
737.361	4215.85
737.702	4222.4
738.042	4178.34
738.383	4238.45
738.723	4180.14
739.063	4199.58
739.404	4157.09
739.744	4190.31
740.084	4162.74
740.424	4171.33
740.764	4138.34
741.104	4156.87
741.444	4136.08
741.784	4118.9
742.124	4088.85
742.464	4078.23
742.804	4078.45
743.143	4075.51
743.483	4097.89
743.823	4025.8
744.162	4019.24
744.502	4080.03
744.841	4049.98
745.181	4046.59
745.52	4063.54
745.86	4031.22
746.199	4008.4
746.538	3995.97
746.877	4017.66
747.216	4052.24
747.556	3993.93
747.895	3989.41
748.234	3967.04
748.573	3976.53
748.911	3971.11
749.25	3931.34
749.589	3917.1
749.928	3929.53
750.267	3969.53
750.605	3924.33
750.944	3908.51
751.283	3854.73
751.621	3920.72
751.96	3889.53
752.298	3883.65
752.636	3847.05
752.975	3866.93
753.313	3905.8
753.651	3881.4
753.989	3886.37
754.327	3826.03
754.666	3831.9
755.004	3902.19
755.342	3844.79
755.679	3842.53
756.017	3809.98
756.355	3858.8
756.693	3779.48
757.031	3831.68
757.368	3803.88
757.706	3755.3
758.044	3805.69
758.381	3820.38
758.719	3807.95
759.056	3759.59
759.394	3763.66
759.731	3782.64
760.068	3777.67
760.405	3763.21
760.743	3741.96
761.08	3726.14
761.417	3736.09
761.754	3727.73
762.091	3710.1
762.428	3693.6
762.765	3680.27
763.102	3692.93
763.438	3650.21
763.775	3638.46
764.112	3688.41
764.449	3665.13
764.785	3672.14
765.122	3608.86
765.458	3586.26
765.795	3575.41
766.131	3588.07
766.467	3545.81
766.804	3538.81
767.14	3569.76
767.476	3572.48
767.812	3501.52
768.148	3515.53
768.485	3469.88
768.821	3468.98
769.157	3452.48
769.492	3453.84
769.828	3445.47
770.164	3415.19
770.5	3413.38
770.836	3391.24
771.171	3379.26
771.507	3390.79
771.842	3360.5
