Data from foam1_polythene_foam_FLMS001491_00095.txt Node
Date: Wed Feb 08 10:55:39 GMT 2017
User: dcchb
Spectrometer: FLMS00149
Trigger mode: 0
Integration Time (sec): 2.000000E-2
Scans to average: 10
Electric dark correction enabled: true
Nonlinearity correction enabled: false
Boxcar width: 0
XAxis mode: Wavelengths
Number of Pixels in Spectrum: 2048
>>>>>Begin Spectral Data<<<<<
341.393	-1.62
341.776	-1.62
342.16	-1.62
342.543	-62.64
342.927	-74.39
343.31	-78.46
343.693	-65.13
344.077	-66.03
344.46	-56.76
344.843	-23.32
345.226	-55.63
345.61	-41.62
345.993	-2.53
346.376	-10.21
346.759	13.06
347.142	28.88
347.525	32.73
347.908	60.07
348.291	70.46
348.674	97.36
349.057	97.13
349.44	108.66
349.823	133.74
350.206	147.75
350.588	181.2
350.971	171.03
351.354	219.16
351.737	195.66
352.119	232.72
352.502	224.13
352.884	248.76
353.267	259.39
353.65	284.02
354.032	274.3
354.414	286.28
354.797	287.41
355.179	298.93
355.562	333.51
355.944	298.93
356.326	307.52
356.709	312.49
357.091	319.27
357.473	347.75
357.855	331.7
358.238	322.21
358.62	311.59
359.002	300.97
359.384	322.66
359.766	299.38
360.148	312.04
360.53	313.62
360.912	319.72
361.294	305.94
361.676	313.4
362.057	305.49
362.439	300.06
362.821	291.02
363.203	309.55
363.584	300.97
363.966	317.69
364.348	310.01
364.729	300.74
365.111	327.18
365.493	320.18
365.874	306.62
366.256	293.74
366.637	286.96
367.019	300.74
367.4	299.38
367.781	309.78
368.163	273.62
368.544	324.47
368.925	279.5
369.306	303
369.688	276.56
370.069	299.61
370.45	306.84
370.831	298.93
371.212	300.97
371.593	281.76
371.974	289.89
372.355	295.77
372.736	294.87
373.117	305.03
373.498	290.35
373.879	299.16
374.26	303.45
374.641	298.03
375.021	303.68
375.402	292.15
375.783	303.68
376.163	309.1
376.544	320.63
376.925	307.29
377.305	301.19
377.686	313.4
378.066	314.3
378.447	292.83
378.827	300.51
379.208	300.97
379.588	308.42
379.968	315.43
380.349	317.92
380.729	320.4
381.109	330.12
381.489	308.65
381.87	313.85
382.25	320.85
382.63	316.79
383.01	333.28
383.39	322.44
383.77	329.21
384.15	331.7
384.53	323.79
384.91	331.93
385.29	327.86
385.67	346.62
386.049	344.13
386.429	318.14
386.809	337.58
387.189	329.89
387.568	341.64
387.948	328.99
388.328	351.81
388.707	345.26
389.087	346.16
389.466	343.9
389.846	355.65
390.225	356.11
390.605	349.78
390.984	346.84
391.363	350.91
391.743	363.34
392.122	338.48
392.501	357.91
392.881	360.85
393.26	378.93
393.639	367.86
394.018	362.43
394.397	355.43
394.776	373.28
395.155	387.52
395.534	355.2
395.913	360.85
396.292	371.25
396.671	364.24
397.05	396.56
397.429	386.61
397.808	382.32
398.186	405.6
398.565	370.8
398.944	386.16
399.323	394.98
399.701	358.37
400.08	368.99
400.458	399.95
400.837	403.11
401.215	403.11
401.594	383.68
401.972	382.09
402.351	414.41
402.729	408.31
403.107	417.8
403.486	400.4
403.864	412.6
404.242	407.18
404.62	403.34
404.999	406.95
405.377	406.95
405.755	433.62
406.133	421.42
406.511	431.36
406.889	424.58
407.267	426.16
407.645	421.64
408.023	417.57
408.401	417.8
408.779	422.32
409.156	420.96
409.534	428.87
409.912	424.13
410.29	452.83
410.667	447.63
411.045	455.99
411.422	453.05
411.8	443.56
412.178	437.01
412.555	450.57
412.933	467.29
413.31	477.23
413.687	460.96
414.065	475.2
414.442	458.02
414.819	476.56
415.197	488.31
415.574	486.72
415.951	495.31
416.328	481.75
416.705	493.05
417.082	517.01
417.46	509.77
417.837	510.68
418.214	481.53
418.591	499.38
418.967	501.19
419.344	512.49
419.721	516.55
420.098	528.98
420.475	518.14
420.852	537.34
421.228	528.31
421.605	538.93
421.982	548.42
422.358	526.95
422.735	556.78
423.111	531.02
423.488	574.63
423.864	550.9
424.241	553.16
424.617	535.54
424.994	558.36
425.37	552.94
425.746	572.82
426.123	594.52
426.499	589.32
426.875	589.55
427.251	564.24
427.627	599.26
428.003	584.58
428.379	594.74
428.756	592.48
429.132	623.9
429.507	629.09
429.883	608.08
430.259	619.15
430.635	655.08
431.011	641.3
431.387	643.56
431.763	672.03
432.138	647.4
432.514	668.19
432.89	654.86
433.265	664.35
433.641	666.61
434.016	686.04
434.392	708.87
434.767	687.4
435.143	722.88
435.518	734.18
435.894	720.62
436.269	729.2
436.644	727.62
437.02	720.16
437.395	746.83
437.77	758.58
438.145	742.54
438.52	776.43
438.895	781.86
439.271	781.41
439.646	813.27
440.021	794.51
440.395	779.15
440.77	804
441.145	793.38
441.52	830.67
441.895	827.05
442.27	820.05
442.645	829.31
443.019	847.17
443.394	832.48
443.769	858.01
444.143	844.23
444.518	875.19
444.892	876.32
445.267	881.52
445.641	861.63
446.016	893.95
446.39	889.43
446.764	904.34
447.139	911.57
447.513	920.39
447.887	905.24
448.262	942.08
448.636	944.79
449.01	929.2
449.384	943.21
449.758	952.47
450.132	964.23
450.506	947.05
450.88	977.79
451.254	1001.51
451.628	992.93
452.002	1020.95
452.376	1020.5
452.75	1002.42
453.123	1024.56
453.497	1044.9
453.871	1036.09
454.244	1046.48
454.618	1059.82
454.992	1047.16
455.365	1048.74
455.739	1091.91
456.112	1107.05
456.486	1091.45
456.859	1088.06
457.232	1111.57
457.606	1097.78
457.979	1100.72
458.352	1143.43
458.725	1146.14
459.099	1170.77
459.472	1166.48
459.845	1169.19
460.218	1188.63
460.591	1191.56
460.964	1178.91
461.337	1185.24
461.71	1215.07
462.083	1233.37
462.456	1233.82
462.829	1246.7
463.201	1255.52
463.574	1257.1
463.947	1262.07
464.32	1276.76
464.692	1304.78
465.065	1278.12
465.438	1337.55
465.81	1345.68
466.183	1347.04
466.555	1349.98
466.928	1371
467.3	1378.68
467.672	1421.16
468.045	1399.02
468.417	1418.68
468.789	1422.29
469.161	1443.99
469.534	1448.06
469.906	1491.22
470.278	1492.35
470.65	1533.48
471.022	1539.13
471.394	1542.74
471.766	1579.13
472.138	1538.22
472.51	1608.28
472.882	1614.38
473.253	1621.16
473.625	1653.7
473.997	1676.3
474.369	1689.4
474.74	1716.97
475.112	1707.26
475.484	1744.77
475.855	1791.1
476.227	1789.52
476.598	1839.91
476.97	1823.64
477.341	1881.04
477.713	1874.03
478.084	1926.69
478.455	1956.29
478.827	1961.71
479.198	2017.76
479.569	2021.15
479.94	2076.97
480.311	2093.69
480.682	2136.62
481.053	2201.26
481.424	2205.55
481.795	2227.24
482.166	2241.93
482.537	2272.21
482.908	2295.72
483.279	2312.67
483.65	2411.65
484.021	2442.15
484.391	2461.14
484.762	2448.25
485.133	2514.92
485.503	2510.17
485.874	2571.19
486.244	2605.76
486.615	2650.28
486.985	2676.72
487.356	2702.26
487.726	2705.88
488.097	2750.85
488.467	2796.95
488.837	2864.06
489.207	2902.71
489.578	2903.84
489.948	2937.28
490.318	2990.84
490.688	3012.76
491.058	3058.41
491.428	3059.76
491.798	3073.78
492.168	3183.38
492.538	3133.89
492.908	3220.89
493.278	3199.65
493.648	3302.92
494.017	3337.5
494.387	3302.7
494.757	3339.76
495.126	3366.65
495.496	3410.04
495.866	3441
496.235	3465.86
496.605	3470.15
496.974	3537.27
497.344	3553.99
497.713	3566.42
498.082	3584.72
498.452	3627.66
498.821	3613.65
499.19	3657.04
499.559	3706.07
499.928	3723.93
500.298	3786.98
500.667	3731.16
501.036	3745.4
501.405	3869.46
501.774	3815.68
502.143	3861.78
502.512	3850.03
502.88	3925.28
503.249	3924.83
503.618	3956.01
503.987	4002.34
504.356	4005.73
504.724	4032.62
505.093	4068.33
505.462	4074.65
505.83	4117.59
506.199	4138.38
506.567	4203.01
506.936	4222.22
507.304	4225.61
507.672	4245.27
508.041	4299.73
508.409	4373.63
508.777	4361.88
509.145	4451.82
509.514	4426.51
509.882	4425.83
510.25	4450.46
510.618	4489.56
510.986	4532.72
511.354	4589.22
511.722	4597.8
512.09	4614.98
512.458	4569.55
512.826	4671.93
513.193	4673.51
513.561	4692.26
513.929	4789.66
514.297	4823.56
514.664	4838.02
515.032	4831.02
515.4	4893.61
515.767	4925.93
516.135	4953.5
516.502	4955.31
516.869	5027.4
517.237	5000.5
517.604	5046.83
517.972	5087.28
518.339	5148.52
518.706	5158.24
519.073	5213.38
519.44	5292.25
519.808	5238.24
520.175	5292.25
520.542	5361.62
520.909	5407.05
521.276	5388.74
521.643	5442.98
522.009	5492.69
522.376	5560.72
522.743	5576.31
523.11	5668.96
523.477	5687.72
523.843	5715.97
524.21	5857.2
524.577	5820.82
524.943	5877.32
525.31	5892.01
525.676	5941.04
526.043	6024.21
526.409	6034.6
526.776	6095.16
527.142	6098.55
527.508	6138.33
527.874	6185.78
528.241	6184.65
528.607	6256.97
528.973	6317.53
529.339	6318.89
529.705	6409.05
530.071	6466.68
530.437	6467.13
530.803	6456.96
531.169	6574.47
531.535	6527.47
531.901	6544.64
532.267	6625.77
532.632	6594.13
532.998	6720.01
533.364	6799.1
533.73	6788.25
534.095	6803.17
534.461	6809.72
534.826	6819.44
535.192	6853.56
535.557	6929.49
535.923	6896.95
536.288	6979.66
536.653	6961.13
537.019	6925.88
537.384	7017.85
537.749	7025.31
538.114	7087.91
538.479	7096.04
538.845	7176.04
539.21	7167.23
539.575	7254
539.94	7266.89
540.305	7261.24
540.67	7269.82
541.034	7255.13
541.399	7339.43
541.764	7422.14
542.129	7335.13
542.494	7405.86
542.858	7465.75
543.223	7498.52
543.587	7493.32
543.952	7432.08
544.316	7539.87
544.681	7500.1
545.045	7546.65
545.41	7663.94
545.774	7706.2
546.138	7604.73
546.503	7661.9
546.867	7731.73
547.231	7733.09
547.595	7772.41
547.959	7834.1
548.324	7851.28
548.688	7848.11
549.052	7826.87
549.416	7891.05
549.779	7935.34
550.143	7929.47
550.507	8028.9
550.871	8029.58
551.235	8037.26
551.599	8063.93
551.962	8118.61
552.326	8152.96
552.689	8148.67
553.053	8175.56
553.417	8200.42
553.78	8313.64
554.143	8282.68
554.507	8375.78
554.87	8377.59
555.234	8445.61
555.597	8378.04
555.96	8452.62
556.323	8521.32
556.686	8479.28
557.05	8561.31
557.413	8621.88
557.776	8630.47
558.139	8692.84
558.502	8700.52
558.865	8733.29
559.228	8751.82
559.59	8788.43
559.953	8813.06
560.316	8927.41
560.679	8969.21
561.041	8974.41
561.404	8996.11
561.767	9067.06
562.129	8995.2
562.492	9081.98
562.854	9084.01
563.217	9067.29
563.579	9186.38
563.941	9302.09
564.304	9272.48
564.666	9365.81
565.028	9303.67
565.39	9350.22
565.753	9376.43
566.115	9478.8
566.477	9562.87
566.839	9608.74
567.201	9662.08
567.563	9660.27
567.925	9646.26
568.287	9718.12
568.648	9668.18
569.01	9787.5
569.372	9878.34
569.734	9865.01
570.095	9877.44
570.457	9968.74
570.819	9889.42
571.18	9937.32
571.542	10013.48
571.903	9949.07
572.265	10062.74
572.626	10074.49
572.987	10085.12
573.349	10171.67
573.71	10209.86
574.071	10258.67
574.432	10232.46
574.794	10311.78
575.155	10274.04
575.516	10260.93
575.877	10226.36
576.238	10383.64
576.599	10441.27
576.96	10437.2
577.32	10533.01
577.681	10465.67
578.042	10492.56
578.403	10375.5
578.763	10456.41
579.124	10479.68
579.485	10573.92
579.845	10507.93
580.206	10536.63
580.566	10600.13
580.927	10581.6
581.287	10562.62
581.648	10567.82
582.008	10630.41
582.368	10556.97
582.728	10660.92
583.089	10654.37
583.449	10600.13
583.809	10624.54
584.169	10687.13
584.529	10668.38
584.889	10722.84
585.249	10693.91
585.609	10619.57
585.969	10708.38
586.329	10644.2
586.688	10709.28
587.048	10725.1
587.408	10736.17
587.768	10686.91
588.127	10709.51
588.487	10675.16
588.846	10694.14
589.206	10663.18
589.565	10613.92
589.925	10694.14
590.284	10724.65
590.643	10765.55
591.003	10760.13
591.362	10805.55
591.721	10710.64
592.08	10728.26
592.44	10758.77
592.799	10765.78
593.158	10743.86
593.517	10738.88
593.876	10783.63
594.235	10737.53
594.593	10716.06
594.952	10746.12
595.311	10702.95
595.67	10669.06
596.029	10795.15
596.387	10777.3
596.746	10799.45
597.104	10753.12
597.463	10816.85
597.822	10806.23
598.18	10837.41
598.538	10742.27
598.897	10883.51
599.255	10836.96
599.613	10942.04
599.972	10812.78
600.33	10881.03
600.688	10770.52
601.046	10863.4
601.404	10878.09
601.762	10922.61
602.12	10922.83
602.478	10930.29
602.836	10916.05
603.194	10853.01
603.552	10886.23
603.91	10807.81
604.268	10972.32
604.625	10899.56
604.983	10901.14
605.341	10883.29
605.698	10981.59
606.056	11090.29
606.413	11034.47
606.771	11002.38
607.128	10950.86
607.485	10927.35
607.843	10970.52
608.2	11017.52
608.557	11082.6
608.914	11015.04
609.272	11142.72
609.629	11083.06
609.986	11186.1
610.343	11050.97
610.7	11132.32
611.057	11171.64
611.414	11168.93
611.771	11130.96
612.127	11156.05
612.484	11155.37
612.841	11233.56
613.198	11164.18
613.554	11268.81
613.911	11263.39
614.267	11195.14
614.624	11238.76
614.98	11220.91
615.337	11240.57
615.693	11208.7
616.05	11240.79
616.406	11264.29
616.762	11300
617.118	11255.48
617.475	11211.64
617.831	11384.97
618.187	11296.16
618.543	11278.53
618.899	11260
619.255	11295.25
619.611	11337.74
619.967	11351.52
620.323	11361.69
620.678	11306.55
621.034	11349.49
621.39	11349.04
621.746	11333.22
622.101	11461.35
622.457	11332.54
622.812	11320.11
623.168	11401.69
623.523	11320.34
623.879	11352.65
624.234	11346.1
624.589	11407.79
624.945	11400.79
625.3	11404.86
625.655	11311.98
626.01	11342.71
626.365	11354.01
626.72	11305.88
627.075	11364.86
627.43	11277.63
627.785	11278.31
628.14	11322.82
628.495	11405.99
628.85	11375.48
629.205	11317.85
629.559	11328.25
629.914	11323.5
630.269	11243.96
630.623	11252.32
630.978	11216.16
631.332	11326.44
631.687	11236.05
632.041	11230.17
632.396	11285.08
632.75	11111.08
633.104	11208.02
633.459	11121.7
633.813	11187.91
634.167	11139.1
634.521	11167.57
634.875	11184.52
635.229	11076.05
635.583	11116.73
635.937	11002.83
636.291	11068.37
636.645	11125.77
636.999	11024.98
637.352	11104.52
637.706	11001.93
638.06	10982.72
638.413	11006.9
638.767	10993.57
639.121	10977.3
639.474	10937.3
639.828	10896.17
640.181	10893.23
640.534	10922.61
640.888	10887.58
641.241	10909.5
641.594	10868.6
641.947	10895.04
642.301	10851.2
642.654	10870.63
643.007	10825.44
643.36	10850.75
643.713	10809.39
644.066	10799.9
644.419	10790.86
644.771	10737.08
645.124	10648.49
645.477	10594.26
645.83	10489.63
646.182	10507.93
646.535	10403.75
646.888	10408.95
647.24	10402.62
647.593	10425.9
647.945	10422.06
648.298	10337.31
648.65	10281.5
649.002	10305.45
649.355	10342.28
649.707	10314.26
650.059	10333.92
650.411	10413.7
650.763	10503.86
651.115	10569.4
651.467	10580.02
651.819	10523.52
652.171	10449.85
652.523	10408.5
652.875	10380.48
653.227	10427.93
653.578	10509.96
653.93	10477.2
654.282	10453.02
654.633	10344.09
654.985	10416.63
655.337	10448.72
655.688	10375.5
656.039	10375.73
656.391	10320.59
656.742	10366.92
657.094	10315.39
657.445	10403.75
657.796	10415.73
658.147	10405.79
658.498	10313.36
658.849	10372.79
659.2	10269.74
659.551	10284.43
659.902	10305.22
660.253	10295.28
660.604	10287.14
660.955	10304.77
661.306	10257.77
661.656	10345.67
662.007	10321.49
662.358	10242.63
662.708	10320.82
663.059	10213.93
663.409	10215.28
663.76	10240.59
664.11	10245.56
664.461	10251.67
664.811	10158.33
665.161	10186.58
665.511	10189.75
665.862	10265.68
666.212	10220.48
666.562	10182.06
666.912	10152.69
667.262	10195.62
667.612	10182.29
667.962	10179.58
668.312	10118.79
668.662	10138.67
669.011	10121.05
669.361	10105
669.711	10106.13
670.06	10053.03
670.41	10099.81
670.76	10029.75
671.109	10131.22
671.459	10140.26
671.808	10142.29
672.157	10095.51
672.507	10017.1
672.856	10007.83
673.205	9996.3
673.554	10008.28
673.904	10004.89
674.253	10027.49
674.602	9983.65
674.951	9874.73
675.3	9884.9
675.649	10004.67
675.998	9943.88
676.346	10018.68
676.695	10014.61
677.044	9908.4
677.393	9936.65
677.741	9979.36
678.09	9967.15
678.438	9872.92
678.787	9953.37
679.135	9912.47
679.484	9846.7
679.832	9834.95
680.181	9851.9
680.529	9889.87
680.877	9875.4
681.225	9824.78
681.573	9904.33
681.922	9814.61
682.27	9774.16
682.618	9787.04
682.966	9759.25
683.314	9827.5
683.661	9726.93
684.009	9683.09
684.357	9676.77
684.705	9644
685.053	9610.55
685.4	9593.15
685.748	9613.49
686.095	9567.84
686.443	9616.88
686.79	9550.67
687.138	9597.22
687.485	9626.6
687.832	9483.78
688.18	9579.37
688.527	9449.65
688.874	9427.73
689.221	9410.11
689.568	9401.29
689.915	9331.46
690.262	9383.21
690.609	9289.66
690.956	9307.96
691.303	9298.92
691.65	9290.56
691.997	9335.31
692.344	9285.14
692.69	9121.07
693.037	9199.04
693.383	9188.87
693.73	9192.48
694.077	9098.48
694.423	9064.8
694.769	9021.87
695.116	9027.97
695.462	9002.88
695.808	8976.44
696.155	9041.53
696.501	9003.79
696.847	9016.22
697.193	8928.31
697.539	8938.71
697.885	8778.94
698.231	8783.68
698.577	8830.69
698.923	8806.96
699.269	8699.62
699.614	8624.82
699.96	8668.2
700.306	8689.67
700.651	8640.18
700.997	8589.34
701.342	8627.75
701.688	8625.72
702.033	8612.16
702.379	8564.25
702.724	8598.83
703.069	8526.97
703.415	8460.75
703.76	8455.55
704.105	8369.23
704.45	8463.24
704.795	8346.4
705.14	8357.03
705.485	8385.5
705.83	8390.92
706.175	8422.56
706.52	8402.22
706.865	8255.33
707.209	8380.3
707.554	8324.48
707.899	8251.27
708.243	8208.78
708.588	8245.16
708.932	8155
709.277	8107.09
709.621	8086.07
709.966	8060.76
710.31	8092.85
710.654	8003.81
710.998	8057.82
711.342	7989.13
711.687	8079.52
712.031	8040.42
712.375	8025.51
712.719	8049.69
713.063	8010.82
713.407	7989.8
713.75	7916.81
714.094	7841.79
714.438	7867.55
714.782	7832.52
715.125	7789.36
715.469	7837.27
715.812	7858.28
716.156	7811.73
716.499	7764.5
716.843	7810.15
717.186	7765.86
717.53	7785.52
717.873	7785.06
718.216	7786.65
718.559	7704.16
718.902	7708.68
719.246	7672.07
719.589	7666.2
719.932	7622.81
720.275	7641.56
720.617	7579.42
720.96	7566.09
721.303	7609.48
721.646	7598.18
721.989	7558.18
722.331	7625.07
722.674	7592.75
723.016	7621.68
723.359	7609.93
723.701	7500.78
724.044	7519.99
724.386	7433.89
724.729	7489.03
725.071	7414
725.413	7428.46
725.755	7471.63
726.097	7416.03
726.439	7403.83
726.782	7351.63
727.124	7415.13
727.465	7401.57
727.807	7364.74
728.149	7290.84
728.491	7281.57
728.833	7361.8
729.175	7309.14
729.516	7290.16
729.858	7298.3
730.199	7275.02
730.541	7260.78
730.882	7270.73
731.224	7248.13
731.565	7203.16
731.906	7237.28
732.248	7193.21
732.589	7192.54
732.93	7147.57
733.271	7188.92
733.612	7181.69
733.953	7175.36
734.294	7195.7
734.635	7156.15
734.976	7212.2
735.317	7134.01
735.658	7109.15
735.999	7077.29
736.339	7081.35
736.68	7094.01
737.021	7064.4
737.361	7014.91
737.702	7082.71
738.042	7022.37
738.383	7008.36
738.723	6969.72
739.063	7001.81
739.404	7001.13
739.744	6999.1
740.084	6944.41
740.424	7010.85
740.764	6931.3
741.104	6984.86
741.444	6886.56
741.784	6923.84
742.124	6957.51
742.464	6818.31
742.804	6890.62
743.143	6786.9
743.483	6864.41
743.823	6822.83
744.162	6823.73
744.502	6819.67
744.841	6790.97
745.181	6808.59
745.52	6822.15
745.86	6773.56
746.199	6776.5
746.538	6795.26
746.877	6767.46
747.216	6770.63
747.556	6765.66
747.895	6741.48
748.234	6710.52
748.573	6661.93
748.911	6668.03
749.25	6677.3
749.589	6618.09
749.928	6641.36
750.267	6684.08
750.605	6671.42
750.944	6630.07
751.283	6596.17
751.621	6569.73
751.96	6502.16
752.298	6663.74
752.636	6604.08
752.975	6557.53
753.313	6525.44
753.651	6520.69
753.989	6472.56
754.327	6529.5
754.666	6417.64
755.004	6460.35
755.342	6449.96
755.679	6419.45
756.017	6372.67
756.355	6408.38
756.693	6350.07
757.031	6399.11
757.368	6343.07
757.706	6324.09
758.044	6301.03
758.381	6300.13
758.719	6343.29
759.056	6313.24
759.394	6271.21
759.731	6250.64
760.068	6207.93
760.405	6154.37
760.743	6159.12
761.08	6167.03
761.417	6103.53
761.754	6142.39
762.091	6089.06
762.428	6118.89
762.765	6093.13
763.102	6079.57
763.438	6073.24
763.775	6084.09
764.112	6079.8
764.449	6089.74
764.785	6021.95
