Data from foam1_polythene_foam_FLMS001491_00084.txt Node
Date: Wed Feb 08 10:55:30 GMT 2017
User: dcchb
Spectrometer: FLMS00149
Trigger mode: 0
Integration Time (sec): 2.000000E-2
Scans to average: 10
Electric dark correction enabled: true
Nonlinearity correction enabled: false
Boxcar width: 0
XAxis mode: Wavelengths
Number of Pixels in Spectrum: 2048
>>>>>Begin Spectral Data<<<<<
341.393	11.88
341.776	11.88
342.16	11.88
342.543	-76.03
342.927	-59.08
343.31	-63.6
343.693	-67.44
344.077	-57.05
344.46	-76.03
344.843	-41.23
345.226	-44.84
345.61	-20.89
345.993	-24.96
346.376	-12.3
346.759	6.91
347.142	26.34
347.525	53.01
347.908	50.75
348.291	64.53
348.674	82.16
349.057	124.64
349.44	119.22
349.823	144.08
350.206	180.69
350.588	195.83
350.971	210.52
351.354	229.73
351.737	240.12
352.119	244.19
352.502	262.95
352.884	269.72
353.267	262.72
353.65	292.55
354.032	285.32
354.414	299.33
354.797	290.74
355.179	305.88
355.562	326.67
355.944	314.47
356.326	327.35
356.709	309.5
357.091	328.93
357.473	309.05
357.855	347.69
358.238	330.06
358.62	326.9
359.002	328.03
359.384	316.95
359.766	303.17
360.148	323.28
360.53	330.29
360.912	331.64
361.294	317.63
361.676	301.14
362.057	331.64
362.439	314.47
362.821	310.63
363.203	312.89
363.584	309.5
363.966	308.59
364.348	306.33
364.729	302.27
365.111	287.58
365.493	308.37
365.874	290.97
366.256	299.55
366.637	323.51
367.019	313.57
367.4	293.23
367.781	284.41
368.163	279.67
368.544	309.5
368.925	300.46
369.306	314.7
369.688	318.54
370.069	318.54
370.45	306.11
370.831	308.82
371.212	312.89
371.593	309.5
371.974	312.89
372.355	315.37
372.736	319.44
373.117	301.59
373.498	293.23
373.879	317.18
374.26	321.47
374.641	289.61
375.021	302.27
375.402	311.53
375.783	328.25
376.163	345.65
376.544	300.68
376.925	325.09
377.305	323.51
377.686	333
378.066	320.12
378.447	321.93
378.827	324.19
379.208	327.58
379.588	330.29
379.968	335.71
380.349	341.36
380.729	333.9
381.109	331.42
381.489	342.72
381.87	323.73
382.25	337.75
382.63	337.75
383.01	342.27
383.39	331.87
383.77	351.76
384.15	354.69
384.53	335.49
384.91	352.66
385.29	341.36
385.67	324.19
386.049	355.6
386.429	322.83
386.809	331.19
387.189	348.82
387.568	341.14
387.948	359.21
388.328	348.37
388.707	361.02
389.087	353.56
389.466	362.83
389.846	365.77
390.225	368.25
390.605	369.83
390.984	351.3
391.363	363.96
391.743	363.96
392.122	365.32
392.501	383.17
392.881	366.67
393.26	372.55
393.639	375.48
394.018	359.44
394.397	370.96
394.776	364.41
395.155	386.33
395.534	396.95
395.913	381.36
396.292	355.82
396.671	399.21
397.05	408.25
397.429	384.98
397.808	370.74
398.186	406.67
398.565	425.2
398.944	398.99
399.323	382.94
399.701	413.45
400.08	413.22
400.458	392.89
400.837	412.09
401.215	405.99
401.594	417.29
401.972	389.72
402.351	401.47
402.729	415.71
403.107	424.75
403.486	417.52
403.864	413
404.242	420.23
404.62	407.57
404.999	431.3
405.377	427.91
405.755	419.33
406.133	417.29
406.511	427.46
406.889	462.04
407.267	460.91
407.645	464.52
408.023	465.2
408.401	464.97
408.779	443.96
409.156	456.16
409.534	454.35
409.912	447.12
410.29	476.72
410.667	471.98
411.045	485.76
411.422	479.89
411.8	471.75
412.178	478.31
412.555	495.03
412.933	493.67
413.31	487.57
413.687	489.15
414.065	485.54
414.442	484.18
414.819	508.14
415.197	493
415.574	518.76
415.951	494.58
416.328	490.96
416.705	504.07
417.082	513.33
417.46	513.56
417.837	531.41
418.214	502.26
418.591	527.34
418.967	538.42
419.344	530.51
419.721	530.28
420.098	552.2
420.475	536.38
420.852	551.75
421.228	546.33
421.605	559.43
421.982	556.04
422.358	551.07
422.735	567.12
423.111	566.44
423.488	546.33
423.864	572.99
424.241	576.38
424.617	596.95
424.994	586.55
425.37	598.76
425.746	580.45
426.123	598.3
426.499	583.39
426.875	605.53
427.251	624.52
427.627	613.22
428.003	609.6
428.379	627.68
428.756	623.84
429.132	643.95
429.507	627.46
429.883	626.55
430.259	632.65
430.635	645.76
431.011	654.12
431.387	658.64
431.763	670.17
432.138	697.96
432.514	669.49
432.89	678.08
433.265	701.13
433.641	707.68
434.016	708.58
434.392	713.33
434.767	740.45
435.143	753.78
435.518	734.57
435.894	736.38
436.269	767.11
436.644	745.42
437.02	746.55
437.395	786.55
437.77	770.95
438.145	806.43
438.52	768.47
438.895	814.79
439.271	793.78
439.646	809.82
440.021	813.67
440.395	816.83
440.77	813.21
441.145	821.12
441.52	848.47
441.895	856.38
442.27	857.28
442.645	838.07
443.019	852.76
443.394	870.16
443.769	905.41
444.143	862.03
444.518	874.45
444.892	879.65
445.267	902.48
445.641	904.51
446.016	913.78
446.39	921.01
446.764	910.39
447.139	915.36
447.513	924.85
447.887	930.95
448.262	935.02
448.636	928.01
449.01	971.18
449.384	954.9
449.758	961.91
450.132	982.47
450.506	970.05
450.88	962.81
451.254	1005.3
451.628	1016.82
452.002	1030.16
452.376	1034.45
452.75	1047.56
453.123	1050.95
453.497	1038.97
453.871	1063.83
454.244	1085.07
454.618	1063.15
454.992	1092.08
455.365	1097.27
455.739	1132.07
456.112	1103.15
456.486	1142.02
456.859	1124.17
457.232	1134.56
457.606	1146.76
457.979	1174.79
458.352	1138.63
458.725	1151.06
459.099	1179.76
459.472	1210.26
459.845	1198.97
460.218	1227.67
460.591	1217.04
460.964	1224.5
461.337	1234.9
461.71	1224.5
462.083	1256.14
462.456	1241
462.829	1273.09
463.201	1274.44
463.574	1287.78
463.947	1288.91
464.32	1333.2
464.692	1309.02
465.065	1321.45
465.438	1362.13
465.81	1352.18
466.183	1373.2
466.555	1403.93
466.928	1380.2
467.3	1393.08
467.672	1401.45
468.045	1437.83
468.417	1416.59
468.789	1461.33
469.161	1482.35
469.534	1481.22
469.906	1479.18
470.278	1517.38
470.65	1525.74
471.022	1545.62
471.394	1598.05
471.766	1590.37
472.138	1574.32
472.51	1637.15
472.882	1661.1
473.253	1695
473.625	1702.23
473.997	1716.92
474.369	1706.52
474.74	1750.36
475.112	1764.6
475.484	1775.9
475.855	1818.61
476.227	1827.2
476.598	1874.43
476.97	1882.34
477.341	1934.31
477.713	1937.7
478.084	1942.9
478.455	1984.48
478.827	1967.76
479.198	2055.21
479.569	2071.71
479.94	2120.75
480.311	2117.81
480.682	2175.21
481.053	2191.03
481.424	2259.5
481.795	2254.98
482.166	2288.2
482.537	2278.26
482.908	2349.22
483.279	2368.65
483.65	2421.53
484.021	2439.84
484.391	2469.44
484.762	2499.04
485.133	2516.67
485.503	2574.07
485.874	2605.26
486.244	2618.82
486.615	2676.67
486.985	2697.68
487.356	2738.81
487.726	2742.2
488.097	2800.28
488.467	2799.38
488.837	2853.84
489.207	2912.37
489.578	2913.27
489.948	2998.24
490.318	3000.73
490.688	2986.49
491.058	3028.07
491.428	3078.46
491.798	3132.7
492.168	3179.93
492.538	3180.16
492.908	3230.55
493.278	3242.53
493.648	3273.94
494.017	3312.58
494.387	3349.19
494.757	3361.39
495.126	3428.51
495.496	3445.69
495.866	3442.3
496.235	3486.14
496.605	3484.33
496.974	3520.03
497.344	3529.07
497.713	3567.94
498.082	3602.52
498.452	3672.12
498.821	3699.46
499.19	3687.71
499.559	3704.44
499.928	3763.87
500.298	3783.53
500.667	3782.63
501.036	3796.41
501.405	3822.63
501.774	3820.37
502.143	3852.46
502.512	3880.25
502.88	3935.62
503.249	3967.25
503.618	3959.12
503.987	4025.78
504.356	4101.94
504.724	4059
505.093	4099
505.462	4125.22
505.83	4137.42
506.199	4149.85
506.567	4214.48
506.936	4207.93
507.304	4243.41
507.672	4259.68
508.041	4323.4
508.409	4327.7
508.777	4413.57
509.145	4434.36
509.514	4421.48
509.882	4438.65
510.25	4480.01
510.618	4511.42
510.986	4493.12
511.354	4553.68
511.722	4572.44
512.09	4630.29
512.458	4599.78
512.826	4667.58
513.193	4724.97
513.561	4765.43
513.929	4820.11
514.297	4822.83
514.664	4859.43
515.032	4840.23
515.4	4921.58
515.767	4922.94
516.135	4916.38
516.502	4905.99
516.869	4999.09
517.237	5016.72
517.604	5031.63
517.972	5127.9
518.339	5237.05
518.706	5202.7
519.073	5202.48
519.44	5274.56
519.808	5286.77
520.175	5307.33
520.542	5357.27
520.909	5382.81
521.276	5358.86
521.643	5423.04
522.009	5512.52
522.376	5557.72
522.743	5624.84
523.11	5677.94
523.477	5700.09
523.843	5762.01
524.21	5826.64
524.577	5850.14
524.943	5889.92
525.31	5905.96
525.676	5965.62
526.043	5959.74
526.409	5975.34
526.776	6047.2
527.142	6074.09
527.508	6139.17
527.874	6226.4
528.241	6277.93
528.607	6271.15
528.973	6359.06
529.339	6357.02
529.705	6429.56
530.071	6441.09
530.437	6449.68
530.803	6491.48
531.169	6557.69
531.535	6500.75
531.901	6507.75
532.267	6514.31
532.632	6562.21
532.998	6681.99
533.364	6688.99
533.73	6732.83
534.095	6839.04
534.461	6865.71
534.826	6905.48
535.192	6869.1
535.557	6949.32
535.923	6935.76
536.288	6994.75
536.653	6994.75
537.019	6957.91
537.384	7013.73
537.749	7020.73
538.114	7058.25
538.479	7127.17
538.845	7153.39
539.21	7180.05
539.575	7238.35
539.94	7250.56
540.305	7320.16
540.67	7316.09
541.034	7295.08
541.399	7307.28
541.764	7369.2
542.129	7366.94
542.494	7396.99
542.858	7415.53
543.223	7464.11
543.587	7508.18
543.952	7455.3
544.316	7524.9
544.681	7553.15
545.045	7603.09
545.41	7690.32
545.774	7683.31
546.138	7708.85
546.503	7708.4
546.867	7739.81
547.231	7732.58
547.595	7725.57
547.959	7790.2
548.324	7763.09
548.688	7826.36
549.052	7866.81
549.416	7891.22
549.779	7926.47
550.143	7957.88
550.507	8018.67
550.871	8115.39
551.235	8052.34
551.599	8085.34
551.962	8200.59
552.326	8172.34
552.689	8197.2
553.053	8192
553.417	8169.4
553.78	8270.64
554.143	8248.05
554.507	8310.42
554.87	8308.61
555.234	8439.91
555.597	8420.7
555.96	8499.11
556.323	8514.48
556.686	8544.99
557.05	8669.05
557.413	8623.86
557.776	8640.13
558.139	8730.97
558.502	8670.18
558.865	8733.46
559.228	8708.15
559.59	8789.27
559.953	8787.92
560.316	8937.07
560.679	8878.31
561.041	9020.91
561.404	9066.33
561.767	9129.15
562.129	9193.56
562.492	9198.98
562.854	9208.02
563.217	9230.84
563.579	9275.82
563.941	9265.65
564.304	9317.85
564.666	9361.69
565.028	9391.97
565.39	9427.68
565.753	9446.88
566.115	9505.41
566.477	9584.73
566.839	9609.59
567.201	9670.16
567.563	9736.14
567.925	9800.32
568.287	9789.47
568.648	9824.5
569.01	9882.58
569.372	9902.24
569.734	9872.86
570.095	9913.99
570.457	9981.11
570.819	9989.24
571.18	9989.24
571.542	10042.8
571.903	10082.35
572.265	10045.74
572.626	10106.98
572.987	10207.99
573.349	10150.37
573.71	10248.22
574.071	10308.1
574.432	10386.52
574.794	10405.28
575.155	10386.07
575.516	10421.1
575.877	10444.6
576.238	10365.05
576.599	10420.87
576.96	10481.21
577.32	10469.23
577.681	10448.21
578.042	10560.98
578.403	10544.26
578.763	10501.32
579.124	10586.74
579.485	10598.49
579.845	10579.28
580.206	10629
580.566	10622.22
580.927	10722.56
581.287	10795.55
581.648	10631.49
582.008	10751.26
582.368	10692.05
582.728	10622.45
583.089	10651.82
583.449	10633.75
583.809	10629.9
584.169	10684.82
584.529	10663.58
584.889	10821.54
585.249	10644.59
585.609	10717.81
585.969	10909.9
586.329	10838.71
586.688	10845.27
587.048	10720.3
587.408	10778.15
587.768	10836.68
588.127	10723.23
588.487	10721.43
588.846	10811.14
589.206	10711.48
589.565	10669.45
589.925	10673.52
590.284	10683.69
590.643	10741.54
591.003	10644.37
591.362	10801.65
591.721	10727.75
592.08	10807.53
592.44	10821.54
592.799	10859.5
593.158	10903.34
593.517	10876.23
593.876	10904.93
594.235	10824.02
594.593	10858.6
594.952	10777.02
595.311	10806.17
595.67	10826.96
596.029	10882.78
596.387	10828.99
596.746	10822.22
597.104	10879.39
597.463	10776.79
597.822	10881.42
598.18	10921.2
598.538	10834.87
598.897	10942.89
599.255	10868.54
599.613	11073.51
599.972	10923.68
600.33	11026.73
600.688	10951.48
601.046	10972.04
601.404	11081.87
601.762	10904.47
602.12	11043.23
602.478	10936.79
602.836	10922.33
603.194	10841.65
603.552	10892.5
603.91	10939.05
604.268	11013.85
604.625	10966.84
604.983	11002.1
605.341	11012.04
605.698	11060.63
606.056	11087.97
606.413	11100.63
606.771	11128.42
607.128	11175.2
607.485	11067.41
607.843	11124.13
608.2	11113.06
608.557	11135.2
608.914	11114.86
609.272	11178.59
609.629	11076.45
609.986	11148.08
610.343	11105.37
610.7	11204.58
611.057	11150.57
611.414	11095.88
611.771	11223.33
612.127	11189.89
612.484	11201.87
612.841	11344.24
613.198	11291.13
613.554	11279.15
613.911	11407.28
614.267	11268.53
614.624	11306.04
614.98	11361.18
615.337	11341.52
615.693	11408.87
616.05	11329.77
616.406	11371.13
616.762	11284.12
617.118	11300.17
617.475	11380.17
617.831	11330.68
618.187	11376.1
618.543	11370.45
618.899	11450
619.255	11381.07
619.611	11393.05
619.967	11509.88
620.323	11513.72
620.678	11438.24
621.034	11458.81
621.39	11484.12
621.746	11440.96
622.101	11548.3
622.457	11482.99
622.812	11372.94
623.168	11450
623.523	11433.72
623.879	11418.81
624.234	11381.3
624.589	11428.98
624.945	11346.5
625.3	11395.08
625.655	11440.28
626.01	11422.2
626.365	11469.88
626.72	11435.76
627.075	11521.63
627.43	11457.9
627.785	11469.88
628.14	11441.86
628.495	11573.16
628.85	11485.93
629.205	11402.54
629.559	11462.42
629.914	11424.46
630.269	11350.56
630.623	11369.09
630.978	11256.55
631.332	11336.78
631.687	11261.53
632.041	11249.55
632.396	11245.71
632.75	11246.39
633.104	11301.3
633.459	11198.93
633.813	11241.64
634.167	11252.03
634.521	11195.76
634.875	11279.38
635.229	11240.74
635.583	11213.62
635.937	11224.92
636.291	11164.58
636.645	11254.75
636.999	11174.52
637.352	11226.5
637.706	11102.66
638.06	11099.04
638.413	10997.13
638.767	11018.37
639.121	11012.04
639.474	10971.14
639.828	10923.91
640.181	10927.07
640.534	10919.84
640.888	10928.88
641.241	10869.67
641.594	10905.83
641.947	10934.98
642.301	10927.75
642.654	10965.04
643.007	10953.06
643.36	10946.96
643.713	10908.54
644.066	10900.86
644.419	10901.99
644.771	10755.78
645.124	10688.66
645.477	10617.48
645.83	10477.14
646.182	10476.46
646.535	10445.73
646.888	10430.36
647.24	10379.29
647.593	10441.89
647.945	10433.75
648.298	10429.46
648.65	10388.1
649.002	10299.07
649.355	10376.8
649.707	10344.49
650.059	10380.65
650.411	10566.63
650.763	10554.88
651.115	10689.34
651.467	10680.52
651.819	10653.18
652.171	10620.19
652.523	10561.66
652.875	10597.59
653.227	10504.94
653.578	10650.02
653.93	10513.07
654.282	10452.73
654.633	10414.54
654.985	10356.92
655.337	10418.61
655.688	10394.66
656.039	10442.79
656.391	10362.79
656.742	10369.57
657.094	10356.69
657.445	10354.88
657.796	10419.97
658.147	10392.62
658.498	10407.76
658.849	10437.37
659.2	10451.38
659.551	10391.49
659.902	10474.43
660.253	10488.89
660.604	10404.83
660.955	10405.73
661.306	10398.72
661.656	10337.48
662.007	10320.99
662.358	10289.12
662.708	10322.34
663.059	10273.08
663.409	10184.27
663.76	10225.39
664.11	10219.75
664.461	10184.04
664.811	10160.99
665.161	10164.61
665.511	10094.1
665.862	10179.07
666.212	10237.15
666.562	10302
666.912	10270.59
667.262	10257.03
667.612	10324.38
667.962	10300.87
668.312	10304.26
668.662	10360.53
669.011	10322.79
669.361	10280.08
669.711	10249.58
670.06	10248.67
670.41	10242.34
670.76	10125.51
671.109	10210.03
671.459	10085.96
671.808	10050.94
672.157	10090.03
672.507	10038.06
672.856	10012.52
673.205	10032.41
673.554	10007.55
673.904	9993.76
674.253	10069.92
674.602	10108.56
674.951	9917.61
675.3	9883.94
675.649	10043.25
675.998	10077.83
676.346	10076.7
676.695	10113.53
677.044	10085.51
677.393	10089.58
677.741	10157.15
678.09	10155.57
678.438	10075.12
678.787	10020.88
679.135	10015.23
679.484	9962.8
679.832	9923.26
680.181	9915.8
680.529	9924.84
680.877	9802.58
681.225	9827.89
681.573	9884.39
681.922	9799.19
682.27	9760.55
682.618	9792.19
682.966	9704.96
683.314	9752.41
683.661	9742.92
684.009	9750.15
684.357	9754.22
684.705	9725.97
685.053	9721.68
685.4	9828.34
685.748	9655.92
686.095	9759.87
686.443	9648.91
686.79	9694.11
687.138	9667.9
687.485	9702.92
687.832	9626.54
688.18	9595.36
688.527	9579.54
688.874	9547.67
689.221	9437.39
689.568	9388.13
689.915	9368.47
690.262	9349.94
690.609	9348.81
690.956	9307.9
691.303	9245.08
691.65	9251.41
691.997	9205.31
692.344	9229.94
692.69	9133.9
693.037	9246.44
693.383	9142.49
693.73	9238.08
694.077	9205.76
694.423	9172.99
694.769	9182.48
695.116	9195.14
695.462	9220.45
695.808	9158.08
696.155	9167.34
696.501	9055.48
696.847	9043.73
697.193	9040.12
697.539	8956.05
697.885	8854.36
698.231	8958.54
698.577	8865.88
698.923	8786.34
699.269	8746.34
699.614	8671.54
699.96	8767.13
700.306	8658.43
700.651	8641.26
700.997	8641.93
701.342	8620.24
701.688	8568.49
702.033	8553.35
702.379	8616.4
702.724	8581.82
703.069	8648.94
703.415	8521.48
703.76	8547.92
704.105	8511.54
704.45	8616.4
704.795	8509.51
705.14	8516.06
705.485	8509.28
705.83	8443.97
706.175	8479.23
706.52	8439
706.865	8437.19
707.209	8392.22
707.554	8300.7
707.899	8345.44
708.243	8281.49
708.588	8250.76
708.932	8156.97
709.277	8192.91
709.621	8164.43
709.966	8151.55
710.31	8152.91
710.654	8072.91
710.998	8051.44
711.342	8001.72
711.687	8067.71
712.031	7961.05
712.375	7971.89
712.719	8054.6
713.063	8048.73
713.407	8072.68
713.75	8046.24
714.094	7988.39
714.438	7989.52
714.782	8054.83
715.125	8003.98
715.469	8000.82
715.812	7991.33
716.156	7869.98
716.499	7967.38
716.843	7927.15
717.186	7845.8
717.53	7867.49
717.873	7842.41
718.216	7815.74
718.559	7714.95
718.902	7702.75
719.246	7627.72
719.589	7632.92
719.932	7581.4
720.275	7592.24
720.617	7531.23
720.96	7544.34
721.303	7625.01
721.646	7569.42
721.989	7615.75
722.331	7601.74
722.674	7552.24
723.016	7588.63
723.359	7613.71
723.701	7617.78
724.044	7551.12
724.386	7547.95
724.729	7605.58
725.071	7645.58
725.413	7582.53
725.755	7557.67
726.097	7584.79
726.439	7495.98
726.782	7545.24
727.124	7542.75
727.465	7391.8
727.807	7414.85
728.149	7421.4
728.491	7368.52
728.833	7354.74
729.175	7298.24
729.516	7272.25
729.858	7262.54
730.199	7282.65
730.541	7249.2
730.882	7215.98
731.224	7255.08
731.565	7206.72
731.906	7238.13
732.248	7258.69
732.589	7202.2
732.93	7183.44
733.271	7246.04
733.612	7279.71
733.953	7267.51
734.294	7262.08
734.635	7203.1
734.976	7206.49
735.317	7194.74
735.658	7188.86
735.999	7214.63
736.339	7206.27
736.68	7157.68
737.021	7113.16
737.361	7067.06
737.702	7154.06
738.042	7109.54
738.383	7076.55
738.723	7041.3
739.063	6985.25
739.404	6962.2
739.744	6974.86
740.084	6960.85
740.424	6994.29
740.764	6929.21
741.104	6914.52
741.444	6874.52
741.784	6888.76
742.124	6895.54
742.464	6883.11
742.804	6878.59
743.143	6873.39
743.483	6922.43
743.823	6910.91
744.162	6858.7
744.502	6872.94
744.841	6875.88
745.181	6905.26
745.52	6846.5
745.86	6949.1
746.199	6889.21
746.538	6884.01
746.877	6865.94
747.216	6871.81
747.556	6874.07
747.895	6829.33
748.234	6769.21
748.573	6739.16
748.911	6735.32
749.25	6729.22
749.589	6615.09
749.928	6732.15
750.267	6702.1
750.605	6625.49
750.944	6575.77
751.283	6579.16
751.621	6547.98
751.96	6517.24
752.298	6585.94
752.636	6545.94
752.975	6486.06
753.313	6506.62
753.651	6544.81
753.989	6498.94
754.327	6560.41
754.666	6527.19
755.004	6546.85
755.342	6576.23
755.679	6538.71
756.017	6543.46
756.355	6489
756.693	6467.98
757.031	6503.68
757.368	6495.78
757.706	6444.7
758.044	6461.88
758.381	6422.11
758.719	6398.15
759.056	6423.24
759.394	6325.16
759.731	6406.74
760.068	6278.61
760.405	6236.8
760.743	6256.46
761.08	6237.03
761.417	6179.17
761.754	6157.25
762.091	6152.73
762.428	6124.26
762.765	6063.7
763.102	6086.52
763.438	6026.41
763.775	6026.18
764.112	6034.09
764.449	6014.88
