Data from foam1_polythene_foam_FLMS001491_00083.txt Node
Date: Wed Feb 08 10:55:30 GMT 2017
User: dcchb
Spectrometer: FLMS00149
Trigger mode: 0
Integration Time (sec): 2.000000E-2
Scans to average: 10
Electric dark correction enabled: true
Nonlinearity correction enabled: false
Boxcar width: 0
XAxis mode: Wavelengths
Number of Pixels in Spectrum: 2048
>>>>>Begin Spectral Data<<<<<
341.393	4.72
341.776	4.72
342.16	4.72
342.543	-43.64
342.927	-57.65
343.31	-83.19
343.693	-63.08
344.077	-79.8
344.46	-52.68
344.843	-71.44
345.226	-34.6
345.61	-31.44
345.993	-9.29
346.376	2.46
346.759	18.05
347.142	20.76
347.525	35
347.908	51.72
348.291	95.34
348.674	90.59
349.057	111.61
349.44	120.65
349.823	124.94
350.206	164.94
350.588	189.35
350.971	186.63
351.354	214.88
351.737	212.62
352.119	241.32
352.502	260.76
352.884	260.98
353.267	289.91
353.65	276.57
354.032	291.04
354.414	305.27
354.797	295.56
355.179	322.45
355.562	315.22
355.944	307.31
356.326	336.01
356.709	319.96
357.091	333.97
357.473	310.25
357.855	310.92
358.238	325.84
358.62	299.17
359.002	325.39
359.384	336.46
359.766	324.26
360.148	311.6
360.53	315.44
360.912	335.1
361.294	314.54
361.676	324.71
362.057	318.61
362.439	323.81
362.821	326.74
363.203	314.99
363.584	325.16
363.966	318.16
364.348	307.31
364.729	311.83
365.111	300.3
365.493	300.98
365.874	322.68
366.256	298.27
366.637	288.78
367.019	311.6
367.4	297.82
367.781	287.65
368.163	289
368.544	320.64
368.925	303.47
369.306	301.43
369.688	290.36
370.069	303.01
370.45	311.6
370.831	279.06
371.212	311.15
371.593	312.73
371.974	306.86
372.355	323.58
372.736	305.5
373.117	313.86
373.498	309.34
373.879	307.76
374.26	297.37
374.641	296.69
375.021	316.35
375.402	299.4
375.783	313.18
376.163	316.12
376.544	326.29
376.925	311.6
377.305	309.12
377.686	321.09
378.066	310.02
378.447	320.42
378.827	305.27
379.208	328.1
379.588	311.38
379.968	317.03
380.349	324.71
380.729	336.91
381.109	339.85
381.489	300.75
381.87	311.15
382.25	326.29
382.63	331.94
383.01	341.21
383.39	347.08
383.77	350.92
384.15	322
384.53	334.2
384.91	356.8
385.29	329.68
385.67	320.64
386.049	348.66
386.429	335.56
386.809	341.21
387.189	349.34
387.568	332.62
387.948	362.9
388.328	341.66
388.707	364.48
389.087	353.18
389.466	348.21
389.846	356.57
390.225	344.37
390.605	379.17
390.984	345.73
391.363	371.71
391.743	356.12
392.122	350.7
392.501	364.93
392.881	377.14
393.26	390.47
393.639	366.06
394.018	398.15
394.397	363.8
394.776	365.16
395.155	388.89
395.534	390.7
395.913	376.69
396.292	352.96
396.671	380.98
397.05	406.51
397.429	389.79
397.808	398.83
398.186	375.33
398.565	389.34
398.944	401.09
399.323	388.21
399.701	369.91
400.08	391.37
400.458	409.45
400.837	393.18
401.215	403.8
401.594	392.73
401.972	384.82
402.351	416.91
402.729	415.33
403.107	402.67
403.486	401.54
403.864	397.02
404.242	421.88
404.62	416.01
404.999	427.76
405.377	447.42
405.755	427.31
406.133	437.7
406.511	429.34
406.889	441.99
407.267	427.08
407.645	456.68
408.023	475.44
408.401	452.62
408.779	445.16
409.156	440.41
409.534	440.86
409.912	445.61
410.29	463.46
410.667	450.13
411.045	461.88
411.422	468.89
411.8	460.07
412.178	474.76
412.555	471.15
412.933	488.55
413.31	469.56
413.687	456.68
414.065	481.77
414.442	499.85
414.819	492.61
415.197	505.5
415.574	520.41
415.951	492.84
416.328	529.68
416.705	505.5
417.082	521.31
417.46	519.51
417.837	507.53
418.214	516.12
418.591	526.96
418.967	542.1
419.344	525.16
419.721	541.43
420.098	550.92
420.475	511.82
420.852	532.39
421.228	549.11
421.605	562.44
421.982	555.44
422.358	527.42
422.735	532.84
423.111	555.66
423.488	559.73
423.864	560.18
424.241	567.41
424.617	561.09
424.994	574.87
425.37	582.1
425.746	590.01
426.123	588.66
426.499	590.92
426.875	594.98
427.251	642.44
427.627	606.06
428.003	629.11
428.379	630.24
428.756	616.68
429.132	627.3
429.507	658.49
429.883	641.76
430.259	655.77
430.635	646.73
431.011	651.48
431.387	653.29
431.763	686.73
432.138	668.2
432.514	689.67
432.89	691.93
433.265	692.16
433.641	722.44
434.016	701.87
434.392	734.64
434.767	735.09
435.143	734.87
435.518	738.48
435.894	749.1
436.269	741.42
436.644	756.11
437.02	763.12
437.395	776.45
437.77	770.35
438.145	789.33
438.52	790.46
438.895	824.81
439.271	779.39
439.646	817.8
440.021	814.19
440.395	829.78
440.77	838.14
441.145	816.45
441.52	838.37
441.895	828.2
442.27	845.6
442.645	832.04
443.019	861.42
443.394	895.77
443.769	872.04
444.143	872.27
444.518	876.56
444.892	912.04
445.267	909.78
445.641	901.87
446.016	899.61
446.39	917.01
446.764	921.08
447.139	917.24
447.513	933.28
447.887	924.02
448.262	948.87
448.636	937.57
449.01	978.93
449.384	945.03
449.758	968.53
450.132	967.63
450.506	999.04
450.88	989.32
451.254	990.45
451.628	969.44
452.002	1047.85
452.376	1032.26
452.75	1024.35
453.123	1032.04
453.497	1058.93
453.871	1058.93
454.244	1048.31
454.618	1097.34
454.992	1081.75
455.365	1115.42
455.739	1077.46
456.112	1109.32
456.486	1133.95
456.859	1086.27
457.232	1121.52
457.606	1146.83
457.979	1130.56
458.352	1140.73
458.725	1180.28
459.099	1157
459.472	1225.48
459.845	1211.92
460.218	1188.87
460.591	1214.63
460.964	1225.02
461.337	1215.76
461.71	1253.72
462.083	1266.61
462.456	1251.46
462.829	1249.66
463.201	1276.55
463.574	1315.87
463.947	1311.58
464.32	1334.63
464.692	1333.72
465.065	1319.03
465.438	1350.9
465.81	1362.42
466.183	1374.85
466.555	1384.57
466.928	1392.03
467.3	1407.62
467.672	1421.63
468.045	1426.83
468.417	1442.87
468.789	1455.3
469.161	1469.31
469.534	1506.6
469.906	1490.78
470.278	1533.49
470.65	1519.93
471.022	1560.61
471.394	1593.6
471.766	1579.82
472.138	1620.27
472.51	1631.34
472.882	1641.74
473.253	1658.46
473.625	1672.7
473.997	1680.61
474.369	1739.36
474.74	1705.01
475.112	1750.21
475.484	1777.33
475.855	1806.48
476.227	1835.86
476.598	1879.24
476.97	1865.01
477.341	1927.6
477.713	1952.46
478.084	1958.11
478.455	1986.81
478.827	2001.05
479.198	2091.44
479.569	2047.38
479.94	2091.44
480.311	2139.58
480.682	2170.54
481.053	2180.25
481.424	2234.72
481.795	2217.54
482.166	2298.67
482.537	2279.69
482.908	2336.86
483.279	2373.24
483.65	2352
484.021	2466.12
484.391	2462.96
484.762	2490.08
485.133	2494.6
485.503	2572.11
485.874	2617.76
486.244	2572.56
486.615	2631.77
486.985	2637.87
487.356	2691.88
487.726	2762.84
488.097	2805.77
488.467	2794.25
488.837	2845.32
489.207	2857.98
489.578	2951.08
489.948	2986.11
490.318	2993.34
490.688	2998.54
491.058	3045.32
491.428	3070.63
491.798	3088.7
492.168	3173.22
492.538	3153.11
492.908	3189.72
493.278	3248.25
493.648	3305.87
494.017	3289.15
494.387	3356.95
494.757	3390.62
495.126	3382.26
495.496	3414.12
495.866	3433.55
496.235	3438.3
496.605	3492.54
496.974	3509.71
497.344	3499.31
497.713	3517.17
498.082	3647.11
498.452	3647.56
498.821	3658.18
499.19	3706.99
499.559	3737.73
499.928	3746.99
500.298	3779.76
500.667	3792.19
501.036	3794.45
501.405	3833.09
501.774	3816.37
502.143	3824.05
502.512	3871.73
502.88	3964.84
503.249	3951.51
503.618	3999.64
503.987	4018.4
504.356	4045.06
504.724	4052.52
505.093	4089.13
505.462	4094.33
505.83	4118.96
506.199	4131.39
506.567	4181.1
506.936	4205.96
507.304	4266.3
507.672	4273.08
508.041	4282.12
508.409	4370.03
508.777	4420.87
509.145	4410.25
509.514	4388.1
509.882	4441.66
510.25	4444.83
510.618	4447.54
510.986	4444.83
511.354	4538.16
511.722	4560.76
512.09	4567.31
512.458	4640.75
512.826	4680.07
513.193	4753.97
513.561	4755.1
513.929	4831.48
514.297	4866.51
514.664	4816.57
515.032	4857.92
515.4	4909
515.767	4911.26
516.135	4957.36
516.502	4876
516.869	5082.78
517.237	5035.09
517.604	5038.03
517.972	5097.24
518.339	5180.17
518.706	5205.94
519.073	5189.89
519.44	5318.48
519.808	5300.4
520.175	5327.29
520.542	5350.79
520.909	5354.41
521.276	5390.11
521.643	5444.8
522.009	5479.6
522.376	5583.1
522.743	5601.63
523.11	5705.81
523.477	5717.79
523.843	5738.8
524.21	5854.28
524.577	5866.94
524.943	5877.11
525.31	5865.58
525.676	5941.28
526.043	5948.29
526.409	6029.64
526.776	6027.16
527.142	6100.15
527.508	6112.35
527.874	6115.52
528.241	6188.74
528.607	6241.39
528.973	6332.23
529.339	6322.52
529.705	6408.39
530.071	6467.6
530.437	6460.37
530.803	6474.38
531.169	6507.15
531.535	6457.66
531.901	6532.46
532.267	6536.52
532.632	6611.32
532.998	6660.14
533.364	6746.01
533.73	6763.86
534.095	6806.35
534.461	6809.28
534.826	6906.91
535.192	6904.2
535.557	6948.04
535.923	6953.69
536.288	6918.66
536.653	7010.18
537.019	6954.14
537.384	7041.14
537.749	7063.06
538.114	7035.04
538.479	7101.25
538.845	7203.85
539.21	7160.69
539.575	7228.26
539.94	7245.2
540.305	7336.28
540.67	7268.03
541.034	7293.11
541.399	7350.06
541.764	7378.53
542.129	7368.14
542.494	7377.86
542.858	7383.05
543.223	7405.2
543.587	7489.94
543.952	7494.69
544.316	7565.87
544.681	7511.41
545.045	7593.9
545.41	7619.21
545.774	7702.82
546.138	7702.82
546.503	7706.89
546.867	7711.63
547.231	7761.58
547.595	7793.67
547.959	7789.82
548.324	7774.46
548.688	7809.94
549.052	7851.06
549.416	7875.24
549.779	7989.59
550.143	7932.42
550.507	8050.61
550.871	8131.28
551.235	8082.47
551.599	8158.85
551.962	8129.93
552.326	8206.54
552.689	8246.76
553.053	8151.4
553.417	8168.8
553.78	8290.6
554.143	8244.27
554.507	8254.67
554.87	8309.13
555.234	8420.09
555.597	8433.2
555.96	8492.4
556.323	8573.98
556.686	8611.27
557.05	8621.89
557.413	8667.31
557.776	8634.1
558.139	8705.28
558.502	8786.18
558.865	8744.37
559.228	8775.79
559.59	8740.31
559.953	8823.69
560.316	8861.43
560.679	8832.96
561.041	9036.34
561.404	9064.82
561.767	9121.54
562.129	9127.19
562.492	9192.05
562.854	9263.01
563.217	9205.61
563.579	9250.35
563.941	9356.79
564.304	9308.88
564.666	9399.5
565.028	9345.04
565.39	9382.1
565.753	9522.66
566.115	9534.86
566.477	9512.04
566.839	9597.91
567.201	9652.15
567.563	9641.98
567.925	9824.57
568.287	9819.6
568.648	9813.5
569.01	9879.71
569.372	9884.91
569.734	9916.77
570.095	9922.42
570.457	9970.11
570.819	9930.11
571.18	9987.73
571.542	9986.6
571.903	9960.61
572.265	10086.26
572.626	10159.25
572.987	10207.61
573.349	10253.71
573.71	10258.46
574.071	10336.42
574.432	10326.25
574.794	10368.74
575.155	10394.05
575.516	10395.4
575.877	10449.19
576.238	10405.8
576.599	10458.23
576.96	10433.6
577.32	10397.66
577.681	10460.04
578.042	10548.62
578.403	10521.5
578.763	10569.41
579.124	10567.15
579.485	10620.94
579.845	10681.05
580.206	10622.97
580.566	10673.59
580.927	10665.23
581.287	10672.01
581.648	10693.25
582.008	10683.08
582.368	10631.33
582.728	10688.05
583.089	10633.59
583.449	10687.15
583.809	10615.74
584.169	10699.35
584.529	10668.62
584.889	10704.55
585.249	10716.53
585.609	10730.54
585.969	10782.74
586.329	10718.33
586.688	10861.16
587.048	10760.82
587.408	10810.08
587.768	10789.29
588.127	10723.08
588.487	10745.68
588.846	10836.3
589.206	10771.89
589.565	10663.42
589.925	10705.9
590.284	10740.93
590.643	10686.02
591.003	10754.27
591.362	10803.53
591.721	10791.55
592.08	10789.97
592.44	10825
592.799	10934.15
593.158	10771.67
593.517	10899.12
593.876	10909.97
594.235	10827.71
594.593	10883.3
594.952	10852.79
595.311	10834.04
595.67	10787.48
596.029	10860.48
596.387	10840.14
596.746	10835.39
597.104	10798.78
597.463	10827.26
597.822	10875.84
598.18	10836.52
598.538	10909.97
598.897	10958.78
599.255	10874.49
599.613	11036.29
599.972	10989.51
600.33	10990.19
600.688	10894.37
601.046	10961.27
601.404	10992.68
601.762	10972.11
602.12	10998.55
602.478	10971.43
602.836	10952.68
603.194	10886.47
603.552	10891.89
603.91	10867.48
604.268	10976.18
604.625	10896.41
604.983	10939.12
605.341	10984.77
605.698	11090.53
606.056	11117.65
606.413	11088.95
606.771	11127.59
607.128	11202.84
607.485	11088.27
607.843	11085.33
608.2	11142.73
608.557	11116.52
608.914	11144.76
609.272	11154.71
609.629	11140.92
609.986	11171.43
610.343	11096.63
610.7	11204.65
611.057	11164.42
611.414	11204.65
611.771	11280.35
612.127	11205.78
612.484	11298.21
612.841	11255.95
613.198	11250.3
613.554	11269.51
613.911	11312.67
614.267	11293.01
614.624	11317.64
614.98	11271.31
615.337	11369.39
615.693	11351.31
616.05	11349.73
616.406	11369.84
616.762	11312.89
617.118	11279.9
617.475	11276.06
617.831	11322.16
618.187	11335.49
618.543	11402.16
618.899	11406.9
619.255	11462.27
619.611	11427.24
619.967	11462.04
620.323	11513.34
620.678	11386.34
621.034	11470.18
621.39	11505.88
621.746	11480.12
622.101	11509.95
622.457	11376.17
622.812	11445.32
623.168	11483.06
623.523	11409.16
623.879	11463.4
624.234	11359.67
624.589	11423.85
624.945	11428.15
625.3	11392.44
625.655	11446.68
626.01	11435.6
626.365	11469.95
626.72	11440.35
627.075	11442.16
627.43	11428.6
627.785	11419.33
628.14	11509.27
628.495	11544.75
628.85	11516.05
629.205	11454.81
629.559	11425.43
629.914	11390.41
630.269	11399.45
630.623	11342.95
630.978	11254.59
631.332	11247.59
631.687	11303.18
632.041	11253.46
632.396	11289.84
632.75	11282.84
633.104	11294.36
633.459	11179.56
633.813	11226.57
634.167	11290.75
634.521	11231.77
634.875	11293.91
635.229	11243.74
635.583	11274.93
635.937	11200.81
636.291	11171.66
636.645	11161.26
636.999	11174.59
637.352	11182.5
637.706	11158.55
638.06	11107.7
638.413	11048.04
638.767	11007.37
639.121	11004.43
639.474	10968.27
639.828	10949.97
640.181	10901.15
640.534	10914.49
640.888	10880.82
641.241	10931.21
641.594	10965.79
641.947	10954.26
642.301	10930.98
642.654	10965.56
643.007	11008.04
643.36	10971.21
643.713	10895.96
644.066	10890.31
644.419	10925.11
644.771	10825
645.124	10719.24
645.477	10683.08
645.83	10522.63
646.182	10431.56
646.535	10419.36
646.888	10373.71
647.24	10432.47
647.593	10486.48
647.945	10387.72
648.298	10369.87
648.65	10346.82
649.002	10311.79
649.355	10361.51
649.707	10314.05
650.059	10384.56
650.411	10521.95
650.763	10622.52
651.115	10650.99
651.467	10630.2
651.819	10628.17
652.171	10584.1
652.523	10562.41
652.875	10561.28
653.227	10546.36
653.578	10562.86
653.93	10583.42
654.282	10412.13
654.633	10436.08
654.985	10443.09
655.337	10390.43
655.688	10307.5
656.039	10442.86
656.391	10327.38
656.742	10333.26
657.094	10394.05
657.445	10392.69
657.796	10392.01
658.147	10430.88
658.498	10309.98
658.849	10433.37
659.2	10332.58
659.551	10408.06
659.902	10412.35
660.253	10463.43
660.604	10440.83
660.955	10323.09
661.306	10390.66
661.656	10256.88
662.007	10326.93
662.358	10323.54
662.708	10302.3
663.059	10232.47
663.409	10145.92
663.76	10242.19
664.11	10178.46
664.461	10185.92
664.811	10185.92
665.161	10136.88
665.511	10167.84
665.862	10181.17
666.212	10223.43
666.562	10226.82
666.912	10187.05
667.262	10266.37
667.612	10313.6
667.962	10304.56
668.312	10277.89
668.662	10242.19
669.011	10301.62
669.361	10223.88
669.711	10268.4
670.06	10242.19
670.41	10143.21
670.76	10126.71
671.109	10142.08
671.459	10091.01
671.808	10141.4
672.157	10129.2
672.507	10046.49
672.856	10069.31
673.205	10021.4
673.554	10037.9
673.904	9982.31
674.253	10085.36
674.602	10062.08
674.951	9943.21
675.3	9905.7
675.649	10037.22
675.998	10052.36
676.346	10033.61
676.695	10126.03
677.044	9989.99
677.393	10144.34
677.741	10169.42
678.09	10125.58
678.438	10042.42
678.787	10011.23
679.135	9989.54
679.484	9966.94
679.832	9953.83
680.181	9860.73
680.529	9957
680.877	9849.88
681.225	9821.18
681.573	9918.13
681.922	9807.85
682.27	9728.3
682.618	9751.81
682.966	9674.97
683.314	9763.78
683.661	9725.59
684.009	9719.04
684.357	9730.56
684.705	9759.72
685.053	9753.84
685.4	9773.27
685.748	9721.75
686.095	9713.84
686.443	9702.32
686.79	9622.32
687.138	9671.13
687.485	9662.99
687.832	9621.87
688.18	9637.23
688.527	9562.66
688.874	9484.24
689.221	9452.83
689.568	9497.58
689.915	9369.44
690.262	9423
690.609	9277.47
690.956	9252.84
691.303	9263.91
691.65	9187.3
691.997	9187.3
692.344	9159.28
692.69	9221.88
693.037	9235.21
693.383	9170.8
693.73	9237.47
694.077	9165.83
694.423	9216.45
694.769	9180.97
695.116	9180.75
695.462	9160.41
695.808	9157.25
696.155	9150.01
696.501	9085.16
696.847	9045.61
697.193	8863.02
697.539	9016.23
697.885	8907.76
698.231	8879.29
698.577	8811.49
698.923	8781.66
699.269	8807.65
699.614	8730.59
699.96	8691.49
700.306	8720.42
700.651	8629.8
700.997	8601.1
701.342	8620.08
701.688	8633.19
702.033	8555.68
702.379	8587.32
702.724	8540.76
703.069	8568.33
703.415	8602.91
703.76	8561.55
704.105	8607.88
704.45	8570.59
704.795	8490.14
705.14	8536.92
705.485	8462.57
705.83	8443.14
706.175	8435
706.52	8442.69
706.865	8321.79
707.209	8376.25
707.554	8305.97
707.899	8385.74
708.243	8235.24
708.588	8270.49
708.932	8122.7
709.277	8169.93
709.621	8139.19
709.966	8113.43
710.31	8160.89
710.654	7989.82
710.998	8031.17
711.342	8017.84
711.687	8051.06
712.031	8017.61
712.375	8028.24
712.719	8028.24
713.063	8018.74
713.407	8080.21
713.75	8092.64
714.094	8036.37
714.438	7989.59
714.782	7987.11
715.125	7933.1
715.469	7997.28
715.812	7976.71
716.156	7880.22
716.499	7937.84
716.843	7960.21
717.186	7854
717.53	7834.57
717.873	7776.49
718.216	7785.76
718.559	7786.43
718.902	7664.18
719.246	7645.19
719.589	7616.95
719.932	7555.48
720.275	7560.22
720.617	7587.79
720.96	7631.41
721.303	7600.45
721.646	7515.71
721.989	7551.19
722.331	7536.72
722.674	7538.98
723.016	7640
723.359	7604.74
723.701	7647.23
724.044	7528.14
724.386	7543.5
724.729	7592.54
725.071	7587.34
725.413	7620.79
725.755	7545.08
726.097	7535.37
726.439	7505.54
726.782	7496.27
727.124	7486.33
727.465	7490.62
727.807	7411.75
728.149	7435.03
728.491	7332.66
728.833	7416.73
729.175	7270.06
729.516	7278.2
729.858	7288.82
730.199	7289.05
730.541	7267.35
730.882	7212.66
731.224	7248.82
731.565	7130.86
731.906	7218.99
732.248	7182.16
732.589	7214.25
732.93	7180.8
733.271	7189.39
733.612	7214.7
733.953	7229.61
734.294	7214.25
734.635	7177.86
734.976	7286.56
735.317	7247.69
735.658	7179.67
735.999	7184.64
736.339	7137.86
736.68	7230.52
737.021	7139.9
737.361	7117.98
737.702	7158.65
738.042	7098.54
738.383	7063.51
738.723	7043.4
739.063	6965.66
739.404	7014.48
739.744	7023.29
740.084	7006.57
740.424	6980.81
740.764	6960.69
741.104	6929.96
741.444	6924.54
741.784	6848.61
742.124	6867.36
742.464	6875.72
742.804	6907.81
743.143	6863.52
743.483	6823.07
743.823	6907.81
744.162	6870.98
744.502	6847.7
744.841	6878.43
745.181	6919.11
745.52	6857.42
745.86	6894.93
746.199	6918.66
746.538	6960.24
746.877	6891.77
747.216	6924.76
747.556	6859.68
747.895	6862.39
748.234	6771.09
748.573	6730.87
748.911	6750.3
749.25	6712.56
749.589	6618.78
749.928	6612.23
750.267	6700.36
750.605	6586.24
750.944	6634.15
751.283	6593.7
751.621	6602.96
751.96	6601.15
752.298	6561.16
752.636	6582.62
752.975	6503.53
753.313	6502.63
753.651	6482.51
753.989	6564.09
754.327	6547.6
754.666	6489.07
755.004	6527.03
755.342	6533.59
755.679	6581.49
756.017	6492.91
756.355	6546.24
756.693	6499.01
757.031	6518.67
757.368	6496.3
757.706	6457.2
758.044	6454.04
758.381	6397.77
758.719	6417.43
759.056	6414.72
759.394	6370.43
759.731	6334.27
760.068	6332.91
760.405	6257.43
760.743	6259.47
761.08	6205.68
761.417	6199.13
761.754	6094.05
762.091	6081.85
762.428	6113.71
762.765	6077.55
763.102	6083.2
763.438	6113.03
763.775	6031.45
764.112	6047.95
764.449	6073.94
764.785	5980.61
