Data from foam1_polythene_foam_FLMS001491_00011.txt Node
Date: Wed Feb 08 10:54:26 GMT 2017
User: dcchb
Spectrometer: FLMS00149
Trigger mode: 0
Integration Time (sec): 2.000000E-2
Scans to average: 10
Electric dark correction enabled: true
Nonlinearity correction enabled: false
Boxcar width: 0
XAxis mode: Wavelengths
Number of Pixels in Spectrum: 2048
>>>>>Begin Spectral Data<<<<<
341.393	-2.44
341.776	-2.44
342.16	-2.44
342.543	-62.1
342.927	-86.51
343.31	-73.4
343.693	-62.33
344.077	-92.38
344.46	-55.55
344.843	-46.28
345.226	-34.53
345.61	-28.66
345.993	-18.04
346.376	-3.12
346.759	4.79
347.142	35.07
347.525	25.8
347.908	60.15
348.291	72.13
348.674	115.52
349.057	100.83
349.44	113.26
349.823	138.57
350.206	165.46
350.588	189.64
350.971	221.05
351.354	185.8
351.737	203.43
352.119	242.07
352.502	251.34
352.884	256.08
353.267	240.71
353.65	287.04
354.032	281.39
354.414	307.6
354.797	311.22
355.179	271.67
355.562	319.81
355.944	314.61
356.326	309.41
356.709	322.29
357.091	307.15
357.473	312.35
357.855	319.13
358.238	336.3
358.62	320.03
359.002	352.58
359.384	322.97
359.766	301.05
360.148	322.07
360.53	316.19
360.912	326.36
361.294	312.58
361.676	307.38
362.057	327.27
362.439	304.67
362.821	292.92
363.203	327.04
363.584	299.02
363.966	313.71
364.348	310.77
364.729	309.41
365.111	318.9
365.493	320.26
365.874	283.2
366.256	286.14
366.637	295.4
367.019	310.99
367.4	293.82
367.781	279.58
368.163	288.85
368.544	300.83
368.925	304.67
369.306	320.49
369.688	313.71
370.069	314.38
370.45	300.6
370.831	295.4
371.212	306.47
371.593	298.57
371.974	291.33
372.355	286.59
372.736	292.92
373.117	316.87
373.498	322.52
373.879	296.08
374.26	295.18
374.641	303.54
375.021	310.99
375.402	303.09
375.783	309.64
376.163	299.7
376.544	310.99
376.925	280.04
377.305	322.97
377.686	291.11
378.066	312.12
378.447	317.1
378.827	328.17
379.208	325.68
379.588	300.83
379.968	335.63
380.349	312.35
380.729	304.22
381.109	311.22
381.489	328.4
381.87	335.63
382.25	331.79
382.63	323.2
383.01	339.02
383.39	324.55
383.77	355.06
384.15	339.24
384.53	353.03
384.91	342.41
385.29	341.05
385.67	324.33
386.049	337.21
386.429	351.22
386.809	335.85
387.189	336.76
387.568	318.23
387.948	333.14
388.328	350.99
388.707	339.69
389.087	334.27
389.466	336.76
389.846	341.95
390.225	331.56
390.605	329.75
390.984	353.71
391.363	350.09
391.743	361.61
392.122	352.35
392.501	352.35
392.881	371.11
393.26	354.38
393.639	367.94
394.018	380.37
394.397	341.5
394.776	345.12
395.155	366.81
395.534	365.68
395.913	341.73
396.292	354.38
396.671	350.09
397.05	368.62
397.429	371.78
397.808	377.66
398.186	372.01
398.565	381.05
398.944	355.06
399.323	381.95
399.701	381.95
400.08	401.16
400.458	365.23
400.837	365.68
401.215	374.72
401.594	388.51
401.972	378.11
402.351	391.67
402.729	392.57
403.107	381.73
403.486	379.24
403.864	378.11
404.242	385.34
404.62	397.55
404.999	388.96
405.377	366.81
405.755	393.48
406.133	391.44
406.511	416.98
406.889	397.55
407.267	409.07
407.645	410.88
408.023	408.62
408.401	406.36
408.779	408.62
409.156	419.47
409.534	397.55
409.912	438.22
410.29	432.8
410.667	422.86
411.045	416.75
411.422	430.77
411.8	416.08
412.178	413.59
412.555	450.2
412.933	463.53
413.31	436.19
413.687	457.43
414.065	442.06
414.442	452.69
414.819	465.57
415.197	461.05
415.574	452.91
415.951	454.49
416.328	469.86
416.705	455.17
417.082	447.94
417.46	467.83
417.837	466.7
418.214	472.12
418.591	443.19
418.967	445.23
419.344	491.55
419.721	480.71
420.098	473.7
420.475	485.91
420.852	480.48
421.228	463.76
421.605	484.1
421.982	489.07
422.358	477.09
422.735	478.9
423.111	485.45
423.488	499.01
423.864	493.81
424.241	508.73
424.617	486.13
424.994	521.61
425.37	515.96
425.746	514.15
426.123	495.62
426.499	512.35
426.875	506.47
427.251	539.01
427.627	530.2
428.003	508.5
428.379	539.24
428.756	534.94
429.132	538.56
429.507	543.76
429.883	555.96
430.259	567.71
430.635	555.73
431.011	557.99
431.387	574.94
431.763	583.3
432.138	596.64
432.514	595.05
432.89	578.78
433.265	552.12
433.641	595.73
434.016	581.72
434.392	607.26
434.767	593.47
435.143	567.26
435.518	602.06
435.894	635.73
436.269	636.18
436.644	619.46
437.02	652.45
437.395	619.91
437.77	622.4
438.145	630.31
438.52	650.65
438.895	640.25
439.271	664.21
439.646	674.83
440.021	675.73
440.395	667.82
440.77	679.12
441.145	675.28
441.52	672.34
441.895	682.74
442.27	697.65
442.645	698.78
443.019	719.57
443.394	722.28
443.769	720.25
444.143	708.05
444.518	711.66
444.892	751.44
445.267	739.01
445.641	744.43
446.016	727.48
446.39	728.61
446.764	746.24
447.139	749.18
447.513	767.03
447.887	780.36
448.262	753.24
448.636	745.79
449.01	797.54
449.384	785.11
449.758	767.93
450.132	790.53
450.506	794.82
450.88	796.18
451.254	778.55
451.628	813.35
452.002	812
452.376	831.43
452.75	811.09
453.123	819.46
453.497	811.55
453.871	805.22
454.244	848.83
454.618	844.31
454.992	845.22
455.365	844.31
455.739	863.3
456.112	850.87
456.486	859.23
456.859	836.63
457.232	878.66
457.606	859.91
457.979	890.87
458.352	909.62
458.725	892.45
459.099	895.61
459.472	915.95
459.845	925.67
460.218	889.96
460.591	917.98
460.964	902.62
461.337	928.15
461.71	932.9
462.083	944.2
462.456	952.79
462.829	911.43
463.201	943.52
463.574	907.59
463.947	978.55
464.32	961.15
464.692	1009.73
465.065	993.46
465.438	984.2
465.81	990.07
466.183	991.65
466.555	1002.73
466.928	1003.86
467.3	1015.83
467.672	1016.51
468.045	1056.96
468.417	1017.64
468.789	1046.12
469.161	1053.12
469.534	1049.28
469.906	1082.05
470.278	1071.2
470.65	1086.79
471.022	1114.82
471.394	1110.3
471.766	1116.4
472.138	1107.13
472.51	1132.67
472.882	1135.83
473.253	1159.33
473.625	1182.84
473.997	1196.17
474.369	1193.23
474.74	1192.78
475.112	1215.6
475.484	1231.42
475.855	1214.25
476.227	1229.61
476.598	1292.66
476.97	1291.08
477.341	1306.9
477.713	1316.62
478.084	1323.17
478.455	1364.98
478.827	1342.83
479.198	1354.81
479.569	1365.66
479.94	1422.15
480.311	1435.03
480.682	1483.17
481.053	1458.08
481.424	1499.44
481.795	1505.09
482.166	1498.53
482.537	1518.65
482.908	1563.84
483.279	1567.46
483.65	1578.53
484.021	1599.32
484.391	1602.71
484.762	1644.97
485.133	1622.15
485.503	1655.14
485.874	1675.48
486.244	1719.32
486.615	1754.35
486.985	1725.19
487.356	1757.28
487.726	1782.82
488.097	1822.14
488.467	1812.65
488.837	1812.42
489.207	1860.11
489.578	1881.8
489.948	1912.08
490.318	1923.38
490.688	1944.62
491.058	1965.64
491.428	2005.64
491.798	1989.82
492.168	2032.31
492.538	1995.92
492.908	2017.62
493.278	2084.73
493.648	2055.13
494.017	2093.77
494.387	2103.04
494.757	2118.63
495.126	2153.66
495.496	2116.6
495.866	2184.84
496.235	2192.3
496.605	2212.19
496.974	2222.13
497.344	2244.5
497.713	2233.2
498.082	2238.85
498.452	2252.64
498.821	2302.35
499.19	2310.72
499.559	2308.23
499.928	2348.46
500.298	2332.86
500.667	2376.25
501.036	2311.17
501.405	2375.12
501.774	2371.96
502.143	2410.15
502.512	2373.99
502.88	2448.57
503.249	2444.5
503.618	2453.76
503.987	2459.86
504.356	2472.52
504.724	2497.83
505.093	2515
505.462	2533.08
505.83	2552.07
506.199	2559.07
506.567	2584.38
506.936	2573.08
507.304	2625.51
507.672	2644.04
508.041	2635.45
508.409	2676.58
508.777	2671.38
509.145	2708.9
509.514	2690.37
509.882	2686.3
510.25	2722.23
510.618	2730.59
510.986	2721.1
511.354	2763.81
511.722	2817.82
512.09	2828.89
512.458	2818.95
512.826	2838.16
513.193	2846.97
513.561	2868.67
513.929	2919.74
514.297	2900.98
514.664	2897.82
515.032	2928.1
515.4	2984.82
515.767	2975.78
516.135	3018.72
516.502	2972.17
516.869	3063.69
517.237	3064.14
517.604	3067.31
517.972	3108.66
518.339	3091.71
518.706	3084.26
519.073	3103.24
519.44	3098.27
519.808	3155.67
520.175	3189.79
520.542	3195.44
520.909	3252.39
521.276	3251.48
521.643	3253.74
522.009	3328.09
522.376	3298.71
522.743	3360.18
523.11	3301.42
523.477	3337.13
523.843	3386.85
524.21	3441.08
524.577	3470.69
524.943	3487.63
525.31	3498.03
525.676	3534.19
526.043	3513.4
526.409	3563.34
526.776	3606.5
527.142	3554.3
527.508	3634.98
527.874	3650.57
528.241	3688.31
528.607	3693.5
528.973	3743.22
529.339	3688.31
529.705	3733.73
530.071	3790.9
530.437	3757.01
530.803	3822.99
531.169	3846.72
531.535	3851.24
531.901	3830.9
532.267	3841.3
532.632	3902.09
532.998	3900.96
533.364	3960.62
533.73	3934.63
534.095	3937.57
534.461	3996.55
534.826	4003.55
535.192	4038.58
535.557	4029.99
535.923	4053.95
536.288	4040.39
536.653	4067.05
537.019	4078.58
537.384	4044.68
537.749	4083.55
538.114	4090.56
538.479	4149.54
538.845	4200.84
539.21	4178.69
539.575	4184.11
539.94	4181.85
540.305	4192.02
540.67	4206.26
541.034	4258.01
541.399	4252.13
541.764	4275.18
542.129	4272.02
542.494	4317.44
542.858	4349.53
543.223	4383.88
543.587	4350.66
543.952	4347.72
544.316	4368.29
544.681	4373.26
545.045	4400.6
545.41	4431.34
545.774	4444.45
546.138	4462.07
546.503	4512.47
546.867	4473.82
547.231	4494.84
547.595	4566.02
547.959	4526.48
548.324	4546.14
548.688	4547.72
549.052	4568.74
549.416	4582.52
549.779	4617.55
550.143	4615.06
550.507	4660.94
550.871	4707.49
551.235	4694.38
551.599	4685.34
551.962	4668.85
552.326	4683.54
552.689	4756.98
553.053	4757.88
553.417	4782.06
553.78	4822.74
554.143	4793.14
554.507	4862.06
554.87	4878.56
555.234	4863.87
555.597	4868.84
555.96	4886.47
556.323	4917.65
556.686	4922.62
557.05	4997.65
557.413	5079
557.776	5013.02
558.139	5048.27
558.502	5079
558.865	5047.59
559.228	5079
559.59	5116.74
559.953	5072.68
560.316	5154.71
560.679	5191.54
561.041	5179.57
561.404	5287.59
561.767	5309.96
562.129	5285.33
562.492	5311.09
562.854	5269.28
563.217	5306.34
563.579	5323.29
563.941	5414.36
564.304	5444.42
564.666	5428.6
565.028	5459.79
565.39	5516.28
565.753	5539.33
566.115	5562.83
566.477	5557.41
566.839	5589.27
567.201	5613
567.563	5626.79
567.925	5620.01
568.287	5698.2
568.648	5707.69
569.01	5748.82
569.372	5760.79
569.734	5777.97
570.095	5823.62
570.457	5786.1
570.819	5844.41
571.18	5851.41
571.542	5842.15
571.903	5894.58
572.265	5910.62
572.626	5964.63
572.987	5958.53
573.349	5969.15
573.71	5993.11
574.071	6023.84
574.432	6037.85
574.794	6052.99
575.155	6033.78
575.516	6047.57
575.877	6038.3
576.238	6118.07
576.599	6112.42
576.96	6114.23
577.32	6110.39
577.681	6186.77
578.042	6189.48
578.403	6163.95
578.763	6147.23
579.124	6212.08
579.485	6184.29
579.845	6253.89
580.206	6202.37
580.566	6280.56
580.927	6231.97
581.287	6217.05
581.648	6222.25
582.008	6242.36
582.368	6274.23
582.728	6289.82
583.089	6232.19
583.449	6214.79
583.809	6283.94
584.169	6246.88
584.529	6243.72
584.889	6311.29
585.249	6296.83
585.609	6273.55
585.969	6260.89
586.329	6321.91
586.688	6284.85
587.048	6277.84
587.408	6234.45
587.768	6293.66
588.127	6301.12
588.487	6275.13
588.846	6321.01
589.206	6294.79
589.565	6373.21
589.925	6337.5
590.284	6336.82
590.643	6321.91
591.003	6327.33
591.362	6342.7
591.721	6324.4
592.08	6316.03
592.44	6416.6
592.799	6347.22
593.158	6321.46
593.517	6327.11
593.876	6321.01
594.235	6363.94
594.593	6354.23
594.952	6365.75
595.311	6350.84
595.67	6315.58
596.029	6391.96
596.387	6366.88
596.746	6394.68
597.104	6368.24
597.463	6335.24
597.822	6437.16
598.18	6398.07
598.538	6389.7
598.897	6437.16
599.255	6389.93
599.613	6444.84
599.972	6401.68
600.33	6433.09
600.688	6349.93
601.046	6351.51
601.404	6453.21
601.762	6479.87
602.12	6424.28
602.478	6415.24
602.836	6402.59
603.194	6352.42
603.552	6435.35
603.91	6428.35
604.268	6500.44
604.625	6451.4
604.983	6456.6
605.341	6467.22
605.698	6473.54
606.056	6539.98
606.413	6515.8
606.771	6474.9
607.128	6467.67
607.485	6477.61
607.843	6449.82
608.2	6515.35
608.557	6572.52
608.914	6480.78
609.272	6506.76
609.629	6511.28
609.986	6530.04
610.343	6527.78
610.7	6580.21
611.057	6577.04
611.414	6492.75
611.771	6566.2
612.127	6534.33
612.484	6569.59
612.841	6593.99
613.198	6577.72
613.554	6547.67
613.911	6628.79
614.267	6620.66
614.624	6559.87
614.98	6599.64
615.337	6690.26
615.693	6673.54
616.05	6618.4
616.406	6641.22
616.762	6600.32
617.118	6605.07
617.475	6622.02
617.831	6648
618.187	6623.37
618.543	6621.11
618.899	6659.75
619.255	6661.34
619.611	6595.12
619.967	6657.27
620.323	6647.1
620.678	6648.68
621.034	6639.87
621.39	6702.47
621.746	6632.18
622.101	6701.79
622.457	6676.93
622.812	6659.53
623.168	6678.28
623.523	6705.63
623.879	6720.54
624.234	6601.22
624.589	6677.38
624.945	6689.36
625.3	6664.5
625.655	6630.15
626.01	6629.25
626.365	6617.72
626.72	6565.75
627.075	6616.37
627.43	6602.13
627.785	6606.2
628.14	6675.35
628.495	6636.93
628.85	6577.72
629.205	6613.88
629.559	6675.8
629.914	6615.01
630.269	6635.57
630.623	6539.31
630.978	6574.33
631.332	6596.25
631.687	6563.94
632.041	6530.72
632.396	6589.93
632.75	6567.55
633.104	6547.67
633.459	6570.04
633.813	6564.39
634.167	6476.03
634.521	6511.28
634.875	6488.69
635.229	6471.96
635.583	6444.39
635.937	6509.93
636.291	6492.98
636.645	6445.97
636.999	6407.11
637.352	6440.55
637.706	6430.38
638.06	6446.43
638.413	6378.18
638.767	6413.89
639.121	6408.46
639.474	6342.7
639.828	6366.65
640.181	6401.23
640.534	6340.67
640.888	6354
641.241	6294.57
641.594	6328.01
641.947	6347.67
642.301	6299.99
642.654	6312.42
643.007	6305.41
643.36	6313.55
643.713	6276.04
644.066	6241.01
644.419	6231.97
644.771	6213.44
645.124	6055.02
645.477	5979.32
645.83	6046.44
646.182	6029.26
646.535	6115.81
646.888	6140.45
647.24	6093.67
647.593	6138.41
647.945	6154.91
648.298	6069.71
648.65	6103.84
649.002	6067.23
649.355	6044.18
649.707	6009.38
650.059	6010.28
650.411	6163.27
650.763	6055.7
651.115	6120.11
651.467	6124.85
651.819	6058.41
652.171	6119.43
652.523	6093.67
652.875	6100.9
653.227	6071.3
653.578	6109.49
653.93	6125.08
654.282	6079.88
654.633	5996.72
654.985	6053.44
655.337	6084.4
655.688	6121.46
656.039	6085.31
656.391	5997.4
656.742	6035.14
657.094	6005.53
657.445	6043.73
657.796	6031.52
658.147	6075.14
658.498	6047.12
658.849	6012.09
659.2	6036.95
659.551	5982.71
659.902	6025.42
660.253	6000.79
660.604	6040.11
660.955	5956.27
661.306	5975.93
661.656	5967.57
662.007	5925.76
662.358	5988.36
662.708	5946.33
663.059	5990.85
663.409	5887.35
663.76	5964.41
664.11	5966.67
664.461	6024.29
664.811	5983.39
665.161	5973.9
665.511	5937.06
665.862	5913.11
666.212	5928.7
666.562	5911.75
666.912	5959.43
667.262	5871.75
667.612	5880.34
667.962	5908.59
668.312	5897.74
668.662	5936.16
669.011	5890.51
669.361	5858.65
669.711	5886.67
670.06	5887.57
670.41	5858.87
670.76	5841.7
671.109	5951.3
671.459	5901.81
671.808	5902.03
672.157	5871.53
672.507	5861.58
672.856	5847.57
673.205	5845.76
673.554	5846.44
673.904	5787.46
674.253	5853.9
674.602	5865.42
674.951	5737.29
675.3	5718.08
675.649	5831.53
675.998	5798.53
676.346	5836.5
676.695	5854.35
677.044	5800.79
677.393	5823.84
677.741	5764.18
678.09	5788.14
678.438	5739.33
678.787	5820
679.135	5791.53
679.484	5710.4
679.832	5742.94
680.181	5718.76
680.529	5700.46
680.877	5749.5
681.225	5744.75
681.573	5777.97
681.922	5745.88
682.27	5682.15
682.618	5695.71
682.966	5706.33
683.314	5705.2
683.661	5609.61
684.009	5618.88
684.357	5589.27
684.705	5608.93
685.053	5625.66
685.4	5636.28
685.748	5580.46
686.095	5528.48
686.443	5504.3
686.79	5553.57
687.138	5563.29
687.485	5554.47
687.832	5507.69
688.18	5566.9
688.527	5588.37
688.874	5524.64
689.221	5526.45
689.568	5544.76
689.915	5492.55
690.262	5472.89
690.609	5484.42
690.956	5458.43
691.303	5428.83
691.65	5330.75
691.997	5394.93
692.344	5347.92
692.69	5395.61
693.037	5405.55
693.383	5298.89
693.73	5370.3
694.077	5288.94
694.423	5308.15
694.769	5307.47
695.116	5283.52
695.462	5243.52
695.808	5254.14
696.155	5217.08
696.501	5219.57
696.847	5237.19
697.193	5239.45
697.539	5215.27
697.885	5195.16
698.231	5135.05
698.577	5173.47
698.923	5077.2
699.269	5122.62
699.614	5108.38
699.96	5174.6
700.306	5119.68
700.651	5085.33
700.997	5060.47
701.342	5076.07
701.688	5062.51
702.033	5038.78
702.379	5057.99
702.724	5081.94
703.069	4984.32
703.415	4930.99
703.76	4951.32
704.105	4949.06
704.45	4961.04
704.795	4972.79
705.14	4908.61
705.485	4896.18
705.83	4872.68
706.175	4918.56
706.52	4912
706.865	4917.65
707.209	4903.42
707.554	4827.26
707.899	4929.86
708.243	4846.02
708.588	4807.83
708.932	4777.09
709.277	4782.52
709.621	4779.58
709.966	4770.99
710.31	4795.4
710.654	4700.26
710.998	4740.26
711.342	4773.7
711.687	4701.39
712.031	4749.52
712.375	4716.98
712.719	4732.8
713.063	4728.28
713.407	4729.18
713.75	4681.95
714.094	4635.4
714.438	4658.22
714.782	4644.21
715.125	4650.99
715.469	4595.63
715.812	4566.25
716.156	4604.67
716.499	4619.13
716.843	4593.14
717.186	4558.34
717.53	4621.16
717.873	4575.97
718.216	4644.21
718.559	4582.97
718.902	4566.25
719.246	4606.7
719.589	4543.88
719.932	4520.83
720.275	4520.83
720.617	4519.25
720.96	4524.22
721.303	4502.3
721.646	4501.84
721.989	4443.77
722.331	4401.51
722.674	4429.98
723.016	4467.5
723.359	4438.12
723.701	4434.95
724.044	4458.23
724.386	4448.51
724.729	4424.56
725.071	4418.68
725.413	4407.61
725.755	4420.72
726.097	4434.05
726.439	4432.69
726.782	4352.47
727.124	4395.63
727.465	4363.54
727.807	4363.77
728.149	4345.01
728.491	4362.64
728.833	4347.95
729.175	4326.48
729.516	4308.18
729.858	4275.64
730.199	4283.32
730.541	4322.41
730.882	4307.73
731.224	4337.1
731.565	4356.31
731.906	4310.44
732.248	4286.48
732.589	4294.39
732.93	4229.76
733.271	4274.96
733.612	4265.69
733.953	4277.22
734.294	4230.89
734.635	4236.77
734.976	4218.69
735.317	4217.33
735.658	4184.79
735.999	4201.06
736.339	4165.36
736.68	4233.15
737.021	4159.71
737.361	4170.78
737.702	4213.94
738.042	4191.8
738.383	4173.49
738.723	4205.13
739.063	4192.02
739.404	4149.54
739.744	4176.2
740.084	4146.83
740.424	4187.28
740.764	4104.57
741.104	4101.4
741.444	4120.61
741.784	4136.2
742.124	4128.3
742.464	4102.31
742.804	4047.39
743.143	4095.3
743.483	4067.73
743.823	4082.19
744.162	4036.09
744.502	4119.03
744.841	4094.4
745.181	4074.74
745.52	4081.29
745.86	4131.01
746.199	4093.27
746.538	4050.33
746.877	4079.94
747.216	4067.28
747.556	4032.48
747.895	4064.79
748.234	4010.11
748.573	4001.07
748.911	3996.55
749.25	4008.52
749.589	3985.25
749.928	3977.56
750.267	3975.76
750.605	3936.21
750.944	3960.39
751.283	3933.5
751.621	3956.55
751.96	3931.01
752.298	3994.51
752.636	3929.66
752.975	3907.96
753.313	3910.9
753.651	3959.71
753.989	3879.04
754.327	3926.27
754.666	3887.17
755.004	3844.24
755.342	3893.5
755.679	3851.92
756.017	3816.67
756.355	3840.85
756.693	3824.35
757.031	3823.67
757.368	3777.12
757.706	3811.24
758.044	3786.38
758.381	3791.13
758.719	3802.2
759.056	3820.96
759.394	3746.38
759.731	3739.15
760.068	3756.1
760.405	3754.07
760.743	3756.78
761.08	3779.15
761.417	3657.8
761.754	3698.02
762.091	3738.48
762.428	3724.24
762.765	3692.37
763.102	3660.06
763.438	3618.03
763.775	3634.52
764.112	3619.38
764.449	3631.36
764.785	3583.68
765.122	3588.65
765.458	3576.67
765.795	3596.78
766.131	3605.82
766.467	3578.48
766.804	3550.68
767.14	3568.99
767.476	3565.37
767.812	3543.9
768.148	3570.12
768.485	3515.43
768.821	3494.19
769.157	3467.97
769.492	3475.66
769.828	3467.52
770.164	3435.21
770.5	3442.89
770.836	3404.25
771.171	3375.32
771.507	3424.59
