Data from foam2_polystyrene_foam_FLMS001491_00051.txt Node
Date: Wed Feb 08 10:58:09 GMT 2017
User: dcchb
Spectrometer: FLMS00149
Trigger mode: 0
Integration Time (sec): 2.000000E-2
Scans to average: 10
Electric dark correction enabled: true
Nonlinearity correction enabled: false
Boxcar width: 0
XAxis mode: Wavelengths
Number of Pixels in Spectrum: 2048
>>>>>Begin Spectral Data<<<<<
341.393	-18.01
341.776	-18.01
342.16	-18.01
342.543	-40.15
342.927	-62.07
343.31	-72.24
343.693	-70.66
344.077	-68.18
344.46	-63.43
344.843	-39.7
345.226	-36.54
345.61	-34.28
345.993	-16.88
346.376	-12.36
346.759	4.36
347.142	33.29
347.525	52.95
347.908	72.16
348.291	53.4
348.674	85.72
349.057	112.38
349.44	111.03
349.823	152.38
350.206	165.72
350.588	198.03
350.971	221.99
351.354	228.77
351.737	268.09
352.119	246.62
352.502	252.04
352.884	292.27
353.267	288.65
353.65	285.71
354.032	299.5
354.414	315.77
354.797	337.91
355.179	321.64
355.562	323.68
355.944	337.46
356.326	322.32
356.709	346.05
357.091	333.85
357.473	337.69
357.855	341.53
358.238	369.55
358.62	338.14
359.002	354.19
359.384	351.25
359.766	351.02
360.148	357.58
360.53	318.03
360.912	337.91
361.294	355.54
361.676	328.2
362.057	324.81
362.439	351.25
362.821	343.56
363.203	345.6
363.584	337.69
363.966	330.68
364.348	344.47
364.729	331.14
365.111	349.67
365.493	348.99
365.874	324.58
366.256	338.14
366.637	353.51
367.019	345.37
367.4	355.77
367.781	327.97
368.163	337.01
368.544	333.85
368.925	337.91
369.306	316.9
369.688	319.84
370.069	359.16
370.45	343.56
370.831	336.56
371.212	340.4
371.593	348.08
371.974	333.62
372.355	346.95
372.736	352.38
373.117	364.13
373.498	358.48
373.879	331.81
374.26	360.97
374.641	358.25
375.021	336.78
375.402	364.35
375.783	354.41
376.163	349.21
376.544	374.52
376.925	380.85
377.305	376.56
377.686	337.01
378.066	365.26
378.447	385.6
378.827	364.35
379.208	372.04
379.588	375.88
379.968	388.76
380.349	409.78
380.729	378.14
381.109	384.47
381.489	383.11
381.87	416.56
382.25	400.29
382.63	405.03
383.01	407.52
383.39	406.39
383.77	411.13
384.15	398.48
384.53	416.1
384.91	418.36
385.29	411.59
385.67	410.23
386.049	423.56
386.429	409.78
386.809	434.86
387.189	417.01
387.568	439.83
387.948	416.56
388.328	439.83
388.707	441.87
389.087	445.71
389.466	454.07
389.846	468.76
390.225	457.46
390.605	457.91
390.984	445.48
391.363	483.67
391.743	462.21
392.122	471.24
392.501	499.04
392.881	463.56
393.26	488.19
393.639	512.15
394.018	491.81
394.397	513.28
394.776	504.92
395.155	512.37
395.534	513.28
395.913	509.66
396.292	508.76
396.671	506.05
397.05	532.71
397.429	528.64
397.808	532.26
398.186	525.48
398.565	541.98
398.944	524.58
399.323	566.61
399.701	551.92
400.08	568.42
400.458	560.51
400.837	565.48
401.215	563.22
401.594	584.69
401.972	567.29
402.351	564.35
402.729	595.08
403.107	584.46
403.486	584.24
403.864	598.02
404.242	604.12
404.62	612.94
404.999	624.69
405.377	602.54
405.755	646.38
406.133	628.3
406.511	626.95
406.889	634.86
407.267	639.6
407.645	697.91
408.023	646.83
408.401	676.66
408.779	673.73
409.156	687.06
409.534	674.63
409.912	711.24
410.29	693.84
410.667	707.17
411.045	732.71
411.422	706.49
411.8	737.23
412.178	750.56
412.555	747.85
412.933	738.81
413.31	777
413.687	751.46
414.065	789.65
414.442	807.73
414.819	791.46
415.197	773.61
415.574	803.67
415.951	819.48
416.328	821.07
416.705	833.04
417.082	844.57
417.46	835.75
417.837	832.82
418.214	850.22
418.591	842.08
418.967	867.84
419.344	903.78
419.721	892.7
420.098	887.5
420.475	913.72
420.852	905.58
421.228	909.2
421.605	915.07
421.982	923.44
422.358	923.21
422.735	948.29
423.111	966.15
423.488	976.54
423.864	951.91
424.241	988.07
424.617	972.25
424.994	981.74
425.37	993.72
425.746	1003.21
426.123	1017.67
426.499	1047.5
426.875	1035.52
427.251	1040.72
427.627	1077.33
428.003	1093.38
428.379	1093.15
428.756	1098.8
429.132	1123.43
429.507	1121.85
429.883	1124.11
430.259	1147.84
430.635	1157.1
431.011	1157.33
431.387	1197.55
431.763	1222.19
432.138	1260.15
432.514	1235.97
432.89	1241.39
433.265	1263.77
433.641	1263.54
434.016	1301.96
434.392	1310.09
434.767	1329.3
435.143	1344.89
435.518	1360.94
435.894	1368.17
436.269	1396.19
436.644	1403.88
437.02	1437.55
437.395	1429.86
437.77	1482.74
438.145	1482.97
438.52	1471.67
438.895	1494.72
439.271	1495.4
439.646	1531.33
440.021	1533.14
440.395	1559.58
440.77	1521.39
441.145	1565
441.52	1613.14
441.895	1596.41
442.27	1613.14
442.645	1619.24
443.019	1642.74
443.394	1646.13
443.769	1679.35
444.143	1646.13
444.518	1692.46
444.892	1721.16
445.267	1743.08
445.641	1725.9
446.016	1721.83
446.39	1753.47
446.764	1785.11
447.139	1765.67
447.513	1807.25
447.887	1782.62
448.262	1788.05
448.636	1814.71
449.01	1830.98
449.384	1866.01
449.758	1901.72
450.132	1894.26
450.506	1890.87
450.88	1934.71
451.254	1927.03
451.628	1964.76
452.002	1999.57
452.376	1984.88
452.75	1992.56
453.123	2004.31
453.497	2048.6
453.871	2082.73
454.244	2117.3
454.618	2102.61
454.992	2142.84
455.365	2128.38
455.739	2187.58
456.112	2223.06
456.486	2243.4
456.859	2268.71
457.232	2293.34
457.606	2312.1
457.979	2311.2
458.352	2384.19
458.725	2380.12
459.099	2378.77
459.472	2441.81
459.845	2478.88
460.218	2480.68
460.591	2465.09
460.964	2497.86
461.337	2542.6
461.71	2610.17
462.083	2613.56
462.456	2620.11
462.829	2627.12
463.201	2655.37
463.574	2700.79
463.947	2725.42
464.32	2778.08
464.692	2795.25
465.065	2817.85
465.438	2849.94
465.81	2905.76
466.183	2934.23
466.555	2992.53
466.928	2976.49
467.3	2972.87
467.672	3048.35
468.045	3100.33
468.417	3154.56
468.789	3197.05
469.161	3164.28
469.534	3223.94
469.906	3299.42
470.278	3321.11
470.65	3378.74
471.022	3401.79
471.394	3498.96
471.766	3473.65
472.138	3534.21
472.51	3600.2
472.882	3667.32
473.253	3717.71
473.625	3677.71
473.997	3785.06
474.369	3824.38
474.74	3905.73
475.112	3959.97
475.484	4020.53
475.855	4072.96
476.227	4122.9
476.598	4271.14
476.97	4226.85
477.341	4372.16
477.713	4422.78
478.084	4454.42
478.455	4527.41
478.827	4578.71
479.198	4702.55
479.569	4715.65
479.94	4840.17
480.311	4893.05
480.682	5024.12
481.053	5116.55
481.424	5185.02
481.795	5269.31
482.166	5356.54
482.537	5383.88
482.908	5499.81
483.279	5552.92
483.65	5651.45
484.021	5697.55
484.391	5799.01
484.762	5850.54
485.133	5913.81
485.503	6000.59
485.874	6166.46
486.244	6222.51
486.615	6340.02
486.985	6370.07
487.356	6414.82
487.726	6578.2
488.097	6674.92
488.467	6681.25
488.837	6813.22
489.207	6914.01
489.578	7024.07
489.948	7073.56
490.318	7116.72
490.688	7207.56
491.058	7285.3
491.428	7365.07
491.798	7474.22
492.168	7633.09
492.538	7620.89
492.908	7717.61
493.278	7845.06
493.648	7848.45
494.017	7928.45
494.387	8036.47
494.757	8109.24
495.126	8175.9
495.496	8206.18
495.866	8329.34
496.235	8398.27
496.605	8440.75
496.974	8496.57
497.344	8577.02
497.713	8670.8
498.082	8732.04
498.452	8861.98
498.821	8849.56
499.19	8909.89
499.559	8995.77
499.928	9040.28
500.298	9072.6
500.667	9174.52
501.036	9224.46
501.405	9312.82
501.774	9359.6
502.143	9431.91
502.512	9458.58
502.88	9483.66
503.249	9624.45
503.618	9732.92
503.987	9780.6
504.356	9775.18
504.724	9868.74
505.093	9919.81
505.462	9936.31
505.83	10044.55
506.199	10081.16
506.567	10243.64
506.936	10240.03
507.304	10364.32
507.672	10428.27
508.041	10504.65
508.409	10503.3
508.777	10570.87
509.145	10724.08
509.514	10734.03
509.882	10816.28
510.25	10887.47
510.618	10952.33
510.986	10925.66
511.354	11093.11
511.722	11156.39
512.09	11284.29
512.458	11347.79
512.826	11400.22
513.193	11536.94
513.561	11552.08
513.929	11621.01
514.297	11786.43
514.664	11881.79
515.032	11907.78
515.4	12056.48
515.767	12100.32
516.135	12137.83
516.502	12128.34
516.869	12364.27
517.237	12333.08
517.604	12342.12
517.972	12606.29
518.339	12605.61
518.706	12608.55
519.073	12743.24
519.44	12839.06
519.808	12965.38
520.175	12980.75
520.542	13138.03
520.909	13315.2
521.276	13207.41
521.643	13343.9
522.009	13491.47
522.376	13631.8
522.743	13668.64
523.11	13860.72
523.477	13996.76
523.843	14011.23
524.21	14203.09
524.577	14358.11
524.943	14396.98
525.31	14514.94
525.676	14653.7
526.043	14734.82
526.409	14832.67
526.776	14988.83
527.142	14966.46
527.508	15042.61
527.874	15300.69
528.241	15280.8
528.607	15351.31
528.973	15513.79
529.339	15553.33
529.705	15700.67
530.071	15751.97
530.437	15863.61
530.803	16009.37
531.169	16059.76
531.535	16043.26
531.901	16102.25
532.267	16254.78
532.632	16284.16
532.998	16507.89
533.364	16624.27
533.73	16584.49
534.095	16740.2
534.461	16854.32
534.826	16795.34
535.192	16889.34
535.557	16978.83
535.923	16997.14
536.288	17191.71
536.653	17214.08
537.019	17285.27
537.384	17352.38
537.749	17468.09
538.114	17521.87
538.479	17548.31
538.845	17632.15
539.21	17571.13
539.575	17726.38
539.94	17866.04
540.305	17883.22
540.67	17885.25
541.034	18004.79
541.399	18083.44
541.764	18101.06
542.129	18150.1
542.494	18278.01
542.858	18323.43
543.223	18268.06
543.587	18442.3
543.952	18399.81
544.316	18539.24
544.681	18581.95
545.045	18608.62
545.41	18699.92
545.774	18818.56
546.138	18803.42
546.503	18891.55
546.867	18811.33
547.231	19099.68
547.595	19175.61
547.959	19297.87
548.324	19151.43
548.688	19277.53
549.052	19354.14
549.416	19408.37
549.779	19510.29
550.143	19627.35
550.507	19626.45
550.871	19717.52
551.235	19727.91
551.599	19794.58
551.962	19881.58
552.326	20047
552.689	20130.61
553.053	20121.58
553.417	20214.91
553.78	20397.95
554.143	20234.11
554.507	20514.33
554.87	20478.63
555.234	20764.04
555.597	20680.43
555.96	20753.2
556.323	20826.87
556.686	20853.08
557.05	21073.19
557.413	21038.39
557.776	21129.91
558.139	21307.76
558.502	21324.03
558.865	21400.41
559.228	21498.49
559.59	21572.84
559.953	21601.31
560.316	21903.22
560.679	21950.91
561.041	22044.24
561.404	22144.8
561.767	22236.1
562.129	22235.42
562.492	22510.89
562.854	22420.05
563.217	22503.66
563.579	22554.73
563.941	22749.98
564.304	22830.2
564.666	23007.38
565.028	23064.32
565.39	23070.2
565.753	23250.76
566.115	23375.73
566.477	23450.3
566.839	23471.32
567.201	23659.56
567.563	23637.64
567.925	23830.63
568.287	23870.86
568.648	23933.68
569.01	24084.86
569.372	24239.66
569.734	24144.97
570.095	24431.07
570.457	24408.02
570.819	24450.5
571.18	24547.9
571.542	24670.16
571.903	24650.27
572.265	24830.83
572.626	24867.44
572.987	24805.97
573.349	24934.56
573.71	24985.85
574.071	25093.2
574.432	25117.6
574.794	25241.44
575.155	25334.09
575.516	25243.47
575.877	25377.03
576.238	25521.43
576.599	25460.19
576.96	25574.77
577.32	25643.24
577.681	25666.51
578.042	25758.94
578.403	25713.97
578.763	25717.81
579.124	25846.85
579.485	25869.67
579.845	25965.94
580.206	25848.43
580.566	25960.29
580.927	25968.88
581.287	26113.06
581.648	25898.6
582.008	26196.67
582.368	26103.79
582.728	26172.26
583.089	26052.72
583.449	26177.69
583.809	26117.35
584.169	26156.45
584.529	26164.13
584.889	26238.7
585.249	26076
585.609	26075.09
585.969	26157.35
586.329	26132.04
586.688	26160.51
587.048	26121.19
587.408	26120.29
587.768	26158.03
588.127	26136.56
588.487	26130.68
588.846	26323.22
589.206	26078.71
589.565	26041.65
589.925	26211.81
590.284	26138.82
590.643	26130.68
591.003	26250
591.362	26340.39
591.721	26189.44
592.08	26412.26
592.44	26324.8
592.799	26353.05
593.158	26312.15
593.517	26270.11
593.876	26345.59
594.235	26417.46
594.593	26367.74
594.952	26399.38
595.311	26343.78
595.67	26400.51
596.029	26469.88
596.387	26384.91
596.746	26537.9
597.104	26460.39
597.463	26248.42
597.822	26547.4
598.18	26407.96
598.538	26464.01
598.897	26647.73
599.255	26342.43
599.613	26704
599.972	26495.65
600.33	26657.22
600.688	26529.09
601.046	26639.6
601.404	26766.37
601.762	26642.76
602.12	26825.58
602.478	26924.56
602.836	26881.62
603.194	26769.99
603.552	26842.08
603.91	26842.75
604.268	27016.31
604.625	26802.08
604.983	26945.8
605.341	26840.95
605.698	27044.33
606.056	27010.43
606.413	26959.81
606.771	27090.43
607.128	27179.92
607.485	27000.04
607.843	26973.6
608.2	27241.61
608.557	27282.97
608.914	27153.48
609.272	27324.78
609.629	27375.4
609.986	27470.76
610.343	27201.16
610.7	27455.39
611.057	27449.29
611.414	27401.16
611.771	27502.17
612.127	27521.61
612.484	27474.83
612.841	27616.97
613.198	27517.54
613.554	27649.97
613.911	27685.22
614.267	27680.25
614.624	27578.55
614.98	27540.14
615.337	27747.14
615.693	27785.33
616.05	27768.15
616.406	27882.28
616.762	27747.59
617.118	27785.1
617.475	27831.43
617.831	27896.74
618.187	28001.82
618.543	27911.2
618.899	28105.77
619.255	27921.37
619.611	27976.06
619.967	28093.34
620.323	28127.24
620.678	27953.23
621.034	27984.42
621.39	27887.92
621.746	27864.65
622.101	28242.49
622.457	28085.21
622.812	28168.82
623.168	28106.9
623.523	28044.76
623.879	28164.53
624.234	27944.19
624.589	28111.2
624.945	28071.87
625.3	27962.95
625.655	28050.41
626.01	27974.7
626.365	28033.46
626.72	28014.48
627.075	28091.54
627.43	28014.48
627.785	27929.05
628.14	28020.35
628.495	28006.34
628.85	27998.43
629.205	27890.64
629.559	28109.61
629.914	27877.3
630.269	28009.96
630.623	27927.02
630.978	27843.86
631.332	27868.94
631.687	27950.75
632.041	27748.04
632.396	27752.56
632.75	27681.15
633.104	27687.7
633.459	27599.57
633.813	27605.67
634.167	27678.44
634.521	27629.85
634.875	27664.2
635.229	27503.98
635.583	27440.71
635.937	27463.98
636.291	27444.77
636.645	27346.02
636.999	27277.09
637.352	27334.27
637.706	27059.25
638.06	27264.89
638.413	27258.56
638.767	27163.2
639.121	27202.52
639.474	27044.11
639.828	27061.05
640.181	27130.43
640.534	26969.98
640.888	26951.45
641.241	26781.06
641.594	26862.19
641.947	26979.93
642.301	26838.23
642.654	26833.94
643.007	26768.18
643.36	26746.71
643.713	26750.55
644.066	26748.29
644.419	26524.8
644.771	26240.06
645.124	26150.12
645.477	26114.41
645.83	25942.89
646.182	25764.14
646.535	25753.07
646.888	25826.74
647.24	25692.73
647.593	25858.83
647.945	25698.15
648.298	25517.59
648.65	25504.71
649.002	25409.12
649.355	25524.15
649.707	25479.17
650.059	25591.49
650.411	25897.02
650.763	25984.25
651.115	26172.26
651.467	26055.2
651.819	26090.68
652.171	26029.22
652.523	26038.93
652.875	25935.89
653.227	25935.66
653.578	25996.9
653.93	26060.85
654.282	25935.89
654.633	25838.04
654.985	25859.28
655.337	25892.27
655.688	25873.06
656.039	25952.61
656.391	25754.65
656.742	25797.58
657.094	25751.48
657.445	25764.14
657.796	25756
658.147	25796.45
658.498	25638.94
658.849	25685.27
659.2	25479.17
659.551	25582.45
659.902	25619.51
660.253	25633.75
660.604	25590.13
660.955	25456.58
661.306	25620.19
661.656	25573.41
662.007	25516.01
662.358	25401.66
662.708	25403.7
663.059	25487.54
663.409	25210.03
663.76	25436.46
664.11	25407.99
664.461	25494.54
664.811	25519.85
665.161	25424.49
665.511	25325.96
665.862	25347.43
666.212	25364.83
666.562	25469.46
666.912	25353.53
667.262	25300.65
667.612	25367.77
667.962	25287.54
668.312	25362.57
668.662	25370.48
669.011	25356.69
669.361	25290.25
669.711	25262.01
670.06	25170.71
670.41	25172.52
670.76	25080.09
671.109	25245.96
671.459	25235.79
671.808	25106.76
672.157	25262.91
672.507	25047.32
672.856	24984.95
673.205	25054.78
673.554	25087.55
673.904	24989.24
674.253	25029.69
674.602	24988.11
674.951	24599.65
675.3	24458.64
675.649	24946.76
675.998	24935.01
676.346	24837.84
676.695	24987.44
677.044	24802.58
677.393	24871.73
677.741	24984.05
678.09	24782.02
678.438	24747.67
678.787	24829.93
679.135	24873.09
679.484	24686.43
679.832	24760.78
680.181	24596.49
680.529	24664.51
680.877	24578.63
681.225	24558.07
681.573	24729.59
681.922	24536.6
682.27	24492.08
682.618	24417.06
682.966	24376.6
683.314	24353.55
683.661	24300.45
684.009	24282.37
684.357	24239.43
684.705	24218.19
685.053	24264.29
685.4	23982.04
685.748	23911.08
686.095	24041.25
686.443	23877.41
686.79	23917.41
687.138	23929.16
687.485	23848.48
687.832	23848.94
688.18	23699.56
688.527	23633.35
688.874	23603.07
689.221	23668.15
689.568	23473.8
689.915	23546.12
690.262	23426.12
690.609	23437.65
690.956	23311.77
691.303	23370.3
691.65	23230.87
691.997	23346.58
692.344	23131.21
692.69	23060.26
693.037	23042.85
693.383	22956.08
693.73	22984.55
694.077	22835.85
694.423	22843.76
694.769	22732.58
695.116	22725.8
695.462	22608.06
695.808	22525.58
696.155	22477.67
696.501	22363.32
696.847	22444
697.193	22209.66
697.539	22369.65
697.885	22139.83
698.231	22128.75
698.577	21988.42
698.923	22119.94
699.269	21908.42
699.614	21790.23
699.96	21892.83
700.306	21693.74
700.651	21565.15
700.997	21694.19
701.342	21635.43
701.688	21517.24
702.033	21519.73
702.379	21544.59
702.724	21304.14
703.069	21413.52
703.415	21177.82
703.76	21143.02
704.105	21245.39
704.45	21132.4
704.795	20966.75
705.14	20983.02
705.485	21014.21
705.83	20912.06
706.175	20841.78
706.52	20818.51
706.865	20732.41
707.209	20688.57
707.554	20628.91
707.899	20733.99
708.243	20597.04
708.588	20497.84
708.932	20289.71
709.277	20307.33
709.621	20369.7
709.966	20209.26
710.31	20307.56
710.654	20073.67
710.998	20158.86
711.342	20025.98
711.687	20052.42
712.031	19918.42
712.375	19873.45
712.719	19972.2
713.063	19870.06
713.407	19875.71
713.75	19622.83
714.094	19726.11
714.438	19649.05
714.782	19600.46
715.125	19559.56
715.469	19626.9
715.812	19511.2
716.156	19415.15
716.499	19448.15
716.843	19494.25
717.186	19266.68
717.53	19404.76
717.873	19322.73
718.216	19268.72
718.559	19285.21
718.902	19206.35
719.246	19154.37
719.589	19092.9
719.932	19010.87
720.275	19102.17
720.617	19034.15
720.96	18936.97
721.303	18978.55
721.646	18951.21
721.989	18830.54
722.331	18844.55
722.674	18792.57
723.016	18707.38
723.359	18889.74
723.701	18760.03
724.044	18628.96
724.386	18595.97
724.729	18680.94
725.071	18583.54
725.413	18522.3
725.755	18473.94
726.097	18497.89
726.439	18472.58
726.782	18307.39
727.124	18403.88
727.465	18339.7
727.807	18284.11
728.149	18249.08
728.491	18159.82
728.833	18176.99
729.175	18082.98
729.516	18006.15
729.858	18033.72
730.199	17971.58
730.541	17938.81
730.882	17950.79
731.224	17970.67
731.565	17912.59
731.906	17931.8
732.248	17907.4
732.589	17810.45
732.93	17722.09
733.271	17751.92
733.612	17713.73
733.953	17766.38
734.294	17632.83
734.635	17595.54
734.976	17658.82
735.317	17631.47
735.658	17629.21
735.999	17480.29
736.339	17560.74
736.68	17611.13
737.021	17437.35
737.361	17403
737.702	17482.32
738.042	17479.84
738.383	17391.03
738.723	17412.04
739.063	17405.71
739.404	17335.66
739.744	17326.17
740.084	17313.06
740.424	17316.23
740.764	17228.54
741.104	17248.88
741.444	17114.65
741.784	17027.19
742.124	17144.25
742.464	17039.17
742.804	17039.62
743.143	16993.3
743.483	16981.77
743.823	16851.38
744.162	16797.37
744.502	16800.98
744.841	16795.11
745.181	16862.45
745.52	16736.81
745.86	16772.74
746.199	16761.89
746.538	16701.1
746.877	16790.82
747.216	16655.9
747.556	16674.43
747.895	16676.24
748.234	16552.4
748.573	16506.76
748.911	16521.67
749.25	16513.31
749.589	16414.78
749.928	16407.32
750.267	16425.63
750.605	16329.58
750.944	16264.05
751.283	16277.38
751.621	16273.32
751.96	16189.02
752.298	16144.05
752.636	16208.01
752.975	16067.9
753.313	16017.95
753.651	16055.47
753.989	15909.71
754.327	15980.22
754.666	15903.61
