Data from foam_black_FLMS001491_00061.txt Node
Date: Wed Feb 08 10:44:23 GMT 2017
User: dcchb
Spectrometer: FLMS00149
Trigger mode: 0
Integration Time (sec): 2.000000E-2
Scans to average: 10
Electric dark correction enabled: true
Nonlinearity correction enabled: false
Boxcar width: 0
XAxis mode: Wavelengths
Number of Pixels in Spectrum: 2048
>>>>>Begin Spectral Data<<<<<
341.393	-6.24
341.776	-6.24
342.16	-6.24
342.543	-64.09
342.927	-67.48
343.31	-80.14
343.693	-82.4
344.077	-68.84
344.46	-64.32
344.843	-56.64
345.226	-51.67
345.61	-8.28
345.993	-23.42
346.376	0.76
346.759	17.26
347.142	24.04
347.525	62
347.908	52.74
348.291	79.18
348.674	85.73
349.057	113.98
349.44	152.85
349.823	149.01
350.206	169.8
350.588	202.79
350.971	194.2
351.354	181.77
351.737	216.8
352.119	223.81
352.502	252.51
352.884	242.56
353.267	264.71
353.65	246.63
354.032	280.53
354.414	279.4
354.797	288.21
355.179	310.59
355.562	286.86
355.944	287.99
356.326	316.46
356.709	316.23
357.091	306.07
357.473	312.84
357.855	325.27
358.238	321.21
358.62	341.77
359.002	317.82
359.384	319.4
359.766	332.73
360.148	329.79
360.53	323.69
360.912	321.43
361.294	320.75
361.676	337.25
362.057	300.42
362.439	336.57
362.821	319.17
363.203	312.62
363.584	311.94
363.966	294.31
364.348	306.52
364.729	310.81
365.111	290.02
365.493	299.96
365.874	299.06
366.256	294.54
366.637	287.08
367.019	304.03
367.4	302.45
367.781	294.09
368.163	279.17
368.544	306.97
368.925	300.19
369.306	310.36
369.688	301.32
370.069	311.26
370.45	297.93
370.831	317.59
371.212	290.92
371.593	292.28
371.974	296.12
372.355	302.68
372.736	303.81
373.117	292.05
373.498	308.33
373.879	296.57
374.26	286.4
374.641	296.8
375.021	300.19
375.402	295.44
375.783	315.56
376.163	289.79
376.544	314.88
376.925	300.87
377.305	316.46
377.686	288.21
378.066	310.59
378.447	308.78
378.827	312.84
379.208	301.32
379.588	319.4
379.968	316.01
380.349	301.09
380.729	333.41
381.109	312.39
381.489	317.14
381.87	308.78
382.25	294.99
382.63	322.34
383.01	312.84
383.39	324.37
383.77	330.7
384.15	326.4
384.53	331.15
384.91	323.01
385.29	315.56
385.67	323.47
386.049	353.75
386.429	340.41
386.809	329.34
387.189	328.66
387.568	316.46
387.948	349.91
388.328	338.38
388.707	325.5
389.087	322.56
389.466	344.71
389.846	331.83
390.225	338.61
390.605	338.15
390.984	342.22
391.363	313.52
391.743	337.03
392.122	352.17
392.501	341.54
392.881	331.15
393.26	347.42
393.639	352.84
394.018	354.65
394.397	337.03
394.776	337.48
395.155	346.52
395.534	345.84
395.913	350.13
396.292	349.91
396.671	354.43
397.05	347.42
397.429	335.44
397.808	362.34
398.186	358.27
398.565	377.93
398.944	357.14
399.323	368.66
399.701	355.78
400.08	367.98
400.458	362.34
400.837	376.8
401.215	372.28
401.594	354.43
401.972	368.66
402.351	374.99
402.729	350.58
403.107	386.29
403.486	401.2
403.864	389.23
404.242	351.94
404.62	386.06
404.999	382.67
405.377	371.37
405.755	379.06
406.133	386.52
406.511	364.59
406.889	385.84
407.267	386.06
407.645	379.51
408.023	389.91
408.401	395.33
408.779	390.36
409.156	403.69
409.534	394.2
409.912	391.03
410.29	397.14
410.667	405.72
411.045	391.03
411.422	423.8
411.8	398.94
412.178	422.22
412.555	402.11
412.933	404.14
413.31	408.66
413.687	401.66
414.065	412.73
414.442	400.98
414.819	409.79
415.197	437.81
415.574	431.03
415.951	440.53
416.328	434.2
416.705	422.22
417.082	428.32
417.46	419.96
417.837	439.85
418.214	449.34
418.591	454.31
418.967	420.86
419.344	462.67
419.721	457.25
420.098	435.55
420.475	447.76
420.852	436.91
421.228	444.82
421.605	483.91
421.982	460.41
422.358	449.56
422.735	472.16
423.111	460.86
423.488	464.25
423.864	473.29
424.241	470.81
424.617	483.91
424.994	457.47
425.37	487.98
425.746	490.92
426.123	462.22
426.499	480.52
426.875	492.95
427.251	490.24
427.627	493.18
428.003	506.74
428.379	492.73
428.756	487.98
429.132	489.34
429.507	519.85
429.883	502.9
430.259	520.98
430.635	524.36
431.011	511.03
431.387	524.59
431.763	506.29
432.138	533.86
432.514	520.98
432.89	532.05
433.265	565.72
433.641	544.48
434.016	540.64
434.392	560.52
434.767	570.92
435.143	562.33
435.518	552.61
435.894	568.43
436.269	560.97
436.644	571.37
437.02	570.47
437.395	562.78
437.77	593.74
438.145	580.18
438.52	589.67
438.895	597.81
439.271	573.4
439.646	607.75
440.021	598.71
440.395	622.89
440.77	596.45
441.145	619.96
441.52	600.29
441.895	601.88
442.27	617.7
442.645	627.41
443.019	626.96
443.394	607.3
443.769	624.7
444.143	626.51
444.518	623.12
444.892	649.11
445.267	626.51
445.641	635.77
446.016	649.11
446.39	641.88
446.764	636.9
447.139	637.58
447.513	666.51
447.887	631.71
448.262	644.36
448.636	652.72
449.01	642.1
449.384	666.51
449.758	658.82
450.132	664.25
450.506	684.13
450.88	664.25
451.254	675.32
451.628	663.34
452.002	696.34
452.376	694.53
452.75	712.16
453.123	720.74
453.497	714.87
453.871	699.5
454.244	726.62
454.618	713.51
454.992	716.45
455.365	750.35
455.739	755.32
456.112	736.34
456.486	751.48
456.859	788.76
457.232	752.38
457.606	772.72
457.979	783.79
458.352	783.12
458.725	755.55
459.099	777.24
459.472	794.19
459.845	795.32
460.218	817.46
460.591	792.83
460.964	805.26
461.337	806.17
461.71	859.05
462.083	852.27
462.456	813.85
462.829	833.74
463.201	849.33
463.574	870.12
463.947	870.12
464.32	887.52
464.692	869.21
465.065	910.57
465.438	870.57
465.81	903.34
466.183	917.35
466.555	938.59
466.928	907.41
467.3	928.42
467.672	933.85
468.045	938.14
468.417	975.2
468.789	981.08
469.161	954.41
469.534	961.64
469.906	1021.07
470.278	988.76
470.65	1004.58
471.022	1027.63
471.394	1048.19
471.766	1044.13
472.138	1045.48
472.51	1084.35
472.882	1090.9
473.253	1098.36
473.625	1088.87
473.997	1107.85
474.369	1106.27
474.74	1111.92
475.112	1154.18
475.484	1151.69
475.855	1155.31
476.227	1156.89
476.598	1184.23
476.97	1223.56
477.341	1247.74
477.713	1235.53
478.084	1238.02
478.455	1292.48
478.827	1278.92
479.198	1297.23
479.569	1304.46
479.94	1335.64
480.311	1330.67
480.682	1370.67
481.053	1398.01
481.424	1391.01
481.795	1429.88
482.166	1452.7
482.537	1432.82
482.908	1496.32
483.279	1483.44
483.65	1520.04
484.021	1536.54
484.391	1548.74
484.762	1563.66
485.133	1554.17
485.503	1579.93
485.874	1601.85
486.244	1603.43
486.615	1643.21
486.985	1673.94
487.356	1696.99
487.726	1708.97
488.097	1713.03
488.467	1714.62
488.837	1764.11
489.207	1779.7
489.578	1804.78
489.948	1810.88
490.318	1828.06
490.688	1847.72
491.058	1859.24
491.428	1874.16
491.798	1903.99
492.168	1936.53
492.538	1949.86
492.908	1971.11
493.278	2006.59
493.648	1957.77
494.017	1979.69
494.387	1999.35
494.757	2004.78
495.126	2047.04
495.496	2036.87
495.866	2081.39
496.235	2068.73
496.605	2083.87
496.974	2105.11
497.344	2083.65
497.713	2136.07
498.082	2154.15
498.452	2171.55
498.821	2173.81
499.19	2177.43
499.559	2167.94
499.928	2225.11
500.298	2213.59
500.667	2216.07
501.036	2226.47
501.405	2237.54
501.774	2252.68
502.143	2279.57
502.512	2336.97
502.88	2295.39
503.249	2309.4
503.618	2339.23
503.987	2335.39
504.356	2332.45
504.724	2360.02
505.093	2393.24
505.462	2374.94
505.83	2431.66
506.199	2436.63
506.567	2427.59
506.936	2453.35
507.304	2463.3
507.672	2463.07
508.041	2514.82
508.409	2513.69
508.777	2544.2
509.145	2582.84
509.514	2539.45
509.882	2592.33
510.25	2629.62
510.618	2595.04
510.986	2618.32
511.354	2640.69
511.722	2674.14
512.09	2677.08
512.458	2653.35
512.826	2676.4
513.193	2722.95
513.561	2695.83
513.929	2751.2
514.297	2742.39
514.664	2763.85
515.032	2795.27
515.4	2826.45
515.767	2797.75
516.135	2842.27
516.502	2821.71
516.869	2887.24
517.237	2906.67
517.604	2875.26
517.972	2927.01
518.339	2936.05
518.706	2921.82
519.073	2978.99
519.44	2972.21
519.808	3007.24
520.175	3038.87
520.542	3070.06
520.909	3087.24
521.276	3044.98
521.643	3088.14
522.009	3110.96
522.376	3133.34
522.743	3177.4
523.11	3216.27
523.477	3207.46
523.843	3211.53
524.21	3248.13
524.577	3274.12
524.943	3278.42
525.31	3332.43
525.676	3347.79
526.043	3359.32
526.409	3418.53
526.776	3432.99
527.142	3381.92
527.508	3434.34
527.874	3448.36
528.241	3496.49
528.607	3482.48
528.973	3531.97
529.339	3541.69
529.705	3566.32
530.071	3584.17
530.437	3580.56
530.803	3576.04
531.169	3601.57
531.535	3612.87
531.901	3671.85
532.267	3663.72
532.632	3700.33
532.998	3683.38
533.364	3706.2
533.73	3710.04
534.095	3752.53
534.461	3779.42
534.826	3795.24
535.192	3784.17
535.557	3800.44
535.923	3793.66
536.288	3842.7
536.653	3845.41
537.019	3872.3
537.384	3867.78
537.749	3893.32
538.114	3906.42
538.479	3911.62
538.845	3956.59
539.21	3923.6
539.575	3943.48
539.94	3946.87
540.305	3980.09
540.67	4026.19
541.034	4023.03
541.399	4029.58
541.764	4043.82
542.129	4048.57
542.494	4043.59
542.858	4049.7
543.223	4087.43
543.587	4089.92
543.952	4095.8
544.316	4136.93
544.681	4117.04
545.045	4115.46
545.41	4133.76
545.774	4174.21
546.138	4153.2
546.503	4177.38
546.867	4175.57
547.231	4221.22
547.595	4216.02
547.959	4243.59
548.324	4242.91
548.688	4294.89
549.052	4281.1
549.416	4318.62
549.779	4336.92
550.143	4349.8
550.507	4335.11
550.871	4383.02
551.235	4392.51
551.599	4468.22
551.962	4429.57
552.326	4456.01
552.689	4477.93
553.053	4497.14
553.417	4456.24
553.78	4530.59
554.143	4502.57
554.507	4594.77
554.87	4552.96
555.234	4624.14
555.597	4592.51
555.96	4588.44
556.323	4643.35
556.686	4590.7
557.05	4620.75
557.413	4660.75
557.776	4671.37
558.139	4675.44
558.502	4719.51
558.865	4734.65
559.228	4766.97
559.59	4777.36
559.953	4724.25
560.316	4838.83
560.679	4810.81
561.041	4827.53
561.404	4875.44
561.767	4906.62
562.129	4888.77
562.492	4952.27
562.854	4953.17
563.217	4968.77
563.579	5008.54
563.941	5029.56
564.304	5062.1
564.666	5093.06
565.028	5120.4
565.39	5098.26
565.753	5179.16
566.115	5170.8
566.477	5179.38
566.839	5177.58
567.201	5231.59
567.563	5280.17
567.925	5308.19
568.287	5291.92
568.648	5335.76
569.01	5341.87
569.372	5326.72
569.734	5371.92
570.095	5397
570.457	5426.61
570.819	5452.37
571.18	5481.3
571.542	5472.03
571.903	5428.42
572.265	5483.33
572.626	5495.31
572.987	5434.74
573.349	5479.49
573.71	5534.85
574.071	5551.13
574.432	5566.04
574.794	5606.27
575.155	5558.81
575.516	5547.74
575.877	5564.46
576.238	5600.39
576.599	5644.91
576.96	5648.75
577.32	5648.52
577.681	5692.36
578.042	5672.48
578.403	5712.25
578.763	5699.14
579.124	5707.05
579.485	5707.51
579.845	5747.96
580.206	5757.67
580.566	5749.99
580.927	5743.44
581.287	5814.17
581.648	5716.54
582.008	5739.59
582.368	5760.39
582.728	5796.77
583.089	5772.81
583.449	5819.14
583.809	5812.81
584.169	5828.41
584.529	5821.17
584.889	5848.52
585.249	5768.52
585.609	5824.79
585.969	5887.39
586.329	5879.48
586.688	5837.9
587.048	5842.19
587.408	5807.39
587.768	5799.93
588.127	5804.9
588.487	5786.37
588.846	5816.65
589.206	5782.31
589.565	5762.87
589.925	5759.48
590.284	5770.1
590.643	5795.19
591.003	5830.44
591.362	5838.35
591.721	5832.25
592.08	5778.69
592.44	5816.43
592.799	5821.17
593.158	5844.9
593.517	5807.16
593.876	5778.69
594.235	5814.17
594.593	5775.53
594.952	5760.16
595.311	5779.37
595.67	5816.65
596.029	5852.59
596.387	5867.05
596.746	5847.84
597.104	5842.42
597.463	5840.61
597.822	5905.47
598.18	5865.92
598.538	5837.22
598.897	5869.99
599.255	5859.14
599.613	5924.22
599.972	5863.43
600.33	5905.01
600.688	5904.56
601.046	5935.3
601.404	5938.01
601.762	5882.64
602.12	5948.63
602.478	5908.4
602.836	5943.66
603.194	5914.28
603.552	5902.53
603.91	5935.3
604.268	5858.69
604.625	5891.23
604.983	5966.48
605.341	5904.11
605.698	5969.65
606.056	5951.34
606.413	5901.85
606.771	5932.13
607.128	5898.91
607.485	5878.8
607.843	5900.04
608.2	5996.76
608.557	5968.29
608.914	5994.73
609.272	6003.32
609.629	5999.48
609.986	6050.55
610.343	5998.57
610.7	6048.97
611.057	5966.26
611.414	6001.96
611.771	5996.31
612.127	6007.38
612.484	6052.58
612.841	6078.34
613.198	6048.29
613.554	6041.51
613.911	6080.83
614.267	6074.73
614.624	6071.56
614.98	6082.41
615.337	6137.1
615.693	6138.45
616.05	6111.56
616.406	6134.39
616.762	6130.09
617.118	6118.79
617.475	6128.96
617.831	6180.26
618.187	6131.45
618.543	6168.51
618.899	6177.1
619.255	6192.92
619.611	6228.62
619.967	6189.07
620.323	6185.46
620.678	6200.15
621.034	6125.12
621.39	6128.74
621.746	6164.89
622.101	6194.27
622.457	6210.99
622.812	6187.49
623.168	6167.83
623.523	6186.36
623.879	6211.45
624.234	6162.41
624.589	6232.69
624.945	6218
625.3	6185.01
625.655	6166.02
626.01	6164.67
626.365	6182.97
626.72	6129.87
627.075	6171
627.43	6177.32
627.785	6190.2
628.14	6149.53
628.495	6165.57
628.85	6147.27
629.205	6100.26
629.559	6185.46
629.914	6137.55
630.269	6209.86
630.623	6111.34
630.978	6184.78
631.332	6229.53
631.687	6223.42
632.041	6180.49
632.396	6175.74
632.75	6092.58
633.104	6138
633.459	6159.02
633.813	6137.1
634.167	6085.35
634.521	6107.72
634.875	6109.98
635.229	6083.09
635.583	6059.13
635.937	6101.62
636.291	6082.41
636.645	6045.8
636.999	6069.3
637.352	6024.11
637.706	6040.15
638.06	6027.04
638.413	6097.78
638.767	6023.43
639.121	5980.04
639.474	5935.52
639.828	5959.25
640.181	5993.83
640.534	5960.61
640.888	5945.92
641.241	5949.53
641.594	5962.41
641.947	5926.71
642.301	5963.77
642.654	5915.64
643.007	5941.4
643.36	5903.21
643.713	5938.01
644.066	5930.78
644.419	5880.61
644.771	5859.82
645.124	5731.23
645.477	5715.64
645.83	5657.34
646.182	5663.89
646.535	5693.27
646.888	5764.68
647.24	5691.91
647.593	5747.5
647.945	5712.02
648.298	5697.11
648.65	5708.41
649.002	5656.66
649.355	5709.54
649.707	5712.02
650.059	5672.7
650.411	5748.63
650.763	5723.78
651.115	5844.68
651.467	5808.75
651.819	5827.28
652.171	5780.05
652.523	5810.78
652.875	5784.79
653.227	5804.9
653.578	5763.78
653.93	5811.23
654.282	5757.22
654.633	5807.84
654.985	5702.76
655.337	5679.26
655.688	5750.44
656.039	5752.7
656.391	5659.6
656.742	5683.1
657.094	5717
657.445	5689.65
657.796	5651.46
658.147	5646.94
658.498	5627.73
658.849	5696.21
659.2	5632.25
659.551	5647.62
659.902	5624.12
660.253	5663.66
660.604	5599.26
660.955	5624.57
661.306	5632.25
661.656	5614.4
662.007	5681.74
662.358	5652.37
662.708	5661.18
663.059	5641.07
663.409	5604.68
663.76	5648.75
664.11	5647.39
664.461	5629.54
664.811	5628.19
665.161	5583.67
665.511	5629.09
665.862	5621.41
666.212	5709.99
666.562	5641.29
666.912	5632.93
667.262	5638.13
667.612	5623.89
667.962	5678.58
668.312	5630.9
668.662	5659.82
669.011	5668.64
669.361	5599.94
669.711	5658.24
670.06	5588.64
670.41	5667.73
670.76	5616.89
671.109	5660.95
671.459	5585.02
671.808	5571.24
672.157	5653.04
672.507	5575.08
672.856	5612.82
673.205	5560.39
673.554	5578.02
673.904	5587.28
674.253	5578.02
674.602	5543.89
674.951	5493.05
675.3	5425.48
675.649	5507.06
675.998	5550.9
676.346	5543.89
676.695	5523.78
677.044	5500.05
677.393	5480.62
677.741	5431.58
678.09	5450.56
678.438	5456.66
678.787	5495.31
679.135	5493.95
679.484	5470
679.832	5463.9
680.181	5496.66
680.529	5432.94
680.877	5429.77
681.225	5411.02
681.573	5454.4
681.922	5377.8
682.27	5413.73
682.618	5405.14
682.966	5397
683.314	5413.28
683.661	5380.96
684.009	5368.76
684.357	5334.86
684.705	5375.76
685.053	5348.42
685.4	5325.37
685.748	5311.58
686.095	5356.1
686.443	5286.5
686.79	5288.76
687.138	5352.26
687.485	5309.32
687.832	5348.87
688.18	5319.94
688.527	5321.53
688.874	5291.25
689.221	5292.15
689.568	5291.02
689.915	5297.8
690.262	5233.17
690.609	5261.42
690.956	5271.13
691.303	5198.59
691.65	5233.39
691.997	5172.83
692.344	5188.65
692.69	5183
693.037	5158.14
693.383	5132.83
693.73	5114.3
694.077	5078.6
694.423	5054.42
694.769	5072.95
695.116	5064.36
695.462	5024.36
695.808	5011.48
696.155	5012.16
696.501	4968.09
696.847	4961.76
697.193	4905.72
697.539	4954.98
697.885	4889.9
698.231	4904.36
698.577	4859.84
698.923	4871.82
699.269	4860.75
699.614	4840.18
699.96	4806.96
700.306	4802.22
700.651	4778.26
700.997	4767.87
701.342	4771.26
701.688	4759.51
702.033	4747.53
702.379	4770.13
702.724	4691.94
703.069	4696.91
703.415	4685.39
703.76	4713.18
704.105	4688.78
704.45	4664.14
704.795	4629.57
705.14	4628.89
705.485	4693.07
705.83	4675.89
706.175	4683.8
706.52	4597.7
706.865	4599.29
707.209	4611.04
707.554	4578.5
707.899	4607.42
708.243	4612.62
708.588	4583.02
708.932	4540.08
709.277	4562.68
709.621	4562
709.966	4540.53
710.31	4576.24
710.654	4491.04
710.998	4454.66
711.342	4509.57
711.687	4499.18
712.031	4479.74
712.375	4499.18
712.719	4465.5
713.063	4493.75
713.407	4498.5
713.75	4465.5
714.094	4446.3
714.438	4432.51
714.782	4406.97
715.125	4348.9
715.469	4355
715.812	4364.26
716.156	4394.32
716.499	4363.59
716.843	4347.54
717.186	4357.94
717.53	4312.97
717.873	4335.11
718.216	4361.78
718.559	4289.46
718.902	4286.07
719.246	4270.93
719.589	4245.4
719.932	4254.66
720.275	4243.59
720.617	4254.21
720.96	4255.79
721.303	4209.01
721.646	4223.93
721.989	4211.27
722.331	4201.56
722.674	4241.33
723.016	4207.88
723.359	4167.21
723.701	4173.08
724.044	4133.99
724.386	4149.35
724.729	4138.73
725.071	4179.64
725.413	4126.53
725.755	4120.65
726.097	4126.76
726.439	4088.56
726.782	4102.8
727.124	4148.22
727.465	4076.36
727.807	4070.94
728.149	4103.03
728.491	4093.99
728.833	4107.1
729.175	4085.63
729.516	4064.16
729.858	4034.33
730.199	4123.82
730.541	4048.34
730.882	4058.51
731.224	4080.2
731.565	4019.87
731.906	4047.44
732.248	4046.76
732.589	4010.6
732.93	3986.87
733.271	4004.73
733.612	4060.32
733.953	4063.03
734.294	4017.15
734.635	4018.51
734.976	4040.88
735.317	3996.36
735.658	4054.89
735.999	4025.97
736.339	4029.13
736.68	4011.73
737.021	4007.44
737.361	4009.24
737.702	4005.4
738.042	4001.11
738.383	3991.39
738.723	3991.84
739.063	3967.66
739.404	4031.17
739.744	3942.81
740.084	3976.93
740.424	3959.08
740.764	3949.59
741.104	3981.67
741.444	3959.75
741.784	3912.3
742.124	3924.5
742.464	3903.94
742.804	3906.65
743.143	3854.45
743.483	3921.56
743.823	3877.04
744.162	3899.19
744.502	3859.19
744.841	3859.19
745.181	3831.62
745.52	3852.86
745.86	3825.97
746.199	3821.23
746.538	3797.73
746.877	3858.74
747.216	3845.86
747.556	3827.78
747.895	3760.44
748.234	3784.17
748.573	3800.21
748.911	3787.56
749.25	3740.55
749.589	3722.02
749.928	3717.05
750.267	3727.9
750.605	3685.19
750.944	3688.8
751.283	3683.6
751.621	3653.1
751.96	3684.73
752.298	3694.9
752.636	3689.93
752.975	3644.06
753.313	3628.46
753.651	3644.96
753.989	3621.46
754.327	3629.37
754.666	3626.66
755.004	3638.86
755.342	3654.68
755.679	3615.81
756.017	3619.2
756.355	3633.66
756.693	3588.24
757.031	3584.85
757.368	3574
757.706	3547.34
758.044	3628.46
758.381	3611.74
758.719	3620.1
759.056	3594.34
759.394	3559.09
759.731	3541.46
760.068	3600.44
760.405	3550.05
760.743	3573.55
761.08	3581.46
761.417	3566.77
761.754	3532.42
762.091	3567.45
762.428	3545.75
762.765	3476.38
763.102	3516.15
763.438	3551.63
763.775	3461.24
764.112	3475.93
764.449	3524.29
764.785	3480.9
765.122	3439.09
765.458	3430.95
765.795	3476.15
766.131	3432.54
766.467	3390.73
766.804	3386.21
767.14	3376.49
767.476	3411.97
767.812	3351.64
768.148	3371.52
768.485	3370.62
768.821	3313.22
769.157	3331.3
769.492	3309.6
769.828	3277.29
770.164	3259.89
770.5	3268.25
770.836	3255.37
771.171	3196.38
771.507	3215.14
771.842	3185.54
