Data from foam1_polythene_foam_FLMS001491_00029.txt Node
Date: Wed Feb 08 10:54:37 GMT 2017
User: dcchb
Spectrometer: FLMS00149
Trigger mode: 0
Integration Time (sec): 2.000000E-2
Scans to average: 10
Electric dark correction enabled: true
Nonlinearity correction enabled: false
Boxcar width: 0
XAxis mode: Wavelengths
Number of Pixels in Spectrum: 2048
>>>>>Begin Spectral Data<<<<<
341.393	-1.55
341.776	-1.55
342.16	-1.55
342.543	-56.47
342.927	-62.57
343.31	-76.81
343.693	-54.66
344.077	-58.73
344.46	-51.72
344.843	-58.95
345.226	-39.97
345.61	-8.79
345.993	-38.84
346.376	9.29
346.759	-4.94
347.142	40.25
347.525	33.25
347.908	66.92
348.291	70.53
348.674	69.63
349.057	103.53
349.44	127.93
349.823	119.12
350.206	141.49
350.588	191.44
350.971	207.48
351.354	223.75
351.737	239.8
352.119	234.37
352.502	230.98
352.884	253.13
353.267	288.83
353.65	267.14
354.032	294.94
354.414	268.5
354.797	305.78
355.179	275.28
355.562	309.4
355.944	294.03
356.326	285.9
356.709	299.91
357.091	318.66
357.473	307.14
357.855	306.23
358.238	315.95
358.62	305.78
359.002	316.4
359.384	318.66
359.766	340.58
360.148	291.77
360.53	319.57
360.912	318.44
361.294	298.78
361.676	309.17
362.057	300.36
362.439	293.35
362.821	309.4
363.203	315.5
363.584	310.98
363.966	323.18
364.348	303.98
364.729	309.62
365.111	304.43
365.493	289.29
365.874	306.23
366.256	286.35
366.637	295.39
367.019	292.22
367.4	292
367.781	303.52
368.163	284.99
368.544	300.59
368.925	293.58
369.306	303.52
369.688	312.34
370.069	312.56
370.45	313.47
370.831	313.92
371.212	296.52
371.593	300.59
371.974	280.47
372.355	289.29
372.736	288.38
373.117	304.88
373.498	297.87
373.879	295.61
374.26	315.95
374.641	292.68
375.021	335.39
375.402	293.13
375.783	282.96
376.163	306.23
376.544	314.82
376.925	308.95
377.305	316.63
377.686	343.75
378.066	318.44
378.447	326.12
378.827	308.49
379.208	324.54
379.588	288.38
379.968	313.69
380.349	313.01
380.729	308.49
381.109	319.34
381.489	323.86
381.87	312.56
382.25	302.62
382.63	327.25
383.01	322.73
383.39	319.79
383.77	320.02
384.15	329.06
384.53	329.51
384.91	339.23
385.29	333.13
385.67	328.38
386.049	339.23
386.429	344.2
386.809	325.22
387.189	329.29
387.568	337.19
387.948	340.36
388.328	329.96
388.707	344.43
389.087	332.67
389.466	342.62
389.846	361.83
390.225	345.56
390.605	346.46
390.984	351.66
391.363	333.58
391.743	324.31
392.122	335.61
392.501	358.66
392.881	358.44
393.26	346.23
393.639	387.59
394.018	352.11
394.397	366.8
394.776	368.38
395.155	340.58
395.534	355.95
395.913	350.75
396.292	356.63
396.671	364.31
397.05	376.29
397.429	376.29
397.808	379.91
398.186	375.16
398.565	370.64
398.944	381.49
399.323	376.52
399.701	353.01
400.08	382.17
400.458	373.35
400.837	393.24
401.215	392.33
401.594	386.46
401.972	386.68
402.351	411.99
402.729	384.65
403.107	383.75
403.486	415.84
403.864	422.39
404.242	395.72
404.62	419.9
404.999	396.4
405.377	415.84
405.755	414.93
406.133	408.15
406.511	426.23
406.889	396.4
407.267	409.51
407.645	405.67
408.023	419.68
408.401	434.37
408.779	434.14
409.156	424.65
409.534	422.62
409.912	440.47
410.29	442.5
410.667	418.55
411.045	420.13
411.422	457.42
411.8	441.6
412.178	447.93
412.555	442.95
412.933	452.67
413.31	453.8
413.687	468.72
414.065	481.6
414.442	474.37
414.819	471.65
415.197	499.68
415.574	480.24
415.951	497.19
416.328	502.61
416.705	479.34
417.082	490.18
417.46	483.86
417.837	485.67
418.214	493.8
418.591	502.61
418.967	486.12
419.344	507.36
419.721	491.54
420.098	489.28
420.475	517.98
420.852	492.44
421.228	532.44
421.605	512.78
421.982	529.51
422.358	545.32
422.735	513.01
423.111	518.43
423.488	528.6
423.864	538.09
424.241	534.25
424.617	548.26
424.994	539
425.37	573.12
425.746	566.79
426.123	586.91
426.499	563.4
426.875	562.27
427.251	575.61
427.627	555.72
428.003	562.27
428.379	570.18
428.756	586.68
429.132	572.89
429.507	604.76
429.883	595.27
430.259	601.82
430.635	598.88
431.011	631.88
431.387	625.1
431.763	645.21
432.138	648.6
432.514	668.26
432.89	659.9
433.265	647.92
433.641	660.58
434.016	650.18
434.392	667.81
434.767	674.36
435.143	681.82
435.518	694.93
435.894	677.75
436.269	700.8
436.644	707.13
437.02	719.56
437.395	729.5
437.77	750.74
438.145	742.38
438.52	724.3
438.895	756.39
439.271	736.51
439.646	760.23
440.021	789.16
440.395	784.41
440.77	757.97
441.145	774.7
441.52	792.78
441.895	802.94
442.27	819.89
442.645	794.36
443.019	825.77
443.394	824.64
443.769	830.51
444.143	813.57
444.518	844.98
444.892	844.07
445.267	841.59
445.641	871.42
446.016	841.59
446.39	889.5
446.764	882.72
447.139	884.98
447.513	876.62
447.887	898.99
448.262	887.24
448.636	907.8
449.01	884.3
449.384	940.34
449.758	949.61
450.132	936.05
450.506	928.14
450.88	934.69
451.254	922.94
451.628	949.61
452.002	958.87
452.376	967.01
452.75	982.83
453.123	980.12
453.497	980.12
453.871	1000.68
454.244	1019.66
454.618	1011.75
454.992	1037.52
455.365	1022.6
455.739	1028.25
456.112	1038.42
456.486	1062.37
456.859	1056.95
457.232	1063.05
457.606	1053.56
457.979	1089.72
458.352	1107.8
458.725	1089.94
459.099	1109.83
459.472	1122.03
459.845	1129.04
460.218	1143.95
460.591	1138.98
460.964	1139.43
461.337	1170.84
461.71	1178.53
462.083	1161.13
462.456	1204.97
462.829	1199.77
463.201	1222.59
463.574	1212.65
463.947	1202.71
464.32	1251.75
464.692	1270.73
465.065	1237.06
465.438	1268.7
465.81	1290.84
466.183	1269.6
466.555	1313.21
466.928	1335.13
467.3	1364.51
467.672	1327
468.045	1362.7
468.417	1367.68
468.789	1371.74
469.161	1389.6
469.534	1417.39
469.906	1433.66
470.278	1458.29
470.65	1453.1
471.022	1470.05
471.394	1488.12
471.766	1505.75
472.138	1511.85
472.51	1522.7
472.882	1557.5
473.253	1562.25
473.625	1607.22
473.997	1628.91
474.369	1605.64
474.74	1656.03
475.112	1640.44
475.484	1695.58
475.855	1720.21
476.227	1705.07
476.598	1762.02
476.97	1792.3
477.341	1811.51
477.713	1833.88
478.084	1831.17
478.455	1885.85
478.827	1904.84
479.198	1954.33
479.569	1970.37
479.94	1978.73
480.311	2019.41
480.682	2042.01
481.053	2068.22
481.424	2099.41
481.795	2088.33
482.166	2192.29
482.537	2158.39
482.908	2202.68
483.279	2233.64
483.65	2291.27
484.021	2326.52
484.391	2361.77
484.762	2364.94
485.133	2356.12
485.503	2411.26
485.874	2467.08
486.244	2458.04
486.615	2522
486.985	2520.87
487.356	2598.83
487.726	2573.29
488.097	2688.77
488.467	2661.43
488.837	2690.58
489.207	2746.85
489.578	2802.44
489.948	2801.31
490.318	2855.55
490.688	2818.94
491.058	2886.96
491.428	2966.28
491.798	2948.88
492.168	2994.53
492.538	3014.19
492.908	3060.96
493.278	3100.06
493.648	3081.08
494.017	3099.83
494.387	3143.9
494.757	3182.54
495.126	3227.29
495.496	3211.7
495.866	3243.33
496.235	3324.23
496.605	3337.79
496.974	3325.14
497.344	3378.47
497.713	3412.59
498.082	3391.8
498.452	3493.72
498.821	3478.35
499.19	3484.23
499.559	3521.97
499.928	3603.55
500.298	3598.35
500.667	3601.52
501.036	3606.94
501.405	3625.7
501.774	3697.78
502.143	3677.9
502.512	3709.54
502.88	3763.55
503.249	3752.47
503.618	3778.23
503.987	3825.46
504.356	3840.38
504.724	3876.31
505.093	3875.41
505.462	3884.9
505.83	3895.07
506.199	3928.06
506.567	3970.32
506.936	4046.02
507.304	4047.38
507.672	4051
508.041	4077.89
508.409	4122.86
508.777	4112.69
509.145	4192.01
509.514	4199.24
509.882	4206.7
510.25	4263.64
510.618	4257.54
510.986	4259.35
511.354	4301.61
511.722	4374.83
512.09	4393.81
512.458	4407.14
512.826	4428.16
513.193	4446.01
513.561	4510.64
513.929	4550.42
514.297	4544.09
514.664	4589.51
515.032	4638.32
515.4	4675.39
515.767	4695.05
516.135	4761.48
516.502	4720.58
516.869	4818.43
517.237	4774.59
517.604	4787.47
517.972	4925.32
518.339	4885.78
518.706	4882.84
519.073	4944.53
519.44	4917.19
519.808	5026.79
520.175	5051.65
520.542	5057.07
520.909	5132.32
521.276	5120.8
521.643	5210.96
522.009	5262.71
522.376	5285.54
522.743	5303.39
523.11	5391.07
523.477	5422.71
523.843	5427.68
524.21	5489.6
524.577	5528.24
524.943	5592.88
525.31	5534.57
525.676	5625.42
526.043	5676.26
526.409	5737.05
526.776	5721.23
527.142	5783.38
527.508	5847.56
527.874	5901.34
528.241	5888.91
528.607	5891.85
528.973	5938.4
529.339	5949.02
529.705	6020.21
530.071	6099.3
530.437	6090.72
530.803	6160.77
531.169	6158.74
531.535	6203.71
531.901	6153.31
532.267	6201.22
532.632	6268.34
532.998	6288.68
533.364	6340.2
533.73	6342.69
534.095	6392.18
534.461	6416.36
534.826	6435.34
535.192	6506.75
535.557	6524.15
535.923	6544.49
536.288	6557.14
536.653	6598.95
537.019	6610.7
537.384	6608.44
537.749	6651.83
538.114	6671.72
538.479	6634.88
538.845	6753.52
539.21	6747.42
539.575	6732.28
539.94	6806.63
540.305	6836.68
540.67	6827.65
541.034	6859.96
541.399	6934.08
541.764	6910.58
542.129	6894.54
542.494	6891.6
542.858	7019.28
543.223	7042.55
543.587	7057.02
543.952	7026.74
544.316	7112.16
544.681	7133.85
545.045	7140.18
545.41	7136.11
545.774	7221.31
546.138	7183.79
546.503	7177.24
546.867	7193.29
547.231	7270.35
547.595	7284.36
547.959	7359.38
548.324	7309.21
548.688	7299.05
549.052	7379.04
549.416	7362.09
549.779	7396.9
550.143	7419.49
550.507	7461.3
550.871	7501.3
551.235	7419.95
551.599	7598.25
551.962	7602.54
552.326	7612.71
552.689	7661.97
553.053	7638.47
553.417	7728.41
553.78	7751.24
554.143	7734.97
554.507	7722.09
554.87	7753.72
555.234	7865.13
555.597	7858.58
555.96	7905.81
556.323	7908.75
556.686	7956.43
557.05	8027.84
557.413	8073.71
557.776	8002.53
558.139	8120.49
558.502	8060.83
558.865	8089.99
559.228	8098.57
559.59	8217.89
559.953	8176.31
560.316	8230.77
560.679	8315.52
561.041	8367.72
561.404	8434.38
561.767	8440.03
562.129	8379.47
562.492	8520.26
562.854	8531.78
563.217	8472.35
563.579	8552.8
563.941	8622.17
564.304	8691.78
564.666	8684.55
565.028	8776.52
565.39	8756.63
565.753	8735.84
566.115	8848.84
566.477	8856.29
566.839	8843.19
567.201	8983.75
567.563	8985.55
567.925	9053.12
568.287	9078.66
568.648	9091.99
569.01	9151.43
569.372	9092.67
569.734	9169.05
570.095	9240.69
570.457	9206.34
570.819	9229.39
571.18	9224.64
571.542	9302.16
571.903	9341.93
572.265	9350.74
572.626	9362.95
572.987	9310.07
573.349	9476.39
573.71	9509.38
574.071	9511.42
574.432	9530.63
574.794	9621.02
575.155	9535.14
575.516	9526.33
575.877	9615.14
576.238	9608.14
576.599	9729.49
576.96	9703.28
577.32	9692.65
577.681	9708.25
578.042	9751.64
578.403	9690.17
578.763	9726.78
579.124	9745.76
579.485	9795.25
579.845	9788.02
580.206	9796.61
580.566	9804.97
580.927	9812.65
581.287	9857.17
581.648	9816.49
582.008	9870.96
582.368	9864.4
582.728	9887
583.089	9780.11
583.449	9857.85
583.809	9821.01
584.169	9865.53
584.529	9897.62
584.889	9898.75
585.249	9833.22
585.609	9830.5
585.969	9923.16
586.329	9878.64
586.688	9884.74
587.048	9931.74
587.408	9836.61
587.768	9837.06
588.127	9853.78
588.487	9880.9
588.846	9928.81
589.206	9891.07
589.565	9882.71
589.925	9915.47
590.284	9898.3
590.643	9898.3
591.003	9952.99
591.362	9921.12
591.721	9910.05
592.08	9947.11
592.44	9910.5
592.799	9945.3
593.158	9903.95
593.517	10015.58
593.876	9938.07
594.235	9936.49
594.593	9885.64
594.952	9980.56
595.311	9969.26
595.67	10011.97
596.029	9966.77
596.387	10016.26
596.746	9990.05
597.104	9978.07
597.463	9959.31
597.822	10010.16
598.18	9992.31
598.538	9980.33
598.897	10027.11
599.255	9974
599.613	10079.09
599.972	9964.29
600.33	10075.24
600.688	9967.9
601.046	10084.28
601.404	10092.42
601.762	10085.86
602.12	10089.03
602.478	10083.83
602.836	10082.7
603.194	10085.19
603.552	10061.23
603.91	9998.86
604.268	10102.59
604.625	10101.91
604.983	10099.42
605.341	10054.23
605.698	10076.6
606.056	10095.13
606.413	10082.93
606.771	10142.13
607.128	10237.05
607.485	10181.91
607.843	10108.46
608.2	10246.76
608.557	10232.3
608.914	10194.11
609.272	10212.42
609.629	10304.16
609.986	10320.66
610.343	10259.87
610.7	10315.01
611.057	10295.8
611.414	10296.93
611.771	10318.4
612.127	10357.72
612.484	10278.4
612.841	10412.86
613.198	10297.38
613.554	10394.11
613.911	10387.55
614.267	10403.37
614.624	10342.13
614.98	10331.28
615.337	10450.15
615.693	10430.94
616.05	10324.73
616.406	10400.66
616.762	10404.27
617.118	10429.36
617.475	10420.32
617.831	10483.59
618.187	10441.11
618.543	10407.66
618.899	10493.99
619.255	10520.2
619.611	10441.34
619.967	10483.14
620.323	10523.82
620.678	10506.19
621.034	10387.55
621.39	10448.34
621.746	10481.33
622.101	10525.4
622.457	10411.28
622.812	10483.37
623.168	10438.17
623.523	10515.46
623.879	10548.45
624.234	10427.78
624.589	10506.64
624.945	10473.43
625.3	10466.19
625.655	10492.41
626.01	10513.88
626.365	10475.01
626.72	10484.5
627.075	10431.62
627.43	10445.86
627.785	10436.59
628.14	10477.72
628.495	10440.43
628.85	10429.58
629.205	10393.65
629.559	10475.91
629.914	10415.8
630.269	10404.95
630.623	10395.24
630.978	10437.04
631.332	10407.89
631.687	10440.21
632.041	10339.87
632.396	10322.92
632.75	10258.06
633.104	10297.38
633.459	10221.23
633.813	10272.3
634.167	10255.13
634.521	10220.78
634.875	10256.26
635.229	10207.22
635.583	10164.96
635.937	10193.43
636.291	10168.57
636.645	10132.19
636.999	10162.25
637.352	10113.21
637.706	10132.64
638.06	10218.29
638.413	10172.42
638.767	10145.98
639.121	10161.12
639.474	9994.34
639.828	10075.02
640.181	10047
640.534	10046.09
640.888	10014.91
641.241	9978.75
641.594	10012.42
641.947	9955.02
642.301	9928.58
642.654	9977.17
643.007	10015.81
643.36	9976.26
643.713	9942.59
644.066	9964.96
644.419	9944.63
644.771	9837.74
645.124	9740.34
645.477	9722.48
645.83	9694.01
646.182	9690.39
646.535	9557.74
646.888	9607.01
647.24	9526.33
647.593	9569.72
647.945	9565.88
648.298	9440.23
648.65	9491.53
649.002	9419.67
649.355	9472.77
649.707	9518.42
650.059	9498.76
650.411	9680.9
650.763	9582.6
651.115	9782.37
651.467	9676.16
651.819	9689.27
652.171	9693.56
652.523	9590.51
652.875	9573.34
653.227	9596.16
653.578	9694.46
653.93	9651.3
654.282	9578.53
654.633	9518.42
654.985	9509.16
655.337	9640
655.688	9557.07
656.039	9601.13
656.391	9517.74
656.742	9528.82
657.094	9497.86
657.445	9499.89
657.796	9558.87
658.147	9552.32
658.498	9510.06
658.849	9503.06
659.2	9461.02
659.551	9448.59
659.902	9433
660.253	9484.07
660.604	9420.8
660.955	9375.15
661.306	9443.17
661.656	9417.18
662.007	9450.4
662.358	9418.99
662.708	9417.18
663.059	9368.14
663.409	9362.04
663.76	9347.58
664.11	9323.62
664.461	9357.07
664.811	9409.5
665.161	9368.37
665.511	9331.31
665.862	9339.44
666.212	9372.44
666.562	9351.65
666.912	9274.13
667.262	9313.91
667.612	9270.07
667.962	9360.01
668.312	9230.52
668.662	9360.46
669.011	9282.5
669.361	9259.67
669.711	9253.57
670.06	9206.11
670.41	9264.19
670.76	9229.84
671.109	9253.8
671.459	9248.37
671.808	9152.33
672.157	9249.28
672.507	9104.65
672.856	9094.7
673.205	9213.12
673.554	9186.91
673.904	9150.3
674.253	9186
674.602	9156.85
674.951	9022.16
675.3	8965.67
675.649	9091.54
675.998	9085.44
676.346	9161.6
676.695	9177.64
677.044	9084.99
677.393	9081.82
677.741	9173.35
678.09	9039.11
678.438	9066.91
678.787	9069.17
679.135	9093.35
679.484	9021.26
679.832	8996.18
680.181	9042.73
680.529	8986.01
680.877	9040.02
681.225	8966.35
681.573	8990.3
681.922	8912.11
682.27	8975.16
682.618	8943.97
682.966	8920.92
683.314	8928.16
683.661	8908.49
684.009	8895.16
684.357	8853.58
684.705	8802.73
685.053	8941.71
685.4	8855.84
685.748	8736.52
686.095	8809.97
686.443	8795.28
686.79	8744.88
687.138	8755.28
687.485	8689.97
687.832	8735.84
688.18	8734.04
688.527	8615.62
688.874	8640.48
689.221	8620.82
689.568	8597.54
689.915	8531.78
690.262	8551.22
690.609	8559.35
690.956	8491.78
691.303	8498.34
691.65	8452.46
691.997	8401.39
692.344	8382.41
692.69	8361.62
693.037	8342.18
693.383	8376.76
693.73	8341.05
694.077	8278.91
694.423	8227.16
694.769	8240.94
695.116	8212.47
695.462	8201.62
695.808	8165.46
696.155	8137.67
696.501	8149.64
696.847	8134.5
697.193	8118.91
697.539	8078.01
697.885	8040.27
698.231	8053.6
698.577	8019.7
698.923	8017.22
699.269	7955.53
699.614	7852.7
699.96	7882.76
700.306	7873.04
700.651	7911.91
700.997	7833.49
701.342	7875.53
701.688	7867.17
702.033	7765.47
702.379	7788.75
702.724	7818.35
703.069	7767.96
703.415	7691.35
703.76	7699.26
704.105	7657.45
704.45	7692.03
704.795	7647.74
705.14	7591.24
705.485	7597.57
705.83	7584.91
706.175	7583.33
706.52	7572.03
706.865	7563.45
707.209	7488.19
707.554	7491.81
707.899	7549.21
708.243	7461.3
708.588	7465.37
708.932	7381.08
709.277	7414.75
709.621	7377.91
709.966	7363.22
710.31	7391.25
710.654	7279.38
710.998	7334.98
711.342	7313.28
711.687	7297.01
712.031	7268.54
712.375	7196.9
712.719	7257.69
713.063	7287.75
713.407	7296.33
713.75	7199.39
714.094	7236.45
714.438	7203.91
714.782	7242.32
715.125	7176.34
715.469	7185.38
715.812	7139.28
716.156	7080.07
716.499	7091.59
716.843	7119.62
717.186	7081.88
717.53	7104.02
717.873	7087.98
718.216	7058.6
718.559	7034.87
718.902	6955.78
719.246	7001.2
719.589	6932.5
719.932	6948.09
720.275	7033.29
720.617	6976.12
720.96	6996.23
721.303	6952.84
721.646	6935.89
721.989	6938.15
722.331	6934.31
722.674	6866.06
723.016	6911.26
723.359	6846.63
723.701	6840.3
724.044	6853.18
724.386	6796.69
724.729	6865.61
725.071	6840.53
725.413	6788.32
725.755	6774.09
726.097	6725.95
726.439	6716.69
726.782	6730.47
727.124	6780.41
727.465	6722.79
727.807	6702.45
728.149	6679.63
728.491	6618.16
728.833	6664.94
729.175	6653.19
729.516	6655.22
729.858	6660.42
730.199	6629.91
730.541	6605.05
730.882	6625.62
731.224	6584.04
731.565	6546.75
731.906	6519.18
732.248	6542.91
732.589	6501.33
732.93	6475.79
733.271	6488.45
733.612	6507.43
733.953	6538.61
734.294	6529.57
734.635	6502.46
734.976	6502
735.317	6451.16
735.658	6466.07
735.999	6443.25
736.339	6396.47
736.68	6429.24
737.021	6343.14
737.361	6379.3
737.702	6415.23
738.042	6373.87
738.383	6441.21
738.723	6360.99
739.063	6363.48
739.404	6422.46
739.744	6350.82
740.084	6350.14
740.424	6333.2
740.764	6274.21
741.104	6337.94
741.444	6216.59
741.784	6250.49
742.124	6311.05
742.464	6250.49
742.804	6227.66
743.143	6195.57
743.483	6244.61
743.823	6203.48
744.162	6236.25
744.502	6189.7
744.841	6215.68
745.181	6211.16
745.52	6176.36
745.86	6179.53
746.199	6088.68
746.538	6129.36
746.877	6221.33
747.216	6189.24
747.556	6159.87
747.895	6183.37
748.234	6071.28
748.573	6104.05
748.911	6092.3
749.25	6066.31
749.589	6044.16
749.928	6041.68
750.267	6042.36
750.605	6071.73
750.944	6076.48
751.283	6055.01
751.621	5994.67
751.96	5979.98
752.298	5976.59
752.636	6022.02
752.975	5949.25
753.313	5949.48
753.651	5966.65
753.989	5897.95
754.327	5915.8
754.666	5878.74
755.004	5843.04
755.342	5860.89
755.679	5856.37
756.017	5858.86
756.355	5830.84
756.693	5788.58
757.031	5801.46
757.368	5755.13
757.706	5810.72
758.044	5737.5
758.381	5763.72
758.719	5734.34
759.056	5768.92
759.394	5746.77
759.731	5704.29
760.068	5682.14
760.405	5711.29
760.743	5626.77
761.08	5665.87
761.417	5582.25
761.754	5573.22
762.091	5582.25
762.428	5574.12
762.765	5537.06
763.102	5592.2
763.438	5514.69
763.775	5461.13
764.112	5470.39
764.449	5506.55
764.785	5471.97
765.122	5465.87
765.458	5443.5
765.795	5359.21
766.131	5391.75
766.467	5409.15
766.804	5351.3
767.14	5358.98
767.476	5352.88
767.812	5280.79
768.148	5255.03
