Data from foam1_polythene_foam_FLMS001491_00072.txt Node
Date: Wed Feb 08 10:55:21 GMT 2017
User: dcchb
Spectrometer: FLMS00149
Trigger mode: 0
Integration Time (sec): 2.000000E-2
Scans to average: 10
Electric dark correction enabled: true
Nonlinearity correction enabled: false
Boxcar width: 0
XAxis mode: Wavelengths
Number of Pixels in Spectrum: 2048
>>>>>Begin Spectral Data<<<<<
341.393	-3.5
341.776	-3.5
342.16	-3.5
342.543	-55.7
342.927	-63.16
343.31	-57.06
343.693	-65.65
344.077	-67.91
344.46	-66.55
344.843	-65.2
345.226	-40.34
345.61	-12.77
345.993	-10.06
346.376	3.73
346.759	-0.34
347.142	20.9
347.525	35.14
347.908	62.48
348.291	65.87
348.674	97.51
349.057	100.22
349.44	123.73
349.823	145.65
350.206	142.03
350.588	183.16
350.971	208.92
351.354	225.87
351.737	224.29
352.119	226.32
352.502	240.56
352.884	257.96
353.267	257.51
353.65	252.08
354.032	297.73
354.414	295.92
354.797	312.87
355.179	330.05
355.562	299.31
355.944	294.79
356.326	302.7
356.709	306.09
357.091	318.52
357.473	330.05
357.855	328.01
358.238	330.5
358.62	349.93
359.002	325.08
359.384	321.23
359.766	330.95
360.148	323.04
360.53	330.95
360.912	319.65
361.294	344.06
361.676	333.89
362.057	319.65
362.439	293.21
362.821	313.1
363.203	307
363.584	307
363.966	322.36
364.348	302.7
364.729	335.02
365.111	311.74
365.493	312.42
365.874	324.62
366.256	313.33
366.637	312.42
367.019	322.59
367.4	299.77
367.781	292.99
368.163	284.17
368.544	315.58
368.925	311.52
369.306	314.46
369.688	302.48
370.069	326.88
370.45	299.09
370.831	296.15
371.212	284.17
371.593	306.32
371.974	316.94
372.355	321.91
372.736	310.61
373.117	318.97
373.498	298.41
373.879	317.39
374.26	314
374.641	299.77
375.021	311.29
375.402	324.62
375.783	310.39
376.163	327.11
376.544	317.17
376.925	315.81
377.305	311.29
377.686	325.3
378.066	332.99
378.447	317.17
378.827	342.02
379.208	310.84
379.588	334.57
379.968	331.18
380.349	329.37
380.729	332.76
381.109	346.32
381.489	343.61
381.87	344.28
382.25	331.18
382.63	350.61
383.01	325.3
383.39	326.88
383.77	340.44
384.15	361.23
384.53	351.06
384.91	358.07
385.29	348.35
385.67	351.52
386.049	373.66
386.429	360.1
386.809	344.74
387.189	356.04
387.568	359.2
387.948	377.5
388.328	349.71
388.707	341.57
389.087	363.72
389.466	363.95
389.846	381.12
390.225	375.24
390.605	387.9
390.984	378.86
391.363	350.61
391.743	372.08
392.122	384.74
392.501	405.07
392.881	384.28
393.26	395.81
393.639	417.73
394.018	409.37
394.397	425.41
394.776	430.16
395.155	413.89
395.534	386.77
395.913	396.71
396.292	399.65
396.671	412.08
397.05	434.68
397.429	418.63
397.808	401.91
398.186	432.19
398.565	403.27
398.944	438.75
399.323	438.75
399.701	427.22
400.08	437.84
400.458	426.99
400.837	430.38
401.215	450.95
401.594	433.1
401.972	432.42
402.351	465.19
402.729	456.6
403.107	450.72
403.486	470.84
403.864	461.12
404.242	466.77
404.62	476.03
404.999	476.26
405.377	473.55
405.755	464.51
406.133	479.2
406.511	478.29
406.889	497.5
407.267	497.28
407.645	475.58
408.023	490.72
408.401	502.92
408.779	494.34
409.156	523.26
409.534	516.48
409.912	517.61
410.29	536.14
410.667	524.84
411.045	532.3
411.422	540.21
411.8	536.6
412.178	540.89
412.555	531.62
412.933	557.39
413.31	563.26
413.687	549.93
414.065	566.88
414.442	573.21
414.819	565.07
415.197	583.37
415.574	588.35
415.951	595.13
416.328	592.87
416.705	602.58
417.082	617.95
417.46	603.26
417.837	600.55
418.214	606.65
418.591	613.43
418.967	642.36
419.344	622.47
419.721	631.28
420.098	649.81
420.475	647.55
420.852	645.29
421.228	664.73
421.605	650.49
421.982	683.94
422.358	664.28
422.735	685.97
423.111	669.93
423.488	684.84
423.864	687.55
424.241	713.31
424.617	714.44
424.994	710.15
425.37	690.26
425.746	735.23
426.123	720.55
426.499	737.95
426.875	756.7
427.251	752.64
427.627	749.7
428.003	740.88
428.379	778.85
428.756	788.34
429.132	775.01
429.507	789.02
429.883	772.07
430.259	818.17
430.635	798.06
431.011	816.81
431.387	831.05
431.763	854.78
432.138	858.85
432.514	870.37
432.89	868.34
433.265	874.44
433.641	917.38
434.016	914.21
434.392	908.34
434.767	901.33
435.143	920.77
435.518	946.3
435.894	930.03
436.269	943.59
436.644	987.88
437.02	943.82
437.395	960.09
437.77	987.66
438.145	1001.44
438.52	1008.9
438.895	1029.01
439.271	1014.55
439.646	1053.19
440.021	1039.18
440.395	1092.29
440.77	1076.02
441.145	1082.8
441.52	1087.54
441.895	1087.32
442.27	1118.73
442.645	1130.25
443.019	1127.77
443.394	1119.63
443.769	1145.62
444.143	1158.5
444.518	1159.86
444.892	1161.44
445.267	1189.69
445.641	1192.4
446.016	1164.38
446.39	1201.44
446.764	1230.14
447.139	1215
447.513	1250.93
447.887	1244.15
448.262	1245.73
448.636	1258.16
449.01	1242.57
449.384	1273.3
449.758	1285.05
450.132	1297.93
450.506	1321.66
450.88	1310.81
451.254	1337.48
451.628	1346.29
452.002	1344.48
452.376	1350.36
452.75	1381.55
453.123	1390.58
453.497	1404.14
453.871	1427.19
454.244	1431.04
454.618	1441.66
454.992	1465.39
455.365	1504.48
455.739	1499.28
456.112	1486.85
456.486	1501.77
456.859	1506.29
457.232	1565.27
457.606	1572.73
457.979	1591.03
458.352	1587.42
458.725	1609.34
459.099	1601.2
459.472	1607.75
459.845	1655.21
460.218	1647.98
460.591	1689.11
460.964	1672.16
461.337	1720.52
461.71	1739.95
462.083	1776.56
462.456	1765.94
462.829	1780.18
463.201	1779.95
463.574	1803
463.947	1850.01
464.32	1881.65
464.692	1924.81
465.065	1893.85
465.438	1916.9
465.81	1957.35
466.183	1920.97
466.555	1965.94
466.928	1996.22
467.3	1985.15
467.672	2048.19
468.045	2084.58
468.417	2048.87
468.789	2099.72
469.161	2160.51
469.534	2140.17
469.906	2186.27
470.278	2180.17
470.65	2227.4
471.022	2274.63
471.394	2334.51
471.766	2349.2
472.138	2349.88
472.51	2416.55
472.882	2438.01
473.253	2440.95
473.625	2491.12
473.997	2510.56
474.369	2512.36
474.74	2550.1
475.112	2631.23
475.484	2638.46
475.855	2692.25
476.227	2738.12
476.598	2816.54
476.97	2797.1
477.341	2869.42
477.713	2826.93
478.084	2896.76
478.455	2978.11
478.827	2984.22
479.198	3110.99
479.569	3074.38
479.94	3185.57
480.311	3173.81
480.682	3275.51
481.053	3331.55
481.424	3407.48
481.795	3413.13
482.166	3463.07
482.537	3537.87
482.908	3573.8
483.279	3594.82
483.65	3687.02
484.021	3762.73
484.391	3809.28
484.762	3817.64
485.133	3853.35
485.503	3897.86
485.874	3984.87
486.244	4019.44
486.615	4139.67
486.985	4175.6
487.356	4212.66
487.726	4271.87
488.097	4357.96
488.467	4403.84
488.837	4459.88
489.207	4515.47
489.578	4562.93
489.948	4586.21
490.318	4705.75
490.688	4709.14
491.058	4785.07
491.428	4832.98
491.798	4895.13
492.168	4981.9
492.538	4955.91
492.908	5071.84
493.278	5062.13
493.648	5194.33
494.017	5215.57
494.387	5264.16
494.757	5289.69
495.126	5360.65
495.496	5341.89
495.866	5390.71
496.235	5418.73
496.605	5512.96
496.974	5549.12
497.344	5589.12
497.713	5634.99
498.082	5709.34
498.452	5779.62
498.821	5788.89
499.19	5793.18
499.559	5911.82
499.928	5936.68
500.298	5963.35
500.667	6015.1
501.036	6015.55
501.405	6118.82
501.774	6136.45
502.143	6217.12
502.512	6204.47
502.88	6245.15
503.249	6258.71
503.618	6306.16
503.987	6316.78
504.356	6365.6
504.724	6436.55
505.093	6471.36
505.462	6543.9
505.83	6579.15
506.199	6660.73
506.567	6710.9
506.936	6723.55
507.304	6789.99
507.672	6810.33
508.041	6827.73
508.409	6868.63
508.777	6942.76
509.145	7061.62
509.514	7094.84
509.882	7105.46
510.25	7107.04
510.618	7204.44
510.986	7235.63
511.354	7328.06
511.722	7389.52
512.09	7403.31
512.458	7404.66
512.826	7503.19
513.193	7544.55
513.561	7554.26
513.929	7696.63
514.297	7766.01
514.664	7826.8
515.032	7878.78
515.4	7955.84
515.767	7955.84
516.135	7988.6
516.502	7927.81
516.869	8048.04
517.237	8176.62
517.604	8201.48
517.972	8265.88
518.339	8324.87
518.706	8415.71
519.073	8361.7
519.44	8424.07
519.808	8517.4
520.175	8529.38
520.542	8672.43
520.909	8737.96
521.276	8694.12
521.643	8856.6
522.009	8908.58
522.376	9100.66
522.743	9137.73
523.11	9097.95
523.477	9229.47
523.843	9311.51
524.21	9402.58
524.577	9412.52
524.943	9433.31
525.31	9517.83
525.676	9707.88
526.043	9760.08
526.409	9767.77
526.776	9914.65
527.142	9902.45
527.508	9926.63
527.874	10010.02
528.241	10070.13
528.607	10119.62
528.973	10201.2
529.339	10227.64
529.705	10334.76
530.071	10419.27
530.437	10458.6
530.803	10529.33
531.169	10606.16
531.535	10604.81
531.901	10672.83
532.267	10703.79
532.632	10773.84
532.998	10868.98
533.364	10822.2
533.73	10923.67
534.095	10997.11
534.461	10984.46
534.826	11144.68
535.192	11185.13
535.557	11277.1
535.923	11278.69
536.288	11273.71
536.653	11369.98
537.019	11333.83
537.384	11381.06
537.749	11467.16
538.114	11449.76
538.479	11536.76
538.845	11585.8
539.21	11576.31
539.575	11635.51
539.94	11675.29
540.305	11776.3
540.67	11788.96
541.034	11806.58
541.399	11869.86
541.764	11830.31
542.129	11948.73
542.494	11953.02
542.858	12042.96
543.223	12090.42
543.587	12171.54
543.952	12127.25
544.316	12161.83
544.681	12327.92
545.045	12256.29
545.41	12343.29
545.774	12387.36
546.138	12326.57
546.503	12341.94
546.867	12464.87
547.231	12494.93
547.595	12588.71
547.959	12639.1
548.324	12715.26
548.688	12672.32
549.052	12689.95
549.416	12720.91
549.779	12868.02
550.143	12802.49
550.507	12954.57
550.871	12961.58
551.235	12923.61
551.599	13016.72
551.962	13094.46
552.326	13190.5
552.689	13199.99
553.053	13198.41
553.417	13240.44
553.78	13439.76
554.143	13340.33
554.507	13379.42
554.87	13526.99
555.234	13529.25
555.597	13624.84
555.96	13631.84
556.323	13664.39
556.686	13780.32
557.05	13881.33
557.413	13854.66
557.776	13900.54
558.139	13922.68
558.502	13927.2
558.865	14021.67
559.228	14172.17
559.59	14146.18
559.953	14245.84
560.316	14305.73
560.679	14386.63
561.041	14523.8
561.404	14485.16
561.767	14584.14
562.129	14545.49
562.492	14696.22
562.854	14716.34
563.217	14662.55
563.579	14794.07
563.941	14858.25
564.304	14940.96
564.666	15019.61
565.028	15042.2
565.39	15179.6
565.753	15216.21
566.115	15242.65
566.477	15357.45
566.839	15374.85
567.201	15425.47
567.563	15467.28
567.925	15575.97
568.287	15672.47
568.648	15681.28
569.01	15718.34
569.372	15920.37
569.734	15833.14
570.095	16013.93
570.457	16035.17
570.819	16001.5
571.18	16078.56
571.542	16182.74
571.903	16079.46
572.265	16176.64
572.626	16234.49
572.987	16211.89
573.349	16325.79
573.71	16413.47
574.071	16451.66
574.432	16499.11
574.794	16636.29
575.155	16565.1
575.516	16614.59
575.877	16688.71
576.238	16725.1
576.599	16693.91
576.96	16788.15
577.32	16737.75
577.681	16747.02
578.042	16810.74
578.403	16846.45
578.763	16811.42
579.124	16984.75
579.485	17053.68
579.845	16988.59
580.206	16989.72
580.566	17033.34
580.927	17086.9
581.287	17052.55
581.648	17050.74
582.008	17081.25
582.368	17030.63
582.728	17092.77
583.089	17156.5
583.449	17117.85
583.809	17136.61
584.169	17205.76
584.529	17177.06
584.889	17289.83
585.249	17244.18
585.609	17202.82
585.969	17179.1
586.329	17149.49
586.688	17176.61
587.048	17142.04
587.408	17180.68
587.768	17148.81
588.127	17131.19
588.487	17190.85
588.846	17296.83
589.206	17160.11
589.565	17158.98
589.925	17307.68
590.284	17259.77
590.643	17256.38
591.003	17298.19
591.362	17290.28
591.721	17158.76
592.08	17147.46
592.44	17221.58
592.799	17266.78
593.158	17267.68
593.517	17299.77
593.876	17229.26
594.235	17347
594.593	17267.23
594.952	17310.62
595.311	17284.4
595.67	17292.77
596.029	17387
596.387	17431.52
596.746	17357.4
597.104	17409.6
597.463	17375.02
597.822	17401.01
598.18	17392.65
598.538	17340.22
598.897	17432.65
599.255	17317.62
599.613	17642.81
599.972	17344.29
600.33	17510.84
600.688	17432.2
601.046	17495.02
601.404	17582.25
601.762	17455.7
602.12	17489.82
602.478	17593.55
602.836	17572.76
603.194	17489.37
603.552	17547.22
603.91	17562.82
604.268	17590.61
604.625	17509.94
604.983	17631.97
605.341	17563.27
605.698	17699.08
606.056	17698.63
606.413	17649.14
606.771	17649.59
607.128	17844.39
607.485	17755.13
607.843	17692.76
608.2	17730.72
608.557	17882.81
608.914	17755.13
609.272	17861.56
609.629	17882.35
609.986	17985.63
610.343	17754.9
610.7	17939.75
611.057	18002.13
611.414	18036.25
611.771	17957.83
612.127	18011.16
612.484	18063.37
612.841	18126.87
613.198	17955.8
613.554	17968.91
613.911	18142.01
614.267	18051.84
614.624	18010.03
614.98	18089.58
615.337	18332.74
615.693	18100.43
616.05	18104.5
616.406	18189.01
616.762	18145.4
617.118	18065.17
617.475	18231.72
617.831	18104.27
618.187	18274.66
618.543	18249.8
618.899	18427.65
619.255	18344.04
619.611	18393.98
619.967	18393.08
620.323	18427.43
620.678	18303.59
621.034	18298.39
621.39	18209.58
621.746	18352.62
622.101	18513.98
622.457	18230.82
622.812	18430.59
623.168	18262.23
623.523	18315.34
623.879	18399.86
624.234	18348.78
624.589	18312.85
624.945	18300.42
625.3	18415.9
625.655	18370.48
626.01	18396.01
626.365	18401.66
626.72	18386.07
627.075	18343.59
627.43	18361.44
627.785	18243.7
628.14	18364.38
628.495	18377.26
628.85	18323.25
629.205	18261.1
629.559	18325.51
629.914	18183.36
630.269	18269.24
630.623	18188.56
630.978	18147.66
631.332	18278.28
631.687	18266.98
632.041	18171.84
632.396	18129.81
632.75	18130.94
633.104	18081.45
633.459	18084.16
633.813	17978.4
634.167	17926.87
634.521	18035.8
634.875	18055.91
635.229	18036.93
635.583	17910.83
635.937	17850.27
636.291	17883.26
636.645	17862.47
636.999	17862.69
637.352	17907.89
637.706	17857.72
638.06	17862.92
638.413	17814.56
638.767	17756.26
639.121	17775.24
639.474	17684.62
639.828	17611.85
640.181	17640.33
640.534	17574.57
640.888	17534.79
641.241	17489.14
641.594	17492.08
641.947	17511.74
642.301	17636.03
642.654	17463.16
643.007	17596.03
643.36	17563.49
643.713	17448.02
644.066	17477.39
644.419	17355.36
644.771	17386.32
645.124	17187.46
645.477	17197.4
645.83	17112.43
646.182	16961.93
646.535	16863.4
646.888	16734.36
647.24	16642.39
647.593	16747.7
647.945	16573.69
648.298	16590.86
648.65	16543.41
649.002	16587.25
649.355	16702.05
649.707	16654.36
650.059	16818.43
650.411	17005.09
650.763	16994.92
651.115	17135.03
651.467	17087.57
651.819	17043.73
652.171	16969.16
652.523	16938.42
652.875	16901.36
653.227	16807.81
653.578	16881.25
653.93	16813.46
654.282	16675.61
654.633	16702.95
654.985	16838.77
655.337	16724.42
655.688	16748.15
656.039	16901.59
656.391	16723.06
656.742	16850.52
657.094	16833.79
657.445	16852.1
657.796	16741.82
658.147	16692.1
658.498	16635.61
658.849	16607.59
659.2	16714.7
659.551	16598.77
659.902	16705.89
660.253	16664.76
660.604	16631.31
660.955	16480.36
661.306	16579.11
661.656	16463.86
662.007	16522.16
662.358	16524.88
662.708	16544.99
663.059	16581.6
663.409	16427.48
663.76	16549.06
664.11	16492.56
664.461	16635.61
664.811	16563.07
665.161	16497.76
665.511	16361.26
665.862	16425.44
666.212	16446.46
666.562	16429.74
666.912	16305.9
667.262	16353.58
667.612	16415.5
667.962	16305.22
668.312	16323.53
668.662	16446.01
669.011	16467.02
669.361	16436.74
669.711	16340.93
670.06	16423.86
670.41	16361.26
670.76	16421.38
671.109	16457.08
671.459	16462.73
671.808	16352.45
672.157	16352.68
672.507	16256.18
672.856	16224.77
673.205	16243.98
673.554	16296.18
673.904	16145.23
674.253	16256.86
674.602	16100.48
674.951	15902.52
675.3	15818.91
675.649	16168.28
675.998	16155.62
676.346	16115.85
676.695	16205.56
677.044	16116.3
677.393	16143.42
677.741	16143.87
678.09	16099.35
678.438	16016.64
678.787	16025.91
679.135	16047.15
679.484	15989.3
679.832	16022.97
680.181	15806.48
680.529	15839.24
680.877	15874.5
681.225	15843.76
681.573	15900.94
681.922	15723.99
682.27	15620.72
682.618	15763.09
682.966	15768.06
683.314	15774.84
683.661	15669.98
684.009	15662.75
684.357	15711.34
684.705	15547.05
685.053	15646.03
685.4	15592.47
685.748	15581.17
686.095	15566.26
686.443	15460.72
686.79	15462.76
687.138	15468.63
687.485	15441.06
687.832	15391.8
688.18	15284
688.527	15170.34
688.874	15269.77
689.221	15202.88
689.568	15135.31
689.915	15098.93
690.262	15105.48
690.609	15106.16
690.956	14953.62
691.303	14977.12
691.65	15015.09
691.997	14910.91
692.344	14895.77
692.69	14969.89
693.037	14938.25
693.383	14743.23
693.73	14839.04
694.077	14786.62
694.423	14766.05
694.769	14686.05
695.116	14575.1
695.462	14532.39
695.808	14491.94
696.155	14456.91
696.501	14303.24
696.847	14352.73
697.193	14211.26
697.539	14324.48
697.885	14177.82
698.231	14207.65
698.577	14168.33
698.923	14145.05
699.269	14074.77
699.614	14160.19
699.96	14027.54
700.306	14091.72
700.651	14043.59
700.997	14009.24
701.342	14101.89
701.688	13941.89
702.033	13884.04
702.379	13783.25
702.724	13803.37
703.069	13893.31
703.415	13606.08
703.76	13618.29
704.105	13616.7
704.45	13604.5
704.795	13526.99
705.14	13446.77
705.485	13492.87
705.83	13371.74
706.175	13462.81
706.52	13343.04
706.865	13412.42
707.209	13379.42
707.554	13284.96
707.899	13349.82
708.243	13315.7
708.588	13276.6
708.932	13214.23
709.277	13183.27
709.621	13198.18
709.966	13052.65
710.31	13151.86
710.654	12897.85
710.998	13034.12
711.342	12947.12
711.687	12849.72
712.031	12798.42
712.375	12743.05
712.719	12782.38
713.063	12712.32
713.407	12760.46
713.75	12689.04
714.094	12739.21
714.438	12667.12
714.782	12704.86
715.125	12629.39
715.469	12661.93
715.812	12593.91
716.156	12596.84
716.499	12626.45
716.843	12616.05
717.186	12572.44
717.53	12629.84
717.873	12547.58
718.216	12463.06
718.559	12382.39
718.902	12339.45
719.246	12384.87
719.589	12269.62
719.932	12188.72
720.275	12155.5
720.617	12174.26
720.96	12132.22
721.303	12164.31
721.646	12182.39
721.989	12117.76
722.331	12085.9
722.674	12096.29
723.016	12181.49
723.359	12169.28
723.701	12166.35
724.044	12118.66
724.386	12070.53
724.729	12109.4
725.071	12060.81
725.413	12045.9
725.755	12002.74
726.097	11954.15
726.439	11898.56
726.782	11896.98
727.124	11891.33
727.465	11739.47
727.807	11781.05
728.149	11791.22
728.491	11639.81
728.833	11673.93
729.175	11552.58
729.516	11613.59
729.858	11611.11
730.199	11642.29
730.541	11651.56
730.882	11616.53
731.224	11724.78
731.565	11621.73
731.906	11658.11
732.248	11660.6
732.589	11603.2
732.93	11532.47
733.271	11638.9
733.612	11588.28
733.953	11549.87
734.294	11509.19
734.635	11377.21
734.976	11450.43
735.317	11371.57
735.658	11350.32
735.999	11345.35
736.339	11294.51
736.68	11294.96
737.021	11202.76
737.361	11195.98
737.702	11235.98
738.042	11214.06
738.383	11187.84
738.723	11229.65
739.063	11222.64
739.404	11220.83
739.744	11294.96
740.084	11191.01
740.424	11218.12
740.764	11170.21
741.104	11214.06
741.444	11163.21
741.784	11122.76
742.124	11167.5
742.464	11091.57
742.804	11028.07
743.143	11021.74
743.483	11016.77
743.823	10927.28
744.162	10846.83
744.502	10867.62
744.841	10834.4
745.181	10832.82
745.52	10788.3
745.86	10795.08
746.199	10773.84
746.538	10876.44
746.877	10801.86
747.216	10841.41
747.556	10750.79
747.895	10876.89
748.234	10694.75
748.573	10762.09
748.911	10771.81
749.25	10683.45
749.589	10706.5
749.928	10672.83
750.267	10659.72
750.605	10694.07
750.944	10635.31
751.283	10589.89
751.621	10532.94
751.96	10523.9
752.298	10521.42
752.636	10429.44
752.975	10398.48
753.313	10401.87
753.651	10385.83
753.989	10348.09
754.327	10213.4
754.666	10236.23
755.004	10287.53
755.342	10266.28
755.679	10285.04
756.017	10241.88
756.355	10311.25
756.693	10276.68
