Data from foam_black_FLMS001491_00014.txt Node
Date: Wed Feb 08 10:43:35 GMT 2017
User: dcchb
Spectrometer: FLMS00149
Trigger mode: 0
Integration Time (sec): 2.000000E-2
Scans to average: 10
Electric dark correction enabled: true
Nonlinearity correction enabled: false
Boxcar width: 0
XAxis mode: Wavelengths
Number of Pixels in Spectrum: 2048
>>>>>Begin Spectral Data<<<<<
341.393	-14.01
341.776	-14.01
342.16	-14.01
342.543	-48.36
342.927	-57.4
343.31	-72.99
343.693	-71.64
344.077	-70.28
344.46	-59.66
344.843	-49.26
345.226	-36.38
345.61	-24.41
345.993	-27.34
346.376	-7.68
346.759	9.94
347.142	22.6
347.525	44.74
347.908	70.96
348.291	74.35
348.674	77.96
349.057	119.09
349.44	118.87
349.823	144.63
350.206	159.77
350.588	190.96
350.971	195.02
351.354	199.77
351.737	226.43
352.119	232.76
352.502	252.2
352.884	270.28
353.267	265.3
353.65	275.92
354.032	306.66
354.414	285.19
354.797	304.62
355.179	326.09
355.562	310.05
355.944	316.15
356.326	313.89
356.709	318.64
357.091	317.28
357.473	345.3
357.855	341.23
358.238	339.88
358.62	328.35
359.002	348.47
359.384	319.54
359.766	343.49
360.148	343.04
360.53	339.43
360.912	332.87
361.294	319.31
361.676	339.2
362.057	345.75
362.439	317.73
362.821	307.56
363.203	316.83
363.584	320.67
363.966	330.61
364.348	326.32
364.729	303.04
365.111	318.41
365.493	331.74
365.874	316.38
366.256	306.21
366.637	312.99
367.019	301.01
367.4	311.63
367.781	309.82
368.163	328.58
368.544	325.64
368.925	310.27
369.306	317.28
369.688	319.99
370.069	322.7
370.45	333.1
370.831	331.74
371.212	320.22
371.593	310.27
371.974	320.44
372.355	315.7
372.736	325.19
373.117	311.63
373.498	313.89
373.879	331.52
374.26	320.44
374.641	333.78
375.021	329.93
375.402	327
375.783	320.67
376.163	325.19
376.544	331.97
376.925	367.67
377.305	359.09
377.686	344.17
378.066	342.14
378.447	347.56
378.827	324.29
379.208	353.21
379.588	353.44
379.968	333.1
380.349	348.69
380.729	337.84
381.109	339.65
381.489	354.34
381.87	341.91
382.25	372.19
382.63	364.74
383.01	355.47
383.39	373.32
383.77	374.68
384.15	346.43
384.53	370.16
384.91	380.78
385.29	374
385.67	364.06
386.049	389.37
386.429	390.05
386.809	358.41
387.189	384.85
387.568	380.1
387.948	392.08
388.328	377.84
388.707	369.93
389.087	384.62
389.466	398.18
389.846	391.85
390.225	406.09
390.605	358.18
390.984	386.66
391.363	418.29
391.743	409.03
392.122	409.71
392.501	397.5
392.881	423.27
393.26	403.15
393.639	411.97
394.018	399.99
394.397	442.7
394.776	406.32
395.155	417.62
395.534	425.07
395.913	430.5
396.292	445.19
396.671	452.42
397.05	416.26
397.429	456.49
397.808	435.47
398.186	438.41
398.565	430.72
398.944	435.24
399.323	451.97
399.701	456.71
400.08	432.08
400.458	444.51
400.837	448.12
401.215	450.16
401.594	470.04
401.972	453.1
402.351	473.66
402.729	464.17
403.107	490.83
403.486	463.49
403.864	452.64
404.242	480.44
404.62	481.57
404.999	499.87
405.377	493.09
405.755	486.54
406.133	480.89
406.511	481.57
406.889	492.42
407.267	492.64
407.645	496.03
408.023	540.55
408.401	529.48
408.779	514.34
409.156	527.67
409.534	538.06
409.912	547.33
410.29	528.57
410.667	519.08
411.045	537.61
411.422	525.18
411.8	540.1
412.178	562.25
412.555	571.96
412.933	550.27
413.31	592.53
413.687	565.63
414.065	561.57
414.442	575.13
414.819	574
415.197	587.33
415.574	595.46
415.951	573.32
416.328	593.43
416.705	621.9
417.082	583.94
417.46	611.96
417.837	643.37
418.214	638.4
418.591	608.57
418.967	625.75
419.344	616.03
419.721	633.2
420.098	623.26
420.475	630.49
420.852	663.03
421.228	664.39
421.605	655.58
421.982	667.33
422.358	679.98
422.735	658.97
423.111	653.54
423.488	678.63
423.864	685.41
424.241	689.7
424.617	718.17
424.994	693.32
425.37	693.77
425.746	705.74
426.123	700.09
426.499	715.01
426.875	701
427.251	724.73
427.627	737.61
428.003	767.89
428.379	748.91
428.756	758.62
429.132	764.5
429.507	785.29
429.883	800.88
430.259	772.86
430.635	794.56
431.011	807.21
431.387	802.24
431.763	822.35
432.138	829.81
432.514	825.52
432.89	806.31
433.265	831.16
433.641	853.99
434.016	868.23
434.392	877.49
434.767	894.67
435.143	845.18
435.518	912.97
435.894	897.38
436.269	914.55
436.644	950.94
437.02	927.89
437.395	916.13
437.77	950.94
438.145	955
438.52	954.55
438.895	938.28
439.271	963.36
439.646	977.83
440.021	970.37
440.395	977.83
440.77	962.69
441.145	987.09
441.52	1018.05
441.895	1022.57
442.27	994.1
442.645	1019.18
443.019	1032.97
443.394	1006.3
443.769	1025.06
444.143	1039.75
444.518	1055.79
444.892	1060.99
445.267	1059.41
445.641	1067.99
446.016	1064.15
446.39	1095.79
446.764	1067.32
447.139	1104.83
447.513	1072.06
447.887	1088.78
448.262	1098.95
448.636	1097.6
449.01	1109.12
449.384	1107.99
449.758	1107.09
450.132	1117.71
450.506	1136.69
450.88	1115.45
451.254	1132.85
451.628	1155.9
452.002	1173.98
452.376	1189.8
452.75	1195.45
453.123	1202.23
453.497	1188.67
453.871	1222.79
454.244	1242.23
454.618	1250.59
454.992	1280.42
455.365	1274.32
455.739	1289.46
456.112	1296.24
456.486	1314.99
456.859	1319.29
457.232	1320.87
457.606	1342.11
457.979	1382.34
458.352	1358.83
458.725	1378.95
459.099	1420.98
459.472	1425.95
459.845	1426.4
460.218	1417.82
460.591	1468.66
460.964	1463.46
461.337	1501.88
461.71	1522.22
462.083	1527.19
462.456	1519.06
462.829	1496.68
463.201	1584.14
463.574	1572.61
463.947	1576.23
464.32	1606.51
464.692	1627.75
465.065	1629.56
465.438	1639.73
465.81	1678.37
466.183	1685.38
466.555	1723.12
466.928	1754.98
467.3	1714.31
467.672	1779.39
468.045	1784.59
468.417	1798.6
468.789	1830.46
469.161	1850.57
469.534	1882.21
469.906	1903.68
470.278	1900.29
470.65	1909.78
471.022	1939.38
471.394	1973.06
471.766	1994.07
472.138	2043.56
472.51	2064.13
472.882	2071.13
473.253	2102.77
473.625	2102.54
473.997	2164.69
474.369	2198.81
474.74	2188.42
475.112	2239.49
475.484	2270
475.855	2325.36
476.227	2320.39
476.598	2350.22
476.97	2409.2
477.341	2429.54
477.713	2497.79
478.084	2482.42
478.455	2556.09
478.827	2539.37
479.198	2636.99
479.569	2622.53
479.94	2711.34
480.311	2702.75
480.682	2760.61
481.053	2837.89
481.424	2878.34
481.795	2904.56
482.166	2948.85
482.537	2965.35
482.908	3039.24
483.279	3036.76
483.65	3100.03
484.021	3161.72
484.391	3180.26
484.762	3223.42
485.133	3226.58
485.503	3298.9
485.874	3335.51
486.244	3402.62
486.615	3466.8
486.985	3485.78
487.356	3533.69
487.726	3540.92
488.097	3632.9
488.467	3609.4
488.837	3697.53
489.207	3747.92
489.578	3776.17
489.948	3778.43
490.318	3865.21
490.688	3896.85
491.058	3944.98
491.428	4004.87
491.798	4017.75
492.168	4100.01
492.538	4100.68
492.908	4179.55
493.278	4264.75
493.648	4213.67
494.017	4281.7
494.387	4335.25
494.757	4364.18
495.126	4403.5
495.496	4401.01
495.866	4413.22
496.235	4471.29
496.605	4523.27
496.974	4535.47
497.344	4615.02
497.713	4615.7
498.082	4678.52
498.452	4685.07
498.821	4711.06
499.19	4730.72
499.559	4811.85
499.928	4822.47
500.298	4823.15
500.667	4890.94
501.036	4856.14
501.405	4894.33
501.774	4924.39
502.143	4989.02
502.512	5022.92
502.88	5091.17
503.249	5075.57
503.618	5100.88
503.987	5100.43
504.356	5167.1
504.724	5165.51
505.093	5195.8
505.462	5195.57
505.83	5316.92
506.199	5367.54
506.567	5400.31
506.936	5369.58
507.304	5451.61
507.672	5440.76
508.041	5521.66
508.409	5515.79
508.777	5600.98
509.145	5663.58
509.514	5683.01
509.882	5736.12
510.25	5710.36
510.618	5697.48
510.986	5752.84
511.354	5835.33
511.722	5822.67
512.09	5863.35
512.458	5888.21
512.826	5953.06
513.193	6000.52
513.561	6108.99
513.929	6112.61
514.297	6125.26
514.664	6128.88
515.032	6228.54
515.4	6232.38
515.767	6279.16
516.135	6289.55
516.502	6357.12
516.869	6420.62
517.237	6423.56
517.604	6441.19
517.972	6556.89
518.339	6602.76
518.706	6610.22
519.073	6686.15
519.44	6734.29
519.808	6831.68
520.175	6834.17
520.542	6913.04
520.909	6924.56
521.276	6967.95
521.643	7014.96
522.009	7042.75
522.376	7074.39
522.743	7125.91
523.11	7188.06
523.477	7244.33
523.843	7306.02
524.21	7372.24
524.577	7391.67
524.943	7452.69
525.31	7461.05
525.676	7579.69
526.043	7620.59
526.409	7638.67
526.776	7750.98
527.142	7732.9
527.508	7851.77
527.874	7957.53
528.241	7926.12
528.607	8037.75
528.973	8101.93
529.339	8110.75
529.705	8210.86
530.071	8298.99
530.437	8345.09
530.803	8356.84
531.169	8454.92
531.535	8451.08
531.901	8519.1
532.267	8552.54
532.632	8597.06
532.998	8610.85
533.364	8656.5
533.73	8702.37
534.095	8691.3
534.461	8726.32
534.826	8744.85
535.192	8774.01
535.557	8850.84
535.923	8822.14
536.288	8911.4
536.653	8880.22
537.019	8911.86
537.384	8981.01
537.749	9007.45
538.114	9044.51
538.479	9100.33
538.845	9206.76
539.21	9181.45
539.575	9265.29
539.94	9303.48
540.305	9384.39
540.67	9322.01
541.034	9444.95
541.399	9467.1
541.764	9562.46
542.129	9589.58
542.494	9594.78
542.858	9665.51
543.223	9670.93
543.587	9743.47
543.952	9731.95
544.316	9794.77
544.681	9764.94
545.045	9755.68
545.41	9766.3
545.774	9868.67
546.138	9797.26
546.503	9911.83
546.867	9804.26
547.231	9929.46
547.595	10030.7
547.959	10069.57
548.324	10055.55
548.688	10095.1
549.052	10132.39
549.416	10097.14
549.779	10177.13
550.143	10208.32
550.507	10349.11
550.871	10392.27
551.235	10360.63
551.599	10522.44
551.962	10506.62
552.326	10666.61
552.689	10654.64
553.053	10629.78
553.417	10675.2
553.78	10843.56
554.143	10838.81
554.507	10870.45
554.87	10909.09
555.234	10932.14
555.597	10801.75
555.96	10973.95
556.323	11027.73
556.686	10990.45
557.05	11100.05
557.413	11147.5
557.776	11147.28
558.139	11222.98
558.502	11196.54
558.865	11226.6
559.228	11338.23
559.59	11385.92
559.953	11435.86
560.316	11585.46
560.679	11610.99
561.041	11674.72
561.404	11735.06
561.767	11882.85
562.129	11787.26
562.492	11954.26
562.854	11912.68
563.217	11965.34
563.579	12055.05
563.941	12102.73
564.304	12266.34
564.666	12275.38
565.028	12265.21
565.39	12379.56
565.753	12473.57
566.115	12524.19
566.477	12567.81
566.839	12604.87
567.201	12654.36
567.563	12752.89
567.925	12754.24
568.287	12804.41
568.648	12885.31
569.01	12895.93
569.372	12932.32
569.734	12987.68
570.095	13135.7
570.457	13062.03
570.819	13157.85
571.18	13166.89
571.542	13219.77
571.903	13267.9
572.265	13336.37
572.626	13335.24
572.987	13401.68
573.349	13378.63
573.71	13474
574.071	13536.59
574.432	13607.33
574.794	13714.44
575.155	13722.35
575.516	13607.78
575.877	13732.07
576.238	13756.7
576.599	13805.51
576.96	13765.97
577.32	13821.78
577.681	13889.8
578.042	13922.8
578.403	13936.58
578.763	14068.33
579.124	14017.03
579.485	14092.06
579.845	14154.66
580.206	14145.84
580.566	14173.19
580.927	14156.24
581.287	14200.3
581.648	14203.24
582.008	14252.73
582.368	14274.65
582.728	14211.83
583.089	14323.01
583.449	14201.43
583.809	14226.74
584.169	14245.28
584.529	14268.55
584.889	14334.76
585.249	14217.71
585.609	14151.04
585.969	14282.79
586.329	14200.53
586.688	14189.23
587.048	14259.06
587.408	14249.79
587.768	14214.54
588.127	14246.18
588.487	14121.21
588.846	14319.62
589.206	14186.75
589.565	14199.4
589.925	14256.8
590.284	14249.12
590.643	14313.07
591.003	14301.54
591.362	14288.66
591.721	14368.66
592.08	14345.61
592.44	14400.53
592.799	14452.28
593.158	14463.12
593.517	14444.59
593.876	14464.03
594.235	14581.54
594.593	14561.88
594.952	14544.7
595.311	14567.98
595.67	14514.19
596.029	14657.24
596.387	14651.37
596.746	14637.81
597.104	14550.58
597.463	14581.54
597.822	14735.66
598.18	14647.98
598.538	14588.09
598.897	14732.95
599.255	14578.6
599.613	14767.3
599.972	14714.19
600.33	14698.37
600.688	14680.07
601.046	14640.29
601.404	14766.17
601.762	14610.46
602.12	14716.22
602.478	14669.44
602.836	14619.28
603.194	14741.53
603.552	14607.98
603.91	14519.62
604.268	14716.45
604.625	14657.69
604.983	14705.83
605.341	14623.34
605.698	14825.82
606.056	14797.35
606.413	14770.69
606.771	14813.85
607.128	14960.96
607.485	14868.31
607.843	14905.82
608.2	14969.78
608.557	15000.51
608.914	15009.32
609.272	15015.88
609.629	15129.77
609.986	15170.45
610.343	15133.39
610.7	15231.24
611.057	15093.16
611.414	15201.63
611.771	15199.6
612.127	15242.99
612.484	15319.6
612.841	15279.37
613.198	15201.18
613.554	15268.98
613.911	15257
614.267	15270.78
614.624	15295.42
614.98	15290.67
615.337	15425.81
615.693	15317.11
616.05	15328.86
616.406	15426.94
616.762	15348.52
617.118	15332.7
617.475	15259.94
617.831	15362.31
618.187	15329.09
618.543	15392.14
618.899	15441.18
619.255	15434.85
619.611	15451.12
619.967	15483.89
620.323	15506.71
620.678	15474.4
621.034	15495.64
621.39	15516.65
621.746	15417.9
622.101	15724.11
622.457	15615.86
622.812	15536.31
623.168	15621.96
623.523	15699.25
623.879	15763.2
624.234	15693.6
624.589	15725.69
624.945	15760.94
625.3	15755.97
625.655	15712.13
626.01	15772.47
626.365	15739.25
626.72	15717.55
627.075	15719.13
627.43	15784.9
627.785	15694.05
628.14	15730.89
628.495	15733.37
628.85	15637.33
629.205	15665.35
629.559	15671.23
629.914	15623.09
630.269	15635.3
630.623	15557.78
630.978	15579.48
631.332	15546.26
631.687	15602.08
632.041	15436.88
632.396	15503.32
632.75	15293.84
633.104	15377.9
633.459	15364.79
633.813	15211.8
634.167	15287.96
634.521	15278.02
634.875	15347.17
635.229	15247.73
635.583	15149.21
635.937	15253.61
636.291	15180.39
636.645	15172.48
636.999	15155.99
637.352	15208.19
637.706	15228.07
638.06	15197.79
638.413	15074.18
638.767	15185.59
639.121	15131.13
639.474	15042.54
639.828	15076.21
640.181	15090.9
640.534	15127.06
640.888	15134.97
641.241	14972.71
641.594	15050
641.947	15186.27
642.301	15108.98
642.654	15033.73
643.007	15074.18
643.36	15112.15
643.713	15123.44
644.066	15059.27
644.419	15018.81
644.771	14807.52
645.124	14736.34
645.477	14618.15
645.83	14607.98
646.182	14592.61
646.535	14595.1
646.888	14630.58
647.24	14530.01
647.593	14709.9
647.945	14647.07
648.298	14559.39
648.65	14476.23
649.002	14419.96
649.355	14545.15
649.707	14378.38
650.059	14369.79
650.411	14600.07
650.763	14564.36
651.115	14702.21
651.467	14668.09
651.819	14589.22
652.171	14598.94
652.523	14604.59
652.875	14589.9
653.227	14505.38
653.578	14613.4
653.93	14545.83
654.282	14525.95
654.633	14363.69
654.985	14475.1
655.337	14455.44
655.688	14541.09
656.039	14523.23
656.391	14297.25
656.742	14448.43
657.094	14370.7
657.445	14476.46
657.796	14393.97
658.147	14378.83
658.498	14426.29
658.849	14482.33
659.2	14389.23
659.551	14454.54
659.902	14473.29
660.253	14460.64
660.604	14489.11
660.955	14419.73
661.306	14484.59
661.656	14519.84
662.007	14476.46
662.358	14567.75
662.708	14499.96
663.059	14524.59
663.409	14392.84
663.76	14588.09
664.11	14426.97
664.461	14635.32
664.811	14593.97
665.161	14453.86
665.511	14449.79
665.862	14411.15
666.212	14467.19
666.562	14438.49
666.912	14478.49
667.262	14444.82
667.612	14491.6
667.962	14406.17
668.312	14350.36
668.662	14391.49
669.011	14371.37
669.361	14308.1
669.711	14195.78
670.06	14302.22
670.41	14185.62
670.76	14072.85
671.109	14200.53
671.459	14151.27
671.808	14035.11
672.157	14136.13
672.507	14099.74
672.856	14056.58
673.205	14086.41
673.554	14161.89
673.904	14082.34
674.253	14025.17
674.602	14080.31
674.951	13855
675.3	13673.31
675.649	13998.95
675.998	14081.21
676.346	14042.12
676.695	14085.73
677.044	13980.65
677.393	14045.51
677.741	14074.43
678.09	14104.71
678.438	14003.02
678.787	14044.6
679.135	14072.62
679.484	13996.47
679.832	14086.86
680.181	13995.34
680.529	14005.06
680.877	13978.16
681.225	14004.6
681.573	14003.02
681.922	14055.22
682.27	13911.95
682.618	13916.7
682.966	13916.92
683.314	13903.14
683.661	13873.53
684.009	13782.91
684.357	13748.57
684.705	13731.16
685.053	13801.67
685.4	13733.65
685.748	13634.44
686.095	13611.62
686.443	13600.32
686.79	13538.4
687.138	13496.59
687.485	13538.18
687.832	13410.04
688.18	13441.23
688.527	13259.76
688.874	13294.57
689.221	13306.77
689.568	13227.67
689.915	13191.29
690.262	13217.96
690.609	13094.12
690.956	13122.82
691.303	13104.29
691.65	13046.89
691.997	12962.15
692.344	12938.19
692.69	13008.92
693.037	12995.14
693.383	12868.59
693.73	12930.73
694.077	12857.74
694.423	12953.33
694.769	12860.68
695.116	12792.43
695.462	12798.08
695.808	12785.65
696.155	12753.34
696.501	12698.88
696.847	12708.37
697.193	12674.24
697.539	12709.72
697.885	12633.79
698.231	12637.41
698.577	12642.38
698.923	12603.51
699.269	12574.58
699.614	12509.05
699.96	12546.11
700.306	12458.66
700.651	12425.21
700.997	12384.99
701.342	12398.54
701.688	12412.55
702.033	12293.91
702.379	12334.82
702.724	12271.77
703.069	12253.24
703.415	12061.83
703.76	12149.74
704.105	12001.49
704.45	12036.97
704.795	11943.87
705.14	11939.8
705.485	11848.05
705.83	11835.17
706.175	11854.38
706.52	11782.06
706.865	11674.04
707.209	11723.31
707.554	11614.38
707.899	11681.05
708.243	11526.93
708.588	11498.91
708.932	11543.88
709.277	11541.62
709.621	11497.1
709.966	11414.16
710.31	11481.28
710.654	11372.58
710.998	11459.81
711.342	11453.03
711.687	11375.29
712.031	11274.05
712.375	11312.7
712.719	11333.04
713.063	11398.8
713.407	11314.96
713.75	11267.73
714.094	11290.32
714.438	11332.13
714.782	11294.84
715.125	11213.04
715.469	11355.63
715.812	11236.31
716.156	11145.02
716.499	11170.78
716.843	11238.12
717.186	11184.11
717.53	11222.53
717.873	11213.26
718.216	11176.66
718.559	11044.91
718.902	11042.87
719.246	11083.32
719.589	10977.11
719.932	11081.29
720.275	10973.72
720.617	10992.93
720.96	10988.41
721.303	10937.57
721.646	10964.46
721.989	10837.46
722.331	10922.42
722.674	10898.47
723.016	10861.86
723.359	10814.63
723.701	10768.53
724.044	10695.99
724.386	10633.62
724.729	10708.87
725.071	10637.91
725.413	10662.09
725.755	10577.8
726.097	10524.7
726.439	10570.8
726.782	10496
727.124	10587.52
727.465	10461.87
727.807	10398.37
728.149	10439.27
728.491	10344.13
728.833	10382.78
729.175	10292.38
729.516	10342.1
729.858	10319.28
730.199	10348.88
730.541	10338.94
730.882	10291.25
731.224	10275.89
731.565	10235.89
731.906	10262.33
732.248	10250.8
732.589	10266.4
732.93	10290.12
733.271	10197.02
733.612	10311.59
733.953	10238.6
734.294	10177.59
734.635	10200.18
734.976	10217.36
735.317	10229.56
735.658	10223.69
735.999	10242.44
736.339	10207.19
736.68	10202.44
737.021	10190.47
737.361	10199.51
737.702	10271.14
738.042	10184.36
738.383	10141.88
738.723	10182.33
739.063	10253.52
739.404	10156.34
739.744	10145.72
740.084	10110.47
740.424	10132.16
740.764	10008.55
741.104	10114.76
741.444	9975.56
741.784	10036.57
742.124	10054.42
742.464	9983.69
742.804	9950.25
743.143	9928.1
743.483	9900.3
743.823	9861.89
744.162	9851.72
744.502	9867.54
744.841	9766.3
745.181	9857.59
745.52	9813.08
745.86	9804.49
746.199	9706.86
746.538	9772.17
746.877	9721.1
747.216	9690.82
747.556	9680.2
747.895	9667.09
748.234	9544.16
748.573	9594.32
748.911	9547.77
749.25	9633.87
749.589	9497.15
749.928	9547.09
750.267	9564.72
750.605	9588.9
750.944	9503.48
751.283	9459.64
751.621	9492.41
751.96	9423.03
752.298	9479.07
752.636	9466.19
752.975	9421.22
753.313	9326.31
753.651	9369.25
753.989	9319.53
754.327	9283.37
754.666	9260.77
755.004	9255.8
755.342	9275.69
755.679	9337.16
756.017	9156.14
756.355	9226.2
756.693	9158.18
757.031	9243.82
757.368	9152.3
757.706	9068.01
758.044	9131.74
758.381	9154.56
758.719	9127.44
759.056	9171.74
