Data from foam_black_FLMS001491_00043.txt Node
Date: Wed Feb 08 10:43:56 GMT 2017
User: dcchb
Spectrometer: FLMS00149
Trigger mode: 0
Integration Time (sec): 2.000000E-2
Scans to average: 10
Electric dark correction enabled: true
Nonlinearity correction enabled: false
Boxcar width: 0
XAxis mode: Wavelengths
Number of Pixels in Spectrum: 2048
>>>>>Begin Spectral Data<<<<<
341.393	-15.13
341.776	-15.13
342.16	-15.13
342.543	-55.8
342.927	-59.19
343.31	-58.06
343.693	-88.35
344.077	-79.53
344.46	-84.73
344.843	-51.28
345.226	-27.56
345.61	-20.32
345.993	-20.32
346.376	11.54
346.759	-3.15
347.142	30.3
347.525	52.89
347.908	61.26
348.291	80.69
348.674	92.67
349.057	103.97
349.44	118.43
349.823	152.55
350.206	155.72
350.588	196.39
350.971	184.64
351.354	207.69
351.737	222.61
352.119	235.71
352.502	255.6
352.884	260.12
353.267	283.17
353.65	296.73
354.032	288.37
354.414	278.42
354.797	295.15
355.179	304.86
355.562	311.19
355.944	317.29
356.326	324.53
356.709	320.01
357.091	337.86
357.473	330.4
357.855	331.76
358.238	313.23
358.62	320.91
359.002	322.72
359.384	340.12
359.766	332.89
360.148	317.07
360.53	354.13
360.912	337.86
361.294	327.92
361.676	331.08
362.057	310.29
362.439	343.06
362.821	326.33
363.203	326.33
363.584	321.36
363.966	328.59
364.348	315.26
364.729	312.32
365.111	305.99
365.493	323.62
365.874	309.38
366.256	313
366.637	311.87
367.019	327.46
367.4	321.14
367.781	332.66
368.163	313.68
368.544	298.31
368.925	317.97
369.306	318.42
369.688	308.93
370.069	313.45
370.45	312.1
370.831	324.53
371.212	321.81
371.593	312.32
371.974	333.79
372.355	312.1
372.736	327.24
373.117	336.5
373.498	317.97
373.879	303.73
374.26	336.28
374.641	302.83
375.021	303.06
375.402	319.78
375.783	325.66
376.163	326.56
376.544	321.81
376.925	348.93
377.305	333.11
377.686	334.92
378.066	344.41
378.447	345.99
378.827	338.76
379.208	331.76
379.588	325.43
379.968	348.48
380.349	332.21
380.729	334.47
381.109	329.72
381.489	340.12
381.87	351.87
382.25	360.91
382.63	349.38
383.01	337.63
383.39	325.43
383.77	346.22
384.15	355.71
384.53	375.37
384.91	342.6
385.29	365.65
385.67	360.68
386.049	372.21
386.429	359.55
386.809	381.02
387.189	360.68
387.568	355.03
387.948	359.33
388.328	383.28
388.707	390.29
389.087	385.77
389.466	371.98
389.846	375.15
390.225	387.8
390.605	390.29
390.984	395.03
391.363	385.09
391.743	374.69
392.122	390.74
392.501	403.39
392.881	386.9
393.26	413.79
393.639	408.82
394.018	399.1
394.397	406.78
394.776	411.75
395.155	388.93
395.534	404.98
395.913	418.76
396.292	414.24
396.671	422.83
397.05	402.94
397.429	417.18
397.808	410.17
398.186	435.71
398.565	432.09
398.944	426.67
399.323	417.86
399.701	451.3
400.08	420.34
400.458	432.55
400.837	426.67
401.215	435.48
401.594	446.78
401.972	448.59
402.351	433.22
402.729	442.04
403.107	447.01
403.486	464.63
403.864	448.59
404.242	475.93
404.62	473
404.999	458.31
405.377	467.57
405.755	488.14
406.133	480.23
406.511	465.99
406.889	511.41
407.267	493.56
407.645	484.97
408.023	503.96
408.401	510.96
408.779	497.18
409.156	500.79
409.534	505.31
409.912	512.09
410.29	515.71
410.667	516.38
411.045	531.53
411.422	517.06
411.8	522.03
412.178	532.88
412.555	534.92
412.933	565.87
413.31	550.51
413.687	538.31
414.065	543.28
414.442	551.86
414.819	551.86
415.197	555.48
415.574	578.98
415.951	578.3
416.328	563.16
416.705	574.91
417.082	561.13
417.46	618.53
417.837	588.93
418.214	608.13
418.591	605.87
418.967	587.12
419.344	606.33
419.721	625.31
420.098	627.79
420.475	610.39
420.852	628.25
421.228	630.73
421.605	646.55
421.982	636.38
422.358	648.81
422.735	659.21
423.111	638.87
423.488	678.64
423.864	661.47
424.241	652.2
424.617	637.96
424.994	671.41
425.37	663.27
425.746	684.29
426.123	672.31
426.499	647.45
426.875	692.65
427.251	695.36
427.627	724.74
428.003	682.71
428.379	729.71
428.756	740.11
429.132	725.42
429.507	742.59
429.883	714.8
430.259	762.71
430.635	754.57
431.011	775.81
431.387	795.47
431.763	761.8
432.138	771.75
432.514	777.85
432.89	770.84
433.265	784.85
433.641	843.83
434.016	799.54
434.392	803.38
434.767	833.66
435.143	840.67
435.518	863.04
435.894	849.94
436.269	862.14
436.644	861.69
437.02	852.65
437.395	871.4
437.77	872.76
438.145	884.74
438.52	890.39
438.895	915.24
439.271	909.14
439.646	941.01
440.021	944.4
440.395	923.61
440.77	937.62
441.145	910.05
441.52	954.79
441.895	946.2
442.27	960.89
442.645	961.12
443.019	956.37
443.394	964.73
443.769	990.95
444.143	963.38
444.518	1009.71
444.892	989.14
445.267	997.28
445.641	986.2
446.016	997.95
446.39	1007.67
446.764	1043.38
447.139	1019.42
447.513	1021.23
447.887	1028.46
448.262	1038.63
448.636	1055.58
449.01	1069.36
449.384	1053.77
449.758	1051.06
450.132	1070.49
450.506	1105.97
450.88	1102.13
451.254	1088.35
451.628	1116.37
452.002	1113.43
452.376	1142.13
452.75	1125.41
453.123	1156.37
453.497	1139.65
453.871	1152.75
454.244	1168.34
454.618	1190.72
454.992	1190.49
455.365	1188.23
455.739	1219.19
456.112	1201.11
456.486	1215.8
456.859	1274.33
457.232	1231.62
457.606	1275.91
457.979	1270.72
458.352	1303.93
458.725	1332.41
459.099	1317.72
459.472	1357.27
459.845	1352.07
460.218	1360.2
460.591	1362.92
460.964	1414.89
461.337	1413.08
461.71	1440.88
462.083	1459.86
462.456	1434.55
462.829	1450.6
463.201	1454.44
463.574	1470.48
463.947	1492.63
464.32	1509.13
464.692	1528.79
465.065	1536.92
465.438	1566.53
465.81	1565.4
466.183	1582.57
466.555	1597.94
466.928	1616.02
467.3	1590.25
467.672	1630.03
468.045	1689.46
468.417	1680.2
468.789	1684.49
469.161	1685.62
469.534	1732.17
469.906	1752.28
470.278	1780.31
470.65	1785.73
471.022	1834.99
471.394	1853.3
471.766	1856.69
472.138	1888.55
472.51	1944.6
472.882	1981.66
473.253	1963.13
473.625	1996.12
473.997	2030.02
474.369	2024.14
474.74	2041.99
475.112	2087.42
475.484	2150.24
475.855	2152.5
476.227	2170.35
476.598	2232.5
476.97	2224.14
477.341	2264.36
477.713	2303.91
478.084	2299.84
478.455	2374.64
478.827	2371.93
479.198	2446.28
479.569	2476.33
479.94	2536.67
480.311	2553.62
480.682	2594.52
481.053	2621.87
481.424	2666.38
481.795	2688.08
482.166	2734.63
482.537	2793.84
482.908	2834.29
483.279	2847.62
483.65	2895.53
484.021	2950.45
484.391	2982.99
484.762	2996.77
485.133	3058.46
485.503	3046.94
485.874	3128.29
486.244	3165.58
486.615	3205.13
486.985	3260.49
487.356	3253.04
487.726	3394.5
488.097	3425.46
488.467	3396.99
488.837	3476.53
489.207	3491
489.578	3534.84
489.948	3549.07
490.318	3596.76
490.688	3640.37
491.058	3690.31
491.428	3699.13
491.798	3747.94
492.168	3794.49
492.538	3815.51
492.908	3852.79
493.278	3944.09
493.648	3917.2
494.017	3991.1
494.387	4015.95
494.757	4040.36
495.126	4070.87
495.496	4103.41
495.866	4137.98
496.235	4208.94
496.605	4230.86
496.974	4215.95
497.344	4252.78
497.713	4300.69
498.082	4364.19
498.452	4368.49
498.821	4394.93
499.19	4383.63
499.559	4482.61
499.928	4496.85
500.298	4568.03
500.667	4570.74
501.036	4547.92
501.405	4610.74
501.774	4638.31
502.143	4655.03
502.512	4700.68
502.88	4701.36
503.249	4719.89
503.618	4744.3
503.987	4820.9
504.356	4849.15
504.724	4870.62
505.093	4878.98
505.462	4896.83
505.83	4927.79
506.199	4967.79
506.567	5035.59
506.936	4977.96
507.304	5068.58
507.672	5071.07
508.041	5084.63
508.409	5130.5
508.777	5185.19
509.145	5211.85
509.514	5238.75
509.882	5289.37
510.25	5303.6
510.618	5326.2
510.986	5364.39
511.354	5446.2
511.722	5432.19
512.09	5512.64
512.458	5546.31
512.826	5577.72
513.193	5622.01
513.561	5625.63
513.929	5659.53
514.297	5724.16
514.664	5724.84
515.032	5816.58
515.4	5853.19
515.767	5881.44
516.135	5942.23
516.502	5902.01
516.869	6024.71
517.237	6042.79
517.604	6015.68
517.972	6091.15
518.339	6147.42
518.706	6169.8
519.073	6174.09
519.44	6271.49
519.808	6294.99
520.175	6286.18
520.542	6453.63
520.909	6423.57
521.276	6452.5
521.643	6507.41
522.009	6552.38
522.376	6578.6
522.743	6657.47
523.11	6732.94
523.477	6756.45
523.843	6830.57
524.21	6895.43
524.577	6950.57
524.943	6943.79
525.31	6991.47
525.676	7085.93
526.043	7146.72
526.409	7164.57
526.776	7287.28
527.142	7293.38
527.508	7328.18
527.874	7364.11
528.241	7421.06
528.607	7439.59
528.973	7531.57
529.339	7644.33
529.705	7642.98
530.071	7681.39
530.437	7676.87
530.803	7788.06
531.169	7797.32
531.535	7815.85
531.901	7795.29
532.267	7876.87
532.632	7903.99
532.998	7874.61
533.364	7980.37
533.73	7999.8
534.095	8084.1
534.461	8147.82
534.826	8144.88
535.192	8161.16
535.557	8249.97
535.923	8215.62
536.288	8260.59
536.653	8353.69
537.019	8373.58
537.384	8375.61
537.749	8422.62
538.114	8474.82
538.479	8570.41
538.845	8538.32
539.21	8622.16
539.575	8611.77
539.94	8647.7
540.305	8687.47
540.67	8729.5
541.034	8741.48
541.399	8801.36
541.764	8899.89
542.129	8873
542.494	8905.99
542.858	8945.09
543.223	9002.72
543.587	8988.03
543.952	9057.4
544.316	9065.31
544.681	9076.39
545.045	9179.89
545.41	9185.31
545.774	9213.78
546.138	9284.06
546.503	9343.27
546.867	9264.18
547.231	9364.51
547.595	9367.9
547.959	9413.33
548.324	9439.77
548.688	9419.88
549.052	9511.18
549.416	9444.96
549.779	9508.69
550.143	9558.86
550.507	9598.41
550.871	9629.82
551.235	9677.27
551.599	9778.29
551.962	9797.27
552.326	9873.65
552.689	9872.3
553.053	9829.13
553.417	9867.33
553.78	10133.31
554.143	10040.88
554.507	10113.65
554.87	10131.27
555.234	10232.29
555.597	10136.7
555.96	10198.39
556.323	10252.85
556.686	10263.93
557.05	10400.19
557.413	10452.17
557.776	10480.64
558.139	10501.43
558.502	10515.9
558.865	10460.08
559.228	10664.82
559.59	10665.72
559.953	10722.9
560.316	10809.67
560.679	10809.9
561.041	10857.58
561.404	10971.25
561.767	10966.96
562.129	11054.19
562.492	11061.19
562.854	11070.01
563.217	11135.99
563.579	11250.11
563.941	11261.19
564.304	11428.41
564.666	11506.15
565.028	11493.95
565.39	11566.04
565.753	11593.38
566.115	11646.49
566.477	11715.19
566.839	11743.89
567.201	11825.69
567.563	11887.16
567.925	11963.54
568.287	11975.74
568.648	12081.73
569.01	12152.69
569.372	12210.77
569.734	12161.95
570.095	12349.29
570.457	12320.37
570.819	12364.21
571.18	12427.48
571.542	12494.83
571.903	12406.69
572.265	12593.36
572.626	12646.01
572.987	12584.32
573.349	12687.14
573.71	12804.88
574.071	12721.49
574.432	12830.64
574.794	12902.95
575.155	12844.87
575.516	12819.11
575.877	12924.19
576.238	12922.39
576.599	12905.44
576.96	12992.21
577.32	12957.19
577.681	13083.96
578.042	13097.75
578.403	13078.09
578.763	13112.44
579.124	13083.74
579.485	13138.88
579.845	13158.31
580.206	13147.92
580.566	13222.72
580.927	13249.61
581.287	13285.09
581.648	13210.06
582.008	13316.27
582.368	13256.16
582.728	13303.39
583.089	13266.33
583.449	13273.79
583.809	13307.01
584.169	13266.11
584.529	13262.72
584.889	13469.49
585.249	13327.35
585.609	13212.1
585.969	13383.62
586.329	13313.56
586.688	13336.39
587.048	13361.7
587.408	13332.54
587.768	13395.37
588.127	13419.55
588.487	13398.08
588.846	13502.26
589.206	13411.64
589.565	13465.65
589.925	13553.56
590.284	13535.25
590.643	13572.09
591.003	13577.51
591.362	13574.57
591.721	13541.13
592.08	13630.39
592.44	13640.79
592.799	13688.69
593.158	13604.63
593.517	13650.05
593.876	13642.37
594.235	13610.96
594.593	13608.02
594.952	13716.26
595.311	13702.48
595.67	13667
596.029	13791.52
596.387	13796.49
596.746	13743.83
597.104	13721.69
597.463	13715.36
597.822	13850.5
598.18	13708.13
598.538	13762.82
598.897	13862.02
599.255	13775.7
599.613	13947.67
599.972	13844.85
600.33	13850.5
600.688	13696.83
601.046	13898.18
601.404	13907.45
601.762	13877.16
602.12	13970.49
602.478	13882.36
602.836	13911.96
603.194	13810.27
603.552	13883.04
603.91	13812.53
604.268	13993.09
604.625	13854.34
604.983	13904.73
605.341	13822.48
605.698	14049.59
606.056	14023.37
606.413	13993.09
606.771	13977.05
607.128	14113.54
607.485	13957.84
607.843	13964.62
608.2	14082.81
608.557	14081.68
608.914	14086.2
609.272	14116.48
609.629	14173.43
609.986	14197.38
610.343	14206.65
610.7	14271.05
611.057	14348.11
611.414	14248.23
611.771	14252.52
612.127	14300.2
612.484	14326.42
612.841	14379.98
613.198	14372.97
613.554	14312.18
613.911	14455.23
614.267	14366.19
614.624	14410.48
614.98	14405.96
615.337	14513.3
615.693	14478.73
616.05	14514.66
616.406	14541.33
616.762	14478.96
617.118	14564.15
617.475	14572.96
617.831	14623.58
618.187	14608.44
618.543	14742.45
618.899	14815.9
619.255	14694.09
619.611	14693.64
619.967	14808.44
620.323	14736.12
620.678	14712.62
621.034	14738.38
621.39	14780.19
621.746	14678.5
622.101	14867.19
622.457	14694.32
622.812	14723.02
623.168	14819.51
623.523	14804.82
623.879	14919.4
624.234	14766.41
624.589	14796.91
624.945	14796.01
625.3	14843.69
625.655	14847.31
626.01	14761.43
626.365	14739.74
626.72	14842.56
627.075	14782.45
627.43	14747.42
627.785	14746.75
628.14	14745.16
628.495	14739.74
628.85	14770.47
629.205	14698.38
629.559	14812.28
629.914	14752.39
630.269	14740.64
630.623	14719.63
630.978	14679.85
631.332	14686.63
631.687	14697.48
632.041	14673.53
632.396	14613.87
632.75	14661.55
633.104	14703.58
633.459	14605.28
633.813	14572.74
634.167	14556.69
634.521	14569.12
634.875	14504.49
635.229	14514.66
635.583	14504.72
635.937	14426.3
636.291	14469.01
636.645	14380.2
636.999	14413.65
637.352	14487.77
637.706	14256.59
638.06	14376.59
638.413	14376.36
638.767	14289.36
639.121	14318.28
639.474	14339.75
639.828	14233.54
640.181	14297.27
640.534	14301.56
640.888	14237.38
641.241	14242.58
641.594	14252.75
641.947	14315.8
642.301	14288.68
642.654	14261.11
643.007	14217.27
643.36	14301.11
643.713	14233.54
644.066	14297.27
644.419	14208.45
644.771	14073.99
645.124	13929.14
645.477	13892.98
645.83	13731.4
646.182	13750.16
646.535	13767.34
646.888	13824.06
647.24	13873.77
647.593	13847.33
647.945	13860.89
648.298	13670.62
648.65	13720.33
649.002	13690.73
649.355	13723.72
649.707	13657.96
650.059	13731.4
650.411	13780.89
650.763	13833.55
651.115	13987.89
651.467	13944.28
651.819	13925.3
652.171	13881.01
652.523	13862.47
652.875	13888.91
653.227	13797.84
653.578	13854.79
653.93	13829.03
654.282	13836.71
654.633	13674.91
654.985	13820.67
655.337	13841.68
655.688	13749.26
656.039	13803.49
656.391	13719.2
656.742	13706.77
657.094	13724.85
657.445	13686.21
657.796	13742.25
658.147	13724.85
658.498	13761.46
658.849	13768.24
659.2	13723.95
659.551	13717.39
659.902	13690.5
660.253	13685.3
660.604	13697.73
660.955	13730.05
661.306	13716.04
661.656	13663.38
662.007	13589.04
662.358	13615.25
662.708	13589.71
663.059	13744.06
663.409	13546.32
663.76	13651.41
664.11	13737.28
664.461	13686.21
664.811	13672.65
665.161	13620.67
665.511	13521.47
665.862	13664.06
666.212	13713.1
666.562	13690.05
666.912	13694.34
667.262	13608.7
667.612	13659.99
667.962	13603.72
668.312	13607.79
668.662	13759.65
669.011	13626.1
669.361	13672.2
669.711	13647.34
670.06	13645.98
670.41	13628.81
670.76	13462.94
671.109	13638.07
671.459	13551.3
671.808	13510.85
672.157	13566.21
672.507	13449.83
672.856	13578.64
673.205	13541.8
673.554	13554.69
673.904	13489.38
674.253	13552.88
674.602	13441.69
674.951	13228.82
675.3	13144.53
675.649	13483.5
675.998	13354.01
676.346	13386.78
676.695	13522.37
677.044	13314.92
677.393	13369.15
677.741	13380.68
678.09	13327.8
678.438	13362.15
678.787	13318.99
679.135	13256.61
679.484	13255.03
679.832	13351.3
680.181	13260.68
680.529	13333.22
680.877	13278.54
681.225	13204.41
681.573	13328.03
681.922	13262.04
682.27	13030.86
682.618	13171.65
682.966	13125.54
683.314	13154.02
683.661	13158.31
684.009	13020.46
684.357	12970.75
684.705	13001.71
685.053	13017.75
685.4	13017.98
685.748	12982.27
686.095	12951.09
686.443	12918.09
686.79	12808.72
687.138	12909.73
687.485	12857.53
687.832	12818.43
688.18	12858.21
688.527	12797.64
688.874	12797.87
689.221	12808.26
689.568	12608.04
689.915	12707.7
690.262	12625.44
690.609	12637.65
690.956	12547.93
691.303	12569.18
691.65	12474.71
691.997	12439.46
692.344	12292.57
692.69	12409.41
693.037	12384.32
693.383	12264.78
693.73	12299.35
694.077	12287.37
694.423	12271.1
694.769	12235.17
695.116	12183.87
695.462	12165.57
695.808	12041.05
696.155	12109.53
696.501	11953.6
696.847	12027.27
697.193	11984.33
697.539	11954.05
697.885	11854.17
698.231	11903.88
698.577	11965.8
698.923	11821.62
699.269	11827.5
699.614	11768.97
699.96	11757.67
700.306	11794.96
700.651	11620.73
700.997	11687.39
701.342	11624.12
701.688	11638.58
702.033	11637.9
702.379	11654.62
702.724	11631.57
703.069	11620.95
703.415	11490.79
703.76	11535.08
704.105	11478.36
704.45	11434.29
704.795	11473.38
705.14	11491.92
705.485	11428.64
705.83	11470.67
706.175	11394.29
706.52	11411.47
706.865	11410.56
707.209	11336.67
707.554	11295.08
707.899	11402.88
708.243	11268.64
708.588	11348.42
708.932	11195.43
709.277	11283.33
709.621	11310.9
709.966	11173.51
710.31	11167.18
710.654	11175.31
710.998	11223.22
711.342	11171.25
711.687	11097.58
712.031	11020.06
712.375	10953.85
712.719	11090.12
713.063	11018.48
713.407	10926.96
713.75	10908.43
714.094	10924.25
714.438	10893.51
714.782	10850.35
715.125	10774.42
715.469	10811.71
715.812	10760.41
716.156	10691.94
716.499	10766.06
716.843	10732.84
717.186	10619.62
717.53	10622.11
717.873	10652.62
718.216	10710.47
718.559	10568.1
718.902	10481.77
719.246	10473.64
719.589	10465.28
719.932	10381.89
720.275	10403.81
720.617	10368.1
720.96	10376.24
721.303	10394.09
721.646	10363.58
721.989	10229.58
722.331	10262.8
722.674	10163.81
723.016	10268.9
723.359	10232.74
723.701	10239.29
724.044	10131.5
724.386	10090.37
724.729	10044.27
725.071	10119.07
725.413	10070.26
725.755	10091.27
726.097	10025.97
726.439	10004.04
726.782	9927.66
727.124	9995.23
727.465	10010.37
727.807	9965.85
728.149	9942.13
728.491	9950.49
728.833	9934.67
729.175	9877.04
729.516	9884.95
729.858	9867.33
730.199	9835.01
730.541	9878.4
730.882	9853.31
731.224	9871.17
731.565	9755.92
731.906	9799.3
732.248	9799.08
732.589	9789.59
732.93	9828
733.271	9822.35
733.612	9777.61
733.953	9824.39
734.294	9811.51
734.635	9828.68
734.976	9873.88
735.317	9749.81
735.658	9818.51
735.999	9802.69
736.339	9792.07
736.68	9823.71
737.021	9730.15
737.361	9736.93
737.702	9750.04
738.042	9729.93
738.383	9782.13
738.723	9730.61
739.063	9729.25
739.404	9736.26
739.744	9707.33
740.084	9736.71
740.424	9680.21
740.764	9674.79
741.104	9689.7
741.444	9636.14
741.784	9642.02
742.124	9635.69
742.464	9569.93
742.804	9523.83
743.143	9595.69
743.483	9558.63
743.823	9489.93
744.162	9558.63
744.502	9522.93
744.841	9430.95
745.181	9476.6
745.52	9415.81
745.86	9458.97
746.199	9460.78
746.538	9377.39
746.877	9470.05
747.216	9380.56
747.556	9382.82
747.895	9365.42
748.234	9333.78
748.573	9261.01
748.911	9308.24
749.25	9278.41
749.589	9245.87
749.928	9260.79
750.267	9237.29
750.605	9241.81
750.944	9163.39
751.283	9159.32
751.621	9124.52
751.96	9092.88
752.298	9108.93
752.636	9091.3
752.975	9060.79
753.313	8982.15
753.651	9021.92
753.989	9001.59
754.327	8982.83
754.666	8967.46
755.004	8935.6
755.342	8910.06
755.679	8917.75
756.017	8898.31
756.355	8873.45
756.693	8855.83
757.031	8815.15
757.368	8785.55
757.706	8786.45
758.044	8751.65
758.381	8763.63
758.719	8750.97
759.056	8752.78
759.394	8689.28
759.731	8717.53
760.068	8649.73
