Data from foam_black_FLMS001491_00005.txt Node
Date: Wed Feb 08 10:43:25 GMT 2017
User: dcchb
Spectrometer: FLMS00149
Trigger mode: 0
Integration Time (sec): 2.000000E-2
Scans to average: 10
Electric dark correction enabled: true
Nonlinearity correction enabled: false
Boxcar width: 0
XAxis mode: Wavelengths
Number of Pixels in Spectrum: 2048
>>>>>Begin Spectral Data<<<<<
341.393	-20.64
341.776	-20.64
342.16	-20.64
342.543	-67.41
342.927	-83.91
343.31	-50.24
343.693	-54.08
344.077	-49.33
344.46	-55.21
344.843	-57.47
345.226	-50.46
345.61	-44.82
345.993	-31.03
346.376	1.74
346.759	-7.3
347.142	25.24
347.525	38.8
347.908	54.39
348.291	71.57
348.674	102.53
349.057	105.69
349.44	123.09
349.823	139.36
350.206	155.63
350.588	195.4
350.971	216.87
351.354	221.17
351.737	259.81
352.119	248.06
352.502	252.58
352.884	273.14
353.267	283.76
353.65	292.35
354.032	295.74
354.414	296.87
354.797	295.51
355.179	348.17
355.562	313.14
355.944	334.16
356.326	353.37
356.709	323.99
357.091	350.88
357.473	338.45
357.855	327.83
358.238	343.42
358.62	347.49
359.002	358.56
359.384	325.8
359.766	333.25
360.148	344.78
360.53	337.32
360.912	337.1
361.294	346.59
361.676	343.65
362.057	351.33
362.439	335.51
362.821	336.42
363.203	342.29
363.584	309.75
363.966	327.38
364.348	356.98
364.729	349.3
365.111	322.86
365.493	330.99
365.874	355.4
366.256	315.85
366.637	324.44
367.019	333.25
367.4	338.23
367.781	333.25
368.163	331.67
368.544	333.48
368.925	316.76
369.306	348.39
369.688	363.54
370.069	332.8
370.45	326.25
370.831	319.47
371.212	337.77
371.593	321.5
371.974	344.55
372.355	329.19
372.736	341.62
373.117	327.15
373.498	356.3
373.879	336.19
374.26	350.65
374.641	326.7
375.021	331.67
375.402	342.29
375.783	346.59
376.163	366.47
376.544	366.47
376.925	349.75
377.305	361.05
377.686	358.56
378.066	349.3
378.447	349.3
378.827	368.06
379.208	361.95
379.588	362.63
379.968	382.74
380.349	382.74
380.729	379.35
381.109	359.69
381.489	366.02
381.87	384.33
382.25	392.46
382.63	396.98
383.01	379.58
383.39	378.45
383.77	388.17
384.15	404.66
384.53	396.08
384.91	391.33
385.29	410.54
385.67	410.99
386.049	403.08
386.429	410.09
386.809	396.08
387.189	404.66
387.568	410.99
387.948	406.25
388.328	433.82
388.707	416.42
389.087	429.97
389.466	431.33
389.846	432.23
390.225	437.66
390.605	424.33
390.984	431.1
391.363	418.9
391.743	440.82
392.122	434.72
392.501	446.92
392.881	458
393.26	477.43
393.639	467.49
394.018	473.36
394.397	464.32
394.776	476.53
395.155	466.58
395.534	492.57
395.913	460.71
396.292	480.82
396.671	465.45
397.05	502.29
397.429	481.72
397.808	483.08
398.186	495.06
398.565	477.88
398.944	511.1
399.323	493.48
399.701	486.7
400.08	508.39
400.458	505.45
400.837	505.45
401.215	529.86
401.594	529.18
401.972	512.46
402.351	515.4
402.729	531.67
403.107	541.61
403.486	520.82
403.864	543.19
404.242	553.81
404.62	524.66
404.999	566.02
405.377	554.27
405.755	561.04
406.133	587.26
406.511	570.54
406.889	570.31
407.267	593.59
407.645	577.99
408.023	594.26
408.401	598.56
408.779	607.37
409.156	601.04
409.534	604.21
409.912	602.4
410.29	629.52
410.667	610.76
411.045	623.19
411.422	637.2
411.8	646.47
412.178	648.5
412.555	646.92
412.933	647.6
413.31	667.48
413.687	661.38
414.065	657.09
414.442	674.94
414.819	692.57
415.197	684.66
415.574	697.54
415.951	687.82
416.328	702.96
416.705	704.77
417.082	715.16
417.46	736.86
417.837	706.35
418.214	753.13
418.591	739.12
418.967	747.03
419.344	748.61
419.721	759.01
420.098	764.88
420.475	778.44
420.852	782.28
421.228	801.72
421.605	787.48
421.982	777.54
422.358	803.3
422.735	836.97
423.111	814.15
423.488	838.55
423.864	821.38
424.241	823.41
424.617	851.43
424.994	851.21
425.37	849.62
425.746	864.77
426.123	871.77
426.499	887.36
426.875	870.19
427.251	876.52
427.627	905.44
428.003	910.41
428.379	921.94
428.756	943.41
429.132	935.5
429.507	956.29
429.883	960.13
430.259	969.4
430.635	978.43
431.011	987.93
431.387	1000.81
431.763	1035.61
432.138	1025.44
432.514	1026.34
432.89	1027.25
433.265	1043.29
433.641	1053.24
434.016	1099.56
434.392	1104.08
434.767	1113.12
435.143	1113.8
435.518	1113.57
435.894	1106.57
436.269	1134.59
436.644	1139.33
437.02	1146.34
437.395	1160.12
437.77	1197.86
438.145	1177.53
438.52	1215.94
438.895	1204.19
439.271	1216.17
439.646	1238.31
440.021	1233.34
440.395	1248.94
440.77	1236.06
441.145	1233.8
441.52	1250.97
441.895	1255.94
442.27	1267.01
442.645	1294.81
443.019	1313.34
443.394	1312.89
443.769	1309.5
444.143	1302.04
444.518	1336.17
444.892	1347.46
445.267	1341.59
445.641	1333.23
446.016	1345.88
446.39	1352.89
446.764	1356.28
447.139	1389.95
447.513	1372.1
447.887	1409.61
448.262	1384.75
448.636	1448.03
449.01	1409.84
449.384	1416.16
449.758	1433.11
450.132	1442.83
450.506	1478.31
450.88	1484.86
451.254	1499.78
451.628	1462.49
452.002	1499.55
452.376	1502.04
452.75	1539.32
453.123	1544.07
453.497	1580.9
453.871	1570.51
454.244	1586.33
454.618	1638.53
454.992	1633.11
455.365	1617.97
455.739	1681.69
456.112	1692.31
456.486	1683.05
456.859	1730.73
457.232	1726.89
457.606	1767.11
457.979	1762.82
458.352	1791.75
458.725	1812.31
459.099	1826.77
459.472	1857.73
459.845	1882.14
460.218	1859.32
460.591	1890.28
460.964	1895.25
461.337	1946.09
461.71	1984.51
462.083	2012.76
462.456	2016.15
462.829	1984.96
463.201	2045.98
463.574	2043.49
463.947	2095.69
464.32	2097.73
464.692	2111.29
465.065	2121.46
465.438	2169.36
465.81	2185.41
466.183	2213.43
466.555	2261.11
466.928	2243.26
467.3	2274.67
467.672	2302.92
468.045	2329.36
468.417	2341.79
468.789	2361.22
469.161	2388.79
469.534	2424.95
469.906	2496.13
470.278	2490.03
470.65	2518.06
471.022	2565.96
471.394	2606.41
471.766	2621.78
472.138	2682.57
472.51	2695
472.882	2722.8
473.253	2779.29
473.625	2812.06
473.997	2857.03
474.369	2926.86
474.74	2913.07
475.112	2968.66
475.484	3010.02
475.855	3056.12
476.227	3089.11
476.598	3159.17
476.97	3199.62
477.341	3219.73
477.713	3300.86
478.084	3318.71
478.455	3403
478.827	3447.75
479.198	3534.75
479.569	3528.42
479.94	3622.43
480.311	3656.56
480.682	3734.75
481.053	3803.67
481.424	3881.64
481.795	3899.71
482.166	3911.92
482.537	3981.29
482.908	4053.16
483.279	4116.21
483.65	4192.14
484.021	4246.15
484.391	4331.57
484.762	4354.84
485.133	4341.96
485.503	4458.34
485.874	4506.93
486.244	4557.55
486.615	4607.72
486.985	4700.6
487.356	4804.55
487.726	4785.79
488.097	4885.22
488.467	4864.43
488.837	5004.54
489.207	5054.49
489.578	5141.72
489.948	5173.35
490.318	5201.6
490.688	5263.97
491.058	5334.03
491.428	5381.26
491.798	5458.32
492.168	5503.29
492.538	5594.81
492.908	5596.39
493.278	5671.87
493.648	5703.28
494.017	5747.57
494.387	5834.13
494.757	5874.58
495.126	5908.02
495.496	5980.34
495.866	5949.83
496.235	6048.58
496.605	6115.02
496.974	6178.52
497.344	6234.79
497.713	6246.54
498.082	6294
498.452	6336.49
498.821	6339.65
499.19	6412.87
499.559	6477.5
499.928	6522.02
500.298	6527.67
500.667	6606.76
501.036	6623.48
501.405	6705.97
501.774	6634.56
502.143	6737.38
502.512	6754.33
502.88	6870.94
503.249	6862.8
503.618	6967.43
503.987	6962.91
504.356	7002.91
504.724	7055.34
505.093	7095.11
505.462	7128.56
505.83	7155.67
506.199	7234.09
506.567	7301.66
506.936	7303.92
507.304	7398.83
507.672	7431.82
508.041	7402.22
508.409	7516.79
508.777	7589.56
509.145	7692.83
509.514	7643.12
509.882	7747.97
510.25	7735.55
510.618	7816.9
510.986	7857.58
511.354	7931.92
511.722	7937.35
512.09	8082.88
512.458	8060.96
512.826	8197.68
513.193	8173.73
513.561	8183.44
513.929	8275.64
514.297	8349.54
514.664	8404.45
515.032	8437.45
515.4	8524.9
515.767	8540.5
516.135	8652.81
516.502	8616.43
516.869	8744.33
517.237	8743.88
517.604	8741.85
517.972	8879.24
518.339	8927.6
518.706	8962.41
519.073	9046.47
519.44	9158.56
519.808	9222.74
520.175	9225
520.542	9296.41
520.909	9388.84
521.276	9376.63
521.643	9530.3
522.009	9561.71
522.376	9635.61
522.743	9700.69
523.11	9725.1
523.477	9869.27
523.843	9908.6
524.21	10082.83
524.577	10135.26
524.943	10188.81
525.31	10198.08
525.676	10332.77
526.043	10336.38
526.409	10405.98
526.776	10492.53
527.142	10515.59
527.508	10541.8
527.874	10773.66
528.241	10740.21
528.607	10825.63
528.973	10930.72
529.339	10891.85
529.705	11063.59
530.071	11176.58
530.437	11103.59
530.803	11284.38
531.169	11378.16
531.535	11355.34
531.901	11365.73
532.267	11435.56
532.632	11532.28
532.998	11548.33
533.364	11585.39
533.73	11672.62
534.095	11755.1
534.461	11808.66
534.826	11834.19
535.192	11876.68
535.557	11989.67
535.923	11951.48
536.288	12006.62
536.653	12156.67
537.019	12122.55
537.384	12151.93
537.749	12256.78
538.114	12321.19
538.479	12268.53
538.845	12404.57
539.21	12415.65
539.575	12516.44
539.94	12554.85
540.305	12590.56
540.67	12649.09
541.034	12733.38
541.399	12750.78
541.764	12692.93
542.129	12785.58
542.494	12854.51
542.858	12951
543.223	12892.02
543.587	13002.07
543.952	13041.39
544.316	13045.01
544.681	13094.73
545.045	13167.04
545.41	13248.85
545.774	13290.43
546.138	13346.02
546.503	13365.23
546.867	13304.21
547.231	13525.22
547.595	13484.77
547.959	13580.59
548.324	13571.32
548.688	13629.4
549.052	13753.01
549.416	13685.9
549.779	13736.74
550.143	13779.45
550.507	13873.01
550.871	13941.03
551.235	13961.6
551.599	14066.45
551.962	14044.53
552.326	14067.81
552.689	14186.45
553.053	14216.73
553.417	14270.51
553.78	14474.35
554.143	14310.74
554.507	14499.89
554.87	14554.12
555.234	14669.83
555.597	14606.55
555.96	14677.96
556.323	14748.69
556.686	14777.62
557.05	14884.06
557.413	14950.95
557.776	14946.43
558.139	15075.69
558.502	15137.84
558.865	15200.66
559.228	15356.14
559.59	15343.48
559.953	15424.38
560.316	15552.29
560.679	15591.84
561.041	15715.45
561.404	15833.64
561.767	15823.02
562.129	15872.73
562.492	16029.79
562.854	16004.48
563.217	16025.27
563.579	16068.43
563.941	16166.06
564.304	16302.78
564.666	16303.68
565.028	16409.67
565.39	16355.21
565.753	16610.57
566.115	16688.08
566.477	16775.53
566.839	16773.27
567.201	16965.36
567.563	16934.85
567.925	17074.06
568.287	17038.8
568.648	17130.78
569.01	17115.19
569.372	17222.08
569.734	17207.16
570.095	17316.76
570.457	17479.47
570.819	17428.17
571.18	17471.11
571.542	17596.75
571.903	17574.16
572.265	17695.51
572.626	17708.39
572.987	17752
573.349	17830.2
573.71	17876.75
574.071	17872.23
574.432	18006.01
574.794	18110.41
575.155	18022.51
575.516	17991.77
575.877	18172.11
576.238	18211.88
576.599	18234.48
576.96	18254.14
577.32	18271.54
577.681	18312.89
578.042	18409.61
578.403	18457.75
578.763	18378.43
579.124	18499.78
579.485	18534.58
579.845	18620.23
580.206	18564.41
580.566	18523.51
580.927	18531.42
581.287	18643.73
581.648	18563.51
582.008	18686.22
582.368	18576.84
582.728	18609.84
583.089	18662.94
583.449	18658.87
583.809	18527.8
584.169	18734.58
584.529	18642.83
584.889	18925.08
585.249	18736.39
585.609	18709.04
585.969	18750.4
586.329	18740.45
586.688	18753.56
587.048	18775.48
587.408	18710.62
587.768	18758.08
588.127	18854.8
588.487	18758.76
588.846	18940
589.206	18845.08
589.565	18770.06
589.925	18848.7
590.284	18828.59
590.643	18937.28
591.003	18927.79
591.362	18996.04
591.721	18940.45
592.08	19050.73
592.44	19064.74
592.799	19177.05
593.158	19001.24
593.517	19033.55
593.876	19108.58
594.235	19095.25
594.593	19160.1
594.952	19187.22
595.311	19055.47
595.67	19184.74
596.029	19208.01
596.387	19239.65
596.746	19358.52
597.104	19224.73
597.463	19271.06
597.822	19363.71
598.18	19195.36
598.538	19299.08
598.897	19431.96
599.255	19269.48
599.613	19597.38
599.972	19345.18
600.33	19423.83
600.688	19331.4
601.046	19469.25
601.404	19633.09
601.762	19478.74
602.12	19514.67
602.478	19581.56
602.836	19540.88
603.194	19505.63
603.552	19521.22
603.91	19443.71
604.268	19613.42
604.625	19562.35
604.983	19633.99
605.341	19628.34
605.698	19704.27
606.056	19744.72
606.413	19694.1
606.771	19761.9
607.128	19800.76
607.485	19634.44
607.843	19629.92
608.2	19741.33
608.557	19891.84
608.914	19810.03
609.272	19820.65
609.629	19885.28
609.986	19951.95
610.343	19887.09
610.7	19945.62
611.057	19955.79
611.414	19990.36
611.771	19930.48
612.127	20006.18
612.484	20045.28
612.841	19996.01
613.198	19967.99
613.554	19966.64
613.911	20039.4
614.267	20062.68
614.624	19880.99
614.98	20070.14
615.337	20127.54
615.693	19993.3
616.05	20030.59
616.406	20142.22
616.762	20085.28
617.118	20068.55
617.475	20125.95
617.831	20179.96
618.187	20175.44
618.543	20191.94
618.899	20292.28
619.255	20180.64
619.611	20238.49
619.967	20232.17
620.323	20312.16
620.678	20211.6
621.034	20109.23
621.39	20146.97
621.746	20084.6
622.101	20271.94
622.457	20181.55
622.812	20223.35
623.168	20299.06
623.523	20224.93
623.879	20223.13
624.234	20098.38
624.589	20221.77
624.945	20250.47
625.3	20244.59
625.655	20271.03
626.01	20167.99
626.365	20194.88
626.72	20214.09
627.075	20210.47
627.43	20069.23
627.785	20097.25
628.14	20162.79
628.495	20206.86
628.85	20086.86
629.205	20049.12
629.559	20144.71
629.914	20057.93
630.269	20099.74
630.623	20176.8
630.978	20107.65
631.332	20142.9
631.687	20103.36
632.041	20023.13
632.396	20052.06
632.75	20059.06
633.104	19998.05
633.459	19858.16
633.813	19913.98
634.167	19884.83
634.521	19890.25
634.875	19924.15
635.229	19941.33
635.583	19757.15
635.937	19717.38
636.291	19761.22
636.645	19691.39
636.999	19713.31
637.352	19693.87
637.706	19577.95
638.06	19687.77
638.413	19561.67
638.767	19541.79
639.121	19635.57
639.474	19491.39
639.828	19570.71
640.181	19633.09
640.534	19728.45
640.888	19579.08
641.241	19498.85
641.594	19561.22
641.947	19578.62
642.301	19533.2
642.654	19479.64
643.007	19624.95
643.36	19524.39
643.713	19448.91
644.066	19584.95
644.419	19475.58
644.771	19247.56
645.124	19081.69
645.477	19010.28
645.83	18940
646.182	18935.48
646.535	18857.96
646.888	19059.77
647.24	18808.02
647.593	18995.36
647.945	18921.92
648.298	18967.57
648.65	18944.97
649.002	18855.25
649.355	18869.72
649.707	18833.56
650.059	18746.33
650.411	19085.08
650.763	19069.71
651.115	19355.35
651.467	19280.1
651.819	19158.75
652.171	19122.36
652.523	19042.59
652.875	19161.01
653.227	18993.33
653.578	19166.88
653.93	19115.81
654.282	18942.03
654.633	19006.21
654.985	19035.59
655.337	18998.07
655.688	18975.02
656.039	19107.45
656.391	18926.44
656.742	18974.35
657.094	18991.52
657.445	18977.96
657.796	18923.95
658.147	18827
658.498	18940
658.849	18941.8
659.2	18751.98
659.551	18806.89
659.902	18902.03
660.253	18852.32
660.604	18868.36
660.955	18719.89
661.306	18816.38
661.656	18782.03
662.007	18735.71
662.358	18825.2
662.708	18780.45
663.059	18767.12
663.409	18625.65
663.76	18742.71
664.11	18768.7
664.461	18722.15
664.811	18710.4
665.161	18728.7
665.511	18586.11
665.862	18618.87
666.212	18642.38
666.562	18596.05
666.912	18582.72
667.262	18624.07
667.612	18579.55
667.962	18513.57
668.312	18433.57
668.662	18655.48
669.011	18483.96
669.361	18381.59
669.711	18486.9
670.06	18390.86
670.41	18390.41
670.76	18339.33
671.109	18365.1
671.459	18350.18
671.808	18387.69
672.157	18372.78
672.507	18187.47
672.856	18244.42
673.205	18236.51
673.554	18279.67
673.904	18196.29
674.253	18247.81
674.602	18207.13
674.951	17919.01
675.3	17829.07
675.649	18131.2
675.998	18049.62
676.346	18109.06
676.695	18122.39
677.044	17965.78
677.393	18019.57
677.741	18068.83
678.09	17905.9
678.438	17914.03
678.787	17869.06
679.135	17912
679.484	17866.8
679.832	17935.5
680.181	17758.78
680.529	17811.21
680.877	17694.83
681.225	17679.69
681.573	17833.58
681.922	17710.88
682.27	17660.48
682.618	17659.58
682.966	17589.52
683.314	17665.68
683.661	17491.67
684.009	17527.6
684.357	17446.25
684.705	17386.59
685.053	17388.62
685.4	17368.51
685.748	17351.79
686.095	17215.75
686.443	17232.24
686.79	17223.88
687.138	17266.37
687.485	17254.84
687.832	17234.05
688.18	17244.45
688.527	17161.51
688.874	17100.27
689.221	17058.01
689.568	17029.09
689.915	16962.65
690.262	16982.76
690.609	16994.74
690.956	16964.46
691.303	16935.53
691.65	16728.76
691.997	16804.91
692.344	16722.65
692.69	16752.94
693.037	16729.21
693.383	16536.67
693.73	16607.85
694.077	16615.09
694.423	16502.32
694.769	16407.86
695.116	16444.47
695.462	16388.65
695.808	16355.21
696.155	16388.2
696.501	16329.67
696.847	16218.71
697.193	16192.27
697.539	16285.15
697.885	16187.53
698.231	16133.97
698.577	16130.8
698.923	16113.86
699.269	16034.31
699.614	16057.13
699.96	15976.23
700.306	15940.75
700.651	15883.81
700.997	15725.17
701.342	15801.32
701.688	15725.17
702.033	15843.81
702.379	15708.44
702.724	15725.62
703.069	15834.54
703.415	15479.3
703.76	15557.03
704.105	15548
704.45	15539.18
704.795	15403.82
705.14	15445.4
705.485	15416.25
705.83	15331.73
706.175	15304.39
706.52	15255.8
706.865	15229.81
707.209	15257.16
707.554	15230.26
707.899	15221.45
708.243	15110.94
708.588	15137.61
708.932	14969.93
709.277	14961.57
709.621	14960.44
709.966	14945.98
710.31	14893.78
710.654	14734.46
710.998	14843.61
711.342	14896.49
711.687	14821.91
712.031	14797.73
712.375	14632.54
712.719	14637.96
713.063	14718.41
713.407	14703.27
713.75	14587.34
714.094	14561.58
714.438	14526.55
714.782	14524.75
715.125	14521.13
715.469	14503.05
715.812	14456.05
716.156	14367.24
716.499	14346.22
716.843	14414.92
717.186	14236.17
717.53	14297.63
717.873	14324.75
718.216	14219.44
718.559	14142.38
718.902	14092.89
719.246	14182.16
719.589	14043.4
719.932	14025.1
720.275	14028.71
720.617	14056.06
720.96	13937.19
721.303	13978.09
721.646	13944.65
721.989	13860.58
722.331	13842.28
722.674	13849.51
723.016	13853.35
723.359	13828.94
723.701	13831.43
724.044	13708.27
724.386	13597.54
724.729	13744.43
725.071	13769.96
725.413	13633.92
725.755	13647.71
726.097	13630.76
726.439	13559.57
726.782	13535.39
727.124	13632.34
727.465	13497.2
727.807	13533.58
728.149	13472.34
728.491	13390.31
728.833	13416.75
729.175	13475.28
729.516	13397.54
729.858	13252.46
730.199	13338.79
730.541	13326.36
730.882	13256.98
731.224	13353.48
731.565	13203.42
731.906	13248.17
732.248	13153.03
732.589	13074.84
732.93	13158
733.271	13077.33
733.612	13091.79
733.953	13050.43
734.294	13072.58
734.635	13026.03
734.976	13020.38
735.317	13015.41
735.658	12972.47
735.999	12984.9
736.339	12795.53
736.68	12924.79
737.021	12900.61
737.361	12793.27
737.702	12934.96
738.042	12802.3
738.383	12813.38
738.723	12823.1
739.063	12749.65
739.404	12771.57
739.744	12700.16
740.084	12570.9
740.424	12653.16
740.764	12658.13
741.104	12685.7
741.444	12581.52
741.784	12524.8
742.124	12433.5
742.464	12568.19
742.804	12538.81
743.143	12434.86
743.483	12419.94
743.823	12384.24
744.162	12391.02
744.502	12358.47
744.841	12250.23
745.181	12352.6
745.52	12296.1
745.86	12333.62
746.199	12298.82
746.538	12283.9
746.877	12257.69
747.216	12204.13
747.556	12190.8
747.895	12198.7
748.234	12125.94
748.573	12150.34
748.911	12098.14
749.25	12124.58
749.589	12034.19
749.928	12057.47
750.267	12165.71
750.605	11977.24
750.944	11981.31
751.283	11939.28
751.621	11910.8
751.96	11870.13
752.298	11952.61
752.636	11838.04
752.975	11847.53
753.313	11750.58
753.651	11816.34
753.989	11757.59
754.327	11740.86
754.666	11683.24
755.004	11626.97
755.342	11652.96
755.679	11668.1
756.017	11553.98
756.355	11582.9
