Data from foam1_polythene_foam_FLMS001491_00044.txt Node
Date: Wed Feb 08 10:54:53 GMT 2017
User: dcchb
Spectrometer: FLMS00149
Trigger mode: 0
Integration Time (sec): 2.000000E-2
Scans to average: 10
Electric dark correction enabled: true
Nonlinearity correction enabled: false
Boxcar width: 0
XAxis mode: Wavelengths
Number of Pixels in Spectrum: 2048
>>>>>Begin Spectral Data<<<<<
341.393	-15.96
341.776	-15.96
342.16	-15.96
342.543	-53.25
342.927	-51.67
343.31	-57.99
343.693	-72.46
344.077	-56.86
344.46	-54.83
344.843	-58.22
345.226	-44.89
345.61	-50.08
345.993	-15.28
346.376	-6.02
346.759	9.35
347.142	21.33
347.525	40.08
347.908	55.22
348.291	91.83
348.674	94.09
349.057	104.71
349.44	125.73
349.823	140.87
350.206	165.28
350.588	182
350.971	201.44
351.354	211.6
351.737	207.99
352.119	219.97
352.502	258.38
352.884	255.9
353.267	265.16
353.65	280.08
354.032	305.39
354.414	292.51
354.797	297.48
355.179	315.33
355.562	282.11
355.944	313.3
356.326	299.96
356.709	320.08
357.091	313.07
357.473	325.27
357.855	333.18
358.238	347.42
358.62	335.9
359.002	333.86
359.384	328.66
359.766	335.22
360.148	335.22
360.53	343.13
360.912	319.4
361.294	317.82
361.676	320.98
362.057	306.97
362.439	319.85
362.821	319.85
363.203	296.35
363.584	300.19
363.966	305.16
364.348	310.13
364.729	311.04
365.111	316.91
365.493	330.7
365.874	314.65
366.256	286.63
366.637	325.05
367.019	307.2
367.4	319.4
367.781	307.65
368.163	302.68
368.544	287.53
368.925	307.42
369.306	311.04
369.688	302.68
370.069	309.68
370.45	295.9
370.831	316.23
371.212	294.54
371.593	299.06
371.974	293.18
372.355	318.04
372.736	319.4
373.117	293.86
373.498	307.42
373.879	300.42
374.26	304.26
374.641	302.45
375.021	298.61
375.402	322.11
375.783	324.37
376.163	313.97
376.544	300.19
376.925	307.65
377.305	312.62
377.686	313.97
378.066	295.44
378.447	316.91
378.827	337.48
379.208	321.88
379.588	342
379.968	340.41
380.349	294.31
380.729	320.98
381.109	315.56
381.489	322.11
381.87	333.41
382.25	337.7
382.63	344.03
383.01	334.09
383.39	323.24
383.77	326.18
384.15	355.1
384.53	334.99
384.91	334.77
385.29	334.54
385.67	332.73
386.049	327.53
386.429	336.8
386.809	342.9
387.189	355.78
387.568	321.21
387.948	350.13
388.328	368.66
388.707	349
389.087	339.28
389.466	356.23
389.846	341.09
390.225	352.39
390.605	370.7
390.984	337.48
391.363	379.96
391.743	366.63
392.122	362.79
392.501	382.67
392.881	380.19
393.26	381.54
393.639	350.58
394.018	367.08
394.397	387.42
394.776	366.18
395.155	360.53
395.534	402.56
395.913	393.97
396.292	378.83
396.671	394.42
397.05	385.84
397.429	376.57
397.808	390.81
398.186	390.36
398.565	403.69
398.944	397.36
399.323	404.59
399.701	405.5
400.08	400.53
400.458	414.54
400.837	429.45
401.215	404.59
401.594	405.72
401.972	412.28
402.351	404.14
402.729	422.67
403.107	444.14
403.486	437.36
403.864	424.25
404.242	414.31
404.62	425.61
404.999	418.6
405.377	431.71
405.755	454.76
406.133	413.18
406.511	424.48
406.889	442.11
407.267	432.39
407.645	459.51
408.023	454.31
408.401	457.47
408.779	458.83
409.156	458.83
409.534	457.93
409.912	476.23
410.29	476
410.667	474.65
411.045	484.37
411.422	486.17
411.8	496.57
412.178	484.82
412.555	481.43
412.933	471.94
413.31	479.39
413.687	506.06
414.065	516
414.442	518.04
414.819	532.95
415.197	527.08
415.574	521.43
415.951	521.88
416.328	555.55
416.705	533.18
417.082	541.31
417.46	550.58
417.837	562.33
418.214	557.58
418.591	566.4
418.967	577.24
419.344	577.24
419.721	584.25
420.098	573.4
420.475	586.74
420.852	573.4
421.228	584.25
421.605	606.62
421.982	596
422.358	602.33
422.735	602.33
423.111	614.08
423.488	615.44
423.864	618.6
424.241	620.41
424.617	633.29
424.994	645.04
425.37	629.22
425.746	628.77
426.123	642.1
426.499	641.42
426.875	651.82
427.251	657.69
427.627	667.86
428.003	671.48
428.379	678.26
428.756	677.58
429.132	668.09
429.507	695.21
429.883	707.86
430.259	692.04
430.635	737.24
431.011	707.64
431.387	728.2
431.763	757.13
432.138	765.26
432.514	744.47
432.89	737.47
433.265	754.64
433.641	767.75
434.016	779.27
434.392	813.85
434.767	806.39
435.143	807.3
435.518	821.08
435.894	830.12
436.269	831.93
436.644	850.01
437.02	850.46
437.395	826.96
437.77	873.51
438.145	861.08
438.52	885.49
438.895	921.19
439.271	902.89
439.646	910.34
440.021	922.09
440.395	916.9
440.77	910.8
441.145	928.65
441.52	935.43
441.895	951.25
442.27	955.31
442.645	948.31
443.019	955.77
443.394	962.32
443.769	971.36
444.143	977.91
444.518	1027.18
444.892	1012.04
445.267	997.12
445.641	1006.16
446.016	1033.73
446.39	1034.41
446.764	1035.76
447.139	1054.75
447.513	1077.34
447.887	1050.45
448.262	1085.71
448.636	1096.55
449.01	1101.98
449.384	1100.85
449.758	1107.85
450.132	1152.82
450.506	1142.65
450.88	1138.81
451.254	1154.86
451.628	1185.36
452.002	1172.94
452.376	1205.93
452.75	1215.19
453.123	1186.49
453.497	1221.97
453.871	1231.92
454.244	1217.68
454.618	1214.29
454.992	1268.53
455.365	1259.49
455.739	1273.27
456.112	1306.94
456.486	1320.95
456.859	1326.38
457.232	1355.53
457.606	1340.84
457.979	1342.87
458.352	1358.02
458.725	1386.49
459.099	1391.91
459.472	1423.1
459.845	1397.34
460.218	1437.11
460.591	1421.06
460.964	1442.76
461.337	1459.03
461.71	1484.57
462.083	1504.68
462.456	1515.53
462.829	1508.75
463.201	1531.34
463.574	1508.52
463.947	1552.36
464.32	1557.56
464.692	1590.55
465.065	1607.05
465.438	1618.8
465.81	1629.42
466.183	1692.47
466.555	1693.37
466.928	1718.01
467.3	1691.11
467.672	1687.27
468.045	1729.76
468.417	1751.9
468.789	1768.85
469.161	1782.41
469.534	1814.05
469.906	1843.43
470.278	1854.05
470.65	1881.17
471.022	1903.99
471.394	1943.54
471.766	1954.61
472.138	1974.04
472.51	1996.42
472.882	2059.47
473.253	2085
473.625	2101.5
473.997	2134.72
474.369	2130.2
474.74	2164.55
475.112	2179.91
475.484	2252.68
475.855	2228.95
476.227	2306.01
476.598	2357.31
476.97	2339.23
477.341	2391.66
477.713	2423.3
478.084	2430.76
478.455	2504.65
478.827	2509.62
479.198	2594.37
479.569	2623.74
479.94	2668.26
480.311	2675.27
480.682	2774.25
481.053	2807.24
481.424	2851.76
481.795	2904.19
482.166	2914.13
482.537	2952.32
482.908	3000.46
483.279	3029.61
483.65	3080.23
484.021	3135.6
484.391	3174.69
484.762	3202.49
485.133	3216.27
485.503	3276.16
485.874	3343.27
486.244	3348.47
486.615	3455.36
486.985	3459.43
487.356	3541.23
487.726	3580.78
488.097	3617.62
488.467	3649.25
488.837	3745.07
489.207	3800.89
489.578	3820.78
489.948	3796.82
490.318	3919.3
490.688	3941
491.058	3970.15
491.428	4053.54
491.798	4090.37
492.168	4144.61
492.538	4160.43
492.908	4232.52
493.278	4256.47
493.648	4279.52
494.017	4390.25
494.387	4339.63
494.757	4455.79
495.126	4465.96
495.496	4481.1
495.866	4550.7
496.235	4601.09
496.605	4629.12
496.974	4683.58
497.344	4684.48
497.713	4772.61
498.082	4726.06
498.452	4879.5
498.821	4845.61
499.19	4881.54
499.559	4945.94
499.928	4985.04
500.298	5000.18
500.667	5064.58
501.036	5062.32
501.405	5094.41
501.774	5138.71
502.143	5177.35
502.512	5211.7
502.88	5240.17
503.249	5258.93
503.618	5297.12
503.987	5322.88
504.356	5336.44
504.724	5406.72
505.093	5410.11
505.462	5476.32
505.83	5506.61
506.199	5533.5
506.567	5620.5
506.936	5613.72
507.304	5684.46
507.672	5685.36
508.041	5733.95
508.409	5825.24
508.777	5865.92
509.145	5928.52
509.514	5925.58
509.882	5994.96
510.25	5980.27
510.618	6052.58
510.986	6086.03
511.354	6114.5
511.722	6179.36
512.09	6292.35
512.458	6233.37
512.826	6296.64
513.193	6355.62
513.561	6391.56
513.929	6432.01
514.297	6473.59
514.664	6554.04
515.032	6563.98
515.4	6622.28
515.767	6684.43
516.135	6690.53
516.502	6679.46
516.869	6836.74
517.237	6906.34
517.604	6863.63
517.972	6942.05
518.339	6955.61
518.706	6993.8
519.073	7118.77
519.44	7118.54
519.808	7190.63
520.175	7175.26
520.542	7304.3
520.909	7356.05
521.276	7449.83
521.643	7484.63
522.009	7513.33
522.376	7562.37
522.743	7665.65
523.11	7621.13
523.477	7782.93
523.843	7827.9
524.21	7929.37
524.577	7965.3
524.943	7961.46
525.31	8047.1
525.676	8185.86
526.043	8107.89
526.409	8199.64
526.776	8309.92
527.142	8364.16
527.508	8430.82
527.874	8452.07
528.241	8488.45
528.607	8542.68
528.973	8651.61
529.339	8632.85
529.705	8757.37
530.071	8848.67
530.437	8836.46
530.803	8894.99
531.169	8962.79
531.535	8929.57
531.901	9005.95
532.267	9029.45
532.632	9078.04
532.998	9145.38
533.364	9195.55
533.73	9201.2
534.095	9341.31
534.461	9297.69
534.826	9404.81
535.192	9436.22
535.557	9567.97
535.923	9554.41
536.288	9509.89
536.653	9635.31
537.019	9620.4
537.384	9669.21
537.749	9720.51
538.114	9745.37
538.479	9731.58
538.845	9896.55
539.21	9796.21
539.575	9869.66
539.94	9868.53
540.305	9956.66
540.67	9924.12
541.034	9991.91
541.399	10083.21
541.764	10048.41
542.129	10085.92
542.494	10197.78
542.858	10218.35
543.223	10186.03
543.587	10292.24
543.952	10322.53
544.316	10337.44
544.681	10280.49
545.045	10444.1
545.41	10422.64
545.774	10410.43
546.138	10503.09
546.503	10504.67
546.867	10501.73
547.231	10635.51
547.595	10651.78
547.959	10678.67
548.324	10790.76
548.688	10788.28
549.052	10744.66
549.416	10857.65
549.779	10775.39
550.143	10883.41
550.507	10902.17
550.871	10991.43
551.235	11027.37
551.599	11080.47
551.962	11133.58
552.326	11162.28
552.689	11287.92
553.053	11195.27
553.417	11178.77
553.78	11342.84
554.143	11348.26
554.507	11422.38
554.87	11443.85
555.234	11461.93
555.597	11362.72
555.96	11546.67
556.323	11563.85
556.686	11596.62
557.05	11741.7
557.413	11634.58
557.776	11708.48
558.139	11847.46
558.502	11904.63
558.865	11924.29
559.228	11996.83
559.59	12069.6
559.953	12120.67
560.316	12241.34
560.679	12251.06
561.041	12298.74
561.404	12295.13
561.767	12449.25
562.129	12390.95
562.492	12573.77
562.854	12504.84
563.217	12550.04
563.579	12559.75
563.941	12639.98
564.304	12730.82
564.666	12818.96
565.028	12810.37
565.39	12845.17
565.753	12943.25
566.115	13032.96
566.477	12965.39
566.839	13068.89
567.201	13139.4
567.563	13239.96
567.925	13207.65
568.287	13229.12
568.648	13285.39
569.01	13381.43
569.372	13502.55
569.734	13452.61
570.095	13609.67
570.457	13518.6
570.819	13663.45
571.18	13648.54
571.542	13689.67
571.903	13783.68
572.265	13750.23
572.626	13790.68
572.987	13829.33
573.349	13833.39
573.71	13905.26
574.071	13999.49
574.432	13926.05
574.794	14058.47
575.155	14067.74
575.516	14012.15
575.877	14187.73
576.238	14156.77
576.599	14255.3
576.96	14232.7
577.32	14200.84
577.681	14312.02
578.042	14390.67
578.403	14335.3
578.763	14307.73
579.124	14344.11
579.485	14401.74
579.845	14486.03
580.206	14425.47
580.566	14455.98
580.927	14481.51
581.287	14494.17
581.648	14420.27
582.008	14474.05
582.368	14547.5
582.728	14576.42
583.089	14661.85
583.449	14550.89
583.809	14616.2
584.169	14613.94
584.529	14588.18
584.889	14675.18
585.249	14644.45
585.609	14530.55
585.969	14700.49
586.329	14623.66
586.688	14691.45
587.048	14691.22
587.408	14661.39
587.768	14636.76
588.127	14608.51
588.487	14548.85
588.846	14656.42
589.206	14599.47
589.565	14670.43
589.925	14675.18
590.284	14693.94
590.643	14659.36
591.003	14610.55
591.362	14793.59
591.721	14699.36
592.08	14750.43
592.44	14759.24
592.799	14773.26
593.158	14761.5
593.517	14708.17
593.876	14762.18
594.235	14710.21
594.593	14763.99
594.952	14747.95
595.311	14697.33
595.67	14799.7
596.029	14941.16
596.387	14946.58
596.746	14985.68
597.104	14845.8
597.463	14831.79
597.822	14834.72
598.18	14789.3
598.538	14802.18
598.897	14888.73
599.255	14783.65
599.613	15094.6
599.972	14907.04
600.33	14955.17
600.688	14918.79
601.046	14992.01
601.404	14962.86
601.762	14904.33
602.12	15040.82
602.478	15044.43
602.836	15033.59
603.194	15045.34
603.552	14979.13
603.91	14954.49
604.268	15064.77
604.625	14940.93
604.983	15000.37
605.341	14948.39
605.698	15065.45
606.056	15188.39
606.413	15167.82
606.771	15207.14
607.128	15220.25
607.485	15131.89
607.843	15157.88
608.2	15218.44
608.557	15152.68
608.914	15187.48
609.272	15329.85
609.629	15323.52
609.986	15438.32
610.343	15378.89
610.7	15432
611.057	15408.04
611.414	15352.22
611.771	15330.3
612.127	15430.64
612.484	15410.98
612.841	15470.19
613.198	15409.62
613.554	15398.32
613.911	15503.86
614.267	15519
614.624	15581.37
614.98	15577.75
615.337	15543.4
615.693	15570.75
616.05	15554.03
616.406	15697.75
616.762	15540.69
617.118	15682.16
617.475	15643.97
617.831	15608.26
618.187	15751.76
618.543	15604.19
618.899	15693.23
619.255	15646.68
619.611	15610.07
619.967	15728.94
620.323	15718.99
620.678	15679.9
621.034	15678.09
621.39	15695.04
621.746	15711.08
622.101	15851.42
622.457	15633.57
622.812	15766.68
623.168	15657.53
623.523	15724.19
623.879	15740.01
624.234	15698.88
624.589	15758.09
624.945	15833.11
625.3	15755.15
625.655	15702.5
626.01	15653.91
626.365	15766.45
626.72	15725.77
627.075	15720.12
627.43	15716.73
627.785	15668.37
628.14	15693.23
628.495	15708.82
628.85	15704.3
629.205	15627.7
629.559	15733
629.914	15613.01
630.269	15742.04
630.623	15552.67
630.978	15597.87
631.332	15636.96
631.687	15780.46
632.041	15636.51
632.396	15479.9
632.75	15592.44
633.104	15542.5
633.459	15499.34
633.813	15445.33
634.167	15426.12
634.521	15461.15
634.875	15484.2
635.229	15410.75
635.583	15382.73
635.937	15364.43
636.291	15383.86
636.645	15420.47
636.999	15362.84
637.352	15362.62
637.706	15231.32
638.06	15384.99
638.413	15225.9
638.767	15318.78
639.121	15381.6
639.474	15192.91
639.828	15223.87
640.181	15155.62
640.534	15221.38
640.888	15218.22
641.241	15137.77
641.594	15130.76
641.947	15048.95
642.301	15106.35
642.654	15147.71
643.007	15094.83
643.36	15084.21
643.713	15074.94
644.066	15073.36
644.419	14976.19
644.771	15003.76
645.124	14863.87
645.477	14906.13
645.83	14754.5
646.182	14532.81
646.535	14457.78
646.888	14464.56
647.24	14387.05
647.593	14466.15
647.945	14427.28
648.298	14353.15
648.65	14230.9
649.002	14230.9
649.355	14298.24
649.707	14308.64
650.059	14395.41
650.411	14558.57
650.763	14548.18
651.115	14735.06
651.467	14653.26
651.819	14762.86
652.171	14655.52
652.523	14692.81
652.875	14657.1
653.227	14581.85
653.578	14654.84
653.93	14653.03
654.282	14521.28
654.633	14504.79
654.985	14532.81
655.337	14548.18
655.688	14396.77
656.039	14514.96
656.391	14408.52
656.742	14482.64
657.094	14493.94
657.445	14579.59
657.796	14507.73
658.147	14458.91
658.498	14458.91
658.849	14493.94
659.2	14473.6
659.551	14396.09
659.902	14396.99
660.253	14374.62
660.604	14427.28
660.955	14330.1
661.306	14341.4
661.656	14315.64
662.007	14306.6
662.358	14335.53
662.708	14348.63
663.059	14255.3
663.409	14250.11
663.76	14295.53
664.11	14247.39
664.461	14303.44
664.811	14275.64
665.161	14318.13
665.511	14224.57
665.862	14241.74
666.212	14342.76
666.562	14264.79
666.912	14203.78
667.262	14147.06
667.612	14202.42
667.962	14222.54
668.312	14150.22
668.662	14274.96
669.011	14258.92
669.361	14152.48
669.711	14242.87
670.06	14124.91
670.41	14133.05
670.76	14133.72
671.109	14186.83
671.459	14037
671.808	14069.09
672.157	14181.86
672.507	14056.66
672.856	14030.68
673.205	14054.18
673.554	14099.6
673.904	14080.84
674.253	14074.29
674.602	14117.23
674.951	13904.35
675.3	13785.03
675.649	14047.4
675.998	14022.31
676.346	13968.76
676.695	14086.27
677.044	13939.61
677.393	14024.12
677.741	13989.1
678.09	13982.54
678.438	13874.3
678.787	13887.63
679.135	13863.9
679.484	13798.59
679.832	13836.56
680.181	13781.19
680.529	13842.88
680.877	13816.9
681.225	13777.35
681.573	13882.21
681.922	13754.98
682.27	13658.93
682.618	13752.72
682.966	13696.45
683.314	13679.95
683.661	13596.11
684.009	13558.82
684.357	13545.04
684.705	13635.43
685.053	13523.12
685.4	13550.46
685.748	13467.75
686.095	13468.43
686.443	13371.26
686.79	13404.7
687.138	13431.82
687.485	13436.12
687.832	13386.85
688.18	13425.27
688.527	13290.36
688.874	13296.68
689.221	13274.31
689.568	13084.03
689.915	13201.09
690.262	13166.52
690.609	13165.16
690.956	13091.94
691.303	13063.47
691.65	12956.35
691.997	13039.06
692.344	12934.89
692.69	12935.34
693.037	12882.91
693.383	12872.51
693.73	12929.91
694.077	12717.72
694.423	12808.11
694.769	12759.98
695.116	12694.67
695.462	12584.39
695.808	12701.45
696.155	12675.23
696.501	12579.42
696.847	12524.05
697.193	12447.44
697.539	12485.86
697.885	12445.18
698.231	12345.75
698.577	12393.21
698.923	12323.38
699.269	12304.85
699.614	12328.8
699.96	12291.96
700.306	12269.37
700.651	12254.9
700.997	12155.25
701.342	12093.33
701.688	12158.18
702.033	12083.61
702.379	12083.38
702.724	12061.69
703.069	12009.71
703.415	11838.64
703.76	11939.66
704.105	11931.07
704.45	11881.13
704.795	11786.89
705.14	11761.58
705.485	11862.6
705.83	11650.4
706.175	11733.56
706.52	11747.8
706.865	11527.69
707.209	11637.97
707.554	11540.8
707.899	11597.75
708.243	11423.74
708.588	11454.47
708.932	11424.19
709.277	11451.54
709.621	11474.36
709.966	11396.4
710.31	11407.92
710.654	11316.17
710.998	11267.36
711.342	11358.43
711.687	11310.97
712.031	11211.54
712.375	11191.65
712.719	11216.06
713.063	11223.29
713.407	11259
713.75	11141.49
714.094	11224.2
714.438	11188.27
714.782	11173.8
715.125	11096.74
715.469	11159.57
715.812	11013.58
716.156	10957.54
716.499	11020.81
716.843	10962.73
717.186	10922.28
717.53	10959.12
717.873	10915.28
718.216	10880.25
718.559	10852
718.902	10813.13
719.246	10772.46
719.589	10745.34
719.932	10726.13
720.275	10723.87
720.617	10730.2
720.96	10697.2
721.303	10727.03
721.646	10695.85
721.989	10599.81
722.331	10616.53
722.674	10645.68
723.016	10599.81
723.359	10586.25
723.701	10555.29
724.044	10481.62
724.386	10513.48
724.729	10501.05
725.071	10533.82
725.413	10459.02
725.755	10421.51
726.097	10495.63
726.439	10420.15
726.782	10358.46
727.124	10407.04
727.465	10358.91
727.807	10315.52
728.149	10284.33
728.491	10286.82
728.833	10336.99
729.175	10288.18
729.516	10356.2
729.858	10245.01
730.199	10239.82
730.541	10303.54
730.882	10299.93
731.224	10276.88
731.565	10184.45
731.906	10245.24
732.248	10151.68
732.589	10100.84
732.93	10139.71
733.271	10119.59
733.612	10157.33
733.953	10181.51
734.294	10089.99
734.635	10062.65
734.976	10072.36
735.317	9914.85
735.658	9942.65
735.999	10041.18
736.339	9996.88
736.68	10002.31
737.021	9917.79
737.361	9883.89
737.702	9997.56
738.042	9918.24
738.383	9868.98
738.723	9913.95
739.063	9878.92
739.404	9915.76
739.744	9789.21
740.084	9806.83
740.424	9866.72
740.764	9794.63
741.104	9820.84
741.444	9671.02
741.784	9701.75
742.124	9727.96
742.464	9625.37
742.804	9671.02
743.143	9687.74
743.483	9690.68
743.823	9645.25
744.162	9641.41
744.502	9662.66
744.841	9586.27
745.181	9584.69
745.52	9534.75
745.86	9548.31
746.199	9571.81
746.538	9445.26
746.877	9502.89
747.216	9545.14
747.556	9580.17
747.895	9516.44
748.234	9468.76
748.573	9447.97
748.911	9424.92
749.25	9439.16
749.589	9432.38
749.928	9428.99
750.267	9416.33
750.605	9400.06
750.944	9329.33
751.283	9333.62
751.621	9417.92
751.96	9276.23
752.298	9279.61
752.636	9295.43
752.975	9210.24
753.313	9234.64
753.651	9235.32
753.989	9194.87
754.327	9206.4
754.666	9159.62
755.004	9087.98
755.342	9119.84
755.679	9125.27
756.017	9024.71
756.355	9075.33
756.693	9066.74
757.031	9016.57
757.368	8913.75
757.706	8977.25
758.044	8834.88
758.381	8942
758.719	8877.14
759.056	8855.67
759.394	8845.28
