Data from foam_black_FLMS001491_00071.txt Node
Date: Wed Feb 08 10:44:36 GMT 2017
User: dcchb
Spectrometer: FLMS00149
Trigger mode: 0
Integration Time (sec): 2.000000E-2
Scans to average: 10
Electric dark correction enabled: true
Nonlinearity correction enabled: false
Boxcar width: 0
XAxis mode: Wavelengths
Number of Pixels in Spectrum: 2048
>>>>>Begin Spectral Data<<<<<
341.393	-3.16
341.776	-3.16
342.16	-3.16
342.543	-58.08
342.927	-56.27
343.31	-65.53
343.693	-75.7
344.077	-51.98
344.46	-48.13
344.843	-35.03
345.226	-14.24
345.61	-47.91
345.993	-28.25
346.376	-15.37
346.759	2.03
347.142	19.89
347.525	44.97
347.908	73.67
348.291	66.66
348.674	73.44
349.057	101.47
349.44	137.62
349.823	132.43
350.206	153.44
350.588	177.62
350.971	186.21
351.354	204.29
351.737	228.47
352.119	217.62
352.502	250.39
352.884	262.59
353.267	280.9
353.65	280.22
354.032	270.73
354.414	307.11
354.797	302.36
355.179	301.01
355.562	301.46
355.944	305.53
356.326	306.43
356.709	322.25
357.091	338.75
357.473	335.36
357.855	338.75
358.238	329.48
358.62	329.71
359.002	302.36
359.384	338.3
359.766	322.25
360.148	301.46
360.53	328.13
360.912	343.27
361.294	315.92
361.676	304.4
362.057	337.84
362.439	338.75
362.821	303.49
363.203	325.19
363.584	301.69
363.966	319.09
364.348	289.48
364.729	311.63
365.111	313.89
365.493	288.35
365.874	296.26
366.256	287
366.637	315.02
367.019	298.75
367.4	280.67
367.781	286.55
368.163	284.74
368.544	285.42
368.925	292.87
369.306	302.36
369.688	281.35
370.069	284.74
370.45	284.96
370.831	298.75
371.212	289.94
371.593	289.94
371.974	302.14
372.355	301.01
372.736	284.96
373.117	322.03
373.498	321.8
373.879	293.78
374.26	298.07
374.641	297.85
375.021	303.49
375.402	291.97
375.783	308.01
376.163	303.49
376.544	295.81
376.925	302.82
377.305	323.83
377.686	325.19
378.066	305.75
378.447	304.4
378.827	323.61
379.208	330.39
379.588	316.83
379.968	317.51
380.349	310.05
380.729	332.65
381.109	300.33
381.489	312.08
381.87	303.04
382.25	329.03
382.63	345.53
383.01	335.13
383.39	308.24
383.77	313.66
384.15	343.95
384.53	333.78
384.91	321.8
385.29	335.36
385.67	340.56
386.049	322.48
386.429	342.14
386.809	342.82
387.189	340.78
387.568	319.09
387.948	321.35
388.328	347.56
388.707	325.64
389.087	341.91
389.466	335.58
389.846	333.1
390.225	362.02
390.605	388.24
390.984	333.78
391.363	356.83
391.743	330.16
392.122	349.37
392.501	346.66
392.881	375.13
393.26	357.73
393.639	365.41
394.018	344.62
394.397	388.69
394.776	364.06
395.155	352.31
395.534	380.1
395.913	358.63
396.292	343.95
396.671	380.33
397.05	385.53
397.429	377.39
397.808	366.09
398.186	366.54
398.565	380.55
398.944	389.59
399.323	387.33
399.701	381.46
400.08	390.05
400.458	389.59
400.837	393.21
401.215	403.15
401.594	401.8
401.972	373.78
402.351	366.09
402.729	389.59
403.107	404.28
403.486	393.89
403.864	408.8
404.242	383.94
404.62	390.5
404.999	395.92
405.377	390.05
405.755	414.68
406.133	414
406.511	416.03
406.889	399.76
407.267	409.71
407.645	434.11
408.023	416.03
408.401	420.55
408.779	427.33
409.156	429.14
409.534	422.81
409.912	410.16
410.29	444.06
410.667	433.66
411.045	445.41
411.422	446.54
411.8	449.25
412.178	445.64
412.555	434.56
412.933	459.65
413.31	455.13
413.687	472.3
414.065	479.54
414.442	480.67
414.819	474.11
415.197	482.02
415.574	485.86
415.951	480.67
416.328	476.6
416.705	488.8
417.082	486.99
417.46	510.95
417.837	487.44
418.214	505.52
418.591	496.48
418.967	494.22
419.344	494.68
419.721	490.38
420.098	507.56
420.475	487.22
420.852	531.51
421.228	503.26
421.605	516.37
421.982	526.09
422.358	541.68
422.735	537.84
423.111	534
423.488	526.09
423.864	521.12
424.241	542.81
424.617	532.64
424.994	552.3
425.37	531.74
425.746	537.61
426.123	525.86
426.499	550.72
426.875	554.34
427.251	564.28
427.627	543.94
428.003	567.67
428.379	576.71
428.756	580.32
429.132	588.23
429.507	595.69
429.883	590.27
430.259	601.79
430.635	595.01
431.011	604.28
431.387	618.29
431.763	607.89
432.138	599.98
432.514	609.25
432.89	622.81
433.265	629.81
433.641	668.01
434.016	637.5
434.392	659.87
434.767	645.18
435.143	674.56
435.518	688.57
435.894	650.6
436.269	663.03
436.644	675.69
437.02	682.92
437.395	678.4
437.77	680.89
438.145	697.61
438.52	687.67
438.895	705.97
439.271	715.24
439.646	740.32
440.021	702.81
440.395	704.16
440.77	707.1
441.145	731.05
441.52	719.3
441.895	726.08
442.27	755.69
442.645	735.8
443.019	752.97
443.394	721.11
443.769	741.22
444.143	755.01
444.518	758.85
444.892	747.1
445.267	741.22
445.641	743.71
446.016	755.69
446.39	765.63
446.764	774.22
447.139	787.78
447.513	783.48
447.887	769.25
448.262	800.2
448.636	792.75
449.01	794.1
449.384	790.94
449.758	819.41
450.132	823.26
450.506	811.73
450.88	838.85
451.254	807.66
451.628	831.16
452.002	824.61
452.376	837.49
452.75	867.77
453.123	867.55
453.497	884.04
453.871	859.19
454.244	874.33
454.618	884.72
454.992	912.97
455.365	910.94
455.739	934.66
456.112	910.48
456.486	934.21
456.859	932.86
457.232	962.01
457.606	919.75
457.979	962.91
458.352	981.67
458.725	973.31
459.099	975.12
459.472	976.7
459.845	998.62
460.218	1020.54
460.591	1026.64
460.964	1023.02
461.337	1023.02
461.71	1064.15
462.083	1070.48
462.456	1062.8
462.829	1086.07
463.201	1083.59
463.574	1073.19
463.947	1115
464.32	1119.52
464.692	1126.3
465.065	1138.73
465.438	1161.33
465.81	1131.5
466.183	1171.04
466.555	1209.91
466.928	1195
467.3	1174.43
467.672	1207.88
468.045	1258.05
468.417	1249.68
468.789	1242.91
469.161	1270.7
469.534	1268.22
469.906	1292.4
470.278	1297.82
470.65	1324.48
471.022	1322
471.394	1330.36
471.766	1372.39
472.138	1378.72
472.51	1404.26
472.882	1429.57
473.253	1438.61
473.625	1453.97
473.997	1459.4
474.369	1480.64
474.74	1514.08
475.112	1534.42
475.484	1524.03
475.855	1560.18
476.227	1587.75
476.598	1596.34
476.97	1639.28
477.341	1666.17
477.713	1658.49
478.084	1688.09
478.455	1716.34
478.827	1731.03
479.198	1770.8
479.569	1767.41
479.94	1843.34
480.311	1814.19
480.682	1843.57
481.053	1838.6
481.424	1938.03
481.795	1941.87
482.166	1954.07
482.537	1985.26
482.908	2055.31
483.279	2026.84
483.65	2034.97
484.021	2091.02
484.391	2133.96
484.762	2154.29
485.133	2180.96
485.503	2168.08
485.874	2258.92
486.244	2241.97
486.615	2262.77
486.985	2316.32
487.356	2345.48
487.726	2348.19
488.097	2409.88
488.467	2375.76
488.837	2475.87
489.207	2497.11
489.578	2517.22
489.948	2526.94
490.318	2575.75
490.688	2571.68
491.058	2630.21
491.428	2621.63
491.798	2634.28
492.168	2686.26
492.538	2728.29
492.908	2705.24
493.278	2735.97
493.648	2774.16
494.017	2778.23
494.387	2816.88
494.757	2833.82
495.126	2875.18
495.496	2895.52
495.866	2862.98
496.235	2896.87
496.605	2963.31
496.974	2973.03
497.344	3006.25
497.713	2996.31
498.082	3008.06
498.452	3081.27
498.821	3043.99
499.19	3111.33
499.559	3149.75
499.928	3157.43
500.298	3206.47
500.667	3153.59
501.036	3170.76
501.405	3266.13
501.774	3278.56
502.143	3285.34
502.512	3291.44
502.88	3344.77
503.249	3347.71
503.618	3351.1
503.987	3324.66
504.356	3394.04
504.724	3375.05
505.093	3406.01
505.462	3460.02
505.83	3453.69
506.199	3499.12
506.567	3539.57
506.936	3525.33
507.304	3560.13
507.672	3582.28
508.041	3631.32
508.409	3590.87
508.777	3617.08
509.145	3684.42
509.514	3741.6
509.882	3737.3
510.25	3705.21
510.618	3800.35
510.986	3764.87
511.354	3819.33
511.722	3835.15
512.09	3826.34
512.458	3817.75
512.826	3872.21
513.193	3921.48
513.561	3934.59
513.929	3938.65
514.297	3984.75
514.664	4032.21
515.032	4015.26
515.4	4045.32
515.767	4056.84
516.135	4094.81
516.502	4119.89
516.869	4120.8
517.237	4188.36
517.604	4139.55
517.972	4189.95
518.339	4266.33
518.706	4256.84
519.073	4293.9
519.44	4343.39
519.808	4391.97
520.175	4413.22
520.542	4422.93
520.909	4459.32
521.276	4439.21
521.643	4471.75
522.009	4560.11
522.376	4542.03
522.743	4636.04
523.11	4655.7
523.477	4697.05
523.843	4721.23
524.21	4690.27
524.577	4778.86
524.943	4797.16
525.31	4876.93
525.676	4921
526.043	4909.93
526.409	4930.49
526.776	4977.5
527.142	5034.22
527.508	4978.4
527.874	5090.71
528.241	5080.32
528.607	5152.18
528.973	5148.11
529.339	5213.87
529.705	5222.24
530.071	5248
530.437	5314.21
530.803	5317.83
531.169	5383.36
531.535	5375.9
531.901	5387.43
532.267	5442.57
532.632	5483.47
532.998	5498.84
533.364	5535.45
533.73	5536.58
534.095	5579.51
534.461	5583.13
534.826	5651.15
535.192	5674.2
535.557	5678.27
535.923	5684.37
536.288	5721.66
536.653	5737.7
537.019	5729.34
537.384	5851.15
537.749	5850.02
538.114	5837.36
538.479	5814.76
538.845	5915.78
539.21	5899.96
539.575	5874.2
539.94	5916.91
540.305	5908.32
540.67	5949
541.034	5947.41
541.399	5994.42
541.764	6026.96
542.129	5989.9
542.494	5995.77
542.858	6036.45
543.223	6087.52
543.587	6084.36
543.952	6098.82
544.316	6114.42
544.681	6126.84
545.045	6147.18
545.41	6159.84
545.774	6244.81
546.138	6174.98
546.503	6239.38
546.867	6278.7
547.231	6276.45
547.595	6221.76
547.959	6286.84
548.324	6312.6
548.688	6324.35
549.052	6346.05
549.416	6394.41
549.779	6324.81
550.143	6413.62
550.507	6451.13
550.871	6475.99
551.235	6456.1
551.599	6533.39
551.962	6526.61
552.326	6594.63
552.689	6602.09
553.053	6555.08
553.417	6648.86
553.78	6725.47
554.143	6675.08
554.507	6739.94
554.87	6754.4
555.234	6827.39
555.597	6789.2
555.96	6866.49
556.323	6878.69
556.686	6906.71
557.05	6945.13
557.413	6988.52
557.776	7024.22
558.139	7065.12
558.502	7060.61
558.865	7154.61
559.228	7129.53
559.59	7136.31
559.953	7176.08
560.316	7273.48
560.679	7301.28
561.041	7339.24
561.404	7355.96
561.767	7508.73
562.129	7452.46
562.492	7457.43
562.854	7417.88
563.217	7541.72
563.579	7534.94
563.941	7620.36
564.304	7645.45
564.666	7648.84
565.028	7673.7
565.39	7740.59
565.753	7713.02
566.115	7719.12
566.477	7801.38
566.839	7784.65
567.201	7834.82
567.563	7843.41
567.925	7928.38
568.287	7955.5
568.648	7974.71
569.01	8018.09
569.372	8021.94
569.734	7978.32
570.095	8053.57
570.457	8106
570.819	8149.62
571.18	8166.11
571.542	8219.9
571.903	8172.67
572.265	8261.48
572.626	8276.17
572.987	8255.83
573.349	8268.26
573.71	8341.7
574.071	8384.86
574.432	8344.19
574.794	8446.33
575.155	8465.09
575.516	8486.33
575.877	8559.55
576.238	8599.32
576.599	8582.37
576.96	8567.46
577.32	8597.51
577.681	8602.49
578.042	8609.04
578.403	8616.5
578.763	8656.72
579.124	8722.26
579.485	8771.52
579.845	8777.85
580.206	8757.51
580.566	8683.61
580.927	8739.88
581.287	8755.25
581.648	8742.59
582.008	8807.45
582.368	8749.83
582.728	8833.67
583.089	8785.31
583.449	8846.32
583.809	8941.23
584.169	8884.51
584.529	8840.9
584.889	8901.01
585.249	8832.54
585.609	8840.9
585.969	8895.81
586.329	8829.37
586.688	8831.63
587.048	8881.57
587.408	8877.73
587.768	8823.95
588.127	8848.81
588.487	8814.68
588.846	8873.66
589.206	8842.93
589.565	8794.35
589.925	8859.43
590.284	8844.29
590.643	8858.07
591.003	8852.87
591.362	8903.27
591.721	8873.21
592.08	8877.96
592.44	8907.56
592.799	8924.29
593.158	8803.16
593.517	8757.06
593.876	8900.1
594.235	8865.08
594.593	8880.67
594.952	8799.77
595.311	8882.7
595.67	8851.52
596.029	8866.66
596.387	8936.26
596.746	8895.81
597.104	8902.59
597.463	8843.84
597.822	8909.14
598.18	8914.79
598.538	8927.9
598.897	8998.18
599.255	8899.65
599.613	8989.14
599.972	9010.38
600.33	8966.09
600.688	8986.66
601.046	8997.73
601.404	9040.89
601.762	9063.26
602.12	9021.01
602.478	9035.24
602.836	9021.46
603.194	9069.37
603.552	9066.88
603.91	9016.94
604.268	9139.19
604.625	9018.75
604.983	9108.91
605.341	9068.24
605.698	9075.92
606.056	9067.56
606.413	9134
606.771	9137.61
607.128	9148.69
607.485	9094.9
607.843	9149.36
608.2	9182.36
608.557	9234.11
608.914	9182.81
609.272	9214.22
609.629	9251.73
609.986	9254.45
610.343	9272.52
610.7	9266.2
611.057	9220.77
611.414	9232.98
611.771	9200.89
612.127	9272.98
612.484	9323.6
612.841	9280.66
613.198	9277.27
613.554	9304.16
613.911	9334.9
614.267	9320.88
614.624	9318.63
614.98	9236.82
615.337	9392.3
615.693	9308.46
616.05	9310.49
616.406	9364.5
616.762	9330.15
617.118	9352.07
617.475	9305.74
617.831	9332.18
618.187	9323.37
618.543	9437.72
618.899	9354.33
619.255	9399.07
619.611	9334.44
619.967	9380.54
620.323	9367.89
620.678	9373.31
621.034	9352.52
621.39	9360.88
621.746	9384.84
622.101	9475.46
622.457	9386.65
622.812	9380.77
623.168	9403.82
623.523	9412.18
623.879	9479.3
624.234	9352.07
624.589	9422.8
624.945	9416.48
625.3	9405.18
625.655	9481.33
626.01	9470.94
626.365	9389.81
626.72	9439.07
627.075	9421.67
627.43	9476.36
627.785	9468.9
628.14	9470.71
628.495	9516.36
628.85	9569.24
629.205	9474.55
629.559	9526.53
629.914	9544.38
630.269	9544.83
630.623	9476.14
630.978	9512.52
631.332	9507.09
631.687	9532.63
632.041	9526.98
632.396	9548.68
632.75	9492.41
633.104	9493.08
633.459	9377.83
633.813	9425.29
634.167	9499.64
634.521	9418.51
634.875	9431.39
635.229	9415.35
635.583	9457.6
635.937	9452.41
636.291	9456.47
636.645	9411.5
636.999	9360.66
637.352	9414.89
637.706	9396.14
638.06	9383.26
638.413	9413.54
638.767	9435.68
639.121	9333.99
639.474	9291.28
639.828	9327.44
640.181	9297.61
640.534	9326.53
640.888	9280.89
641.241	9196.37
641.594	9228.68
641.947	9224.16
642.301	9263.71
642.654	9243.6
643.007	9184.84
643.36	9205.18
643.713	9192.98
644.066	9219.42
644.419	9138.52
644.771	9080.21
645.124	8998.86
645.477	8978.97
645.83	8899.88
646.182	8827.11
646.535	8819.2
646.888	8847.9
647.24	8760.45
647.593	8860.33
647.945	8754.12
648.298	8828.92
648.65	8780.56
649.002	8752.99
649.355	8734.69
649.707	8766.32
650.059	8756.15
650.411	8832.54
650.763	8808.58
651.115	8989.59
651.467	8951.86
651.819	8955.24
652.171	8919.99
652.523	8924.96
652.875	8842.03
653.227	8806.77
653.578	8852.42
653.93	8851.97
654.282	8767.23
654.633	8785.98
654.985	8827.79
655.337	8870.95
655.688	8897.39
656.039	8939.43
656.391	8856.26
656.742	8867.11
657.094	8841.8
657.445	8842.25
657.796	8827.56
658.147	8825.08
658.498	8916.38
658.849	8874.79
659.2	8854.68
659.551	8869.37
659.902	8820.33
660.253	8808.36
660.604	8852.65
660.955	8800.22
661.306	8848.13
661.656	8823.95
662.007	8832.76
662.358	8842.93
662.708	8832.31
663.059	8824.63
663.409	8777.62
663.76	8873.66
664.11	8833.67
664.461	8825.76
664.811	8781.46
665.161	8814.46
665.511	8802.03
665.862	8767.45
666.212	8771.07
666.562	8730.17
666.912	8742.82
667.262	8784.18
667.612	8675.48
667.962	8742.37
668.312	8730.84
668.662	8804.29
669.011	8705.08
669.361	8697.17
669.711	8730.84
670.06	8692.2
670.41	8659.21
670.76	8703.73
671.109	8704.4
671.459	8683.16
671.808	8621.92
672.157	8681.81
672.507	8604.75
672.856	8588.25
673.205	8606.78
673.554	8569.94
673.904	8512.54
674.253	8563.16
674.602	8595.48
674.951	8502.15
675.3	8433.9
675.649	8541.47
675.998	8541.92
676.346	8463.73
676.695	8516.39
677.044	8396.16
677.393	8481.58
677.741	8451.76
678.09	8442.49
678.438	8441.59
678.787	8433.45
679.135	8408.14
679.484	8340.35
679.832	8389.16
680.181	8336.5
680.529	8336.5
680.877	8364.3
681.225	8333.11
681.573	8340.12
681.922	8327.01
682.27	8229.39
682.618	8295.15
682.966	8237.3
683.314	8267.81
683.661	8276.62
684.009	8181.25
684.357	8248.82
684.705	8211.76
685.053	8209.5
685.4	8244.53
685.748	8185.1
686.095	8102.84
686.443	8108.26
686.79	8099.45
687.138	8166.34
687.485	8117.98
687.832	8101.93
688.18	8107.81
688.527	8137.87
688.874	8093.8
689.221	8032.11
689.568	8025.55
689.915	8000.24
690.262	8031.43
690.609	8006.57
690.956	7970.64
691.303	8052.9
691.65	7925.44
691.997	7985.1
692.344	7973.58
692.69	7972.67
693.037	7949.17
693.383	7918.21
693.73	7932.67
694.077	7907.14
694.423	7895.39
694.769	7919.79
695.116	7847.93
695.462	7809.96
695.808	7799.12
696.155	7844.09
696.501	7776.74
696.847	7745.33
697.193	7700.14
697.539	7748.72
697.885	7630.53
698.231	7644.32
698.577	7620.59
698.923	7589.4
699.269	7643.19
699.614	7582.85
699.96	7509.41
700.306	7560.03
700.651	7534.27
700.997	7502.63
701.342	7494.94
701.688	7458.11
702.033	7421.73
702.379	7493.59
702.724	7401.61
703.069	7340.6
703.415	7336.08
703.76	7316.42
704.105	7339.92
704.45	7359.13
704.795	7272.13
705.14	7275.06
705.485	7248.4
705.83	7186.25
706.175	7184.9
706.52	7206.36
706.865	7175.4
707.209	7122.07
707.554	7026.93
707.899	7096.99
708.243	7037.56
708.588	7025.58
708.932	7031.91
709.277	6986.93
709.621	6974.96
709.966	6917.56
710.31	6932.93
710.654	6887.05
710.998	6876.66
711.342	6923.66
711.687	6885.24
712.031	6849.31
712.375	6795.53
712.719	6858.58
713.063	6834.85
713.407	6833.04
713.75	6747.39
714.094	6803.21
714.438	6729.54
714.782	6773.83
715.125	6741.74
715.469	6706.72
715.812	6650.9
716.156	6668.98
716.499	6654.51
716.843	6688.86
717.186	6613.39
717.53	6690.67
717.873	6632.59
718.216	6658.81
718.559	6573.39
718.902	6566.61
719.246	6555.99
719.589	6529.09
719.932	6523.67
720.275	6506.72
720.617	6555.08
720.96	6557.79
721.303	6521.64
721.646	6517.12
721.989	6477.34
722.331	6502.88
722.674	6459.27
723.016	6432.83
723.359	6438.02
723.701	6471.47
724.044	6423.33
724.386	6427.63
724.729	6407.29
725.071	6466.04
725.413	6453.62
725.755	6398.93
726.097	6362.32
726.439	6396.89
726.782	6407.97
727.124	6386.95
727.465	6371.13
727.807	6409.1
728.149	6392.15
728.491	6375.43
728.833	6382.88
729.175	6345.82
729.516	6325.03
729.858	6316.67
730.199	6363
730.541	6334.75
730.882	6331.58
731.224	6305.14
731.565	6244.13
731.906	6338.14
732.248	6315.54
732.589	6309.44
732.93	6331.58
733.271	6332.94
733.612	6341.98
733.953	6313.05
734.294	6306.5
734.635	6317.57
734.976	6340.4
735.317	6275.99
735.658	6247.97
735.999	6285.48
736.339	6234.64
736.68	6257.91
737.021	6237.58
737.361	6255.2
737.702	6314.64
738.042	6193.74
738.383	6206.16
738.723	6256.78
739.063	6215.88
739.404	6252.49
739.744	6222.89
740.084	6158.48
740.424	6186.96
740.764	6182.89
741.104	6197.13
741.444	6083.68
741.784	6167.07
742.124	6134.75
742.464	6163.91
742.804	6084.81
743.143	6148.76
743.483	6121.87
743.823	6070.35
744.162	6090.46
744.502	6057.47
744.841	6007.07
745.181	6044.13
745.52	6017.24
745.86	6066.28
746.199	6033.51
746.538	6027.19
746.877	6062.21
747.216	6005.49
747.556	5994.19
747.895	5999.16
748.234	5956
748.573	5926.62
748.911	5929.34
749.25	5915.55
749.589	5869.9
749.928	5916.23
750.267	5877.13
750.605	5880.3
750.944	5857.7
751.283	5841.43
751.621	5833.74
751.96	5804.59
752.298	5767.31
752.636	5783.35
752.975	5758.72
753.313	5749.68
753.651	5718.72
753.989	5719.85
754.327	5630.36
754.666	5653.41
755.004	5643.92
755.342	5645.05
755.679	5648.21
756.017	5632.39
756.355	5575.45
756.693	5617.48
757.031	5626.52
757.368	5554.88
757.706	5568.89
758.044	5537.26
758.381	5470.14
758.719	5525.05
759.056	5495.67
759.394	5442.12
759.731	5449.12
760.068	5418.61
760.405	5429.46
760.743	5436.92
761.08	5417.48
761.417	5389.46
761.754	5339.75
762.091	5410.48
762.428	5354.66
762.765	5312.4
763.102	5363.47
763.438	5296.58
763.775	5297.26
764.112	5301.33
764.449	5285.06
764.785	5221.56
765.122	5224.72
765.458	5219.3
765.795	5213.42
766.131	5211.39
766.467	5204.61
766.804	5184.27
767.14	5096.59
767.476	5152.41
767.812	5100.66
768.148	5099.75
768.485	5104.95
768.821	5075.57
769.157	5062.69
769.492	5048.45
769.828	5081.22
770.164	5009.13
770.5	5004.39
770.836	5007.78
771.171	4934.11
