Data from foam1_polythene_foam_FLMS001491_00076.txt Node
Date: Wed Feb 08 10:55:22 GMT 2017
User: dcchb
Spectrometer: FLMS00149
Trigger mode: 0
Integration Time (sec): 2.000000E-2
Scans to average: 10
Electric dark correction enabled: true
Nonlinearity correction enabled: false
Boxcar width: 0
XAxis mode: Wavelengths
Number of Pixels in Spectrum: 2048
>>>>>Begin Spectral Data<<<<<
341.393	-19.86
341.776	-19.86
342.16	-19.86
342.543	-52.17
342.927	-70.7
343.31	-86.52
343.693	-72.06
344.077	-78.61
344.46	-56.24
344.843	-55.11
345.226	-58.28
345.61	-17.15
345.993	2.06
346.376	9.29
346.759	21.72
347.142	18.78
347.525	36.86
347.908	67.82
348.291	74.38
348.674	77.09
349.057	115.96
349.44	116.41
349.823	152.11
350.206	154.6
350.588	178.33
350.971	197.99
351.354	220.59
351.737	240.93
352.119	241.15
352.502	238.21
352.884	263.3
353.267	279.34
353.65	269.63
354.032	299.23
354.414	296.07
354.797	310.53
355.179	311.21
355.562	290.87
355.944	317.53
356.326	316.18
356.709	341.49
357.091	321.6
357.473	330.42
357.855	356.4
358.238	335.61
358.62	327.25
359.002	327.03
359.384	312.34
359.766	325.67
360.148	312.34
360.53	329.06
360.912	336.06
361.294	319.57
361.676	326.35
362.057	315.95
362.439	348.95
362.821	332.9
363.203	332.22
363.584	338.1
363.966	334.93
364.348	301.49
364.729	322.96
365.111	329.29
365.493	298.55
365.874	316.86
366.256	309.85
366.637	293.13
367.019	313.01
367.4	315.73
367.781	313.24
368.163	312.79
368.544	308.27
368.925	302.62
369.306	327.03
369.688	302.62
370.069	304.43
370.45	309.17
370.831	317.99
371.212	296.97
371.593	333.8
371.974	317.53
372.355	300.13
372.736	302.17
373.117	309.62
373.498	317.31
373.879	300.59
374.26	313.69
374.641	327.93
375.021	309.4
375.402	328.16
375.783	325.22
376.163	322.28
376.544	304.2
376.925	315.05
377.305	348.49
377.686	316.86
378.066	314.6
378.447	314.82
378.827	324.09
379.208	337.42
379.588	345.78
379.968	336.29
380.349	358.21
380.729	350.98
381.109	330.19
381.489	326.8
381.87	353.24
382.25	332.67
382.63	344.2
383.01	349.85
383.39	342.62
383.77	348.72
384.15	347.36
384.53	357.08
384.91	354.6
385.29	371.54
385.67	354.14
386.049	352.34
386.429	355.95
386.809	355.27
387.189	360.47
387.568	375.61
387.948	362.5
388.328	370.87
388.707	359.11
389.087	372.9
389.466	387.81
389.846	390.98
390.225	390.3
390.605	365.22
390.984	400.02
391.363	398.21
391.743	397.53
392.122	385.78
392.501	398.66
392.881	407.02
393.26	400.7
393.639	395.5
394.018	401.37
394.397	394.82
394.776	417.64
395.155	414.03
395.534	432.33
395.913	440.24
396.292	408.83
396.671	397.53
397.05	402.73
397.429	424.65
397.808	411.32
398.186	422.62
398.565	425.78
398.944	447.7
399.323	440.47
399.701	411.77
400.08	442.95
400.458	456.51
400.837	454.03
401.215	447.7
401.594	444.99
401.972	445.89
402.351	456.51
402.729	464.42
403.107	467.13
403.486	454.03
403.864	455.84
404.242	476.17
404.62	490.86
404.999	472.11
405.377	468.94
405.755	485.21
406.133	473.69
406.511	460.36
406.889	503.07
407.267	517.53
407.645	506.23
408.023	489.28
408.401	483.63
408.779	494.03
409.156	490.41
409.534	517.98
409.912	520.24
410.29	531.31
410.667	533.35
411.045	533.57
411.422	521.37
411.8	539.68
412.178	567.47
412.555	547.58
412.933	556.4
413.31	564.31
413.687	559.34
414.065	576.28
414.442	590.75
414.819	573.8
415.197	582.61
415.574	587.81
415.951	602.5
416.328	589.84
416.705	589.62
417.082	612.67
417.46	621.03
417.837	618.09
418.214	625.77
418.591	606.57
418.967	614.48
419.344	641.37
419.721	643.85
420.098	650.63
420.475	655.6
420.852	646.56
421.228	658.32
421.605	627.58
421.982	666.45
422.358	689.5
422.735	676.17
423.111	663.29
423.488	693.57
423.864	695.6
424.241	700.12
424.617	713.91
424.994	708.48
425.37	714.13
425.746	722.95
426.123	712.1
426.499	723.85
426.875	747.81
427.251	740.12
427.627	758.88
428.003	768.37
428.379	765.43
428.756	773.79
429.132	783.51
429.507	799.78
429.883	810.63
430.259	817.41
430.635	813.34
431.011	810.85
431.387	829.16
431.763	851.76
432.138	846.79
432.514	858.76
432.89	873.45
433.265	909.83
433.641	894.69
434.016	933.11
434.392	912.32
434.767	926.11
435.143	930.4
435.518	939.89
435.894	955.48
436.269	946.9
436.644	986.89
437.02	962.49
437.395	981.25
437.77	1002.71
438.145	1001.13
438.52	1013.56
438.895	1017.18
439.271	1033.67
439.646	1044.29
440.021	1063.73
440.395	1073.9
440.77	1066.21
441.145	1073.22
441.52	1102.82
441.895	1118.19
442.27	1127.46
442.645	1095.59
443.019	1129.94
443.394	1131.52
443.769	1166.78
444.143	1115.71
444.518	1158.87
444.892	1158.64
445.267	1164.74
445.641	1169.49
446.016	1218.75
446.39	1194.12
446.764	1217.17
447.139	1196.15
447.513	1231.86
447.887	1248.58
448.262	1230.05
448.636	1244.06
449.01	1264.18
449.384	1292.88
449.758	1301.91
450.132	1293.33
450.506	1313.67
450.88	1309.6
451.254	1316.38
451.628	1331.29
452.002	1355.47
452.376	1371.74
452.75	1398.86
453.123	1409.48
453.497	1421.01
453.871	1383.04
454.244	1428.92
454.618	1441.57
454.992	1455.36
455.365	1461.46
455.739	1485.19
456.112	1511.4
456.486	1557.28
456.859	1518.86
457.232	1547.11
457.606	1569.93
457.979	1560.44
458.352	1594.56
458.725	1598.86
459.099	1617.84
459.472	1635.01
459.845	1650.83
460.218	1656.48
460.591	1697.61
460.964	1670.04
461.337	1702.13
461.71	1739.42
462.083	1762.47
462.456	1771.06
462.829	1789.36
463.201	1798.63
463.574	1794.11
463.947	1814.22
464.32	1846.99
464.692	1883.14
465.065	1880.66
465.438	1927.89
465.81	1930.15
466.183	1922.46
466.555	1979.86
466.928	1975.34
467.3	1975.34
467.672	2027.09
468.045	2105.06
468.417	2075.45
468.789	2084.95
469.161	2099.41
469.534	2159.29
469.906	2201.1
470.278	2220.08
470.65	2211.04
471.022	2255.79
471.394	2295.34
471.766	2324.26
472.138	2346.41
472.51	2422.34
472.882	2425.05
473.253	2412.85
473.625	2458.95
473.997	2520.41
474.369	2531.49
474.74	2546.63
475.112	2595.89
475.484	2631.6
475.855	2683.8
476.227	2731.93
476.598	2788.2
476.97	2799.73
477.341	2842.89
477.713	2882.66
478.084	2873.85
478.455	2979.16
478.827	3022.32
479.198	3085.37
479.569	3089.21
479.94	3201.3
480.311	3180.96
480.682	3223.22
481.053	3324.46
481.424	3392.71
481.795	3405.81
482.166	3463.67
482.537	3524.91
482.908	3603.78
483.279	3615.07
483.65	3648.29
484.021	3751.79
484.391	3763.77
484.762	3822.3
485.133	3874.28
485.503	3861.17
485.874	3999.7
486.244	4014.61
486.615	4104.78
486.985	4188.17
487.356	4232.01
487.726	4272.91
488.097	4377.09
488.467	4320.37
488.837	4448.72
489.207	4494.37
489.578	4574.82
489.948	4625.67
490.318	4644.2
490.688	4711.32
491.058	4770.75
491.428	4790.64
491.798	4875.61
492.168	4987.02
492.538	5008.03
492.908	5009.39
493.278	5118.76
493.648	5111.76
494.017	5219.78
494.387	5231.53
494.757	5277.4
495.126	5362.83
495.496	5356.05
495.866	5403.05
496.235	5468.13
496.605	5492.31
496.974	5526.89
497.344	5600.33
497.713	5690.95
498.082	5692.08
498.452	5748.13
498.821	5794.9
499.19	5817.95
499.559	5877.16
499.928	5897.27
500.298	5937.05
500.667	5974.79
501.036	6034.9
501.405	6125.06
501.774	6055.91
502.143	6219.53
502.512	6230.37
502.88	6261.56
503.249	6304.95
503.618	6318.05
503.987	6320.99
504.356	6349.92
504.724	6449.58
505.093	6514.89
505.462	6510.59
505.83	6555.79
506.199	6605.96
506.567	6714.2
506.936	6702.9
507.304	6774.09
507.672	6795.78
508.041	6791.71
508.409	6901.09
508.777	6970.01
509.145	7038.04
509.514	6984.93
509.882	7088.2
510.25	7216.11
510.618	7202.78
510.986	7215.88
511.354	7324.36
511.722	7318.93
512.09	7420.85
512.458	7426.73
512.826	7518.25
513.193	7572.03
513.561	7655.87
513.929	7702.2
514.297	7794.63
514.664	7781.07
515.032	7816.77
515.4	7899.71
515.767	7904.45
516.135	7953.27
516.502	7962.53
516.869	8145.35
517.237	8186.25
517.604	8171.56
517.972	8379.92
518.339	8351.22
518.706	8363.88
519.073	8365.91
519.44	8502.86
519.808	8520.26
520.175	8546.24
520.542	8629.41
520.909	8770.19
521.276	8750.53
521.643	8806.35
522.009	8898.55
522.376	8998.66
522.743	9024.65
523.11	9113.46
523.477	9200.69
523.843	9300.8
524.21	9330.63
524.577	9430.97
524.943	9442.27
525.31	9593.45
525.676	9603.39
526.043	9782.6
526.409	9760
526.776	9937.85
527.142	9869.83
527.508	9976.72
527.874	9982.82
528.241	10090.84
528.607	10156.37
528.973	10203.38
529.339	10230.95
529.705	10403.37
530.071	10408.12
530.437	10491.28
530.803	10648.11
531.169	10602.24
531.535	10618.28
531.901	10621.9
532.267	10737.83
532.632	10803.81
532.998	10729.46
533.364	10826.41
533.73	10849.01
534.095	10988.89
534.461	10969.68
534.826	11132.16
535.192	11149.34
535.557	11316.34
535.923	11262.56
536.288	11293.97
536.653	11372.84
537.019	11311.6
537.384	11334.65
537.749	11474.53
538.114	11472.04
538.479	11554.3
538.845	11617.8
539.21	11550.46
539.575	11698.03
539.94	11699.83
540.305	11753.17
540.67	11749.32
541.034	11815.99
541.399	11911.35
541.764	11895.53
542.129	11928.53
542.494	11933.5
542.858	12020.96
543.223	12052.37
543.587	12116.09
543.952	12188.63
544.316	12164.45
544.681	12233.6
545.045	12329.65
545.41	12345.69
545.774	12410.78
546.138	12380.95
546.503	12428.4
546.867	12397.22
547.231	12569.64
547.595	12610.09
547.959	12693.48
548.324	12578.23
548.688	12609.87
549.052	12685.12
549.416	12737.55
549.779	12782.97
550.143	12846.02
550.507	12904.32
550.871	12882.4
551.235	12950.87
551.599	13070.19
551.962	13109.51
552.326	13199.91
552.689	13218.44
553.053	13164.2
553.417	13203.97
553.78	13379.34
554.143	13341.6
554.507	13391.99
554.87	13429.05
555.234	13636.28
555.597	13578.65
555.96	13701.81
556.323	13617.52
556.686	13686
557.05	13841.02
557.413	13920.57
557.776	13913.56
558.139	13918.53
558.502	13937.51
558.865	14054.57
559.228	14199.2
559.59	14118.75
559.953	14180.9
560.316	14361.91
560.679	14321.23
561.041	14441.91
561.404	14435.13
561.767	14654.78
562.129	14499.99
562.492	14673.77
562.854	14658.85
563.217	14752.86
563.579	14722.58
563.941	14885.06
564.304	15003.93
564.666	15104.72
565.028	15080.54
565.39	15059.52
565.753	15153.53
566.115	15290.02
566.477	15340.19
566.839	15364.37
567.201	15431.71
567.563	15476.46
567.925	15567.08
568.287	15614.76
568.648	15689.79
569.01	15801.19
569.372	15857.92
569.734	15881.42
570.095	15961.19
570.457	16060.85
570.819	16007.06
571.18	15999.61
571.542	16027.86
571.903	16158.7
572.265	16092.71
572.626	16268.08
572.987	16249.09
573.349	16311.69
573.71	16380.39
574.071	16472.82
574.432	16500.16
574.794	16620.61
575.155	16583.1
575.516	16615.64
575.877	16591.23
576.238	16680.04
576.599	16703.54
576.96	16713.04
577.32	16698.12
577.681	16861.28
578.042	16821.05
578.403	16841.85
578.763	16850.43
579.124	16965.23
579.485	16953.03
579.845	17086.13
580.206	17056.08
580.566	16962.29
580.927	17027.15
581.287	17096.08
581.648	16979.47
582.008	17048.39
582.368	17014.04
582.728	16963.65
583.089	17010.43
583.449	17112.8
583.809	17197.09
584.169	17223.08
584.529	17083.87
584.889	17190.08
585.249	17240.48
585.609	17167.26
585.969	17243.64
586.329	17109.41
586.688	17143.31
587.048	17175.85
587.408	17056.53
587.768	17116.41
588.127	17183.08
588.487	17183.31
588.846	17242.96
589.206	17195.06
589.565	17182.63
589.925	17264.43
590.284	17290.87
590.643	17328.61
591.003	17259.01
591.362	17287.71
591.721	17273.7
592.08	17194.15
592.44	17306.47
592.799	17319.8
593.158	17224.89
593.517	17302.62
593.876	17223.53
594.235	17223.76
594.593	17300.14
594.952	17308.73
595.311	17273.92
595.67	17346.46
596.029	17401.38
596.387	17412
596.746	17447.03
597.104	17317.09
597.463	17346.01
597.822	17344.2
598.18	17339.46
598.538	17290.65
598.897	17408.61
599.255	17254.04
599.613	17567.02
599.972	17468.5
600.33	17562.5
600.688	17501.71
601.046	17497.65
601.404	17539.91
601.762	17541.04
602.12	17522.73
602.478	17529.06
602.836	17639.34
603.194	17496.29
603.552	17553.01
603.91	17511.21
604.268	17557.53
604.625	17589.17
604.983	17602.28
605.341	17552.34
605.698	17655.61
606.056	17711.65
606.413	17591.43
606.771	17741.03
607.128	17677.98
607.485	17713.91
607.843	17690.41
608.2	17807.47
608.557	17899.67
608.914	17886.56
609.272	17856.96
609.629	17837.98
609.986	17893.8
610.343	17832.55
610.7	18005.43
611.057	17920.91
611.414	17955.94
611.771	18006.79
612.127	18004.07
612.484	17972.21
612.841	18109.83
613.198	17989.16
613.554	17959.1
613.911	18126.33
614.267	18051.53
614.624	18124.52
614.98	18059.67
615.337	18226.67
615.693	18111.87
616.05	18168.14
616.406	18111.42
616.762	18099.21
617.118	18141.92
617.475	18125.2
617.831	18218.98
618.187	18266.44
618.543	18299.66
618.899	18329.72
619.255	18294.91
619.611	18175.14
619.967	18292.65
620.323	18365.42
620.678	18294.01
621.034	18221.7
621.39	18324.29
621.746	18333.56
622.101	18427.79
622.457	18275.93
622.812	18323.61
623.168	18394.57
623.523	18296.27
623.879	18388.92
624.234	18216.27
624.589	18360.9
624.945	18363.61
625.3	18428.47
625.655	18397.51
626.01	18372.43
626.365	18425.98
626.72	18345.08
627.075	18347.79
627.43	18334.46
627.785	18392.99
628.14	18276.38
628.495	18320.22
628.85	18311.19
629.205	18261.02
629.559	18373.78
629.914	18174.69
630.269	18246.55
630.623	18158.87
630.978	18125.2
631.332	18229.83
631.687	18260.34
632.041	18126.56
632.396	18174.24
632.75	18026.9
633.104	18117.52
633.459	18028.71
633.813	18063.28
634.167	17998.65
634.521	17990.29
634.875	18036.16
635.229	17938.99
635.583	17866.9
635.937	17809.5
636.291	17777.64
636.645	17811.31
636.999	17802.27
637.352	17921.36
637.706	17923.85
638.06	17843.85
638.413	17789.39
638.767	17779.9
639.121	17780.58
639.474	17677.3
639.828	17597.53
640.181	17656.74
640.534	17704.87
640.888	17536.06
641.241	17408.61
641.594	17487.93
641.947	17558.66
642.301	17517.53
642.654	17548.72
643.007	17499.46
643.36	17498.55
643.713	17439.57
644.066	17549.62
644.419	17499.46
644.771	17358.44
645.124	17275.28
645.477	17220.14
645.83	16970.66
646.182	16905.57
646.535	16843.88
646.888	16860.38
647.24	16654.28
647.593	16730.89
647.945	16639.82
648.298	16633.94
648.65	16602.3
649.002	16503.32
649.355	16599.59
649.707	16665.58
650.059	16724.79
650.411	16947.83
650.763	16950.77
651.115	17257.65
651.467	17045.46
651.819	17044.33
652.171	17021.28
652.523	16958.68
652.875	16898.79
653.227	16798.91
653.578	16887.04
653.93	16820.6
654.282	16716.88
654.633	16746.93
654.985	16711.23
655.337	16791.23
655.688	16774.5
656.039	16832.35
656.391	16727.72
656.742	16791.23
657.094	16736.99
657.445	16842.3
657.796	16712.58
658.147	16688.4
658.498	16706.26
658.849	16679.59
659.2	16604.11
659.551	16571.57
659.902	16654.28
660.253	16595.98
660.604	16605.47
660.955	16516.43
661.306	16536.09
661.656	16489.31
662.007	16615.18
662.358	16505.58
662.708	16661.96
663.059	16547.39
663.409	16428.3
663.76	16637.56
664.11	16525.24
664.461	16552.59
664.811	16533.15
665.161	16505.36
665.511	16403.89
665.862	16531.57
666.212	16419.26
666.562	16434.62
666.912	16410.9
667.262	16370.45
667.612	16345.14
667.962	16370.45
668.312	16334.29
668.662	16464.91
669.011	16481.4
669.361	16385.36
669.711	16442.99
670.06	16336.32
670.41	16402.08
670.76	16455.87
671.109	16434.62
671.459	16354.17
671.808	16377.22
672.157	16361.41
672.507	16128.19
672.856	16258.36
673.205	16177.91
673.554	16284.35
673.904	16183.56
674.253	16251.13
674.602	16205.48
674.951	15957.8
675.3	15883.68
675.649	16064.69
675.998	16070.34
676.346	16149.89
676.695	16242.31
677.044	16130
677.393	16069.66
677.741	16096.1
678.09	16073.96
678.438	15957.57
678.787	16080.06
679.135	16064.46
679.484	15917.12
679.832	16028.76
680.181	15827.63
680.529	15910.8
680.877	15925.71
681.225	15734.3
681.573	15928.2
681.922	15727.75
682.27	15764.13
682.618	15727.52
682.966	15753.51
683.314	15727.52
683.661	15675.77
684.009	15622.89
684.357	15629.67
684.705	15648.66
685.053	15611.37
685.4	15616.79
685.748	15560.52
686.095	15509.45
686.443	15363.24
686.79	15426.74
687.138	15386.29
687.485	15492.05
687.832	15337.7
688.18	15323.69
688.527	15269.91
688.874	15329.34
689.221	15159.4
689.568	15177.26
689.915	15069.69
690.262	15004.15
690.609	15059.75
690.956	14981.1
691.303	15079.41
691.65	15000.09
691.997	15009.35
692.344	14922.35
692.69	14828.56
693.037	14897.72
693.383	14818.85
693.73	14824.5
694.077	14747.44
694.423	14743.37
694.769	14594.9
695.116	14587.44
695.462	14612.75
695.808	14532.53
696.155	14506.77
696.501	14428.58
696.847	14323.27
697.193	14289.14
697.539	14321.46
697.885	14346.32
698.231	14267
698.577	14186.1
698.923	14179.09
699.269	14129.6
699.614	14165.53
699.96	14102.71
700.306	14009.15
700.651	14055.48
700.997	14004.86
701.342	14022.48
701.688	13931.87
702.033	13885.09
702.379	13870.62
702.724	13743.62
703.069	13818.65
703.415	13644.64
703.76	13626.34
704.105	13699.56
704.45	13571.42
704.795	13474.93
705.14	13514.02
705.485	13500.46
705.83	13355.38
706.175	13459.56
706.52	13394.7
706.865	13428.6
707.209	13351.99
707.554	13279.45
707.899	13361.94
708.243	13306.8
708.588	13325.33
708.932	13202.39
709.277	13175.28
709.621	13232
709.966	13057.09
710.31	13064.09
710.654	12950.42
710.998	12969.86
711.342	12889.18
711.687	12805.12
712.031	12802.18
712.375	12682.86
712.719	12692.12
713.063	12732.57
713.407	12739.13
713.75	12805.12
714.094	12712.69
714.438	12698.68
714.782	12702.75
715.125	12659.36
715.469	12662.29
715.812	12662.97
716.156	12584.56
716.499	12621.84
716.843	12548.17
717.186	12594.95
717.53	12654.61
717.873	12538.68
718.216	12502.52
718.559	12451.45
718.902	12298.69
719.246	12346.37
719.589	12249.42
719.932	12123.55
720.275	12157.22
720.617	12138.69
720.96	12142.53
721.303	12253.04
721.646	12156.77
721.989	12045.36
722.331	12117.68
722.674	12130.1
723.016	12164.68
723.359	12157.67
723.701	12218.92
724.044	12103.66
724.386	12089.88
724.729	12100.28
725.071	12073.84
725.413	12016.66
725.755	12034.97
726.097	11909.77
726.439	11899.15
726.782	11834.75
727.124	11939.83
727.465	11815.76
727.807	11804.01
728.149	11778.93
728.491	11657.35
728.833	11712.94
729.175	11674.98
729.516	11618.03
729.858	11605.6
730.199	11673.62
730.541	11639.27
730.882	11653.06
731.224	11661.19
731.565	11617.58
731.906	11665.03
732.248	11615.54
732.589	11573.28
732.93	11575.54
733.271	11623.23
733.612	11596.79
733.953	11507.3
734.294	11460.29
734.635	11433.4
734.976	11419.84
735.317	11379.39
735.658	11377.13
735.999	11316.79
736.339	11328.54
736.68	11348.66
737.021	11253.74
737.361	11183.01
737.702	11307.08
738.042	11261.43
738.383	11219.39
738.723	11220.07
739.063	11188.21
739.404	11307.75
739.744	11265.95
740.084	11222.11
740.424	11138.49
740.764	11166.51
741.104	11259.62
741.444	11112.73
741.784	11088.1
742.124	11122.45
742.464	11016.24
742.804	11000.19
743.143	11017.59
743.483	10956.8
743.823	10830.93
744.162	10911.15
744.502	10905.5
744.841	10875.9
745.181	10837.48
745.52	10797.26
745.86	10722.01
746.199	10812.4
746.538	10797.26
746.877	10835.9
747.216	10797.94
747.556	10754.77
747.895	10784.38
748.234	10802.68
748.573	10760.65
748.911	10781.44
749.25	10717.94
749.589	10672.29
749.928	10708.9
750.267	10633.42
750.605	10683.82
750.944	10642.01
751.283	10577.38
751.621	10552.52
751.96	10442.24
752.298	10436.36
752.636	10471.39
752.975	10310.72
753.313	10259.19
753.651	10404.27
753.989	10315.01
754.327	10293.32
754.666	10250.38
755.004	10255.8
755.342	10299.64
755.679	10254.22
756.017	10257.16
756.355	10341
756.693	10217.16
