Data from foam_black_FLMS001491_00010.txt Node
Date: Wed Feb 08 10:43:26 GMT 2017
User: dcchb
Spectrometer: FLMS00149
Trigger mode: 0
Integration Time (sec): 2.000000E-2
Scans to average: 10
Electric dark correction enabled: true
Nonlinearity correction enabled: false
Boxcar width: 0
XAxis mode: Wavelengths
Number of Pixels in Spectrum: 2048
>>>>>Begin Spectral Data<<<<<
341.393	-4.48
341.776	-4.48
342.16	-4.48
342.543	-58.04
342.927	-58.49
343.31	-72.05
343.693	-65.27
344.077	-77.47
344.46	-59.17
344.843	-55.1
345.226	-49.22
345.61	-30.47
345.993	4.56
346.376	-28.66
346.759	2.53
347.142	30.55
347.525	44.11
347.908	71.68
348.291	68.97
348.674	116.88
349.057	98.12
349.44	163.43
349.823	136.76
350.206	153.48
350.588	191
350.971	212.69
351.354	231
351.737	239.36
352.119	269.87
352.502	260.83
352.884	281.84
353.267	293.59
353.65	317.1
354.032	296.76
354.414	322.29
354.797	322.97
355.179	317.77
355.562	306.25
355.944	313.25
356.326	334.95
356.709	339.02
357.091	347.6
357.473	344.67
357.855	334.95
358.238	353.03
358.62	332.46
359.002	339.02
359.384	351.67
359.766	346.93
360.148	357.1
360.53	354.61
360.912	343.08
361.294	336.76
361.676	315.74
362.057	340.6
362.439	331.33
362.821	340.6
363.203	329.07
363.584	324.33
363.966	346.47
364.348	345.57
364.729	342.63
365.111	349.19
365.493	327.27
365.874	341.95
366.256	331.79
366.637	369.3
367.019	334.04
367.4	330.88
367.781	354.84
368.163	331.33
368.544	352.12
368.925	322.07
369.306	315.74
369.688	335.85
370.069	316.42
370.45	320.71
370.831	326.36
371.212	334.5
371.593	327.94
371.974	332.46
372.355	332.24
372.736	357.32
373.117	341.95
373.498	348.06
373.879	352.8
374.26	322.97
374.641	330.66
375.021	341.28
375.402	337.89
375.783	334.95
376.163	371.56
376.544	358.45
376.925	357.1
377.305	349.19
377.686	365.46
378.066	347.6
378.447	363.2
378.827	366.13
379.208	355.74
379.588	358.9
379.968	378.79
380.349	365.46
380.729	371.11
381.109	371.11
381.489	372.01
381.87	375.63
382.25	390.09
382.63	367.49
383.01	395.29
383.39	383.99
383.77	395.51
384.15	393.93
384.53	388.28
384.91	404.33
385.29	394.61
385.67	399.35
386.049	410.2
386.429	409.98
386.809	417.21
387.189	409.3
387.568	423.08
387.948	418.34
388.328	418.56
388.707	422.86
389.087	418.11
389.466	427.15
389.846	435.96
390.225	434.83
390.605	448.84
390.984	447.04
391.363	439.58
391.743	426.47
392.122	439.8
392.501	457.88
392.881	443.65
393.26	467.6
393.639	450.43
394.018	474.83
394.397	478.67
394.776	463.31
395.155	481.16
395.534	488.17
395.913	453.82
396.292	469.86
396.671	491.1
397.05	484.78
397.429	489.75
397.808	495.85
398.186	526.58
398.565	493.59
398.944	495.4
399.323	499.24
399.701	502.4
400.08	497.43
400.458	501.72
400.837	506.02
401.215	518.9
401.594	526.36
401.972	517.77
402.351	503.98
402.729	520.93
403.107	496.53
403.486	519.8
403.864	533.81
404.242	548.28
404.62	555.06
404.999	545.34
405.377	545.34
405.755	563.64
406.133	573.81
406.511	558.9
406.889	576.98
407.267	603.87
407.645	616.3
408.023	588.28
408.401	581.04
408.779	612.68
409.156	626.47
409.534	611.33
409.912	628.05
410.29	637.77
410.667	613.81
411.045	629.63
411.422	607.48
411.8	630.53
412.178	666.92
412.555	645.22
412.933	656.3
413.31	689.06
413.687	689.97
414.065	674.83
414.442	670.31
414.819	702.85
415.197	693.13
415.574	701.27
415.951	686.13
416.328	704.66
416.705	733.81
417.082	706.46
417.46	734.26
417.837	733.58
418.214	735.84
418.591	745.33
418.967	741.04
419.344	764.54
419.721	772
420.098	770.19
420.475	758.21
420.852	768.16
421.228	802.28
421.605	787.82
421.982	806.35
422.358	808.16
422.735	821.04
423.111	815.16
423.488	811.55
423.864	803.86
424.241	847.03
424.617	839.12
424.994	859.68
425.37	826.69
425.746	879.79
426.123	870.75
426.499	866.91
426.875	891.09
427.251	894.26
427.627	909.17
428.003	916.18
428.379	930.87
428.756	918.89
429.132	929.96
429.507	967.25
429.883	964.31
430.259	981.94
430.635	990.3
431.011	967.47
431.387	1001.37
431.763	1016.74
432.138	1026.46
432.514	1045.66
432.89	1035.95
433.265	1062.84
433.641	1068.94
434.016	1069.39
434.392	1088.6
434.767	1092.44
435.143	1115.49
435.518	1094.7
435.894	1112.56
436.269	1145.55
436.644	1158.43
437.02	1185.77
437.395	1153.68
437.77	1160.46
438.145	1180.35
438.52	1188.71
438.895	1212.67
439.271	1202.27
439.646	1218.99
440.021	1221.93
440.395	1224.64
440.77	1234.81
441.145	1245.89
441.52	1276.62
441.895	1242.27
442.27	1266.45
442.645	1270.07
443.019	1305.32
443.394	1283.62
443.769	1318.2
444.143	1340.35
444.518	1296.51
444.892	1336.96
445.267	1336.96
445.641	1341.48
446.016	1351.19
446.39	1386.67
446.764	1367.92
447.139	1376.05
447.513	1400.91
447.887	1387.58
448.262	1418.08
448.636	1411.76
449.01	1463.51
449.384	1434.13
449.758	1423.73
450.132	1447.46
450.506	1482.72
450.88	1473.68
451.254	1479.1
451.628	1506.44
452.002	1470.06
452.376	1542.83
452.75	1530.62
453.123	1533.34
453.497	1583.96
453.871	1566.33
454.244	1585.31
454.618	1605.42
454.992	1632.77
455.365	1609.49
455.739	1668.02
456.112	1673.9
456.486	1708.92
456.859	1705.31
457.232	1752.76
457.606	1744.86
457.979	1778.3
458.352	1794.57
458.725	1817.62
459.099	1824.85
459.472	1887
459.845	1867.79
460.218	1893.78
460.591	1911.4
460.964	1920.67
461.337	1960.22
461.71	1952.08
462.083	1995.92
462.456	2005.87
462.829	2021.91
463.201	2051.51
463.574	2038.63
463.947	2070.72
464.32	2110.27
464.692	2110.27
465.065	2121.34
465.438	2187.33
465.81	2203.6
466.183	2215.35
466.555	2249.25
466.928	2269.81
467.3	2245.86
467.672	2269.14
468.045	2367.44
468.417	2375.35
468.789	2362.92
469.161	2431.16
469.534	2455.57
469.906	2466.42
470.278	2511.39
470.65	2553.2
471.022	2548.45
471.394	2616.47
471.766	2630.26
472.138	2693.76
472.51	2699.63
472.882	2777.6
473.253	2783.7
473.625	2806.97
473.997	2865.28
474.369	2870.48
474.74	2935.11
475.112	2983.24
475.484	3013.07
475.855	3065.72
476.227	3090.13
476.598	3156.34
476.97	3173.52
477.341	3265.95
477.713	3347.52
478.084	3308.88
478.455	3404.47
478.827	3449.44
479.198	3524.24
479.569	3546.39
479.94	3597.91
480.311	3636.78
480.682	3710.23
481.053	3776.67
481.424	3829.09
481.795	3906.15
482.166	3942.54
482.537	4000.84
482.908	4028.64
483.279	4126.04
483.65	4181.85
484.021	4280.61
484.391	4273.15
484.762	4279.7
485.133	4395.18
485.503	4430.21
485.874	4504.78
486.244	4563.31
486.615	4624.78
486.985	4689.86
487.356	4802.85
487.726	4810.76
488.097	4881.95
488.467	4914.26
488.837	5027.93
489.207	5112.9
489.578	5101.6
489.948	5177.08
490.318	5241.49
490.688	5275.84
491.058	5308.38
491.428	5404.65
491.798	5436.06
492.168	5584.75
492.538	5569.84
492.908	5590.18
493.278	5707.69
493.648	5704.98
494.017	5736.84
494.387	5786.56
494.757	5891.64
495.126	5923.28
495.496	5914.01
495.866	5995.14
496.235	6102.03
496.605	6173.67
496.974	6114.46
497.344	6187
497.713	6227
498.082	6243.49
498.452	6386.09
498.821	6363.49
499.19	6383.38
499.559	6468.12
499.928	6454.34
500.298	6555.12
500.667	6617.5
501.036	6646.2
501.405	6702.24
501.774	6695.01
502.143	6775.68
502.512	6791.95
502.88	6858.17
503.249	6838.05
503.618	6937.26
503.987	7001.44
504.356	6988.56
504.724	7049.57
505.093	7089.12
505.462	7100.87
505.83	7165.96
506.199	7192.85
506.567	7353.75
506.936	7328.66
507.304	7443.69
507.672	7457.25
508.041	7483.24
508.409	7524.82
508.777	7552.61
509.145	7627.64
509.514	7674.19
509.882	7753.74
510.25	7716.22
510.618	7849.55
510.986	7855.66
511.354	7950.57
511.722	8048.87
512.09	8042.77
512.458	8054.07
512.826	8184.46
513.193	8165.7
513.561	8217.91
513.929	8263.1
514.297	8370.67
514.664	8380.61
515.032	8478.92
515.4	8552.59
515.767	8546.71
516.135	8632.58
516.502	8644.11
516.869	8763.65
517.237	8721.39
517.604	8802.3
517.972	8891.56
518.339	8934.04
518.706	8980.15
519.073	9059.92
519.44	9102.85
519.808	9196.64
520.175	9155.96
520.542	9295.17
520.909	9310.08
521.276	9350.76
521.643	9510.98
522.009	9560.92
522.376	9607.7
522.743	9673.91
523.11	9790.29
523.477	9881.14
523.843	9918.65
524.21	10073.9
524.577	10136.05
524.943	10150.74
525.31	10183.5
525.676	10344.63
526.043	10389.83
526.409	10464.63
526.776	10497.62
527.142	10534.23
527.508	10616.49
527.874	10742.36
528.241	10771.51
528.607	10815.35
528.973	10913.2
529.339	10996.36
529.705	11048.11
530.071	11120.2
530.437	11160.2
530.803	11301.67
531.169	11392.96
531.535	11344.38
531.901	11356.35
532.267	11481.1
532.632	11548.67
532.998	11580.08
533.364	11687.64
533.73	11693.07
534.095	11838.38
534.461	11815.78
534.826	11888.77
535.192	11895.1
535.557	12028.65
535.923	12010.35
536.288	12061.19
536.653	12150.68
537.019	12158.82
537.384	12271.58
537.749	12280.85
538.114	12304.35
538.479	12355.65
538.845	12444.91
539.21	12436.1
539.575	12441.07
539.94	12533.95
540.305	12635.64
540.67	12611.24
541.034	12618.02
541.399	12749.99
541.764	12764.23
542.129	12770.55
542.494	12916.09
542.858	12961.96
543.223	12931
543.587	13048.74
543.952	12994.05
544.316	13099.58
544.681	13022.52
545.045	13161.96
545.41	13194.95
545.774	13267.04
546.138	13247.6
546.503	13355.17
546.867	13430.65
547.231	13532.12
547.595	13492.12
547.959	13568.5
548.324	13570.08
548.688	13542.96
549.052	13700.02
549.416	13746.57
549.779	13765.33
550.143	13787.48
550.507	13909.06
550.871	14024.31
551.235	13944.08
551.599	14105.21
551.962	14090.97
552.326	14181.82
552.689	14265.43
553.053	14192.44
553.417	14239.67
553.78	14402.38
554.143	14434.69
554.507	14487.12
554.87	14535.71
555.234	14663.39
555.597	14617.06
555.96	14692.54
556.323	14838.97
556.686	14771.86
557.05	14960.1
557.413	15026.31
557.776	14969.59
558.139	15161
558.502	15147.89
558.865	15172.52
559.228	15288.45
559.59	15376.36
559.953	15340.43
560.316	15538.16
560.679	15613.42
561.041	15735.45
561.404	15745.17
561.767	15855.9
562.129	15854.54
562.492	15981.77
562.854	16014.99
563.217	15973.86
563.579	16147.19
563.941	16145.15
564.304	16268.32
564.666	16411.14
565.028	16416.33
565.39	16515.99
565.753	16634.86
566.115	16705.82
566.477	16700.62
566.839	16804.57
567.201	16876.43
567.563	16931.35
567.925	17066.03
568.287	16942.65
568.648	17052.02
569.01	17140.83
569.372	17276.42
569.734	17269.42
570.095	17325.46
570.457	17338.57
570.819	17408.4
571.18	17508.28
571.542	17648.84
571.903	17672.8
572.265	17748.95
572.626	17805.68
572.987	17747.37
573.349	17770.87
573.71	17932.68
574.071	17858.33
574.432	17969.06
574.794	18082.96
575.155	18103.3
575.516	18067.14
575.877	18134.48
576.238	18150.3
576.599	18223.29
576.96	18311.65
577.32	18264.19
577.681	18350.29
578.042	18434.59
578.403	18387.13
578.763	18489.27
579.124	18470.29
579.485	18472.55
579.845	18616.05
580.206	18557.97
580.566	18538.31
580.927	18477.75
581.287	18657.4
581.648	18564.07
582.008	18641.13
582.368	18654.69
582.728	18629.38
583.089	18568.14
583.449	18653.11
583.809	18594.81
584.169	18701.47
584.529	18730.17
584.889	18884.52
585.249	18717.74
585.609	18718.65
585.969	18834.35
586.329	18774.24
586.688	18760.91
587.048	18806.33
587.408	18766.1
587.768	18745.99
588.127	18801.36
588.487	18782.6
588.846	18937.4
589.206	18743.05
589.565	18860.56
589.925	18865.76
590.284	18950.5
590.643	18911.86
591.003	18885.2
591.362	19067.34
591.721	19016.72
592.08	18919.32
592.44	18972.88
592.799	19072.99
593.158	19066.21
593.517	19027.56
593.876	19155.7
594.235	19112.31
594.593	19101.24
594.952	19228.46
595.311	19108.69
595.67	19143.49
596.029	19133.1
596.387	19282.47
596.746	19306.88
597.104	19152.08
597.463	19253.1
597.822	19378.29
598.18	19235.24
598.538	19319.99
598.897	19437.27
599.255	19217.39
599.613	19551.17
599.972	19445.18
600.33	19478.4
600.688	19331.29
601.046	19498.74
601.404	19581
601.762	19486.54
602.12	19621.67
602.478	19570.6
602.836	19604.5
603.194	19424.62
603.552	19489.02
603.91	19557.95
604.268	19613.76
604.625	19552.75
604.983	19646.53
605.341	19485.63
605.698	19629.81
606.056	19718.39
606.413	19657.38
606.771	19663.93
607.128	19778.73
607.485	19664.84
607.843	19730.82
608.2	19762.46
608.557	19832.97
608.914	19742.57
609.272	19876.13
609.629	19870.03
609.986	19876.13
610.343	19753.65
610.7	19911.84
611.057	19974.66
611.414	19880.88
611.771	19944.38
612.127	20015.56
612.484	19983.7
612.841	20054.66
613.198	19849.24
613.554	20071.15
613.911	20082.23
614.267	20038.39
614.624	20067.09
614.98	20011.49
615.337	20139.4
615.693	20106.18
616.05	20013.53
616.406	20165.39
616.762	20185.27
617.118	20079.74
617.475	20145.05
617.831	20219.85
618.187	20156.35
618.543	20178.27
618.899	20324.93
619.255	20251.49
619.611	20161.77
619.967	20307.08
620.323	20387.98
620.678	20167.2
621.034	20107.08
621.39	20181.43
621.746	20151.38
622.101	20381.65
622.457	20294.65
622.812	20249.23
623.168	20342.33
623.523	20219.4
623.879	20243.8
624.234	20121.32
624.589	20224.6
624.945	20265.5
625.3	20242.22
625.655	20209
626.01	20252.84
626.365	20329.68
626.72	20254.2
627.075	20262.79
627.43	20184.14
627.785	20170.59
628.14	20229.57
628.495	20147.76
628.85	20269.11
629.205	20093.98
629.559	20177.59
629.914	20134.43
630.269	20146.18
630.623	20065.28
630.978	20021.66
631.332	20077.03
631.687	20184.37
632.041	20093.53
632.396	20050.81
632.75	19939.41
633.104	19986.64
633.459	19907.99
633.813	19905.06
634.167	19904.38
634.521	19891.04
634.875	19806.53
635.229	19914.1
635.583	19770.82
635.937	19708.22
636.291	19778.28
636.645	19754.1
636.999	19740.09
637.352	19750.03
637.706	19499.19
638.06	19629.58
638.413	19682.91
638.767	19501.68
639.121	19691.73
639.474	19462.81
639.828	19612.18
640.181	19593.65
640.534	19636.14
640.888	19611.5
641.241	19486.54
641.594	19564.73
641.947	19542.13
642.301	19592.97
642.654	19519.53
643.007	19612.86
643.36	19472.07
643.713	19578.06
644.066	19630.94
644.419	19364.05
644.771	19265.75
645.124	19141.01
645.477	19103.27
645.83	19013.55
646.182	18842.26
646.535	18907.34
646.888	18907.34
647.24	18875.48
647.593	18977.4
647.945	19027.79
648.298	18872.99
648.65	18809.72
649.002	18759.78
649.355	18865.99
649.707	18778.98
650.059	18897.85
650.411	19050.84
650.763	19097.62
651.115	19368.8
651.467	19279.76
651.819	19145.3
652.171	19162.48
652.523	19180.55
652.875	19193.66
653.227	19055.81
653.578	19163.83
653.93	19216.71
654.282	19066.43
654.633	18952.76
654.985	19070.95
655.337	19022.82
655.688	19066.89
656.039	19048.36
656.391	18965.42
656.742	18964.97
657.094	18944.4
657.445	19031.86
657.796	18905.53
658.147	18952.76
658.498	18921.13
658.849	19021.92
659.2	18825.54
659.551	18861.69
659.902	18825.99
660.253	18745.09
660.604	18860.11
660.955	18687.91
661.306	18910.73
661.656	18869.6
662.007	18720.68
662.358	18886.78
662.708	18891.07
663.059	18718.42
663.409	18601.36
663.76	18805.42
664.11	18672.09
664.461	18693.56
664.811	18760.23
665.161	18677.97
665.511	18640.68
665.862	18656.05
666.212	18722.71
666.562	18719.78
666.912	18632.55
667.262	18619.44
667.612	18581.93
667.962	18642.72
668.312	18585.99
668.662	18625.32
669.011	18470.29
669.361	18489.95
669.711	18485.66
670.06	18375.15
670.41	18426.45
670.76	18302.84
671.109	18449.95
671.459	18395.26
671.808	18414.7
672.157	18379.22
672.507	18268.94
672.856	18310.97
673.205	18267.13
673.554	18237.53
673.904	18249.05
674.253	18384.19
674.602	18123.86
674.951	17877.76
675.3	17772.23
675.649	18089.74
675.998	17983.3
676.346	18070.98
676.695	18243.86
677.044	18020.13
677.393	17990.08
677.741	17969.06
678.09	18003.41
678.438	17926.12
678.787	17924.32
679.135	17968.38
679.484	17826.24
679.832	17945.11
680.181	17740.82
680.529	17787.82
680.877	17760.93
681.225	17750.31
681.573	17797.54
681.922	17628.05
682.27	17634.61
682.618	17711.89
682.966	17632.12
683.314	17582.63
683.661	17579.47
684.009	17489.75
684.357	17457.21
684.705	17405.01
685.053	17426.02
685.4	17332.02
685.748	17392.13
686.095	17358.46
686.443	17299.02
686.79	17207.5
687.138	17207.27
687.485	17268.74
687.832	17220.61
688.18	17324.78
688.527	17160.95
688.874	17212.7
689.221	17129.76
689.568	17026.49
689.915	17007.96
690.262	16956.21
690.609	17010.22
690.956	17004.34
691.303	16910.78
691.65	16794.18
691.997	16874.4
692.344	16762.09
692.69	16731.35
693.037	16746.27
693.383	16581.98
693.73	16596.89
694.077	16618.36
694.423	16524.13
694.769	16494.75
695.116	16450.68
695.462	16572.71
695.808	16391.93
696.155	16383.11
696.501	16347.41
696.847	16296.79
697.193	16182.44
697.539	16331.82
697.885	16184.93
698.231	16086.4
698.577	16129.79
698.923	16161.2
699.269	16117.58
699.614	15999.4
699.96	15940.41
700.306	15973.41
700.651	15878.27
700.997	15798.72
701.342	15859.29
701.688	15779.06
702.033	15779.51
702.379	15831.04
702.724	15725.28
703.069	15652.29
703.415	15526.64
703.76	15497.26
704.105	15552.4
704.45	15487.32
704.795	15387.21
705.14	15392.86
705.485	15428.56
705.83	15271.73
706.175	15363.25
706.52	15245.52
706.865	15223.14
707.209	15223.82
707.554	15226.53
707.899	15271.05
708.243	15114.67
708.588	15052.53
708.932	14958.07
709.277	14998.74
709.621	15025.86
709.966	14888.46
710.31	14899.09
710.654	14794.46
710.998	14828.35
711.342	14890.72
711.687	14912.64
712.031	14710.16
712.375	14652.54
712.719	14757.62
713.063	14681.69
713.407	14703.61
713.75	14570.28
714.094	14574.12
714.438	14509.72
714.782	14511.98
715.125	14488.25
715.469	14451.19
715.812	14425.2
716.156	14371.19
716.499	14369.16
716.843	14335.26
717.186	14239.67
717.53	14351.3
717.873	14271.98
718.216	14261.36
718.559	14201.7
718.902	14111.54
719.246	14144.08
719.589	14139.11
719.932	14020.01
720.275	14053.46
720.617	14017.3
720.96	13984.76
721.303	13975.49
721.646	14008.71
721.989	13902.95
722.331	13956.29
722.674	13838.77
723.016	13897.76
723.359	13894.82
723.701	13831.54
724.044	13715.61
724.386	13771.88
724.729	13694.6
725.071	13662.73
725.413	13624.99
725.755	13670.64
726.097	13544.54
726.439	13554.04
726.782	13603.98
727.124	13569.18
727.465	13517.65
727.807	13477.43
728.149	13447.6
728.491	13403.98
728.833	13382.06
729.175	13409.41
729.516	13427.03
729.858	13290.31
730.199	13395.85
730.541	13300.26
730.882	13345.23
731.224	13306.81
731.565	13227.72
731.906	13231.78
732.248	13127.83
732.589	13139.58
732.93	13104.33
733.271	13103.43
733.612	13116.31
733.953	13145.01
734.294	13024.56
734.635	13018.68
734.976	13108.62
735.317	12911.34
735.658	12924.45
735.999	12952.24
736.339	12885.13
736.68	12926.03
737.021	12858.46
737.361	12787.5
737.702	12907.27
738.042	12777.33
738.383	12738.92
738.723	12741.85
739.063	12714.51
739.404	12718.35
739.744	12694.85
740.084	12629.77
740.424	12692.14
740.764	12624.8
741.104	12755.64
741.444	12597.68
741.784	12561.75
742.124	12517.23
742.464	12527.85
742.804	12456.44
743.143	12478.58
743.483	12400.17
743.823	12430
744.162	12398.13
744.502	12391.35
744.841	12260.96
745.181	12326.27
745.52	12298.25
745.86	12314.97
746.199	12336.44
746.538	12286.72
746.877	12290.57
747.216	12306.16
747.556	12201.98
747.895	12182.32
748.234	12179.16
748.573	12110.68
748.911	12234.75
749.25	12046.05
749.589	12061.87
749.928	12052.83
750.267	12110.01
750.605	11993.63
750.944	12046.05
751.283	12021.65
751.621	11976.68
751.96	11859.84
752.298	11847.87
752.636	11893.51
752.975	11761.54
753.313	11744.14
753.651	11826.4
753.989	11642
754.327	11684.71
754.666	11608.78
755.004	11651.94
755.342	11691.71
755.679	11663.01
756.017	11569.46
756.355	11604.71
756.693	11485.16
