Data from foam_black_FLMS001491_00090.txt Node
Date: Wed Feb 08 10:44:52 GMT 2017
User: dcchb
Spectrometer: FLMS00149
Trigger mode: 0
Integration Time (sec): 2.000000E-2
Scans to average: 10
Electric dark correction enabled: true
Nonlinearity correction enabled: false
Boxcar width: 0
XAxis mode: Wavelengths
Number of Pixels in Spectrum: 2048
>>>>>Begin Spectral Data<<<<<
341.393	-31.75
341.776	-31.75
342.16	-31.75
342.543	-67.68
342.927	-60.45
343.31	-81.24
343.693	-66.55
344.077	-59.55
344.46	-61.35
344.843	-54.12
345.226	-37.4
345.61	-26.33
345.993	-33.33
346.376	-14.8
346.759	-9.83
347.142	36.27
347.525	45.31
347.908	53.44
348.291	97.51
348.674	91.18
349.057	120.79
349.44	121.47
349.823	151.75
350.206	160.56
350.588	193.78
350.971	198.3
351.354	222.25
351.737	226.32
352.119	243.95
352.502	254.57
352.884	278.52
353.267	287.79
353.65	274.46
354.032	299.99
354.414	292.99
354.797	309.26
355.179	332.53
355.562	318.75
355.944	331.86
356.326	328.69
356.709	330.27
357.091	350.61
357.473	335.47
357.855	335.47
358.238	346.32
358.62	324.17
359.002	344.51
359.384	341.8
359.766	320.33
360.148	343.61
360.53	340.44
360.912	354.23
361.294	330.27
361.676	324.62
362.057	322.82
362.439	320.33
362.821	327.56
363.203	314.68
363.584	325.53
363.966	316.49
364.348	336.38
364.729	323.04
365.111	326.66
365.493	313.1
365.874	349.93
366.256	346.54
366.637	327.56
367.019	328.24
367.4	312.42
367.781	335.47
368.163	341.57
368.544	317.39
368.925	321.01
369.306	327.79
369.688	305.42
370.069	303.83
370.45	340.22
370.831	321.91
371.212	339.31
371.593	314.23
371.974	327.11
372.355	336.15
372.736	324.17
373.117	341.57
373.498	322.14
373.879	345.19
374.26	336.15
374.641	327.34
375.021	308.81
375.402	336.38
375.783	332.53
376.163	355.13
376.544	337.51
376.925	334.57
377.305	329.6
377.686	341.57
378.066	347
378.447	332.76
378.827	357.39
379.208	358.3
379.588	341.57
379.968	366.43
380.349	361.91
380.729	351.74
381.109	339.09
381.489	345.41
381.87	354.45
382.25	375.02
382.63	366.66
383.01	372.76
383.39	365.98
383.77	366.88
384.15	351.97
384.53	359.65
384.91	364.17
385.29	380.44
385.67	372.31
386.049	367.56
386.429	375.02
386.809	383.83
387.189	377.96
387.568	385.19
387.948	400.78
388.328	385.19
388.707	390.61
389.087	387.67
389.466	402.59
389.846	394.45
390.225	387.45
390.605	392.65
390.984	393.77
391.363	401.68
391.743	394.68
392.122	413.44
392.501	407.33
392.881	420.89
393.26	423.15
393.639	431.29
394.018	409.59
394.397	412.08
394.776	441.68
395.155	437.39
395.534	435.36
395.913	408.92
396.292	435.58
396.671	450.72
397.05	459.76
397.429	440.78
397.808	436.49
398.186	436.94
398.565	454.56
398.944	445.3
399.323	472.19
399.701	460.44
400.08	445.53
400.458	463.6
400.837	470.38
401.215	462.47
401.594	461.34
401.972	452.53
402.351	477.39
402.729	474.9
403.107	468.35
403.486	491.17
403.864	474
404.242	487.11
404.62	490.5
404.999	499.99
405.377	491.17
405.755	502.02
406.133	511.96
406.511	484.39
406.889	509.25
407.267	513.32
407.645	520.33
408.023	515.81
408.401	517.84
408.779	536.14
409.156	533.43
409.534	536.82
409.912	544.28
410.29	547.22
410.667	561.45
411.045	535.24
411.422	561.45
411.8	564.84
412.178	568.69
412.555	585.63
412.933	567.56
413.31	575.69
413.687	604.39
414.065	568.91
414.442	613.2
414.819	587.22
415.197	595.8
415.574	590.83
415.951	613.2
416.328	616.37
416.705	605.75
417.082	612.53
417.46	625.18
417.837	617.95
418.214	622.02
418.591	657.5
418.967	636.25
419.344	613.88
419.721	661.56
420.098	657.95
420.475	646.88
420.852	639.42
421.228	672.64
421.605	681.45
421.982	680.1
422.358	683.94
422.735	677.16
423.111	698.85
423.488	673.77
423.864	704.05
424.241	706.31
424.617	714.44
424.994	696.59
425.37	757.38
425.746	713.09
426.123	718.74
426.499	722.35
426.875	761.9
427.251	771.39
427.627	785.18
428.003	769.81
428.379	786.53
428.756	773.43
429.132	798.28
429.507	789.47
429.883	828.34
430.259	795.12
430.635	829.47
431.011	815.23
431.387	859.98
431.763	870.82
432.138	859.53
432.514	860.43
432.89	858.4
433.265	876.7
433.641	898.17
434.016	885.97
434.392	920.77
434.767	920.09
435.143	909.02
435.518	925.96
435.894	925.74
436.269	959.41
436.644	939.52
437.02	941.11
437.395	970.03
437.77	968
438.145	994.21
438.52	976.36
438.895	1013.65
439.271	1013.42
439.646	1015.91
440.021	1024.94
440.395	1028.33
440.77	1040.54
441.145	1020.43
441.52	1056.81
441.895	1042.57
442.27	1047.77
442.645	1082.8
443.019	1078.73
443.394	1059.97
443.769	1071.95
444.143	1088.67
444.518	1089.58
444.892	1088.45
445.267	1083.93
445.641	1123.47
446.016	1138.61
446.39	1135.68
446.764	1117.82
447.139	1135.9
447.513	1144.72
447.887	1137.03
448.262	1172.96
448.636	1172.96
449.01	1171.83
449.384	1189.23
449.758	1194.66
450.132	1172.29
450.506	1198.05
450.88	1215.67
451.254	1191.95
451.628	1231.72
452.002	1227.2
452.376	1262
452.75	1262.23
453.123	1247.76
453.497	1283.92
453.871	1269.68
454.244	1313.07
454.618	1314.65
454.992	1309.68
455.365	1300.87
455.739	1375.9
456.112	1371.15
456.486	1387.2
456.859	1415.44
457.232	1437.36
457.606	1440.08
457.979	1431.94
458.352	1468.1
458.725	1491.83
459.099	1491.83
459.472	1524.82
459.845	1513.07
460.218	1538.83
460.591	1553.52
460.964	1542.9
461.337	1558.72
461.71	1598.94
462.083	1628.32
462.456	1645.95
462.829	1645.27
463.201	1652.27
463.574	1657.02
463.947	1687.53
464.32	1708.54
464.692	1710.8
465.065	1746.73
465.438	1763
465.81	1786.28
466.183	1820.4
466.555	1813.4
466.928	1827.64
467.3	1832.16
467.672	1876.9
468.045	1917.8
468.417	1892.49
468.789	1932.04
469.161	1939.5
469.534	1998.7
469.906	2014.3
470.278	2005.94
470.65	2070.12
471.022	2084.8
471.394	2125.25
471.766	2126.84
472.138	2129.55
472.51	2175.2
472.882	2244.57
473.253	2227.4
473.625	2280.96
473.997	2290.22
474.369	2332.26
474.74	2342.88
475.112	2407.06
475.484	2452.48
475.855	2444.12
476.227	2464
476.598	2530.44
476.97	2561.85
477.341	2631
477.713	2602.53
478.084	2673.94
478.455	2738.12
478.827	2785.12
479.198	2800.94
479.569	2793.26
479.94	2891.11
480.311	2898.57
480.682	2944.44
481.053	3014.5
481.424	3051.11
481.795	3122.29
482.166	3129.97
482.537	3185.11
482.908	3253.36
483.279	3249.52
483.65	3308.95
484.021	3370.42
484.391	3377.2
484.762	3405
485.133	3456.07
485.503	3457.88
485.874	3563.64
486.244	3583.75
486.615	3670.07
486.985	3708.94
487.356	3733.8
487.726	3789.84
488.097	3814.48
488.467	3878.88
488.837	3930.63
489.207	3956.17
489.578	4010.63
489.948	4049.5
490.318	4095.6
490.688	4117.74
491.058	4183.05
491.428	4240.68
491.798	4277.06
492.168	4324.52
492.538	4350.51
492.908	4412.88
493.278	4465.31
493.648	4448.58
494.017	4501.69
494.387	4559.32
494.757	4556.6
495.126	4626.66
495.496	4629.6
495.866	4611.07
496.235	4714.79
496.605	4714.57
496.974	4792.53
497.344	4807.9
497.713	4822.36
498.082	4936.93
498.452	4912.3
498.821	4941.9
499.19	4980.55
499.559	4969.47
499.928	5043.37
500.298	5112.75
500.667	5146.64
501.036	5118.85
501.405	5206.08
501.774	5187.77
502.143	5216.02
502.512	5238.39
502.88	5295.34
503.249	5282.46
503.618	5312.74
503.987	5380.54
504.356	5376.69
504.724	5444.94
505.093	5490.82
505.462	5504.6
505.83	5523.81
506.199	5589.8
506.567	5642
506.936	5666.63
507.304	5709.57
507.672	5712.73
508.041	5767.42
508.409	5778.27
508.777	5816.91
509.145	5896
509.514	5876.34
509.882	5941.65
510.25	5971.93
510.618	6055.32
510.986	6014.87
511.354	6126.05
511.722	6121.31
512.09	6144.81
512.458	6161.53
512.826	6243.79
513.193	6224.13
513.561	6253.96
513.929	6319.27
514.297	6421.64
514.664	6453.73
515.032	6454.63
515.4	6486.72
515.767	6575.08
516.135	6570.79
516.502	6547.29
516.869	6705.25
517.237	6690.78
517.604	6720.39
517.972	6784.12
518.339	6844.23
518.706	6837
519.073	6877.67
519.44	6928.74
519.808	7080.6
520.175	7074.5
520.542	7119.25
520.909	7191.79
521.276	7243.99
521.643	7224.56
522.009	7271.79
522.376	7392.91
522.743	7417.77
523.11	7449.63
523.477	7578.22
523.843	7599.69
524.21	7695.28
524.577	7737.31
524.943	7785.67
525.31	7816.63
525.676	7861.15
526.043	7878.1
526.409	7987.02
526.776	8120.13
527.142	8050.52
527.508	8137.75
527.874	8203.74
528.241	8307.47
528.607	8339.55
528.973	8380.01
529.339	8417.52
529.705	8518.76
530.071	8558.08
530.437	8636.95
530.803	8684.4
531.169	8677.62
531.535	8703.61
531.901	8689.83
532.267	8796.49
532.632	8834.68
532.998	8932.99
533.364	8888.24
533.73	8960.78
534.095	9000.33
534.461	9049.82
534.826	9155.13
535.192	9136.37
535.557	9241.68
535.923	9282.58
536.288	9295.01
536.653	9343.82
537.019	9332.3
537.384	9392.63
537.749	9408.91
538.114	9441.22
538.479	9486.64
538.845	9519.64
539.21	9478.96
539.575	9600.99
539.94	9629.69
540.305	9620.2
540.67	9689.8
541.034	9720.08
541.399	9785.62
541.764	9827.2
542.129	9857.03
542.494	9785.84
542.858	9899.06
543.223	9873.3
543.587	10019.96
543.952	9942
544.316	10023.8
544.681	10049.11
545.045	10106.97
545.41	10111.03
545.774	10144.48
546.138	10178.83
546.503	10196.46
546.867	10255.21
547.231	10340.86
547.595	10411.14
547.959	10400.52
548.324	10437.13
548.688	10410.01
549.052	10471.25
549.416	10513.73
549.779	10546.28
550.143	10520.06
550.507	10719.61
550.871	10680.51
551.235	10691.81
551.599	10806.16
551.962	10791.24
552.326	10830.56
552.689	10949.66
553.053	10934.97
553.417	10966.15
553.78	11103.1
554.143	11072.36
554.507	11146.03
554.87	11259.03
555.234	11306.71
555.597	11232.81
555.96	11340.61
556.323	11370.66
556.686	11496.08
557.05	11576.08
557.413	11613.14
557.776	11558.91
558.139	11679.81
558.502	11697.21
558.865	11700.14
559.228	11937.88
559.59	11976.97
559.953	12026.01
560.316	12144.88
560.679	12133.81
561.041	12237.98
561.404	12269.17
561.767	12349.39
562.129	12255.61
562.492	12463.97
562.854	12446.79
563.217	12557.3
563.579	12500.12
563.941	12656.28
564.304	12706.9
564.666	12843.39
565.028	12877.06
565.39	12870.51
565.753	12942.15
566.115	12992.99
566.477	13111.18
566.839	13095.14
567.201	13173.55
567.563	13352.53
567.925	13279.31
568.287	13318.18
568.648	13424.84
569.01	13472.3
569.372	13621.45
569.734	13507.1
570.095	13676.59
570.457	13708.23
570.819	13818.28
571.18	13801.11
571.542	13835.68
571.903	13894.21
572.265	13934.66
572.626	14028.9
572.987	14084.94
573.349	14109.57
573.71	14167.65
574.071	14154.09
574.432	14175.79
574.794	14330.36
575.155	14301.43
575.516	14309.79
575.877	14399.06
576.238	14420.07
576.599	14463.91
576.96	14514.08
577.32	14542.56
577.681	14514.53
578.042	14612.61
578.403	14660.07
578.763	14698.71
579.124	14650.8
579.485	14683.57
579.845	14881.53
580.206	14833.4
580.566	14808.99
580.927	14778.03
581.287	14895.54
581.648	14814.64
582.008	14921.75
582.368	14820.29
582.728	14832.72
583.089	14957.91
583.449	14931.47
583.809	14957.01
584.169	14966.73
584.529	14907.29
584.889	15038.14
585.249	14987.29
585.609	14928.53
585.969	15086.72
586.329	15046.05
586.688	15142.54
587.048	15034.52
587.408	14975.54
587.768	14923.79
588.127	14958.82
588.487	14976.22
588.846	15113.84
589.206	15072.03
589.565	15029.1
589.925	15165.36
590.284	15072.49
590.643	15141.86
591.003	15149.55
591.362	15189.77
591.721	15069.55
592.08	15198.13
592.44	15188.64
592.799	15222.09
593.158	15177.79
593.517	15105.25
593.876	15166.49
594.235	15136.44
594.593	15138.47
594.952	15270.9
595.311	15216.44
595.67	15211.92
596.029	15276.32
596.387	15255.08
596.746	15252.82
597.104	15217.11
597.463	15272.03
597.822	15300.5
598.18	15292.82
598.538	15364.91
598.897	15408.07
599.255	15292.59
599.613	15563.55
599.972	15451.23
600.33	15466.15
600.688	15417.79
601.046	15443.32
601.404	15529.42
601.762	15530.1
602.12	15548.4
602.478	15547.95
602.836	15558.12
603.194	15437
603.552	15564.68
603.91	15385.92
604.268	15604.45
604.625	15498.24
604.983	15617.33
605.341	15536.2
605.698	15626.14
606.056	15617.56
606.413	15585.92
606.771	15720.38
607.128	15658.23
607.485	15619.82
607.843	15731.45
608.2	15752.47
608.557	15786.14
608.914	15771.22
609.272	15860.49
609.629	15830.43
609.986	15915.85
610.343	15820.71
610.7	16047.15
611.057	15841.28
611.414	15841.96
611.771	15946.81
612.127	15985.91
612.484	16048.5
612.841	15966.7
613.198	16025.91
613.554	16008.28
613.911	15994.04
614.267	15982.97
614.624	16046.92
614.98	16030.88
615.337	16106.81
615.693	16021.16
616.05	16090.31
616.406	16149.74
616.762	16086.47
617.118	16053.48
617.475	16088.73
617.831	16164.66
618.187	16144.77
618.543	16293.7
618.899	16269.06
619.255	16217.54
619.611	16269.06
619.967	16215.73
620.323	16335.95
620.678	16266.8
621.034	16210.99
621.39	16161.5
621.746	16207.37
622.101	16374.82
622.457	16253.47
622.812	16243.98
623.168	16261.38
623.523	16347.25
623.879	16359.68
624.234	16239.69
624.589	16327.59
624.945	16225.9
625.3	16348.16
625.655	16235.17
626.01	16306.12
626.365	16286.46
626.72	16369.85
627.075	16179.12
627.43	16283.75
627.785	16199.46
628.14	16292.57
628.495	16345.45
628.85	16352
629.205	16226.13
629.559	16319.46
629.914	16238.56
630.269	16217.77
630.623	16170.08
630.978	16238.78
631.332	16172.57
631.687	16269.06
632.041	16155.62
632.396	16233.13
632.75	16170.99
633.104	16130.76
633.459	16073.59
633.813	16125.11
634.167	16095.73
634.521	16020.48
634.875	16117.66
635.229	16058.45
635.583	16042.63
635.937	16033.59
636.291	16013.03
636.645	15995.4
636.999	15992.46
637.352	16079.46
637.706	15953.14
638.06	15992.69
638.413	15892.8
638.767	15850.77
639.121	15921.95
639.474	15800.83
639.828	15733.48
640.181	15871.33
640.534	15838.79
640.888	15756.08
641.241	15698.23
641.594	15683.54
641.947	15725.58
642.301	15665.92
642.654	15758.57
643.007	15680.38
643.36	15685.12
643.713	15678.8
644.066	15736.87
644.419	15683.54
644.771	15423.89
645.124	15349.77
645.477	15232.03
645.83	15154.29
646.182	15148.19
646.535	15146.16
646.888	15083.33
647.24	15044.01
647.593	15148.87
647.945	15179.83
648.298	15094.86
648.65	15071.81
649.002	14988.19
649.355	15109.09
649.707	14852.83
650.059	14954.97
650.411	15025.71
650.763	15131.01
651.115	15279.94
651.467	15154.74
651.819	15177.12
652.171	15179.6
652.523	15179.37
652.875	15141.18
653.227	15159.49
653.578	15128.53
653.93	15183.44
654.282	15106.16
654.633	15012.6
654.985	15076.1
655.337	15081.75
655.688	15101.86
656.039	15121.3
656.391	15072.94
656.742	15059.15
657.094	14994.75
657.445	15070.23
657.796	15063.45
658.147	14983
658.498	14942.32
658.849	15006.72
659.2	15020.06
659.551	14921.75
659.902	14973.73
660.253	15025.93
660.604	14977.12
660.955	14825.26
661.306	14923.34
661.656	14981.64
662.007	14886.05
662.358	14909.33
662.708	14889.89
663.059	14954.3
663.409	14855.99
663.76	14906.39
664.11	14830.23
664.461	14882.66
664.811	14811.02
665.161	14852.15
665.511	14913.85
665.862	14887.86
666.212	14848.99
666.562	14933.28
666.912	14822.32
667.262	14867.74
667.612	14846.73
667.962	14802.89
668.312	14791.36
668.662	14899.83
669.011	14850.34
669.361	14790.68
669.711	14840.63
670.06	14744.58
670.41	14699.39
670.76	14751.82
671.109	14825.49
671.459	14734.87
671.808	14771.48
672.157	14741.87
672.507	14693.51
672.856	14732.61
673.205	14666.39
673.554	14742.32
673.904	14692.16
674.253	14722.44
674.602	14585.49
674.951	14531.93
675.3	14398.6
675.649	14702.1
675.998	14628.43
676.346	14578.49
676.695	14688.54
677.044	14492.16
677.393	14576
677.741	14620.29
678.09	14536.68
678.438	14492.61
678.787	14582.78
679.135	14570.8
679.484	14414.42
679.832	14580.97
680.181	14357.02
680.529	14471.6
680.877	14330.58
681.225	14379.85
681.573	14398.15
681.922	14316.57
682.27	14250.59
682.618	14300.98
682.966	14249.91
683.314	14213.98
683.661	14232.73
684.009	14132.62
684.357	14077.48
684.705	14075.45
685.053	14009.01
685.4	14072.51
685.748	14008.11
686.095	14046.07
686.443	13999.74
686.79	13926.75
687.138	13964.94
687.485	13966.75
687.832	13907.54
688.18	13912.74
688.527	13774.67
688.874	13864.83
689.221	13700.77
689.568	13724.95
689.915	13674.33
690.262	13635.01
690.609	13726.53
690.956	13574.45
691.303	13566.31
691.65	13492.87
691.997	13533.77
692.344	13448.8
692.69	13389.37
693.037	13409.48
693.383	13392.76
693.73	13298.29
694.077	13242.7
694.423	13258.07
694.769	13199.54
695.116	13165.87
695.462	13129.94
695.808	13075.7
696.155	13059.2
696.501	13040
696.847	12951.18
697.193	12929.49
697.539	12894.92
697.885	12772.88
698.231	12841.13
698.577	12803.84
698.923	12742.83
699.269	12647.46
699.614	12728.82
699.96	12591.42
700.306	12621.7
700.651	12542.16
700.997	12515.94
701.342	12493.12
701.688	12556.17
702.033	12517.75
702.379	12461.48
702.724	12357.75
703.069	12401.37
703.415	12350.07
703.76	12213.58
704.105	12218.55
704.45	12262.16
704.795	12130.87
705.14	12098.33
705.485	12139.68
705.83	12150.98
706.175	12118.89
706.52	12028.05
706.865	11918.22
707.209	11945.11
707.554	11917.09
707.899	11955.05
708.243	11825.79
708.588	11786.47
708.932	11715.74
709.277	11637.77
709.621	11690.65
709.966	11589.86
710.31	11660.37
710.654	11525.46
710.998	11619.47
711.342	11500.83
711.687	11575.18
712.031	11470.77
712.375	11398.68
712.719	11420.83
713.063	11408.63
713.407	11405.69
713.75	11394.39
714.094	11324.56
714.438	11306.48
714.782	11373.6
715.125	11244.34
715.469	11217.67
715.812	11219.7
716.156	11141.51
716.499	11208.18
716.843	11194.85
717.186	11100.84
717.53	11118.24
717.873	11157.33
718.216	11159.37
718.559	11032.37
718.902	10990.56
719.246	11049.77
719.589	10951.69
719.932	10974.29
720.275	10949.2
720.617	10847.51
720.96	10960.95
721.303	10904.91
721.646	10871.69
721.989	10784.24
722.331	10840.05
722.674	10768.87
723.016	10831.24
723.359	10779.26
723.701	10699.27
724.044	10699.04
724.386	10612.72
724.729	10691.36
725.071	10677.8
725.413	10734.75
725.755	10631.92
726.097	10563
726.439	10522.32
726.782	10528.42
727.124	10609.78
727.465	10533.62
727.807	10542.89
728.149	10488.65
728.491	10429.9
728.833	10403.46
729.175	10453.4
729.516	10423.34
729.858	10425.38
730.199	10381.08
730.541	10407.52
730.882	10474.64
731.224	10404.36
731.565	10333.17
731.906	10197.13
732.248	10274.87
732.589	10262.89
732.93	10130.92
733.271	10212.05
733.612	10198.26
733.953	10138.6
734.294	10200.97
734.635	10137.02
734.976	10163.01
735.317	10138.15
735.658	10109.23
735.999	10158.72
736.339	10056.12
736.68	10064.48
737.021	10075.55
737.361	9941.77
737.702	10012.51
738.042	9999.4
738.383	9986.74
738.723	9976.57
739.063	9969.34
739.404	10032.84
739.744	9936.8
740.084	9915.56
740.424	9925.5
740.764	9875.11
741.104	9892.28
741.444	9826.3
741.784	9784.04
742.124	9837.37
742.464	9765.73
742.804	9757.14
743.143	9723.93
743.483	9753.75
743.823	9691.84
744.162	9719.63
744.502	9735.9
744.841	9684.38
745.181	9674.89
745.52	9662.46
745.86	9641.67
746.199	9647.99
746.538	9590.14
746.877	9636.02
747.216	9651.38
747.556	9587.21
747.895	9558.05
748.234	9580.2
748.573	9478.06
748.911	9452.29
749.25	9440.09
749.589	9424.72
749.928	9505.4
750.267	9470.82
750.605	9430.37
750.944	9342.47
751.283	9320.77
751.621	9355.12
751.96	9336.59
752.298	9243.03
752.636	9331.39
752.975	9266.08
753.313	9230.38
753.651	9269.25
753.989	9149.25
754.327	9170.72
754.666	9213.2
755.004	9100.21
755.342	9122.81
755.679	9141.34
756.017	9106.54
756.355	9136.6
756.693	9041.68
757.031	9077.84
757.368	9008.46
757.706	9011.85
758.044	8905.87
758.381	9001.68
758.719	8925.98
759.056	8935.25
759.394	8850.95
