Data from foam_black_FLMS001491_00034.txt Node
Date: Wed Feb 08 10:43:48 GMT 2017
User: dcchb
Spectrometer: FLMS00149
Trigger mode: 0
Integration Time (sec): 2.000000E-2
Scans to average: 10
Electric dark correction enabled: true
Nonlinearity correction enabled: false
Boxcar width: 0
XAxis mode: Wavelengths
Number of Pixels in Spectrum: 2048
>>>>>Begin Spectral Data<<<<<
341.393	-4.01
341.776	-4.01
342.16	-4.01
342.543	-80.39
342.927	-86.95
343.31	-74.29
343.693	-67.29
344.077	-59.6
344.46	-70.45
344.843	-44.91
345.226	-37.46
345.61	-21.86
345.993	-11.47
346.376	-9.89
346.759	12.26
347.142	34.63
347.525	9.1
347.908	64.46
348.291	82.54
348.674	103.1
349.057	91.13
349.44	116.21
349.823	131.35
350.206	134.97
350.588	173.39
350.971	168.64
351.354	194.85
351.737	220.39
352.119	240.05
352.502	234.85
352.884	242.08
353.267	247.96
353.65	260.84
354.032	276.89
354.414	279.82
354.797	288.86
355.179	303.55
355.562	301.97
355.944	297.45
356.326	300.39
356.709	299.26
357.091	289.31
357.473	306.94
357.855	329.31
358.238	321.18
358.62	310.1
359.002	310.33
359.384	303.1
359.766	313.95
360.148	317.34
360.53	311.01
360.912	334.28
361.294	307.85
361.676	304.46
362.057	308.52
362.439	307.85
362.821	316.21
363.203	323.21
363.584	299.71
363.966	292.03
364.348	305.13
364.729	302.42
365.111	315.98
365.493	287.05
365.874	285.47
366.256	291.35
366.637	304
367.019	298.35
367.4	282.08
367.781	279.82
368.163	284.57
368.544	271.01
368.925	285.47
369.306	292.03
369.688	282.08
370.069	273.72
370.45	292.03
370.831	296.09
371.212	294.29
371.593	286.38
371.974	268.98
372.355	295.87
372.736	294.29
373.117	282.53
373.498	309.65
373.879	294.29
374.26	273.27
374.641	300.39
375.021	285.02
375.402	287.73
375.783	303.55
376.163	303.1
376.544	306.26
376.925	291.8
377.305	291.8
377.686	305.81
378.066	303.1
378.447	301.07
378.827	308.3
379.208	318.69
379.588	303.1
379.968	297.68
380.349	293.83
380.729	325.7
381.109	322.99
381.489	317.34
381.87	294.51
382.25	312.36
382.63	301.74
383.01	313.49
383.39	328.86
383.77	313.27
384.15	310.1
384.53	320.95
384.91	339.93
385.29	311.46
385.67	321.86
386.049	322.31
386.429	297.45
386.809	327.51
387.189	330.67
387.568	330.22
387.948	322.53
388.328	326.6
388.707	329.99
389.087	331.35
389.466	317.34
389.846	339.03
390.225	348.97
390.605	331.12
390.984	340.61
391.363	325.92
391.743	336.54
392.122	336.54
392.501	351.91
392.881	311.23
393.26	342.65
393.639	340.84
394.018	344.91
394.397	349.88
394.776	342.65
395.155	335.64
395.534	344.23
395.913	358.24
396.292	355.3
396.671	356.21
397.05	355.08
397.429	381.29
397.808	357.79
398.186	350.33
398.565	346.26
398.944	383.55
399.323	354.62
399.701	355.75
400.08	351.23
400.458	345.81
400.837	340.61
401.215	357.11
401.594	358.24
401.972	350.1
402.351	346.94
402.729	377.9
403.107	362.53
403.486	369.54
403.864	362.31
404.242	375.41
404.62	357.79
404.999	370.89
405.377	371.57
405.755	381.29
406.133	387.62
406.511	372.7
406.889	378.13
407.267	395.07
407.645	388.07
408.023	397.33
408.401	394.85
408.779	399.82
409.156	396.66
409.534	398.69
409.912	400.72
410.29	384.23
410.667	392.59
411.045	387.62
411.422	397.56
411.8	399.14
412.178	390.78
412.555	409.31
412.933	436.66
413.31	424.45
413.687	405.7
414.065	442.53
414.442	415.41
414.819	424.23
415.197	423.1
415.574	431.46
415.951	430.33
416.328	419.71
416.705	457.22
417.082	447.5
417.46	431.46
417.837	442.3
418.214	440.72
418.591	445.02
418.967	452.7
419.344	444.79
419.721	450.44
420.098	442.3
420.475	456.09
420.852	443.89
421.228	445.24
421.605	427.84
421.982	467.84
422.358	471
422.735	481.4
423.111	490.44
423.488	467.84
423.864	464.45
424.241	472.13
424.617	482.08
424.994	495.41
425.37	481.85
425.746	466.03
426.123	455.64
426.499	491.34
426.875	492.7
427.251	480.5
427.627	488.18
428.003	494.96
428.379	496.31
428.756	520.27
429.132	479.37
429.507	506.48
429.883	507.39
430.259	531.57
430.635	513.94
431.011	513.26
431.387	531.12
431.763	513.94
432.138	530.44
432.514	538.57
432.89	539.48
433.265	532.25
433.641	549.87
434.016	541.29
434.392	555.07
434.767	559.59
435.143	548.74
435.518	576.31
435.894	574.5
436.269	569.99
436.644	558.23
437.02	580.38
437.395	577.89
437.77	574.73
438.145	580.15
438.52	578.8
438.895	591.45
439.271	585.35
439.646	607.95
440.021	620.15
440.395	609.31
440.77	599.14
441.145	593.71
441.52	612.02
441.895	612.92
442.27	612.47
442.645	617.67
443.019	605.46
443.394	614.5
443.769	644.11
444.143	642.3
444.518	621.06
444.892	621.51
445.267	618.35
445.641	653.82
446.016	621.74
446.39	635.75
446.764	644.11
447.139	650.89
447.513	657.44
447.887	648.4
448.262	670.1
448.636	647.72
449.01	660.15
449.384	659.7
449.758	661.28
450.132	681.85
450.506	671.9
450.88	668.29
451.254	680.94
451.628	695.41
452.002	686.82
452.376	689.53
452.75	692.69
453.123	683.88
453.497	690.21
453.871	730.21
454.244	718.46
454.618	718.46
454.992	750.09
455.365	738.34
455.739	721.85
456.112	728.4
456.486	753.71
456.859	735.63
457.232	753.93
457.606	767.49
457.979	776.99
458.352	741.28
458.725	795.52
459.099	771.79
459.472	807.27
459.845	804.1
460.218	797.32
460.591	816.31
460.964	802.75
461.337	812.46
461.71	816.08
462.083	822.63
462.456	848.62
462.829	831.45
463.201	842.97
463.574	854.27
463.947	868.96
464.32	887.26
464.692	894.04
465.065	919.13
465.438	892.46
465.81	908.28
466.183	906.93
466.555	927.94
466.928	936.53
467.3	933.59
467.672	953.7
468.045	929.3
468.417	975.62
468.789	953.25
469.161	971.33
469.534	997.77
469.906	991.89
470.278	991.22
470.65	1015.17
471.022	996.19
471.394	1046.81
471.766	1036.19
472.138	1054.04
472.51	1063.53
472.882	1076.64
473.253	1085.68
473.625	1112.57
473.997	1142.85
474.369	1132.23
474.74	1125.22
475.112	1155.51
475.484	1141.27
475.855	1200.48
476.227	1214.49
476.598	1221.72
476.97	1226.69
477.341	1243.87
477.713	1252
478.084	1246.35
478.455	1292.68
478.827	1317.31
479.198	1333.58
479.569	1326.58
479.94	1340.81
480.311	1346.91
480.682	1402.51
481.053	1419.91
481.424	1425.56
481.795	1428.49
482.166	1434.82
482.537	1450.87
482.908	1477.08
483.279	1521.82
483.65	1482.5
484.021	1514.37
484.391	1517.53
484.762	1537.64
485.133	1579.22
485.503	1588.72
485.874	1607.25
486.244	1655.83
486.615	1655.61
486.985	1670.75
487.356	1721.59
487.726	1730.18
488.097	1714.81
488.467	1737.19
488.837	1772.21
489.207	1790.74
489.578	1808.37
489.948	1821.25
490.318	1834.13
490.688	1835.94
491.058	1865.09
491.428	1905.32
491.798	1902.83
492.168	1928.82
492.538	1918.42
492.908	1976.05
493.278	1974.47
493.648	1997.97
494.017	2018.53
494.387	2014.24
494.757	2057.4
495.126	2075.26
495.496	2042.71
495.866	2069.61
496.235	2108.7
496.605	2110.96
496.974	2091.75
497.344	2120.68
497.713	2101.92
498.082	2148.47
498.452	2177.17
498.821	2186.67
499.19	2204.29
499.559	2221.24
499.928	2230.05
500.298	2228.7
500.667	2248.13
501.036	2264.86
501.405	2258.53
501.774	2263.05
502.143	2286.1
502.512	2292.88
502.88	2310.28
503.249	2348.7
503.618	2341.69
503.987	2334.91
504.356	2352.99
504.724	2371.97
505.093	2386.89
505.462	2403.84
505.83	2416.72
506.199	2397.96
506.567	2464.17
506.936	2441.35
507.304	2482.93
507.672	2483.38
508.041	2517.96
508.409	2507.11
508.777	2534.45
509.145	2583.04
509.514	2537.39
509.882	2583.04
510.25	2608.8
510.618	2613.32
510.986	2636.15
511.354	2647.9
511.722	2682.02
512.09	2691.74
512.458	2668.69
512.826	2660.78
513.193	2723.6
513.561	2701.23
513.929	2738.06
514.297	2764.05
514.664	2780.77
515.032	2765.86
515.4	2798.63
515.767	2821.9
516.135	2821
516.502	2816.48
516.869	2910.71
517.237	2898.51
517.604	2889.92
517.972	2882.01
518.339	2945.06
518.706	2932.41
519.073	2962.92
519.44	2991.84
519.808	3031.39
520.175	3032.75
520.542	3027.77
520.909	3056.7
521.276	3055.12
521.643	3119.07
522.009	3149.8
522.376	3086.3
522.743	3187.32
523.11	3170.82
523.477	3197.94
523.843	3250.59
524.21	3317.48
524.577	3295.56
524.943	3315.45
525.31	3293.76
525.676	3346.18
526.043	3348.89
526.409	3389.8
526.776	3387.09
527.142	3422.34
527.508	3453.3
527.874	3427.31
528.241	3456.46
528.607	3479.51
528.973	3539.85
529.339	3521.55
529.705	3562.9
530.071	3592.73
530.437	3537.59
530.803	3607.19
531.169	3625.05
531.535	3645.16
531.901	3630.7
532.267	3680.64
532.632	3709.79
532.998	3706.4
533.364	3743.91
533.73	3741.88
534.095	3788.43
534.461	3802.22
534.826	3780.07
535.192	3806.28
535.557	3851.48
535.923	3863.91
536.288	3899.84
536.653	3883.34
537.019	3867.53
537.384	3908.2
537.749	3914.76
538.114	3947.98
538.479	3916.11
538.845	3958.82
539.21	3935.09
539.575	3953.85
539.94	4016.67
540.305	4024.36
540.67	4044.7
541.034	4075.2
541.399	4061.87
541.764	4081.31
542.129	4094.19
542.494	4101.64
542.858	4160.17
543.223	4135.77
543.587	4135.99
543.952	4110
544.316	4221.41
544.681	4149.33
545.045	4229.1
545.41	4235.65
545.774	4201.3
546.138	4235.43
546.503	4215.76
546.867	4236.56
547.231	4287.18
547.595	4295.31
547.959	4311.81
548.324	4298.93
548.688	4303.67
549.052	4303.45
549.416	4324.01
549.779	4373.27
550.143	4372.37
550.507	4378.25
550.871	4393.84
551.235	4432.93
551.599	4454.18
551.962	4440.17
552.326	4458.02
552.689	4478.36
553.053	4463.44
553.417	4495.98
553.78	4592.93
554.143	4564.91
554.507	4568.52
554.87	4582.99
555.234	4639.71
555.597	4645.36
555.96	4677.67
556.323	4666.6
556.686	4638.8
557.05	4714.28
557.413	4741.85
557.776	4767.39
558.139	4758.58
558.502	4732.14
558.865	4791.57
559.228	4823.43
559.59	4889.42
559.953	4819.59
560.316	4921.28
560.679	4906.82
561.041	4942.53
561.404	4976.2
561.767	4982.3
562.129	4961.51
562.492	5067.27
562.854	5050.77
563.217	5020.26
563.579	5076.08
563.941	5075.4
564.304	5109.3
564.666	5197.43
565.028	5208.06
565.39	5191.56
565.753	5232.69
566.115	5219.81
566.477	5260.71
566.839	5305.45
567.201	5324.89
567.563	5332.8
567.925	5348.62
568.287	5385
568.648	5436.07
569.01	5366.24
569.372	5407.6
569.734	5463.87
570.095	5457.99
570.457	5505.22
570.819	5479.01
571.18	5457.99
571.542	5548.16
571.903	5575.28
572.265	5548.39
572.626	5566.24
572.987	5622.73
573.349	5631.55
573.71	5619.8
574.071	5642.85
574.432	5633.81
574.794	5729.17
575.155	5728.49
575.516	5728.04
575.877	5732.11
576.238	5723.3
576.599	5706.8
576.96	5788.38
577.32	5748.61
577.681	5778.21
578.042	5825.44
578.403	5792.45
578.763	5795.38
579.124	5824.54
579.485	5853.46
579.845	5880.58
580.206	5831.32
580.566	5895.04
580.927	5840.81
581.287	5905.89
581.648	5846.46
582.008	5963.52
582.368	5929.39
582.728	5952.44
583.089	5854.14
583.449	5938.21
583.809	5914.7
584.169	5936.85
584.529	5905.44
584.889	5994.7
585.249	5956.96
585.609	5961.03
585.969	5980.92
586.329	5875.61
586.688	5990.86
587.048	6001.25
587.408	5954.25
587.768	5979.79
588.127	5956.51
588.487	5919
588.846	5970.97
589.206	5936.62
589.565	5923.29
589.925	5943.18
590.284	5968.71
590.643	5954.93
591.003	5974.14
591.362	5934.14
591.721	5962.16
592.08	5923.97
592.44	5959
592.799	5988.15
593.158	5960.8
593.517	5976.85
593.876	5948.15
594.235	5932.56
594.593	5981.82
594.952	5941.6
595.311	5952.44
595.67	5907.92
596.029	5981.82
596.387	5999.9
596.746	6018.2
597.104	5949.28
597.463	6005.1
597.822	5992.44
598.18	5998.54
598.538	6035.6
598.897	6066.11
599.255	5984.76
599.613	6095.72
599.972	6052.33
600.33	6058.65
600.688	6033.57
601.046	6093.68
601.404	6072.44
601.762	6090.52
602.12	6115.83
602.478	6095.72
602.836	6103.17
603.194	6088.94
603.552	6081.48
603.91	6082.61
604.268	6128.26
604.625	6061.82
604.983	6108.82
605.341	6058.43
605.698	6122.38
606.056	6135.94
606.413	6079.22
606.771	6142.27
607.128	6132.1
607.485	6079.44
607.843	6152.89
608.2	6120.35
608.557	6197.63
608.914	6148.82
609.272	6159.67
609.629	6160.8
609.986	6163.51
610.343	6144.75
610.7	6200.57
611.057	6206.22
611.414	6198.54
611.771	6206.67
612.127	6228.59
612.484	6231.08
612.841	6229.5
613.198	6197.18
613.554	6233.56
613.911	6249.84
614.267	6271.53
614.624	6321.25
614.98	6351.3
615.337	6401.47
615.693	6428.59
616.05	6340.68
616.406	6396.05
616.762	6405.76
617.118	6387.69
617.475	6395.14
617.831	6435.37
618.187	6402.6
618.543	6407.57
618.899	6432.2
619.255	6403.05
619.611	6417.74
619.967	6485.08
620.323	6477.17
620.678	6474.69
621.034	6490.96
621.39	6403.73
621.746	6386.33
622.101	6466.1
622.457	6403.05
622.812	6396.05
623.168	6375.26
623.523	6414.58
623.879	6384.3
624.234	6371.87
624.589	6336.84
624.945	6340.68
625.3	6347.01
625.655	6299.78
626.01	6330.29
626.365	6284.41
626.72	6296.84
627.075	6250.29
627.43	6287.57
627.785	6257.52
628.14	6250.29
628.495	6243.06
628.85	6231.31
629.205	6245.99
629.559	6272.66
629.914	6295.03
630.269	6235.15
630.623	6278.08
630.978	6224.53
631.332	6286.22
631.687	6337.97
632.041	6291.64
632.396	6304.07
632.75	6278.99
633.104	6298.65
633.459	6294.13
633.813	6321.7
634.167	6294.35
634.521	6336.39
634.875	6366.89
635.229	6330.29
635.583	6289.16
635.937	6329.83
636.291	6312.88
636.645	6324.41
636.999	6300.68
637.352	6328.7
637.706	6336.61
638.06	6322.15
638.413	6289.61
638.767	6287.8
639.121	6301.36
639.474	6312.88
639.828	6244.64
640.181	6318.76
640.534	6271.76
640.888	6218.42
641.241	6235.82
641.594	6225.2
641.947	6249.61
642.301	6231.08
642.654	6187.46
643.007	6195.37
643.36	6209.84
643.713	6128.71
644.066	6161.93
644.419	6063.17
644.771	6040.35
645.124	5957.41
645.477	5946.11
645.83	5870.86
646.182	5903.86
646.535	5919.45
646.888	5896.4
647.24	5897.98
647.593	5942.27
647.945	5899.79
648.298	5894.59
648.65	5884.65
649.002	5857.3
649.355	5912.67
649.707	5848.04
650.059	5884.42
650.411	5888.94
650.763	5896.85
651.115	5993.12
651.467	5989.96
651.819	6002.61
652.171	5990.63
652.523	5993.8
652.875	5975.27
653.227	5929.39
653.578	6045.1
653.93	6018.66
654.282	5995.38
654.633	5912.44
654.985	5991.31
655.337	6006
655.688	6027.24
656.039	6040.8
656.391	6017.3
656.742	5932.1
657.094	5980.01
657.445	5952.89
657.796	5966.91
658.147	5961.26
658.498	5954.25
658.849	5978.88
659.2	5933.69
659.551	5895.49
659.902	5920.13
660.253	5856.85
660.604	5907.92
660.955	5844.65
661.306	5896.62
661.656	5850.3
662.007	5834.93
662.358	5893.01
662.708	5845.1
663.059	5837.87
663.409	5844.42
663.76	5821.6
664.11	5796.06
664.461	5831.54
664.811	5756.06
665.161	5817.08
665.511	5763.07
665.862	5813.46
666.212	5811.43
666.562	5831.99
666.912	5777.08
667.262	5743.18
667.612	5791.99
667.962	5743.63
668.312	5811.66
668.662	5796.97
669.011	5787.02
669.361	5782.28
669.711	5766.91
670.06	5841.26
670.41	5793.58
670.76	5822.05
671.109	5809.85
671.459	5798.32
671.808	5822.05
672.157	5785.89
672.507	5829.96
672.856	5854.59
673.205	5792.67
673.554	5887.81
673.904	5872.67
674.253	5888.94
674.602	5868.15
674.951	5816.4
675.3	5759.68
675.649	5851.65
675.998	5845.1
676.346	5874.7
676.695	5840.35
677.044	5862.5
677.393	5848.26
677.741	5898.21
678.09	5816.85
678.438	5759.91
678.787	5854.59
679.135	5816.17
679.484	5737.76
679.832	5776.63
680.181	5761.26
680.529	5743.18
680.877	5717.42
681.225	5726.01
681.573	5740.47
681.922	5687.59
682.27	5671.09
682.618	5601.94
682.966	5616.18
683.314	5622.28
683.661	5592
684.009	5578.89
684.357	5464.32
684.705	5542.28
685.053	5504.32
685.4	5524.43
685.748	5486.47
686.095	5502.06
686.443	5465.45
686.79	5450.53
687.138	5476.52
687.485	5468.16
687.832	5463.19
688.18	5419.58
688.527	5412.8
688.874	5385.23
689.221	5422.29
689.568	5352.68
689.915	5374.6
690.262	5350.2
690.609	5330.54
690.956	5377.54
691.303	5312.91
691.65	5319.92
691.997	5323.98
692.344	5314.27
692.69	5326.02
693.037	5323.76
693.383	5292.8
693.73	5330.54
694.077	5238.11
694.423	5288.28
694.769	5262.07
695.116	5273.14
695.462	5273.59
695.808	5195.85
696.155	5233.14
696.501	5264.78
696.847	5274.04
697.193	5212.57
697.539	5241.73
697.885	5208.73
698.231	5190.43
698.577	5189.75
698.923	5193.82
699.269	5197.89
699.614	5181.16
699.96	5116.76
700.306	5106.14
700.651	5051.45
700.997	5081.28
701.342	5122.18
701.688	5096.65
702.033	5063.43
702.379	5034.27
702.724	5055.52
703.069	5025.24
703.415	4964.22
703.76	5008.06
704.105	4996.76
704.45	4955.86
704.795	4938.91
705.14	4888.06
705.485	4952.92
705.83	4926.03
706.175	4913.37
706.52	4851.91
706.865	4845.8
707.209	4863.21
707.554	4800.16
707.899	4804.9
708.243	4762.87
708.588	4770.78
708.932	4776.2
709.277	4712.7
709.621	4741.4
709.966	4721.06
710.31	4767.84
710.654	4735.98
710.998	4705.47
711.342	4674.28
711.687	4672.48
712.031	4641.97
712.375	4673.83
712.719	4646.04
713.063	4673.61
713.407	4667.28
713.75	4657.56
714.094	4625.25
714.438	4638.35
714.782	4623.66
715.125	4589.54
715.469	4646.04
715.812	4610.56
716.156	4581.63
716.499	4624.79
716.843	4591.57
717.186	4586.6
717.53	4588.86
717.873	4583.89
718.216	4568.07
718.559	4573.72
718.902	4540.95
719.246	4581.4
719.589	4517.23
719.932	4524.23
720.275	4544.8
720.617	4559.94
720.96	4523.1
721.303	4507.73
721.646	4486.72
721.989	4496.66
722.331	4470.9
722.674	4484.46
723.016	4451.92
723.359	4434.74
723.701	4500.5
724.044	4421.18
724.386	4441.97
724.729	4475.87
725.071	4415.53
725.413	4390.45
725.755	4401.75
726.097	4378.02
726.439	4366.04
726.782	4422.31
727.124	4396.33
727.465	4376.44
727.807	4342.54
728.149	4348.64
728.491	4346.38
728.833	4347.96
729.175	4351.13
729.516	4320.17
729.858	4274.52
730.199	4368.3
730.541	4269.32
730.882	4330.34
731.224	4276.33
731.565	4306.38
731.906	4257.57
732.248	4266.38
732.589	4231.58
732.93	4218.25
733.271	4232.26
733.612	4249.44
733.953	4238.14
734.294	4218.93
734.635	4194.97
734.976	4191.13
735.317	4188.19
735.658	4205.37
735.999	4160.17
736.339	4145.48
736.68	4171.02
737.021	4167.63
737.361	4147.97
737.702	4159.04
738.042	4166.05
738.383	4140.74
738.723	4178.25
739.063	4141.42
739.404	4157.24
739.744	4144.58
740.084	4107.29
740.424	4115.2
740.764	4113.62
741.104	4072.94
741.444	4084.47
741.784	4100.51
742.124	4095.09
742.464	4090.8
742.804	4069.55
743.143	4073.62
743.483	4075.66
743.823	4072.49
744.162	4073.62
744.502	4084.24
744.841	4042.21
745.181	4083.34
745.52	4065.26
745.86	4054.19
746.199	4003.79
746.538	4016.9
746.877	4046.28
747.216	4020.52
747.556	3990.69
747.895	4020.29
748.234	4018.26
748.573	4062.32
748.911	4016.67
749.25	4017.58
749.589	4002.66
749.928	3992.27
750.267	4001.53
750.605	3987.97
750.944	3949.56
751.283	4011.93
751.621	3971.48
751.96	3927.18
752.298	3978.26
752.636	3917.02
752.975	3932.61
753.313	3892.61
753.651	3912.72
753.989	3885.15
754.327	3939.61
754.666	3868.43
755.004	3872.05
755.342	3889.45
755.679	3904.13
756.017	3875.43
756.355	3848.09
756.693	3872.27
757.031	3828.66
757.368	3802.44
757.706	3856.9
758.044	3851.48
758.381	3775.55
758.719	3774.42
759.056	3787.75
759.394	3752.05
759.731	3788.66
760.068	3736.68
760.405	3728.32
760.743	3754.76
761.08	3779.17
761.417	3714.31
761.754	3678.6
762.091	3703.91
762.428	3698.49
762.765	3663.24
763.102	3653.29
763.438	3664.82
763.775	3629.57
764.112	3614.2
764.449	3619.62
764.785	3615.33
765.122	3628.44
765.458	3580.75
765.795	3560.41
766.131	3537.36
766.467	3569.68
766.804	3552.96
767.14	3503.02
767.476	3514.54
767.812	3508.89
768.148	3557.48
768.485	3483.35
768.821	3471.15
769.157	3498.04
769.492	3462.79
769.828	3434.99
770.164	3414.2
770.5	3388.44
770.836	3408.55
771.171	3340.76
771.507	3401.32
771.842	3373.08
772.178	3336.69
