Data from foam2_polystyrene_foam_FLMS001491_00005.txt Node
Date: Wed Feb 08 10:57:26 GMT 2017
User: dcchb
Spectrometer: FLMS00149
Trigger mode: 0
Integration Time (sec): 2.000000E-2
Scans to average: 10
Electric dark correction enabled: true
Nonlinearity correction enabled: false
Boxcar width: 0
XAxis mode: Wavelengths
Number of Pixels in Spectrum: 2048
>>>>>Begin Spectral Data<<<<<
341.393	2.67
341.776	2.67
342.16	2.67
342.543	-68.52
342.927	-57.67
343.31	-43.21
343.693	-79.14
344.077	-50.66
344.46	-45.69
344.843	-51.57
345.226	-39.59
345.61	-34.39
345.993	-28.74
346.376	-24.45
346.759	14.65
347.142	21.2
347.525	37.24
347.908	49.67
348.291	76.79
348.674	85.15
349.057	112.72
349.44	121.54
349.823	148.65
350.206	179.61
350.588	209.44
350.971	223.23
351.354	243.12
351.737	242.89
352.119	253.96
352.502	280.63
352.884	281.08
353.267	300.74
353.65	280.63
354.032	312.04
354.414	316.79
354.797	344.36
355.179	332.15
355.562	334.86
355.944	346.16
356.326	342.1
356.709	356.78
357.091	350.91
357.473	361.98
357.855	342.77
358.238	357.01
358.62	362.21
359.002	355.65
359.384	361.3
359.766	347.97
360.148	351.81
360.53	375.31
360.912	348.2
361.294	347.07
361.676	360.63
362.057	343.68
362.439	354.3
362.821	338.03
363.203	354.52
363.584	346.62
363.966	338.71
364.348	352.72
364.729	355.43
365.111	360.17
365.493	333.96
365.874	341.42
366.256	356.78
366.637	347.97
367.019	353.85
367.4	337.58
367.781	364.69
368.163	347.07
368.544	338.48
368.925	346.84
369.306	353.85
369.688	365.6
370.069	357.46
370.45	334.19
370.831	351.81
371.212	352.26
371.593	353.17
371.974	353.17
372.355	359.27
372.736	337.8
373.117	351.59
373.498	338.03
373.879	361.53
374.26	345.49
374.641	362.43
375.021	345.49
375.402	385.03
375.783	387.74
376.163	370.34
376.544	386.61
376.925	383.45
377.305	368.31
377.686	389.78
378.066	391.13
378.447	377.35
378.827	385.94
379.208	390.46
379.588	393.17
379.968	399.72
380.349	394.75
380.729	403.56
381.109	397.46
381.489	390
381.87	404.69
382.25	392.72
382.63	413.96
383.01	411.47
383.39	406.73
383.77	446.5
384.15	426.84
384.53	433.17
384.91	427.97
385.29	445.6
385.67	427.97
386.049	430
386.429	440.85
386.809	426.84
387.189	413.05
387.568	456.44
387.948	441.75
388.328	457.8
388.707	453.28
389.087	467.97
389.466	464.8
389.846	474.07
390.225	474.52
390.605	476.78
390.984	473.39
391.363	487.4
391.743	514.97
392.122	502.77
392.501	478.36
392.881	496.22
393.26	499.61
393.639	496.67
394.018	506.61
394.397	510.68
394.776	526.05
395.155	535.54
395.534	527.4
395.913	527.4
396.292	537.57
396.671	524.92
397.05	553.84
397.429	560.62
397.808	548.19
398.186	550.68
398.565	568.98
398.944	570.34
399.323	569.89
399.701	574.41
400.08	583.9
400.458	594.52
400.837	557.01
401.215	581.64
401.594	585.93
401.972	612.82
402.351	594.52
402.729	625.03
403.107	634.74
403.486	625.25
403.864	636.1
404.242	615.31
404.62	614.63
404.999	653.95
405.377	639.49
405.755	663.22
406.133	674.74
406.511	665.48
406.889	689.66
407.267	667.28
407.645	687.4
408.023	711.58
408.401	698.02
408.779	698.24
409.156	717.23
409.534	728.3
409.912	731.92
410.29	735.76
410.667	749.77
411.045	750.67
411.422	756.55
411.8	759.03
412.178	789.99
412.555	790.67
412.933	789.99
413.31	816.66
413.687	822.53
414.065	833.83
414.442	841.74
414.819	827.96
415.197	859.6
415.574	878.58
415.951	860.5
416.328	845.59
416.705	870.67
417.082	854.85
417.46	905.7
417.837	913.61
418.214	893.95
418.591	932.14
418.967	924.68
419.344	930.55
419.721	947.05
420.098	955.41
420.475	966.03
420.852	991.12
421.228	974.4
421.605	981.85
421.982	1001.97
422.358	992.25
422.735	1029.99
423.111	1018.46
423.488	1025.69
423.864	1046.71
424.241	1052.81
424.617	1061.85
424.994	1079.7
425.37	1074.28
425.746	1085.8
426.123	1089.42
426.499	1132.58
426.875	1115.41
427.251	1139.81
427.627	1145.01
428.003	1182.53
428.379	1197.89
428.756	1197.21
429.132	1222.07
429.507	1229.53
429.883	1240.38
430.259	1264.78
430.635	1262.3
431.011	1301.62
431.387	1316.08
431.763	1313.6
432.138	1329.41
432.514	1331.67
432.89	1358.79
433.265	1360.6
433.641	1403.31
434.016	1427.94
434.392	1455.29
434.767	1468.17
435.143	1468.85
435.518	1484.66
435.894	1491.9
436.269	1517.21
436.644	1524.89
437.02	1526.25
437.395	1552.46
437.77	1566.24
438.145	1570.99
438.52	1595.85
438.895	1628.39
439.271	1633.36
439.646	1691.66
440.021	1693.02
440.395	1640.14
440.77	1688.05
441.145	1712.68
441.52	1692.34
441.895	1739.12
442.27	1811.66
442.645	1755.39
443.019	1750.87
443.394	1780.25
443.769	1788.16
444.143	1818.67
444.518	1862.28
444.892	1878.1
445.267	1857.31
445.641	1896.63
446.016	1880.13
446.39	1897.08
446.764	1925.56
447.139	1895.05
447.513	1940.92
447.887	1944.09
448.262	1949.06
448.636	2034.03
449.01	2023.18
449.384	2027.93
449.758	2065.89
450.132	2085.55
450.506	2114.03
450.88	2102.95
451.254	2069.28
451.628	2131.88
452.002	2174.36
452.376	2193.57
452.75	2212.78
453.123	2241.93
453.497	2263.4
453.871	2254.14
454.244	2304.53
454.618	2327.35
454.992	2357.18
455.365	2363.96
455.739	2418.2
456.112	2427.69
456.486	2445.54
456.859	2520.8
457.232	2542.49
457.606	2524.19
457.979	2536.39
458.352	2585.43
458.725	2651.19
459.099	2613.45
459.472	2685.76
459.845	2717.63
460.218	2722.82
460.591	2734.12
460.964	2780.22
461.337	2829.71
461.71	2838.75
462.083	2913.78
462.456	2897.96
462.829	2911.07
463.201	2989.94
463.574	2990.16
463.947	3035.13
464.32	3076.26
464.692	3113.55
465.065	3139.08
465.438	3222.25
465.81	3204.62
466.183	3211.17
466.555	3313.09
466.928	3359.19
467.3	3353.99
467.672	3408
468.045	3447.32
468.417	3468.57
468.789	3531.39
469.161	3574.1
469.534	3591.28
469.906	3694.32
470.278	3748.56
470.65	3736.58
471.022	3799.41
471.394	3858.39
471.766	3943.13
472.138	3952.85
472.51	4051.15
472.882	4084.14
473.253	4145.61
473.625	4234.2
473.997	4312.61
474.369	4321.65
474.74	4353.97
475.112	4471.48
475.484	4506.28
475.855	4565.49
476.227	4654.07
476.598	4755.99
476.97	4786.05
477.341	4894.29
477.713	4943.56
478.084	4983.78
478.455	5122.76
478.827	5137.9
479.198	5342.64
479.569	5299.03
479.94	5492.02
480.311	5549.19
480.682	5696.08
481.053	5764.1
481.424	5817.21
481.795	5930.88
482.166	6020.59
482.537	6075.73
482.908	6235.95
483.279	6287.7
483.65	6441.37
484.021	6508.94
484.391	6555.49
484.762	6630.29
485.133	6677.07
485.503	6787.58
485.874	6950.51
486.244	7044.29
486.615	7159.09
486.985	7289.94
487.356	7392.53
487.726	7435.47
488.097	7568.12
488.467	7679.98
488.837	7781
489.207	7868.9
489.578	8021.22
489.948	8051.27
490.318	8240.64
490.688	8222.34
491.058	8340.76
491.428	8474.99
491.798	8556.34
492.168	8688.77
492.538	8722.44
492.908	8838.82
493.278	8969.89
493.648	8952.04
494.017	9072.26
494.387	9156.78
494.757	9225.25
495.126	9343.67
495.496	9382.31
495.866	9493.49
496.235	9637.67
496.605	9665.47
496.974	9738.91
497.344	9807.61
497.713	9890.55
498.082	9971.9
498.452	10062.07
498.821	10070.43
499.19	10166.47
499.559	10211.67
499.928	10337.54
500.298	10347.93
500.667	10542.51
501.036	10430.19
501.405	10629.96
501.774	10662.95
502.143	10770.3
502.512	10859.79
502.88	10929.84
503.249	10914.92
503.618	11053.45
503.987	11075.82
504.356	11075.37
504.724	11245.76
505.093	11274.46
505.462	11388.36
505.83	11437.62
506.199	11505.19
506.567	11652.76
506.936	11662.25
507.304	11867.67
507.672	11885.52
508.041	11909.93
508.409	11996.93
508.777	12081.67
509.145	12292.29
509.514	12163.03
509.882	12330.48
510.25	12353.98
510.618	12552.4
510.986	12627.87
511.354	12702.67
511.722	12814.54
512.09	12902.44
512.458	12927.3
512.826	13033.74
513.193	13160.74
513.561	13173.85
513.929	13280.06
514.297	13341.08
514.664	13440.73
515.032	13574.97
515.4	13687.51
515.767	13748.97
516.135	13881.85
516.502	13773.38
516.869	14082.53
517.237	14200.94
517.604	14128.4
517.972	14255.4
518.339	14441.61
518.706	14443.87
519.073	14529.52
519.44	14682.96
519.808	14769.96
520.175	14875.05
520.542	14990.98
520.909	15076.85
521.276	15237.07
521.643	15277.75
522.009	15468.25
522.376	15541.02
522.743	15747.79
523.11	15830.05
523.477	15914.57
523.843	16102.36
524.21	16181
524.577	16372.63
524.943	16399.75
525.31	16437.72
525.676	16809.01
526.043	16823.92
526.409	16852.85
526.776	17102.11
527.142	17169.22
527.508	17321.76
527.874	17396.11
528.241	17599.04
528.607	17622.09
528.973	17853.27
529.339	17834.29
529.705	17934.4
530.071	18127.62
530.437	18226.82
530.803	18428.17
531.169	18387.72
531.535	18426.14
531.901	18545.91
532.267	18579.36
532.632	18752.46
532.998	18844.43
533.364	19023.86
533.73	19074.71
534.095	19162.39
534.461	19207.59
534.826	19349.51
535.192	19414.36
535.557	19512.66
535.923	19525.77
536.288	19632.66
536.653	19731.42
537.019	19698.87
537.384	19773.9
537.749	19977.06
538.114	20121.69
538.479	20135.02
538.845	20087.11
539.21	20146.77
539.575	20301.12
539.94	20361
540.305	20504.05
540.67	20501.79
541.034	20623.14
541.399	20690.49
541.764	20714.22
542.129	20876.24
542.494	20874.89
542.858	20946.53
543.223	21077.37
543.587	21149.01
543.952	21116.46
544.316	21260.64
544.681	21201.43
545.045	21260.19
545.41	21430.81
545.774	21507.19
546.138	21607.53
546.503	21609.56
546.867	21642.78
547.231	21892.26
547.595	21824.92
547.959	21912.38
548.324	21936.56
548.688	22147.85
549.052	22170.9
549.416	22276.43
549.779	22303.78
550.143	22418.58
550.507	22580.83
550.871	22551.91
551.235	22712.35
551.599	22922.74
551.962	22946.92
552.326	22973.82
552.689	23137.2
553.053	23010.65
553.417	23096.75
553.78	23439.34
554.143	23355.28
554.507	23441.15
554.87	23572.9
555.234	23793.46
555.597	23630.97
555.96	23718.2
556.323	23955.26
556.686	23982.15
557.05	24075.48
557.413	24177.18
557.776	24414.46
558.139	24415.36
558.502	24467.11
558.865	24679.31
559.228	24842.92
559.59	24894.22
559.953	24872.75
560.316	25321.33
560.679	25200.2
561.041	25505.05
561.404	25533.07
561.767	25711.82
562.129	25578.95
562.492	25878.83
562.854	25959.5
563.217	25935.09
563.579	26099.38
563.941	26168.31
564.304	26305.93
564.666	26494.4
565.028	26693.49
565.39	26694.17
565.753	26825.02
566.115	26910.21
566.477	27037.89
566.839	27148.4
567.201	27297.54
567.563	27378.9
567.925	27572.79
568.287	27436.52
568.648	27608.95
569.01	27839.9
569.372	27875.83
569.734	27952.89
570.095	28123.51
570.457	28123.29
570.819	28215.49
571.18	28280.57
571.542	28425.2
571.903	28433.33
572.265	28595.82
572.626	28658.41
572.987	28711.29
573.349	28842.36
573.71	28861.12
574.071	28964.17
574.432	29131.85
574.794	29288.68
575.155	29328.23
575.516	29354.67
575.877	29335.46
576.238	29358.28
576.599	29424.49
576.96	29545.17
577.32	29614.77
577.681	29665.84
578.042	29765.5
578.403	29826.07
578.763	29829
579.124	29886.63
579.485	30037.81
579.845	30169.79
580.206	30085.49
580.566	29967.76
580.927	30063.57
581.287	30091.82
581.648	30014.08
582.008	30184.93
582.368	30066.96
582.728	30171.14
583.089	30165.49
583.449	30174.76
583.809	30276.68
584.169	30337.24
584.529	30312.38
584.889	30576.1
585.249	30373.4
585.609	30315.32
585.969	30531.58
586.329	30303.79
586.688	30360.06
587.048	30419.27
587.408	30351.7
587.768	30423.34
588.127	30417.91
588.487	30290.46
588.846	30573.39
589.206	30266.96
589.565	30400.51
589.925	30440.74
590.284	30283.68
590.643	30504.01
591.003	30513.28
591.362	30588.98
591.721	30464.24
592.08	30448.2
592.44	30555.09
592.799	30647.29
593.158	30514.18
593.517	30530.23
593.876	30553.73
594.235	30547.18
594.593	30736.1
594.952	30651.81
595.311	30619.04
595.67	30720.73
596.029	30870.33
596.387	30903.1
596.746	30823.78
597.104	30790.33
597.463	30753.05
597.822	30974.96
598.18	30760.96
598.538	30805.25
598.897	30922.08
599.255	30665.82
599.613	31067.84
599.972	30873.95
600.33	30946.71
600.688	30790.79
601.046	31001.85
601.404	31212.47
601.762	31061.06
602.12	31230.55
602.478	31266.48
602.836	31268.06
603.194	31071.46
603.552	31168.18
603.91	31114.62
604.268	31291.34
604.625	31164.56
604.983	31195.75
605.341	31232.81
605.698	31335.63
606.056	31289.3
606.413	31338.79
606.771	31285.24
607.128	31457.21
607.485	31164.56
607.843	31237.1
608.2	31463.99
608.557	31580.37
608.914	31450.2
609.272	31726.81
609.629	31650.42
609.986	31830.76
610.343	31639.35
610.7	31905.33
611.057	31658.56
611.414	31741.04
611.771	31871.21
612.127	31901.94
612.484	31970.42
612.841	31992.79
613.198	31803.87
613.554	31847.26
613.911	32096.97
614.267	32106.23
614.624	32056.52
614.98	32115.27
615.337	32310.97
615.693	32204.31
616.05	32160.24
616.406	32388.03
616.762	32236.4
617.118	32340.35
617.475	32331.08
617.831	32408.82
618.187	32446.11
618.543	32393
618.899	32622.15
619.255	32551.19
619.611	32502.61
619.967	32527.46
620.323	32625.54
620.678	32516.84
621.034	32475.71
621.39	32403.63
621.746	32479.1
622.101	32719.78
622.457	32610.85
622.812	32629.61
623.168	32746.89
623.523	32720.68
623.879	32907.11
624.234	32582.6
624.589	32621.25
624.945	32666.67
625.3	32714.35
625.655	32716.39
626.01	32755.48
626.365	32701.7
626.72	32677.74
627.075	32715.48
627.43	32694.69
627.785	32355.27
628.14	32550.97
628.495	32698.31
628.85	32581.25
629.205	32429.16
629.559	32703.28
629.914	32449.05
630.269	32463.28
630.623	32397.07
630.978	32272.78
631.332	32365.43
631.687	32457.64
632.041	32200.24
632.396	32369.95
632.75	32223.52
633.104	32155.5
633.459	32027.59
633.813	32084.99
634.167	31960.47
634.521	32035.73
634.875	32033.47
635.229	31989.17
635.583	31813.81
635.937	31964.54
636.291	31833.47
636.645	31851.55
636.999	31671.44
637.352	31884.99
637.706	31668.28
638.06	31732.46
638.413	31581.5
638.767	31654.94
639.121	31723.42
639.474	31517.1
639.828	31572.91
640.181	31588.05
640.534	31512.12
640.888	31474.16
641.241	31258.34
641.594	31363.65
641.947	31345.57
642.301	31317.78
642.654	31136.54
643.007	31312.58
643.36	31340.38
643.713	31228.06
644.066	31235.75
644.419	31126.82
644.771	30892.7
645.124	30578.81
645.477	30697.46
645.83	30373.62
646.182	30311.48
646.535	30168.2
646.888	30233.06
647.24	30079.62
647.593	30180.86
647.945	30079.62
648.298	30086.17
648.65	29847.76
649.002	29821.55
649.355	29823.81
649.707	30057.92
650.059	30203.91
650.411	30442.1
650.763	30477.12
651.115	30784.91
651.467	30548.31
651.819	30669.21
652.171	30518.93
652.523	30437.8
652.875	30410.46
653.227	30210.91
653.578	30569.55
653.93	30433.96
654.282	30195.1
654.633	30160.75
654.985	30241.65
655.337	30158.94
655.688	30164.14
656.039	30314.64
656.391	30047.3
656.742	30138.15
657.094	30099.05
657.445	30161.2
657.796	30055.44
658.147	30119.62
658.498	30028.09
658.849	30248.2
659.2	30079.39
659.551	29994.88
659.902	30023.12
660.253	30079.62
660.604	29935.44
660.955	29864.48
661.306	30061.99
661.656	29921.2
662.007	29992.62
662.358	29875.33
662.708	29926.85
663.059	29784.71
663.409	29610.93
663.76	29942.22
664.11	29751.27
664.461	29923.69
664.811	29844.37
665.161	29888.66
665.511	29703.81
665.862	29749.68
666.212	29809.34
666.562	29751.04
666.912	29734.09
667.262	29605.96
667.612	29653.64
667.962	29715.33
668.312	29705.84
668.662	29829.91
669.011	29787.42
669.361	29645.28
669.711	29585.62
670.06	29647.31
670.41	29435.57
670.76	29504.94
671.109	29729.57
671.459	29605.28
671.808	29440.31
672.157	29586.3
672.507	29420.2
672.856	29347.66
673.205	29439.64
673.554	29420.2
673.904	29333.42
674.253	29408.9
674.602	29295.01
674.951	28952.64
675.3	28819.54
675.649	29218.17
675.998	29190.83
676.346	29307.89
676.695	29305.4
677.044	29082.81
677.393	29091.17
677.741	29181.34
678.09	29002.81
678.438	28878.75
678.787	28964.39
679.135	28986.31
679.484	28786.32
679.832	29037.61
680.181	28868.35
680.529	28909.71
680.877	28822.25
681.225	28802.14
681.573	28968.69
681.922	28709.03
682.27	28665.64
682.618	28697.96
682.966	28519.66
683.314	28562.6
683.661	28403.5
684.009	28315.6
684.357	28182.95
684.705	28295.03
685.053	28114.47
685.4	28078.77
685.748	28116.96
686.095	27900.01
686.443	27709.29
686.79	27714.94
687.138	27797.19
687.485	27792.9
687.832	27669.96
688.18	27758.1
688.527	27521.49
688.874	27591.1
689.221	27466.81
689.568	27309.52
689.915	27289.41
690.262	27227.04
690.609	27266.81
690.956	27139.36
691.303	27044.22
691.65	26937.1
691.997	27061.62
692.344	26780.95
692.69	26821.63
693.037	26852.58
693.383	26622.76
693.73	26794.28
694.077	26442.65
694.423	26585.02
694.769	26505.48
695.116	26257.57
695.462	26384.8
695.808	26212.15
696.155	26383.44
696.501	26048.54
696.847	25995.21
697.193	25915.89
697.539	25983.91
697.885	25815.32
698.231	25832.5
698.577	25751.37
698.923	25741.65
699.269	25668.89
699.614	25376.24
699.96	25340.76
700.306	25358.39
700.651	25319.97
700.997	25177.37
701.342	25033.42
701.688	24988.91
702.033	24952.52
702.379	24844.73
702.724	24815.58
703.069	24809.47
703.415	24590.27
703.76	24553.89
704.105	24608.8
704.45	24616.49
704.795	24389.37
705.14	24275.7
705.485	24224.63
705.83	24100.11
706.175	24244.29
706.52	23995.03
706.865	24067.35
707.209	24017.18
707.554	23976.05
707.899	23989.16
708.243	23751.65
708.588	23874.13
708.932	23666
709.277	23621.03
709.621	23801.37
709.966	23500.36
710.31	23553.24
710.654	23361.15
710.998	23505.1
711.342	23413.35
711.687	23388.04
712.031	23275.96
712.375	23169.29
712.719	23115.51
713.063	23023.31
713.407	23167.48
713.75	23007.71
714.094	23039.13
714.438	22817.44
714.782	22842.75
715.125	22684.33
715.469	22813.6
715.812	22577.44
716.156	22529.99
716.499	22601.62
716.843	22727.27
717.186	22520.27
717.53	22527.27
717.873	22475.98
718.216	22338.58
718.559	22370.89
718.902	22175.65
719.246	22308.07
719.589	22151.47
719.932	22057.91
720.275	22057
720.617	22057.46
720.96	22044.35
721.303	21988.53
721.646	21982.43
721.989	21713.74
722.331	21886.61
722.674	21821.98
723.016	21768.88
723.359	21709.9
723.701	21750.35
724.044	21640.29
724.386	21490.47
724.729	21569.56
725.071	21460.64
725.413	21540.41
725.755	21469.45
726.097	21288.66
726.439	21332.28
726.782	21244.6
727.124	21403.24
727.465	21236.91
727.807	21222.9
728.149	21100.65
728.491	21120.53
728.833	21090.02
729.175	21011.16
729.516	20984.72
729.858	20979.29
730.199	20978.16
730.541	20900.88
730.882	20829.92
731.224	20932.74
731.565	20818.85
731.906	20752.41
732.248	20776.59
732.589	20705.85
732.93	20530.94
733.271	20625.86
733.612	20537.72
733.953	20511.96
734.294	20502.02
734.635	20543.6
734.976	20544.73
735.317	20394.22
735.658	20385.86
735.999	20449.59
736.339	20368.01
736.68	20466.99
737.021	20435.58
737.361	20232.42
737.702	20312.87
738.042	20261.57
738.383	20195.58
738.723	20278.75
739.063	20197.84
739.404	20168.47
739.744	20102.93
740.084	19975.7
740.424	19987.91
740.764	19900.45
741.104	20011.86
741.444	19903.84
741.784	19818.87
742.124	19853.22
742.464	19698.87
742.804	19711.53
743.143	19724.86
743.483	19692.1
743.823	19479.45
744.162	19589.05
744.502	19611.42
744.841	19508.82
745.181	19558.54
745.52	19428.83
745.86	19418.66
746.199	19419.56
746.538	19375.49
746.877	19405.32
747.216	19347.47
747.556	19328.71
747.895	19358.54
748.234	19258.89
748.573	19215.95
748.911	19204.65
749.25	19173.24
749.589	18940.25
749.928	19103.18
750.267	19062.06
750.605	18969.18
750.944	18993.58
751.283	18945.45
751.621	18960.82
751.96	18794.94
752.298	18797.43
752.636	18959.01
752.975	18729.63
753.313	18692.35
753.651	18695.51
753.989	18530.32
754.327	18516.53
