Data from foam_black_FLMS001491_00096.txt Node
Date: Wed Feb 08 10:45:05 GMT 2017
User: dcchb
Spectrometer: FLMS00149
Trigger mode: 0
Integration Time (sec): 2.000000E-2
Scans to average: 10
Electric dark correction enabled: true
Nonlinearity correction enabled: false
Boxcar width: 0
XAxis mode: Wavelengths
Number of Pixels in Spectrum: 2048
>>>>>Begin Spectral Data<<<<<
341.393	-11.41
341.776	-11.41
342.16	-11.41
342.543	-40.56
342.927	-62.48
343.31	-70.17
343.693	-73.78
344.077	-56.83
344.46	-66.33
344.843	-47.8
345.226	-42.6
345.61	-37.17
345.993	-21.36
346.376	-1.24
346.759	6.89
347.142	14.58
347.525	44.86
347.908	66.33
348.291	81.69
348.674	99.09
349.057	103.84
349.44	129.38
349.823	130.73
350.206	166.66
350.588	170.5
350.971	181.58
351.354	212.54
351.737	212.08
352.119	232.2
352.502	236.26
352.884	240.78
353.267	259.32
353.65	263.38
354.032	261.58
354.414	282.82
354.797	304.51
355.179	292.76
355.562	304.96
355.944	292.08
356.326	310.39
356.709	304.96
357.091	308.35
357.473	285.76
357.855	305.87
358.238	309.26
358.62	318.75
359.002	311.52
359.384	320.78
359.766	316.71
360.148	316.94
360.53	304.74
360.912	328.47
361.294	294.12
361.676	298.86
362.057	323.72
362.439	293.89
362.821	297.05
363.203	310.61
363.584	301.12
363.966	292.99
364.348	281.01
364.729	310.61
365.111	301.57
365.493	287.56
365.874	291.4
366.256	295.7
366.637	289.37
367.019	277.62
367.4	276.04
367.781	280.11
368.163	299.99
368.544	278.07
368.925	285.53
369.306	286.66
369.688	282.82
370.069	269.94
370.45	310.39
370.831	288.24
371.212	302.93
371.593	274
371.974	287.11
372.355	295.25
372.736	276.49
373.117	274.46
373.498	286.21
373.879	296.38
374.26	288.69
374.641	294.79
375.021	288.02
375.402	280.56
375.783	298.18
376.163	287.34
376.544	270.16
376.925	289.6
377.305	291.18
377.686	315.81
378.066	306.77
378.447	288.69
378.827	301.35
379.208	283.5
379.588	296.6
379.968	292.31
380.349	318.07
380.729	302.03
381.109	312.2
381.489	291.63
381.87	307.9
382.25	301.57
382.63	296.38
383.01	313.33
383.39	313.1
383.77	288.02
384.15	288.24
384.53	295.47
384.91	301.57
385.29	314.68
385.67	315.36
386.049	301.12
386.429	341.35
386.809	288.24
387.189	304.74
387.568	325.3
387.948	299.09
388.328	297.96
388.707	295.47
389.087	292.08
389.466	292.53
389.846	290.5
390.225	301.12
390.605	292.76
390.984	324.85
391.363	311.52
391.743	305.87
392.122	337.51
392.501	316.71
392.881	304.29
393.26	307
393.639	315.81
394.018	324.62
394.397	310.16
394.776	322.36
395.155	302.03
395.534	331.4
395.913	318.52
396.292	319.65
396.671	312.42
397.05	314.68
397.429	328.92
397.808	330.05
398.186	350.84
398.565	312.42
398.944	299.99
399.323	326.88
399.701	314.68
400.08	305.19
400.458	329.6
400.837	316.71
401.215	325.3
401.594	307.68
401.972	317.84
402.351	330.5
402.729	322.36
403.107	353.78
403.486	325.53
403.864	332.76
404.242	334.79
404.62	330.95
404.999	320.56
405.377	351.06
405.755	332.53
406.133	333.66
406.511	346.77
406.889	340.22
407.267	337.05
407.645	347.22
408.023	346.77
408.401	343.83
408.779	355.36
409.156	356.94
409.534	348.35
409.912	348.35
410.29	334.79
410.667	349.26
411.045	349.71
411.422	328.01
411.8	331.4
412.178	344.06
412.555	355.36
412.933	353.55
413.31	342.7
413.687	346.32
414.065	353.32
414.442	375.24
414.819	361.46
415.197	368.46
415.574	347.45
415.951	369.82
416.328	365.53
416.705	351.74
417.082	347.67
417.46	379.54
417.837	376.6
418.214	360.1
418.591	341.8
418.967	355.36
419.344	367.11
419.721	359.88
420.098	379.54
420.475	397.62
420.852	373.66
421.228	352.65
421.605	359.43
421.982	375.24
422.358	375.02
422.735	377.96
423.111	387.22
423.488	355.58
423.864	370.5
424.241	395.36
424.617	398.07
424.994	389.03
425.37	398.29
425.746	365.75
426.123	372.98
426.499	373.21
426.875	403.49
427.251	387.45
427.627	385.87
428.003	384.28
428.379	389.48
428.756	386.77
429.132	389.03
429.507	385.41
429.883	410.27
430.259	401.23
430.635	416.15
431.011	414.57
431.387	413.44
431.763	414.11
432.138	409.37
432.514	408.24
432.89	405.98
433.265	397.39
433.641	400.33
434.016	421.12
434.392	414.34
434.767	408.46
435.143	405.75
435.518	425.86
435.894	418.63
436.269	413.44
436.644	431.06
437.02	434.45
437.395	422.02
437.77	453.89
438.145	436.71
438.52	408.69
438.895	435.81
439.271	453.21
439.646	443.49
440.021	444.62
440.395	449.59
440.77	442.36
441.145	442.59
441.52	431.97
441.895	445.53
442.27	435.13
442.645	437.39
443.019	444.85
443.394	436.26
443.769	429.71
444.143	430.61
444.518	456.15
444.892	453.66
445.267	441.23
445.641	466.09
446.016	448.69
446.39	448.91
446.764	459.99
447.139	458.86
447.513	471.74
447.887	462.93
448.262	451.4
448.636	435.36
449.01	441.01
449.384	472.64
449.758	462.93
450.132	474.68
450.506	470.84
450.88	452.53
451.254	456.82
451.628	459.54
452.002	469.71
452.376	486.65
452.75	493.66
453.123	474.68
453.497	479.87
453.871	490.04
454.244	481.91
454.618	495.47
454.992	493.89
455.365	504.28
455.739	484.39
456.112	487.56
456.486	501.57
456.859	505.64
457.232	509.7
457.606	483.26
457.979	496.82
458.352	510.61
458.725	512.64
459.099	517.61
459.472	503.38
459.845	534.34
460.218	513.55
460.591	547.44
460.964	532.75
461.337	530.27
461.71	544.73
462.083	527.1
462.456	555.58
462.829	553.54
463.201	553.09
463.574	552.64
463.947	574.79
464.32	565.97
464.692	535.69
465.065	554.22
465.438	580.44
465.81	565.3
466.183	573.43
466.555	569.59
466.928	549.25
467.3	599.87
467.672	569.14
468.045	570.04
468.417	575.47
468.789	591.96
469.161	597.84
469.534	579.98
469.906	603.49
470.278	613.66
470.65	612.07
471.022	615.01
471.394	607.78
471.766	617.72
472.138	627.44
472.51	630.38
472.882	636.71
473.253	644.84
473.625	655.91
473.997	649.36
474.369	646.2
474.74	675.8
475.112	660.66
475.484	657.95
475.855	673.99
476.227	673.09
476.598	686.2
476.97	705.86
477.341	717.61
477.713	701.56
478.084	713.54
478.455	695.24
478.827	735.01
479.198	742.47
479.569	718.29
479.94	739.75
480.311	769.58
480.682	763.93
481.053	773.88
481.424	778.17
481.795	754.67
482.166	764.84
482.537	810.94
482.908	793.31
483.279	801
483.65	804.16
484.021	820.43
484.391	847.32
484.762	856.81
485.133	851.39
485.503	868.11
485.874	879.64
486.244	873.76
486.615	878.06
486.985	894.55
487.356	907.21
487.726	912.63
488.097	906.98
488.467	923.93
488.837	938.39
489.207	953.53
489.578	958.28
489.948	982.46
490.318	966.42
490.688	971.61
491.058	1000.54
491.428	992.63
491.798	1013.42
492.168	1018.39
492.538	1025.85
492.908	1021.78
493.278	1023.14
493.648	1014.32
494.017	1033.53
494.387	1020.43
494.757	1056.81
495.126	1061.33
495.496	1080.31
495.866	1063.36
496.235	1082.8
496.605	1077.6
496.974	1087.09
497.344	1092.51
497.713	1124.15
498.082	1095.45
498.452	1118.95
498.821	1117.15
499.19	1087.09
499.559	1115.56
499.928	1125.73
500.298	1132.96
500.667	1122.57
501.036	1131.61
501.405	1127.54
501.774	1152.4
502.143	1117.82
502.512	1153.08
502.88	1165.73
503.249	1139.29
503.618	1133.87
503.987	1165.05
504.356	1181.32
504.724	1174.32
505.093	1184.49
505.462	1182.68
505.83	1178.39
506.199	1195.34
506.567	1205.73
506.936	1200.31
507.304	1236.46
507.672	1207.54
508.041	1237.59
508.409	1210.25
508.777	1250.02
509.145	1248.89
509.514	1245.28
509.882	1250.25
510.25	1257.71
510.618	1302.9
510.986	1282.57
511.354	1311.04
511.722	1326.41
512.09	1314.65
512.458	1310.81
512.826	1328.21
513.193	1333.86
513.561	1346.52
513.929	1365.05
514.297	1373.18
514.664	1366.4
515.032	1350.36
515.4	1425.16
515.767	1403.47
516.135	1404.6
516.502	1413.86
516.869	1445.5
517.237	1422.9
517.604	1433.97
517.972	1467.87
518.339	1470.58
518.706	1488.66
519.073	1446.63
519.44	1486.18
519.808	1498.38
520.175	1479.4
520.542	1519.85
520.909	1486.63
521.276	1507.64
521.643	1521.43
522.009	1540.19
522.376	1531.82
522.743	1561.2
523.11	1560.98
523.477	1565.72
523.843	1597.36
524.21	1610.92
524.577	1600.52
524.943	1587.87
525.31	1594.42
525.676	1622.44
526.043	1617.02
526.409	1627.87
526.776	1600.07
527.142	1605.95
527.508	1643.69
527.874	1645.49
528.241	1643.23
528.607	1629.67
528.973	1642.56
529.339	1639.62
529.705	1654.53
530.071	1676.23
530.437	1660.86
530.803	1708.99
531.169	1674.19
531.535	1706.28
531.901	1723.91
532.267	1734.53
532.632	1702.22
532.998	1715.77
533.364	1727.3
533.73	1741.31
534.095	1788.77
534.461	1779.95
534.826	1763.91
535.192	1777.02
535.557	1793.06
535.923	1779.28
536.288	1815.88
536.653	1812.95
537.019	1819.95
537.384	1815.66
537.749	1836
538.114	1853.4
538.479	1848.65
538.845	1874.19
539.21	1881.87
539.575	1874.64
539.94	1884.81
540.305	1892.27
540.67	1893.4
541.034	1906.05
541.399	1907.86
541.764	1912.15
542.129	1955.09
542.494	1921.19
542.858	1953.51
543.223	1942.66
543.587	1996.44
543.952	1976.11
544.316	1946.28
544.681	1987.41
545.045	2005.48
545.41	2007.52
545.774	2050.23
546.138	2032.6
546.503	2007.74
546.867	2021.08
547.231	2026.73
547.595	2060.4
547.959	2068.08
548.324	2065.6
548.688	2033.73
549.052	2062.88
549.416	2043.68
549.779	2078.02
550.143	2064.47
550.507	2097.01
550.871	2103.33
551.235	2086.16
551.599	2111.02
551.962	2102.66
552.326	2093.17
552.689	2132.49
553.053	2094.97
553.417	2125.93
553.78	2162.32
554.143	2121.19
554.507	2159.83
554.87	2130
555.234	2140.62
555.597	2139.49
555.96	2146.05
556.323	2135.65
556.686	2148.31
557.05	2146.27
557.413	2163.9
557.776	2170.45
558.139	2167.97
558.502	2201.19
558.865	2198.02
559.228	2217.46
559.59	2189.43
559.953	2171.58
560.316	2237.57
560.679	2233.05
561.041	2221.07
561.404	2260.62
561.767	2241.86
562.129	2221.07
562.492	2282.99
562.854	2279.15
563.217	2253.16
563.579	2318.24
563.941	2339.71
564.304	2301.97
564.666	2333.84
565.028	2338.81
565.39	2338.81
565.753	2358.92
566.115	2370.22
566.477	2356.44
566.839	2426.72
567.201	2440.05
567.563	2414.51
567.925	2459.03
568.287	2447.28
568.648	2440.05
569.01	2451.35
569.372	2527.05
569.734	2499.71
570.095	2524.34
570.457	2520.05
570.819	2548.07
571.18	2562.31
571.542	2567.73
571.903	2551.91
572.265	2577.67
572.626	2617.22
572.987	2600.72
573.349	2617.67
573.71	2635.75
574.071	2631.68
574.432	2636.43
574.794	2666.26
575.155	2641.63
575.516	2661.96
575.877	2668.74
576.238	2672.59
576.599	2691.79
576.96	2709.19
577.32	2699.93
577.681	2690.66
578.042	2689.99
578.403	2699.48
578.763	2720.49
579.124	2732.24
579.485	2709.87
579.845	2707.61
580.206	2716.43
580.566	2736.54
580.927	2689.76
581.287	2747.84
581.648	2750.78
582.008	2741.51
582.368	2714.84
582.728	2742.87
583.089	2710.55
583.449	2732.47
583.809	2706.26
584.169	2705.8
584.529	2727.27
584.889	2750.55
585.249	2709.87
585.609	2708.97
585.969	2698.12
586.329	2687.5
586.688	2720.95
587.048	2671.46
587.408	2702.87
587.768	2674.17
588.127	2678.46
588.487	2702.87
588.846	2689.53
589.206	2638.46
589.565	2630.78
589.925	2657.9
590.284	2674.84
590.643	2642.08
591.003	2692.25
591.362	2687.05
591.721	2668.97
592.08	2646.15
592.44	2678.23
592.799	2667.16
593.158	2664.45
593.517	2639.37
593.876	2666.26
594.235	2622.64
594.593	2658.8
594.952	2627.39
595.311	2685.69
595.67	2666.48
596.029	2656.54
596.387	2693.38
596.746	2694.73
597.104	2694.05
597.463	2665.13
597.822	2697.9
598.18	2691.79
598.538	2693.83
598.897	2704.67
599.255	2682.53
599.613	2740.61
599.972	2715.52
600.33	2725.69
600.688	2725.47
601.046	2733.83
601.404	2747.61
601.762	2728.18
602.12	2740.61
602.478	2744.45
602.836	2775.18
603.194	2748.29
603.552	2759.36
603.91	2765.92
604.268	2756.2
604.625	2738.35
604.983	2803.2
605.341	2772.24
605.698	2830.77
606.056	2810.43
606.413	2838.23
606.771	2845.24
607.128	2825.12
607.485	2783.54
607.843	2845.24
608.2	2841.85
608.557	2845.91
608.914	2859.92
609.272	2882.98
609.629	2855.63
609.986	2897.21
610.343	2882.3
610.7	2888.17
611.057	2865.12
611.414	2867.38
611.771	2898.79
612.127	2906.03
612.484	2899.25
612.841	2871.22
613.198	2915.97
613.554	2862.18
613.911	2898.12
614.267	2880.04
614.624	2904.9
614.98	2875.29
615.337	2914.39
615.693	2919.36
616.05	2904.44
616.406	2907.61
616.762	2908.74
617.118	2919.36
617.475	2937.66
617.831	2886.59
618.187	2884.78
618.543	2879.59
618.899	2929.3
619.255	2861.96
619.611	2885.69
619.967	2906.03
620.323	2908.29
620.678	2893.14
621.034	2895.4
621.39	2926.14
621.746	2870.32
622.101	2889.75
622.457	2891.11
622.812	2918.23
623.168	2904.9
623.523	2923.88
623.879	2940.37
624.234	2852.47
624.589	2901.96
624.945	2864.67
625.3	2892.01
625.655	2872.35
626.01	2863.99
626.365	2887.95
626.72	2844.56
627.075	2861.73
627.43	2818.34
627.785	2865.8
628.14	2874.39
628.495	2811.11
628.85	2855.41
629.205	2853.6
629.559	2864.9
629.914	2835.07
630.269	2833.26
630.623	2873.26
630.978	2818.8
631.332	2836.87
631.687	2809.53
632.041	2850.66
632.396	2818.34
632.75	2810.21
633.104	2816.99
633.459	2849.08
633.813	2813.82
634.167	2847.95
634.521	2820.15
634.875	2805.91
635.229	2786.48
635.583	2780.15
635.937	2794.62
636.291	2795.07
636.645	2826.71
636.999	2828.97
637.352	2831.68
637.706	2773.37
638.06	2795.97
638.413	2800.72
638.767	2777.44
639.121	2783.32
639.474	2765.69
639.828	2769.98
640.181	2776.09
640.534	2765.01
640.888	2783.09
641.241	2745.8
641.594	2785.12
641.947	2760.04
642.301	2816.31
642.654	2815.18
643.007	2792.36
643.36	2767.72
643.713	2810.89
644.066	2791.45
644.419	2767.95
644.771	2734.5
645.124	2718.23
645.477	2738.12
645.83	2713.71
646.182	2738.8
646.535	2739.93
646.888	2724.11
647.24	2724.79
647.593	2732.92
647.945	2717.33
648.298	2697.22
648.65	2701.96
649.002	2697.44
649.355	2724.34
649.707	2745.35
650.059	2716.88
650.411	2739.7
650.763	2765.92
651.115	2821.51
651.467	2747.84
651.819	2761.62
652.171	2763.2
652.523	2755.29
652.875	2747.61
653.227	2699.7
653.578	2766.14
653.93	2700.38
654.282	2751.23
654.633	2725.47
654.985	2740.83
655.337	2733.83
655.688	2776.99
656.039	2791
656.391	2727.95
656.742	2748.97
657.094	2770.21
657.445	2728.18
657.796	2734.96
658.147	2710.1
658.498	2740.61
658.849	2730.21
659.2	2729.53
659.551	2683.66
659.902	2712.36
660.253	2674.62
660.604	2700.61
660.955	2702.64
661.306	2723.66
661.656	2703.54
662.007	2686.6
662.358	2701.06
662.708	2724.79
663.059	2694.96
663.409	2665.35
663.76	2689.31
664.11	2697.44
664.461	2687.05
664.811	2669.42
665.161	2710.32
665.511	2649.53
665.862	2640.95
666.212	2680.49
666.562	2667.84
666.912	2666.71
667.262	2634.62
667.612	2648.4
667.962	2650.21
668.312	2681.85
668.662	2693.6
669.011	2605.47
669.361	2632.13
669.711	2637.11
670.06	2638.24
670.41	2638.24
670.76	2623.09
671.109	2611.12
671.459	2656.54
671.808	2611.8
672.157	2645.92
672.507	2638.24
672.856	2638.46
673.205	2605.24
673.554	2623.77
673.904	2608.41
674.253	2618.12
674.602	2635.07
674.951	2622.64
675.3	2596.65
675.649	2653.83
675.998	2614.06
676.346	2615.64
676.695	2634.17
677.044	2604.34
677.393	2623.77
677.741	2638.01
678.09	2564.79
678.438	2593.49
678.787	2601.17
679.135	2625.81
679.484	2616.54
679.832	2608.41
680.181	2582.42
680.529	2620.16
680.877	2574.96
681.225	2614.28
681.573	2586.94
681.922	2620.84
682.27	2574.51
682.618	2571.12
682.966	2529.09
683.314	2568.41
683.661	2582.19
684.009	2575.86
684.357	2563.89
684.705	2548.52
685.053	2552.81
685.4	2539.93
685.748	2531.35
686.095	2547.39
686.443	2545.81
686.79	2532.93
687.138	2554.62
687.485	2511.23
687.832	2533.38
688.18	2534.28
688.527	2518.92
688.874	2520.5
689.221	2506.49
689.568	2481.18
689.915	2514.4
690.262	2504
690.609	2480.95
690.956	2487.96
691.303	2477.11
691.65	2464
691.997	2450.22
692.344	2457.68
692.69	2467.39
693.037	2452.03
693.383	2426.26
693.73	2478.24
694.077	2451.57
694.423	2429.2
694.769	2379.71
695.116	2415.19
695.462	2376.1
695.808	2428.98
696.155	2378.36
696.501	2421.52
696.847	2402.54
697.193	2377.68
697.539	2405.25
697.885	2371.8
698.231	2349.66
698.577	2386.72
698.923	2391.69
699.269	2322.54
699.614	2359.15
699.96	2337.23
700.306	2351.92
700.651	2333.16
700.997	2355.08
701.342	2318.7
701.688	2344.91
702.033	2330.67
702.379	2315.53
702.724	2332.03
703.069	2272.82
703.415	2277.57
703.76	2284.57
704.105	2278.25
704.45	2288.64
704.795	2254.74
705.14	2269.88
705.485	2277.57
705.83	2260.84
706.175	2254.07
706.52	2254.07
706.865	2245.48
707.209	2230.11
707.554	2248.42
707.899	2253.16
708.243	2233.95
708.588	2196.89
708.932	2232.14
709.277	2264.01
709.621	2199.83
709.966	2199.38
710.31	2189.66
710.654	2181.75
710.998	2145.59
711.342	2221.52
711.687	2146.95
712.031	2191.92
712.375	2180.39
712.719	2205.93
713.063	2181.07
713.407	2185.59
713.75	2188.98
714.094	2162.32
714.438	2164.12
714.782	2174.97
715.125	2163.45
715.469	2190.34
715.812	2153.5
716.156	2143.33
716.499	2148.53
716.843	2143.11
717.186	2145.82
717.53	2152.6
717.873	2124.58
718.216	2152.82
718.559	2158.7
718.902	2099.27
719.246	2124.8
719.589	2134.52
719.932	2106.27
720.275	2106.05
720.617	2116.22
720.96	2114.18
721.303	2089.78
721.646	2102.43
721.989	2108.76
722.331	2095.88
722.674	2091.13
723.016	2086.39
723.359	2100.62
723.701	2082.09
724.044	2076.22
724.386	2099.04
724.729	2070.34
725.071	2076.44
725.413	2066.5
725.755	2031.92
726.097	2077.57
726.439	2031.25
726.782	2041.19
727.124	2054.07
727.465	2052.26
727.807	2045.93
728.149	2042.77
728.491	2008.42
728.833	2073.28
729.175	2027.86
729.516	2039.38
729.858	2036.44
730.199	2038.03
730.541	2034.18
730.882	2009.78
731.224	2042.55
731.565	2022.43
731.906	2031.92
732.248	1989.67
732.589	1998.48
732.93	1976.56
733.271	2007.74
733.612	2006.61
733.953	2001.87
734.294	2011.59
734.635	1996.44
734.976	1996.22
735.317	1973.17
735.658	1991.02
735.999	2004.58
736.339	1988.08
736.68	2014.07
737.021	1968.2
737.361	1955.99
737.702	1953.73
738.042	1976.78
738.383	1959.38
738.723	1953.06
739.063	1934.53
739.404	1947.63
739.744	1952.6
740.084	1920.51
740.424	1955.09
740.764	1949.44
741.104	1969.78
741.444	1952.15
741.784	1930.23
742.124	1936.56
742.464	1948.31
742.804	1934.07
743.143	1930.46
743.483	1924.81
743.823	1923.23
744.162	1925.94
744.502	1940.17
744.841	1919.16
745.181	1932.04
745.52	1906.96
745.86	1906.28
746.199	1898.59
746.538	1891.36
746.877	1914.64
747.216	1891.14
747.556	1903.79
747.895	1872.38
748.234	1896.11
748.573	1879.39
748.911	1880.97
749.25	1906.73
749.589	1855.21
749.928	1890.01
750.267	1907.63
750.605	1871.02
750.944	1850.91
751.283	1832.83
751.621	1848.65
751.96	1851.82
752.298	1832.38
752.636	1853.4
752.975	1836.67
753.313	1848.43
753.651	1850.01
753.989	1817.69
754.327	1850.23
754.666	1824.92
755.004	1849.78
755.342	1836.67
755.679	1795.77
756.017	1803.91
756.355	1804.81
756.693	1784.25
757.031	1807.75
757.368	1783.57
757.706	1811.14
758.044	1807.52
758.381	1820.4
758.719	1790.12
759.056	1824.02
759.394	1766.39
759.731	1765.94
760.068	1759.39
760.405	1769.78
760.743	1753.51
761.08	1751.71
761.417	1765.49
761.754	1766.85
762.091	1770.69
762.428	1741.99
762.765	1737.92
763.102	1773.85
763.438	1714.64
763.775	1714.19
764.112	1730.91
764.449	1693.85
764.785	1729.79
765.122	1673.52
765.458	1711.03
765.795	1725.04
766.131	1706.96
766.467	1707.86
766.804	1690.69
767.14	1690.24
767.476	1679.16
767.812	1696.11
768.148	1667.19
768.485	1676
768.821	1668.09
769.157	1675.32
769.492	1658.37
769.828	1661.09
770.164	1630.8
770.5	1640.3
770.836	1667.64
771.171	1612.95
771.507	1620.41
771.842	1622.22
772.178	1648.66
772.513	1613.63
