Data from foam2_polystyrene_foam_FLMS001491_00094.txt Node
Date: Wed Feb 08 10:58:47 GMT 2017
User: dcchb
Spectrometer: FLMS00149
Trigger mode: 0
Integration Time (sec): 2.000000E-2
Scans to average: 10
Electric dark correction enabled: true
Nonlinearity correction enabled: false
Boxcar width: 0
XAxis mode: Wavelengths
Number of Pixels in Spectrum: 2048
>>>>>Begin Spectral Data<<<<<
341.393	-3.16
341.776	-3.16
342.16	-3.16
342.543	-58.98
342.927	-82.94
343.31	-94.69
343.693	-65.08
344.077	-76.61
344.46	-62.6
344.843	-42.26
345.226	-59.21
345.61	-8.81
345.993	-7.46
346.376	5.88
346.759	19.43
347.142	18.3
347.525	45.2
347.908	52.88
348.291	63.95
348.674	99.88
349.057	111.18
349.44	114.12
349.823	135.14
350.206	156.15
350.588	196.15
350.971	217.85
351.354	213.33
351.737	221.46
352.119	255.81
352.502	261.91
352.884	281.35
353.267	278.41
353.65	275.7
354.032	312.53
354.414	318.41
354.797	320.67
355.179	332.19
355.562	309.82
355.944	330.61
356.326	334.23
356.709	356.37
357.091	345.98
357.473	350.95
357.855	339.2
358.238	345.98
358.62	344.85
359.002	355.24
359.384	368.58
359.766	329.48
360.148	341.46
360.53	357.73
360.912	363.83
361.294	335.36
361.676	338.3
362.057	366.54
362.439	365.41
362.821	328.58
363.203	336.71
363.584	341.23
363.966	345.08
364.348	324.29
364.729	336.71
365.111	337.39
365.493	323.38
365.874	341.91
366.256	328.35
366.637	318.86
367.019	315.02
367.4	320.44
367.781	318.41
368.163	331.97
368.544	342.59
368.925	357.28
369.306	340.1
369.688	336.71
370.069	311.63
370.45	349.14
370.831	334
371.212	340.33
371.593	324.74
371.974	356.6
372.355	335.36
372.736	336.26
373.117	328.35
373.498	330.61
373.879	339.2
374.26	339.43
374.641	322.03
375.021	350.95
375.402	336.71
375.783	366.54
376.163	357.28
376.544	374.23
376.925	359.99
377.305	358.18
377.686	345.53
378.066	354.57
378.447	382.14
378.827	370.84
379.208	363.15
379.588	358.41
379.968	383.94
380.349	357.28
380.729	369.03
381.109	381.91
381.489	374.23
381.87	391.85
382.25	390.05
382.63	391.85
383.01	393.89
383.39	387.11
383.77	394.34
384.15	407.22
384.53	413.32
384.91	414.68
385.29	411.74
385.67	405.64
386.049	416.71
386.429	416.49
386.809	448.12
387.189	403.83
387.568	415.58
387.948	441.12
388.328	425.53
388.707	423.72
389.087	454.68
389.466	427.11
389.846	461.46
390.225	451.51
390.605	433.66
390.984	435.47
391.363	464.62
391.743	464.62
392.122	459.2
392.501	459.2
392.881	493.77
393.26	486.99
393.639	448.58
394.018	501.46
394.397	485.41
394.776	475.02
395.155	496.94
395.534	490.38
395.913	482.02
396.292	512.53
396.671	494.68
397.05	494.68
397.429	515.47
397.808	488.57
398.186	506.65
398.565	519.08
398.944	530.61
399.323	534.68
399.701	531.74
400.08	540.1
400.458	537.84
400.837	531.74
401.215	551.4
401.594	528.35
401.972	542.81
402.351	552.98
402.729	568.57
403.107	571.74
403.486	578.29
403.864	586.88
404.242	575.8
404.62	585.75
404.999	577.61
405.377	581.91
405.755	595.24
406.133	586.2
406.511	597.95
406.889	602.24
407.267	612.19
407.645	624.84
408.023	636.59
408.401	632.98
408.779	642.47
409.156	654.22
409.534	660.55
409.912	649.7
410.29	672.98
410.667	668.46
411.045	665.52
411.422	685.86
411.8	695.8
412.178	703.71
412.555	707.55
412.933	707.33
413.31	715.01
413.687	728.57
414.065	745.07
414.442	754.56
414.819	750.26
415.197	777.83
415.574	785.06
415.951	792.3
416.328	768.12
416.705	794.33
417.082	797.49
417.46	792.07
417.837	793.43
418.214	812.86
418.591	843.82
418.967	829.36
419.344	850.37
419.721	856.93
420.098	828.9
420.475	845.63
420.852	855.8
421.228	864.16
421.605	853.08
421.982	877.27
422.358	888.56
422.735	909.81
423.111	897.83
423.488	936.02
423.864	919.3
424.241	906.87
424.617	925.17
424.994	943.25
425.37	958.17
425.746	962.91
426.123	962.46
426.499	969.69
426.875	973.08
427.251	987.54
427.627	1004.95
428.003	1036.13
428.379	1040.2
428.756	1043.59
429.132	1041.78
429.507	1064.6
429.883	1082.46
430.259	1107.32
430.635	1103.93
431.011	1115.45
431.387	1107.32
431.763	1154.09
432.138	1155.45
432.514	1158.61
432.89	1159.52
433.265	1208.33
433.641	1221.66
434.016	1231.61
434.392	1231.15
434.767	1270.02
435.143	1252.85
435.518	1273.19
435.894	1281.1
436.269	1303.47
436.644	1314.32
437.02	1322
437.395	1340.08
437.77	1373.3
438.145	1367.87
438.52	1392.73
438.895	1405.84
439.271	1413.07
439.646	1423.92
440.021	1447.42
440.395	1467.08
440.77	1467.53
441.145	1468.21
441.52	1493.07
441.895	1503.69
442.27	1517.25
442.645	1518.6
443.019	1552.73
443.394	1535.55
443.769	1567.64
444.143	1573.29
444.518	1569
444.892	1558.6
445.267	1596.34
445.641	1629.56
446.016	1628.43
446.39	1652.39
446.764	1641.09
447.139	1653.06
447.513	1692.84
447.887	1652.16
448.262	1699.62
448.636	1723.8
449.01	1721.54
449.384	1734.42
449.758	1754.08
450.132	1773.74
450.506	1818.71
450.88	1777.13
451.254	1803.79
451.628	1828.2
452.002	1874.75
452.376	1866.17
452.75	1885.83
453.123	1896.22
453.497	1939.61
453.871	1922.89
454.244	1952.94
454.618	2036.33
454.992	2015.77
455.365	1995.43
455.739	2049.21
456.112	2061.41
456.486	2083.79
456.859	2107.97
457.232	2140.96
457.606	2129.44
457.979	2168.3
458.352	2219.15
458.725	2208.76
459.099	2224.35
459.472	2268.87
459.845	2298.02
460.218	2264.12
460.591	2324.23
460.964	2319.04
461.337	2375.98
461.71	2421.18
462.083	2406.04
462.456	2441.52
462.829	2449.88
463.201	2470.9
463.574	2491.01
463.947	2549.54
464.32	2598.12
464.692	2611.91
465.065	2639.7
465.438	2676.77
465.81	2706.6
466.183	2692.36
466.555	2755.41
466.928	2797.21
467.3	2768.06
467.672	2843.09
468.045	2888.51
468.417	2895.97
468.789	2900.71
469.161	2987.49
469.534	3014.16
469.906	3071.56
470.278	3068.85
470.65	3100.26
471.022	3175.51
471.394	3208.5
471.766	3228.39
472.138	3291.21
472.51	3298.44
472.882	3389.74
473.253	3443.98
473.625	3468.16
473.997	3530.3
474.369	3523.07
474.74	3590.19
475.112	3629.74
475.484	3692.56
475.855	3771.88
476.227	3839.67
476.598	3858.2
476.97	3974.58
477.341	4023.62
477.713	4071.31
478.084	4073.34
478.455	4217.97
478.827	4223.62
479.198	4372.54
479.569	4372.09
479.94	4502.48
480.311	4543.38
480.682	4592.65
481.053	4691.63
481.424	4852.98
481.795	4819.76
482.166	4849.36
482.537	4962.81
482.908	5071.28
483.279	5175.23
483.65	5224.04
484.021	5282.35
484.391	5354.89
484.762	5390.14
485.133	5489.57
485.503	5498.84
485.874	5611.6
486.244	5664.03
486.615	5812.05
486.985	5850.02
487.356	5985.15
487.726	6016.79
488.097	6115.32
488.467	6192.15
488.837	6266.73
489.207	6319.38
489.578	6434.41
489.948	6490.68
490.318	6604.8
490.688	6602.54
491.058	6746.04
491.428	6809.09
491.798	6891.34
492.168	7070.32
492.538	7005.47
492.908	7110.32
493.278	7216.08
493.648	7250.88
494.017	7338.34
494.387	7413.36
494.757	7461.27
495.126	7588.95
495.496	7616.97
495.866	7675.5
496.235	7725.67
496.605	7819.68
496.974	7839.57
497.344	7942.84
497.713	7951.2
498.082	8028.72
498.452	8103.29
498.821	8170.86
499.19	8212.89
499.559	8288.37
499.928	8343.96
500.298	8394.81
500.667	8495.6
501.036	8496.95
501.405	8570.17
501.774	8552.77
502.143	8764.97
502.512	8736.49
502.88	8830.05
503.249	8813.33
503.618	8947.56
503.987	8990.72
504.356	9000.44
504.724	9087.67
505.093	9124.05
505.462	9129.25
505.83	9180.55
506.199	9327.66
506.567	9422.35
506.936	9476.59
507.304	9493.54
507.672	9595.68
508.041	9688.11
508.409	9713.19
508.777	9817.59
509.145	9872.28
509.514	9963.35
509.882	10035.89
510.25	10041.54
510.618	10121.54
510.986	10149.34
511.354	10239.96
511.722	10296.45
512.09	10436.79
512.458	10379.61
512.826	10592.49
513.193	10665.26
513.561	10611.02
513.929	10763.11
514.297	10829.55
514.664	10891.47
515.032	10935.98
515.4	11009.65
515.767	11067.28
516.135	11142.98
516.502	11092.36
516.869	11349.08
517.237	11320.38
517.604	11365.58
517.972	11556.53
518.339	11578
518.706	11745.45
519.073	11746.81
519.44	11831.33
519.808	11934.38
520.175	11963.3
520.542	12088.5
520.909	12286.91
521.276	12218.44
521.643	12309.51
522.009	12412.78
522.376	12485.55
522.743	12594.92
523.11	12698.88
523.477	12829.95
523.843	12904.29
524.21	13028.13
524.577	13125.3
524.943	13125.08
525.31	13283.72
525.676	13236.26
526.043	13496.37
526.409	13513.09
526.776	13596.03
527.142	13657.72
527.508	13750.6
527.874	13880.09
528.241	14096.58
528.607	13996.69
528.973	14236.69
529.339	14195.33
529.705	14429.68
530.071	14461.99
530.437	14499.28
530.803	14579.5
531.169	14619.05
531.535	14653.4
531.901	14742.66
532.267	14908.53
532.632	14961.41
532.998	15032.37
533.364	15055.42
533.73	15117.79
534.095	15205.48
534.461	15199.6
534.826	15396.43
535.192	15424.91
535.557	15530.44
535.923	15518.69
536.288	15631
536.653	15737.44
537.019	15762.52
537.384	15699.47
537.749	15829.41
538.114	15824.67
538.479	15985.12
538.845	15998.68
539.21	15896.08
539.575	16091.55
539.94	16079.35
540.305	16273.02
540.67	16209.29
541.034	16322.06
541.399	16458.1
541.764	16444.54
542.129	16524.09
542.494	16472.56
542.858	16607.02
543.223	16699.67
543.587	16781.25
543.952	16668.49
544.316	16778.99
544.681	16785.32
545.045	16919.33
545.41	17052.66
545.774	17056.73
546.138	17044.98
546.503	17000
546.867	17133.56
547.231	17332.65
547.595	17393.44
547.959	17496.49
548.324	17459.65
548.688	17362.71
549.052	17604.28
549.416	17549.82
549.779	17657.39
550.143	17734
550.507	17887.67
550.871	17976.93
551.235	17854.9
551.599	18031.39
551.962	18129.47
552.326	18170.37
552.689	18254.21
553.053	18332.85
553.417	18218.28
553.78	18533.75
554.143	18423.24
554.507	18546.86
554.87	18625.27
555.234	18889.45
555.597	18734.87
555.96	18901.88
556.323	18916.79
556.686	18926.73
557.05	19194.52
557.413	19201.3
557.776	19135.99
558.139	19389.55
558.502	19394.74
558.865	19642.2
559.228	19575.08
559.59	19723.1
559.953	19728.75
560.316	19929.65
560.679	19888.52
561.041	20043.99
561.404	20154.72
561.767	20336.19
562.129	20288.05
562.492	20521.27
562.854	20453.25
563.217	20520.14
563.579	20659.57
563.941	20854.37
564.304	20899.34
564.666	21044.87
565.028	21027.24
565.39	21111.31
565.753	21318.54
566.115	21449.38
566.477	21554.46
566.839	21476.72
567.201	21688.92
567.563	21729.6
567.925	21808.69
568.287	21954.23
568.648	21850.95
569.01	22000.33
569.372	22212.52
569.734	22088.91
570.095	22302.46
570.457	22445.74
570.819	22385.63
571.18	22455
571.542	22469.24
571.903	22645.28
572.265	22755.79
572.626	22770.93
572.987	22773.64
573.349	22919.85
573.71	22969.34
574.071	23113.29
574.432	23094.53
574.794	23390.8
575.155	23314.42
575.516	23294.3
575.877	23443
576.238	23485.26
576.599	23447.52
576.96	23570.23
577.32	23567.74
577.681	23553.73
578.042	23611.13
578.403	23651.58
578.763	23648.64
579.124	23833.5
579.485	23950.33
579.845	24019.26
580.206	23951.91
580.566	23944.23
580.927	23922.31
581.287	23952.59
581.648	23985.58
582.008	24050.89
582.368	23948.75
582.728	24015.64
583.089	23980.16
583.449	24030.78
583.809	24159.82
584.169	24179.93
584.529	24168.18
584.889	24385.35
585.249	24166.14
585.609	24164.11
585.969	24244.33
586.329	24197.33
586.688	24212.02
587.048	24322.3
587.408	24190.32
587.768	24189.87
588.127	24307.84
588.487	24205.92
588.846	24280.94
589.206	24240.72
589.565	24311.68
589.925	24485.23
590.284	24336.99
590.643	24472.12
591.003	24309.87
591.362	24520.49
591.721	24477.77
592.08	24369.75
592.44	24427.15
592.799	24391.9
593.158	24405.69
593.517	24448.85
593.876	24583.53
594.235	24508.96
594.593	24592.12
594.952	24618.56
595.311	24443.2
595.67	24540.6
596.029	24537.43
596.387	24683.19
596.746	24689.52
597.104	24508.73
597.463	24577.21
597.822	24631.89
598.18	24559.58
598.538	24563.2
598.897	24848.84
599.255	24477.32
599.613	24854.94
599.972	24774.49
600.33	24899.23
600.688	24706.92
601.046	24849.52
601.404	24872.79
601.762	24840.7
602.12	24871.66
602.478	24911.21
602.836	25047.03
603.194	24816.97
603.552	24910.31
603.91	24901.94
604.268	25044.99
604.625	24956.63
604.983	25117.98
605.341	24806.58
605.698	24968.38
606.056	25109.85
606.413	24943.3
606.771	25089.74
607.128	25082.96
607.485	24922.28
607.843	25030.3
608.2	25130.64
608.557	25169.06
608.914	25148.94
609.272	25271.65
609.629	25411.99
609.986	25391.2
610.343	25213.57
610.7	25479.1
611.057	25350.52
611.414	25230.75
611.771	25374.93
612.127	25583.96
612.484	25443.4
612.841	25562.49
613.198	25484.08
613.554	25472.55
613.911	25513.23
614.267	25702.83
614.624	25535.15
614.98	25631.42
615.337	25650.85
615.693	25646.33
616.05	25725.43
616.406	25786.67
616.762	25685.2
617.118	25745.99
617.475	25659.44
617.831	25789.38
618.187	25718.65
618.543	25746.67
618.899	25858.53
619.255	25782.6
619.611	25769.72
619.967	25900.79
620.323	25970.39
620.678	25747.35
621.034	25764.97
621.39	25763.39
621.746	25820.11
622.101	26084.06
622.457	25847.91
622.812	25930.62
623.168	25963.39
623.523	25933.56
623.879	25909.6
624.234	25826.67
624.589	25859.43
624.945	25938.3
625.3	25914.35
625.655	25863.27
626.01	25822.6
626.365	25897.85
626.72	25919.09
627.075	25874.57
627.43	25699.44
627.785	25755.26
628.14	25758.87
628.495	25750.28
628.85	25710.51
629.205	25689.04
629.559	25748.7
629.914	25557.52
630.269	25677.29
630.623	25549.16
630.978	25518.65
631.332	25624.18
631.687	25723.17
632.041	25469.16
632.396	25574.24
632.75	25421.7
633.104	25531.31
633.459	25301.48
633.813	25198.66
634.167	25292.89
634.521	25302.84
634.875	25275.04
635.229	25207.25
635.583	25180.81
635.937	25115.5
636.291	25109.85
636.645	25099.68
636.999	25041.6
637.352	25200.69
637.706	24871.66
638.06	25076.18
638.413	25004.54
638.767	24850.19
639.121	24914.6
639.474	24832.57
639.828	24713.93
640.181	24804.32
640.534	24748.95
640.888	24656.98
641.241	24557.09
641.594	24546.7
641.947	24708.05
642.301	24668.5
642.654	24519.36
643.007	24556.19
643.36	24467.38
643.713	24443.43
644.066	24549.86
644.419	24336.99
644.771	24140.38
645.124	23978.35
645.477	23892.25
645.83	23791.92
646.182	23744.23
646.535	23517.12
646.888	23527.06
647.24	23414.98
647.593	23626.95
647.945	23455.88
648.298	23419.27
648.65	23350.57
649.002	23331.14
649.355	23358.03
649.707	23396.67
650.059	23444.81
650.411	23763.89
650.763	23703.11
651.115	23945.36
651.467	23845.02
651.819	23867.62
652.171	23954.17
652.523	23781.97
652.875	23844.8
653.227	23617.68
653.578	23828.75
653.93	23739.71
654.282	23629.89
654.633	23608.19
654.985	23659.94
655.337	23556.22
655.688	23629.66
656.039	23661.75
656.391	23414.07
656.742	23470.8
657.094	23510.79
657.445	23546.73
657.796	23470.57
658.147	23435.99
658.498	23464.02
658.849	23425.37
659.2	23388.31
659.551	23229.45
659.902	23351.7
660.253	23302.44
660.604	23399.16
660.955	23273.96
661.306	23316.45
661.656	23200.29
662.007	23276.9
662.358	23296.79
662.708	23324.13
663.059	23164.81
663.409	23144.25
663.76	23345.15
664.11	23272.61
664.461	23210.69
664.811	23335.21
665.161	23085.04
665.511	23085.04
665.862	23162.78
666.212	23101.99
666.562	23294.98
666.912	23082.78
667.262	23079.39
667.612	23007.98
667.962	23157.13
668.312	23099.96
668.662	23171.59
669.011	23038.72
669.361	23071.26
669.711	23090.01
670.06	22958.04
670.41	22960.53
670.76	23040.52
671.109	23019.96
671.459	22916.01
671.808	22834.65
672.157	23065.38
672.507	22872.39
672.856	22828.1
673.205	22818.61
673.554	23036.23
673.904	22936.8
674.253	22905.61
674.602	22789.23
674.951	22546.98
675.3	22418.62
675.649	22886.18
675.998	22841.89
676.346	22740.87
676.695	22838.5
677.044	22668.78
677.393	22807.54
677.741	22795.33
678.09	22646.41
678.438	22637.6
678.787	22689.8
679.135	22716.69
679.484	22530.48
679.832	22530.03
680.181	22524.15
680.529	22547.2
680.877	22602.12
681.225	22491.61
681.573	22528.22
681.922	22432.4
682.27	22325.29
682.618	22301.79
682.966	22252.97
683.314	22388.56
683.661	22249.36
684.009	22051.17
684.357	22052.75
684.705	22085.97
685.053	22108.8
685.4	22116.93
685.748	21974.11
686.095	21978.86
686.443	21798.3
686.79	21833.1
687.138	21796.26
687.485	21913.55
687.832	21791.29
688.18	21800.33
688.527	21662.26
688.874	21692.31
689.221	21633.56
689.568	21592.65
689.915	21574.8
690.262	21524.63
690.609	21422.49
690.956	21388.14
691.303	21437.85
691.65	21215.71
691.997	21212.32
692.344	21095.94
692.69	21151.08
693.037	21073.57
693.383	20861.37
693.73	21023.18
694.077	20868.38
694.423	20860.69
694.769	20939.79
695.116	20708.83
695.462	20654.37
695.808	20736.86
696.155	20683.98
696.501	20509.52
696.847	20575.05
697.193	20412.34
697.539	20485.56
697.885	20314.72
698.231	20274.72
698.577	20192.24
698.923	20196.31
699.269	20157.21
699.614	20076.99
699.96	20027.04
700.306	20044.44
700.651	19906.6
700.997	19986.59
701.342	19875.86
701.688	19832.92
702.033	19820.95
702.379	19802.87
702.724	19675.19
703.069	19723.32
703.415	19551.35
703.76	19472.71
704.105	19528.98
704.45	19479.04
704.795	19354.29
705.14	19238.59
705.485	19262.09
705.83	19105.94
706.175	19084.47
706.52	19072.27
706.865	18988.2
707.209	19031.14
707.554	18920.18
707.899	18967.64
708.243	18926.73
708.588	18876.79
708.932	18768.55
709.277	18772.16
709.621	18858.71
709.966	18630.02
710.31	18674.99
710.654	18441.32
710.998	18480.42
711.342	18442.23
711.687	18360.87
712.031	18374.88
712.375	18190.03
712.719	18305.51
713.063	18202.23
713.407	18487.2
713.75	18228.45
714.094	18181.89
714.438	18234.1
714.782	18242.01
715.125	18110.26
715.469	18105.29
715.812	18109.58
716.156	17946.42
716.499	17901.9
716.843	17935.57
717.186	17773.32
717.53	17849.47
717.873	17855.58
718.216	17825.97
718.559	17717.27
718.902	17519.31
719.246	17539.2
719.589	17646.09
719.932	17533.32
720.275	17610.38
720.617	17564.96
720.96	17581.91
721.303	17515.92
721.646	17472.31
721.989	17374.68
722.331	17464.17
722.674	17329.71
723.016	17445.19
723.359	17356.15
723.701	17327
724.044	17300.56
724.386	17099.44
724.729	17138.76
725.071	17141.92
725.413	17060.12
725.755	17024.64
726.097	17016.95
726.439	16929.95
726.782	16923.4
727.124	17016.5
727.465	16954.36
727.807	16930.18
728.149	16815.83
728.491	16861.93
728.833	16865.77
729.175	16776.28
729.516	16760.69
729.858	16643.63
730.199	16668.94
730.541	16660.58
730.882	16603.18
731.224	16674.14
731.565	16521.83
731.906	16567.93
732.248	16548.27
732.589	16501.04
732.93	16394.82
733.271	16400.47
733.612	16421.26
733.953	16428.27
734.294	16389.4
734.635	16288.61
734.976	16250.65
735.317	16156.64
735.658	16284.09
735.999	16197.99
736.339	16182.63
736.68	16219.23
737.021	16156.19
737.361	16006.81
737.702	16179.91
738.042	16075.96
738.383	16065.57
738.723	15986.92
739.063	15985.79
739.404	15919.81
739.744	15934.5
740.084	15809.98
740.424	15904.89
740.764	15852.01
741.104	15915.51
741.444	15824.89
741.784	15769.53
742.124	15732.02
742.464	15629.65
742.804	15728.17
743.143	15583.09
743.483	15637.55
743.823	15498.8
744.162	15519.59
744.502	15555.75
744.841	15393.72
745.181	15527.5
745.52	15445.47
745.86	15460.61
746.199	15459.71
746.538	15377.67
746.877	15436.88
747.216	15425.81
747.556	15325.47
747.895	15329.99
748.234	15183.33
748.573	15163.9
748.911	15233.27
749.25	15031.02
749.589	15002.77
749.928	15084.58
750.267	15079.38
750.605	14939.27
750.944	14960.96
751.283	14891.81
751.621	14936.1
751.96	14906.05
752.298	14899.5
752.636	14901.76
752.975	14839.61
753.313	14730.69
753.651	14853.17
753.989	14673.74
754.327	14606.17
754.666	14592.84
755.004	14620.63
755.342	14667.18
