Data from foil_FLMS001491_053.txt Node
Date: Tue Feb 07 11:27:11 GMT 2017
User: dcchb
Spectrometer: FLMS00149
Trigger mode: 0
Integration Time (sec): 2.000000E-2
Scans to average: 10
Electric dark correction enabled: true
Nonlinearity correction enabled: false
Boxcar width: 0
XAxis mode: Wavelengths
Number of Pixels in Spectrum: 2048
>>>>>Begin Spectral Data<<<<<
341.393	-19.58
341.776	-19.58
342.16	-19.58
342.543	-75.39
342.927	-63.64
343.31	-80.59
343.693	-64.77
344.077	-65.68
344.46	-44.43
344.843	-48.28
345.226	-34.94
345.61	-36.3
345.993	-19.58
346.376	-12.57
346.759	15.45
347.142	41.44
347.525	45.73
347.908	60.65
348.291	74.21
348.674	82.34
349.057	87.31
349.44	114.88
349.823	129.35
350.206	177.71
350.588	218.84
350.971	244.82
351.354	270.13
351.737	262.45
352.119	278.72
352.502	314.43
352.884	319.17
353.267	334.31
353.65	326.86
354.032	353.52
354.414	355.1
354.797	376.8
355.179	364.59
355.562	374.31
355.944	379.74
356.326	385.16
356.709	410.7
357.091	393.75
357.473	405.05
357.855	405.95
358.238	414.09
358.62	380.19
359.002	418.15
359.384	404.82
359.766	421.54
360.148	412.05
360.53	438.94
360.912	396.46
361.294	392.62
361.676	403.24
362.057	409.79
362.439	397.81
362.821	382
363.203	379.51
363.584	433.75
363.966	427.42
364.348	399.4
364.729	401.66
365.111	385.39
365.493	407.76
365.874	388.32
366.256	398.49
366.637	422.22
367.019	419.96
367.4	387.87
367.781	432.39
368.163	425.61
368.544	422.9
368.925	409.34
369.306	413.86
369.688	403.69
370.069	431.71
370.45	417.93
370.831	420.19
371.212	445.72
371.593	420.41
371.974	419.73
372.355	449.56
372.736	439.85
373.117	443.91
373.498	467.42
373.879	452.28
374.26	435.55
374.641	444.37
375.021	456.57
375.402	465.61
375.783	473.97
376.163	501.99
376.544	492.5
376.925	483.01
377.305	482.78
377.686	501.31
378.066	495.66
378.447	497.92
378.827	511.26
379.208	524.14
379.588	531.6
379.968	523.69
380.349	534.76
380.729	524.59
381.109	534.31
381.489	544.48
381.87	541.77
382.25	534.99
382.63	557.58
383.01	539.28
383.39	563.01
383.77	564.82
384.15	562.56
384.53	564.82
384.91	610.01
385.29	589.45
385.67	619.5
386.049	616.34
386.429	614.76
386.809	607.3
387.189	623.35
387.568	617.02
387.948	618.15
388.328	658.82
388.707	653.4
389.087	657.92
389.466	677.81
389.846	720.29
390.225	677.58
390.605	680.07
390.984	697.47
391.363	701.31
391.743	721.87
392.122	719.61
392.501	758.26
392.881	750.8
393.26	761.65
393.639	755.09
394.018	761.19
394.397	779.73
394.776	804.13
395.155	784.7
395.534	774.98
395.913	794.64
396.292	820.4
396.671	826.5
397.05	841.42
397.429	849.78
397.808	861.98
398.186	870.57
398.565	876.67
398.944	886.39
399.323	878.48
399.701	879.38
400.08	910.12
400.458	931.59
400.837	934.75
401.215	931.59
401.594	951.02
401.972	952.38
402.351	974.07
402.729	975.88
403.107	983.79
403.486	990.34
403.864	1018.14
404.242	1007.97
404.62	1035.54
404.999	1057.68
405.377	1058.81
405.755	1057.23
406.133	1098.59
406.511	1090.9
406.889	1107.17
407.267	1142.65
407.645	1175.42
408.023	1189.21
408.401	1169.09
408.779	1193.95
409.156	1208.41
409.534	1238.24
409.912	1247.06
410.29	1276.89
410.667	1299.03
411.045	1298.58
411.422	1333.16
411.8	1342.87
412.178	1365.25
412.555	1409.09
412.933	1399.37
413.31	1415.41
413.687	1439.82
414.065	1451.8
414.442	1479.14
414.819	1490.67
415.197	1512.59
415.574	1540.16
415.951	1549.42
416.328	1534.28
416.705	1560.5
417.082	1570.66
417.46	1616.09
417.837	1623.09
418.214	1624.22
418.591	1673.49
418.967	1659.48
419.344	1710.32
419.721	1695.63
420.098	1727.5
420.475	1768.85
420.852	1785.8
421.228	1786.25
421.605	1809.75
421.982	1839.13
422.358	1869.41
422.735	1853.6
423.111	1899.47
423.488	1934.27
423.864	1939.47
424.241	1950.77
424.617	1965.23
424.994	2029.86
425.37	1994.61
425.746	2054.72
426.123	2086.13
426.499	2103.31
426.875	2150.08
427.251	2152.12
427.627	2201.83
428.003	2225.11
428.379	2271.89
428.756	2301.72
429.132	2328.84
429.507	2370.19
429.883	2388.04
430.259	2422.17
430.635	2470.08
431.011	2507.59
431.387	2504.2
431.763	2553.92
432.138	2571.32
432.514	2670.07
432.89	2656.96
433.265	2735.38
433.641	2713.69
434.016	2803.17
434.392	2819.22
434.767	2875.72
435.143	2866.45
435.518	2928.37
435.894	2971.76
436.269	3010.18
436.644	3053.11
437.02	3105.09
437.395	3120.68
437.77	3171.75
438.145	3216.72
438.52	3269.38
438.895	3275.48
439.271	3313.22
439.646	3375.59
440.021	3382.82
440.395	3441.8
440.77	3431.41
441.145	3433.67
441.52	3530.84
441.895	3554.57
442.27	3565.87
442.645	3609.71
443.019	3636.37
443.394	3630.72
443.769	3723.6
444.143	3712.76
444.518	3809.25
444.892	3800.21
445.267	3814.67
445.641	3869.14
446.016	3913.43
446.39	3937.16
446.764	4009.92
447.139	3980.32
447.513	4052.63
447.887	4064.61
448.262	4095.12
448.636	4115
449.01	4182.8
449.384	4239.3
449.758	4323.59
450.132	4315.68
450.506	4358.61
450.88	4406.07
451.254	4415.79
451.628	4463.47
452.002	4555.45
452.376	4582.11
452.75	4591.6
453.123	4694.88
453.497	4758.15
453.871	4830.01
454.244	4872.5
454.618	4922.44
454.992	4979.61
455.365	4945.94
455.739	5164.02
456.112	5154.75
456.486	5162.89
456.859	5213.96
457.232	5321.3
457.606	5314.3
457.979	5417.57
458.352	5520.39
458.725	5555.64
459.099	5590.67
459.472	5735.75
459.845	5739.14
460.218	5857.33
460.591	5868.86
460.964	5938.69
461.337	6036.76
461.71	6090.09
462.083	6231.56
462.456	6214.16
462.829	6265.91
463.201	6373.7
463.574	6380.26
463.947	6493.25
464.32	6663.19
464.692	6691.43
465.065	6726.01
465.438	6829.96
465.81	6892.11
466.183	6940.69
466.555	7163.51
466.928	7234.7
467.3	7228.37
467.672	7344.75
468.045	7532.54
468.417	7554.24
468.789	7630.39
469.161	7739.32
469.534	7872.87
469.906	7990.61
470.278	8057.27
470.65	8138.85
471.022	8337.49
471.394	8467.88
471.766	8602.12
472.138	8602.34
472.51	8801.44
472.882	9012.5
473.253	9136.12
473.625	9195.32
473.997	9306.51
474.369	9485.94
474.74	9530.68
475.112	9755.31
475.484	9863.55
475.855	10163.89
476.227	10193.72
476.598	10459.02
476.97	10527.72
477.341	10791.44
477.713	10935.39
478.084	10973.81
478.455	11304.42
478.827	11352.78
479.198	11749.61
479.569	11765.43
479.94	12100.11
480.311	12273.21
480.682	12559.75
481.053	12751.39
481.424	13023.47
481.795	13118.16
482.166	13357.25
482.537	13536.9
482.908	13807.18
483.279	13926.05
483.65	14234.51
484.021	14462.53
484.391	14669.53
484.762	14783.2
485.133	15050.99
485.503	15137.99
485.874	15541.37
486.244	15648.94
486.615	16054.35
486.985	16132.32
487.356	16444.62
487.726	16556.03
488.097	16935.46
488.467	16972.97
488.837	17448.89
489.207	17520.53
489.578	17866.28
489.948	18128.2
490.318	18422.88
490.688	18333.16
491.058	18648.86
491.428	18941.73
491.798	19133.37
492.168	19494.26
492.538	19486.58
492.908	19799.79
493.278	20033.91
493.648	20176.05
494.017	20482.03
494.387	20611.97
494.757	20739.65
495.126	20958.86
495.496	21071.4
495.866	21218.51
496.235	21480.65
496.605	21717.93
496.974	21755.67
497.344	22085.61
497.713	22298.03
498.082	22404.02
498.452	22592.26
498.821	22757
499.19	22850.56
499.559	23105.47
499.928	23261.62
500.298	23463.65
500.667	23642.17
501.036	23613.25
501.405	24007.14
501.774	23925.56
502.143	24257.75
502.512	24308.15
502.88	24499.33
503.249	24616.84
503.618	24876.49
503.987	24898.64
504.356	25124.62
504.724	25291.4
505.093	25439.64
505.462	25500.21
505.83	25748.33
506.199	25990.14
506.567	26307.64
506.936	26205.72
507.304	26592.38
507.672	26649.55
508.041	26947.85
508.409	27069.43
508.777	27420.15
509.145	27654.95
509.514	27703.54
509.882	27914.83
510.25	27976.3
510.618	28222.17
510.986	28257.19
511.354	28480.01
511.722	28747.58
512.09	28926.56
512.458	28988.48
512.826	29426.2
513.193	29566.31
513.561	29745.29
513.929	29955
514.297	30185.51
514.664	30292.85
515.032	30416.46
515.4	30733.06
515.767	30805.38
516.135	31174.41
516.502	30946.84
516.869	31582.08
517.237	31746.82
517.604	31817.1
517.972	32105.68
518.339	32400.14
518.706	32474.49
519.073	32614.59
519.44	32812.1
519.808	33190.85
520.175	33293.67
520.542	33798.97
520.909	33852.08
521.276	34003.48
521.643	34363.7
522.009	34460.2
522.376	34739.96
522.743	34934.08
523.11	35310.34
523.477	35600.73
523.843	35882.08
524.21	36209.3
524.577	36490.42
524.943	36604.09
525.31	36827.82
525.676	37183.51
526.043	37402.27
526.409	37659.43
526.776	37923.83
527.142	38075.92
527.508	38431.84
527.874	38553.2
528.241	38764.04
528.607	38844.04
528.973	39245.61
529.339	39319.5
529.705	39799.94
530.071	40100.5
530.437	40275.41
530.803	40441.96
531.169	40570.32
531.535	40665
531.901	40834.04
532.267	41067.03
532.632	41353.8
532.998	41366.45
533.364	41684.19
533.73	41813.9
534.095	42116.94
534.461	41991.75
534.826	42384.06
535.192	42664.05
535.557	42865.85
535.923	42943.81
536.288	43106.07
536.653	43368.44
537.019	43244.6
537.384	43547.41
537.749	43646.85
538.114	43860.85
538.479	43908.99
538.845	44040.28
539.21	43963
539.575	44113.73
539.94	44406.37
540.305	44657.44
540.67	44653.37
541.034	44737.89
541.399	45015.17
541.764	45105.34
542.129	45198.67
542.494	45356.41
542.858	45367.25
543.223	45609.96
543.587	45793.23
543.952	45840.01
544.316	45913.45
544.681	46007.91
545.045	46237.74
545.41	46437.06
545.774	46601.35
546.138	46552.76
546.503	46700.33
546.867	46697.39
547.231	47076.81
547.595	47086.3
547.959	47186.64
548.324	47283.14
548.688	47514.77
549.052	47610.36
549.416	47542.11
549.779	47796.79
550.143	47817.36
550.507	48044.47
550.871	48120.63
551.235	48108.2
551.599	48234.97
551.962	48450.34
552.326	48498.92
552.689	48811
553.053	48516.78
553.417	48766.03
553.78	49313.59
554.143	49149.07
554.507	49561.95
554.87	49595.39
555.234	49842.16
555.597	49763.75
555.96	49839.45
556.323	50025.66
556.686	50127.13
557.05	50346.11
557.413	50513.56
557.776	50526.21
558.139	50857.05
558.502	50856.83
558.865	50969.37
559.228	51212.98
559.59	51327.32
559.953	51271.28
560.316	51620.65
560.679	51527.09
561.041	51831.04
561.404	51840.98
561.767	52152.39
562.129	52074.2
562.492	52362.1
562.854	52436.45
563.217	52576.1
563.579	52657.46
563.941	52852.03
564.304	52930.67
564.666	53160.72
565.028	53164.79
565.39	53192.58
565.753	53404.33
566.115	53513.03
566.477	53643.19
566.839	53607.49
567.201	53930.19
567.563	53945.33
567.925	54144.65
568.287	54168.15
568.648	54207.47
569.01	54432.78
569.372	54597.29
569.734	54447.69
570.095	54689.27
570.457	54877.74
570.819	54879.77
571.18	54869.83
571.542	54977.85
571.903	54970.16
572.265	55154.57
572.626	55277.95
572.987	55279.08
573.349	55375.58
573.71	55483.82
574.071	55563.6
574.432	55622.13
574.794	55851.05
575.155	55733.76
575.516	55704.61
575.877	55870.48
576.238	56030.93
576.599	56029.8
576.96	55936.92
577.32	56010.59
577.681	56090.59
578.042	56177.36
578.403	56131.72
578.763	56199.74
579.124	56225.73
579.485	56324.25
579.845	56312.73
580.206	56321.32
580.566	56314.99
580.927	56356.8
581.287	56502.1
581.648	56457.13
582.008	56558.37
582.368	56474.76
582.728	56556.56
583.089	56428.21
583.449	56484.25
583.809	56458.26
584.169	56567.41
584.529	56451.71
584.889	56690.12
585.249	56438.37
585.609	56430.92
585.969	56572.16
586.329	56554.08
586.688	56552.04
587.048	56511.59
587.408	56440.18
587.768	56531.48
588.127	56523.12
588.487	56552.5
588.846	56745.94
589.206	56507.07
589.565	56533.51
589.925	56675.66
590.284	56543.91
590.643	56621.87
591.003	56746.62
591.362	56667.07
591.721	56566.96
592.08	56571.7
592.44	56668.43
592.799	56742.1
593.158	56662.32
593.517	56585.72
593.876	56694.64
594.235	56640.86
594.593	56675.66
594.952	56803.11
595.311	56584.36
595.67	56618.48
596.029	56782.55
596.387	56736.45
596.746	56802.88
597.104	56671.81
597.463	56705.49
597.822	56822.77
598.18	56713.4
598.538	56682.21
598.897	56869.55
599.255	56647.41
599.613	56961.07
599.972	56777.35
600.33	56853.73
600.688	56795.65
601.046	56792.94
601.404	56905.26
601.762	56891.7
602.12	57010.34
602.478	57066.61
602.836	57081.07
603.194	56913.84
603.552	56957.01
603.91	56896.89
604.268	57010.34
604.625	56943.67
604.983	57118.13
605.341	56957.46
605.698	57104.57
606.056	57142.09
606.413	57084.46
606.771	57157.23
607.128	57174.17
607.485	57109.09
607.843	57121.75
608.2	57165.81
608.557	57227.51
608.914	57144.57
609.272	57309.31
609.629	57286.49
609.986	57440.38
610.343	57336.43
610.7	57490.1
611.057	57395.41
611.414	57353.38
611.771	57413.04
612.127	57480.83
612.484	57454.17
612.841	57574.39
613.198	57546.59
613.554	57531.23
613.911	57677.21
614.267	57638.34
614.624	57570.77
614.98	57649.64
615.337	57717.21
615.693	57665.24
616.05	57711.79
616.406	57788.4
616.762	57707.72
617.118	57715.86
617.475	57729.87
617.831	57742.07
618.187	57753.14
618.543	57771
618.899	57912.91
619.255	57855.96
619.611	57808.06
619.967	57850.77
620.323	57863.42
620.678	57767.61
621.034	57707.72
621.39	57701.39
621.746	57749.75
622.101	58047.82
622.457	57843.31
622.812	57838.56
623.168	57829.75
623.523	57868.85
623.879	57913.36
624.234	57646.25
624.589	57764.89
624.945	57737.32
625.3	57797.66
625.655	57781.16
626.01	57766.48
626.365	57721.5
626.72	57680.38
627.075	57737.1
627.43	57752.24
627.785	57590.66
628.14	57653.03
628.495	57706.82
628.85	57682.41
629.205	57624.11
629.559	57714.5
629.914	57538.68
630.269	57538.91
630.623	57432.92
630.978	57319.93
631.332	57448.74
631.687	57510.21
632.041	57408.29
632.396	57391.57
632.75	57253.95
633.104	57205.36
633.459	57166.94
633.813	57138.24
634.167	57085.36
634.521	57170.11
634.875	57171.46
635.229	57095.53
635.583	56993.16
635.937	56962.2
636.291	56968.3
636.645	56991.13
636.999	56811.25
637.352	56960.39
637.706	56692.83
638.06	56731.02
638.413	56750.23
638.767	56676.56
639.121	56769.89
639.474	56584.36
639.828	56522.67
640.181	56580.97
640.534	56462.33
640.888	56389.56
641.241	56296.46
641.594	56332.16
641.947	56430.92
642.301	56221.43
642.654	56225.73
643.007	56214.43
643.36	56149.34
643.713	56173.07
644.066	56171.94
644.419	56034.09
644.771	55821.89
645.124	55645.4
645.477	55552.97
645.83	55384.62
646.182	55246.09
646.535	55175.58
646.888	55207.67
647.24	55054
647.593	55149.6
647.945	55015.59
648.298	54856.04
648.65	54824.63
649.002	54742.37
649.355	54931.52
649.707	54819.66
650.059	54938.75
650.411	55211.06
650.763	55244.28
651.115	55553.2
651.467	55319.08
651.819	55294.9
652.171	55227.11
652.523	55135.81
652.875	55222.59
653.227	55098.07
653.578	55185.75
653.93	55102.59
654.282	54984.85
654.633	54840
654.985	54877.29
655.337	54880.22
655.688	54824.86
656.039	54958.19
656.391	54717.74
656.742	54832.32
657.094	54784.63
657.445	54930.17
657.796	54775.82
658.147	54718.42
658.498	54646.56
658.849	54777.63
659.2	54731.75
659.551	54597.07
659.902	54626.22
660.253	54604.98
660.604	54549.61
660.955	54394.81
661.306	54378.99
661.656	54353.68
662.007	54324.76
662.358	54354.36
662.708	54398.43
663.059	54336.96
663.409	54120.92
663.76	54382.84
664.11	54296.28
664.461	54313.46
664.811	54207.47
665.161	54196.17
665.511	54031.66
665.862	54139
666.212	54230.75
666.562	54152.79
666.912	54177.87
667.262	54149.4
667.612	54126.12
667.962	54110.98
668.312	54049.74
668.662	54203.41
669.011	54118.44
669.361	53941.04
669.711	53906.01
670.06	53954.6
670.41	53775.39
670.76	53816.52
671.109	53974.48
671.459	53790.53
671.808	53665.11
672.157	53772.23
672.507	53515.51
672.856	53469.19
673.205	53584.44
673.554	53617.43
673.904	53485.01
674.253	53599.13
674.602	53521.39
674.951	53162.08
675.3	52932.48
675.649	53430.54
675.998	53358.46
676.346	53290.89
676.695	53461.96
677.044	53240.94
677.393	53229.42
677.741	53186.71
678.09	53130.21
678.438	53049.99
678.787	53205.47
679.135	53166.82
679.484	52881.41
679.832	52928.64
680.181	52749.66
680.529	52900.16
680.877	52733.84
681.225	52694.97
681.573	52900.39
681.922	52572.49
682.27	52495.65
682.618	52516.9
682.966	52469.21
683.314	52534.3
683.661	52359.61
684.009	52162.78
684.357	52160.75
684.705	52146.96
685.053	52140.63
685.4	51973.41
685.748	51864.94
686.095	51914.65
686.443	51625.17
686.79	51630.82
687.138	51629.91
687.485	51638.73
687.832	51441.9
688.18	51497.71
688.527	51354.67
688.874	51235.8
689.221	51212.52
689.568	51059.08
689.915	51053.66
690.262	51048.01
690.609	50902.93
690.956	50790.84
691.303	50657.74
691.65	50564.18
691.997	50532.32
692.344	50293.23
692.69	50265.88
693.037	50136.85
693.383	49980.24
693.73	50101.82
694.077	49850.75
694.423	49792.67
694.769	49636.75
695.116	49427.49
695.462	49325.34
695.808	49292.57
696.155	49439.46
696.501	49084.44
696.847	49098.91
697.193	48804.23
697.539	48947.05
697.885	48586.83
698.231	48351.58
698.577	48483.56
698.923	48349.32
699.269	48282.43
699.614	48147.52
699.96	47993.17
700.306	47976.68
700.651	47675.67
700.997	47702.56
701.342	47716.34
701.688	47509.8
702.033	47450.59
702.379	47382.79
702.724	47284.94
703.069	47388.22
703.415	46864.62
703.76	46861.9
704.105	46850.38
704.45	46599.31
704.795	46458.3
705.14	46312.09
705.485	46384.4
705.83	46219.66
706.175	46230.51
706.52	45994.13
706.865	45769.28
707.209	45828.71
707.554	45689.73
707.899	45803.85
708.243	45521.6
708.588	45437.53
708.932	45161.84
709.277	45077.77
709.621	45099.24
709.966	44980.6
710.31	44963.2
710.654	44687.27
710.998	44786.03
711.342	44670.1
711.687	44583.32
712.031	44316.21
712.375	44146.27
712.719	44201.41
713.063	44094.07
713.407	44040.96
713.75	43857.24
714.094	43773.62
714.438	43540.86
714.782	43678.48
715.125	43369.11
715.469	43445.95
715.812	43378.15
716.156	42986.07
716.499	42989.46
716.843	43004.15
717.186	42754.44
717.53	43024.49
717.873	42845.74
718.216	42710.15
718.559	42720.09
718.902	42415.01
719.246	42408.01
719.589	42393.77
719.932	41987.68
720.275	42059.54
720.617	41968.92
720.96	41877.85
721.303	41990.62
721.646	41911.3
721.989	41757.4
722.331	41738.87
722.674	41616.62
723.016	41703.85
723.359	41624.08
723.701	41594.7
724.044	41314.25
724.386	40951.55
724.729	41210.07
725.071	40944.77
725.413	40914.04
725.755	40993.81
726.097	40712.91
726.439	40450.55
726.782	40396.99
727.124	40603.76
727.465	40446.7
727.807	40437.89
728.149	40133.72
728.491	40114.28
728.833	40108.63
729.175	40149.31
729.516	40101.86
729.858	40032.93
730.199	40112.02
730.541	39838.36
730.882	39938.92
731.224	39844.23
731.565	39379.84
731.906	39551.59
732.248	39475.2
732.589	39226.85
732.93	39244.25
733.271	39171.71
733.612	39224.82
733.953	39056.46
734.294	38928.55
734.635	38749.57
734.976	38808.33
735.317	38541.22
735.658	38714.55
735.999	38735.11
736.339	38560.65
736.68	38483.37
737.021	38319.76
737.361	38304.39
737.702	38396.14
738.042	38319.08
738.383	38117.5
738.723	38244.73
739.063	38030.5
739.404	38036.15
739.744	37980.78
740.084	37771.52
740.424	37795.7
740.764	37633.22
741.104	37735.36
741.444	37560.45
741.784	37374.02
742.124	37375.6
742.464	37346.45
742.804	37261.48
743.143	37214.7
743.483	37149.84
743.823	36998.43
744.162	36972.9
744.502	36891.77
744.841	36630.53
745.181	36854.71
745.52	36656.97
745.86	36645.22
746.199	36446.58
746.538	36365
746.877	36406.81
747.216	36428.05
747.556	36237.32
747.895	36378.34
748.234	36217.44
748.573	36212.47
748.911	36183.77
749.25	36085.24
749.589	35958.01
749.928	35791.91
750.267	35858.12
750.605	35722.08
750.944	35543.1
751.283	35369.55
751.621	35397.12
751.96	35331.59
752.298	35391.24
752.636	35339.49
