Data from foil_FLMS001491_065.txt Node
Date: Tue Feb 07 11:36:26 GMT 2017
User: dcchb
Spectrometer: FLMS00149
Trigger mode: 0
Integration Time (sec): 2.000000E-2
Scans to average: 10
Electric dark correction enabled: true
Nonlinearity correction enabled: false
Boxcar width: 0
XAxis mode: Wavelengths
Number of Pixels in Spectrum: 2048
>>>>>Begin Spectral Data<<<<<
341.393	-4.53
341.776	-4.53
342.16	-4.53
342.543	-64.65
342.927	-71.42
343.31	-80.01
343.693	-56.74
344.077	-75.94
344.46	-59.9
344.843	-69.62
345.226	-56.74
345.61	-16.06
345.993	-29.39
346.376	2.7
346.759	6.31
347.142	36.6
347.525	59.19
347.908	60.78
348.291	72.53
348.674	82.92
349.057	123.37
349.44	95.12
349.823	137.61
350.206	195.69
350.588	270.71
350.971	267.55
351.354	282.01
351.737	315.68
352.119	331.05
352.502	337.15
352.884	368.11
353.267	347.77
353.65	383.48
354.032	390.94
354.414	385.06
354.797	382.57
355.179	390.71
355.562	418.96
355.944	421.22
356.326	422.35
356.709	414.21
357.091	430.48
357.473	451.73
357.855	437.49
358.238	436.13
358.62	433.42
359.002	447.21
359.384	453.99
359.766	450.6
360.148	423.25
360.53	425.06
360.912	463.7
361.294	453.76
361.676	443.82
362.057	452.63
362.439	463.93
362.821	449.92
363.203	440.2
363.584	457.15
363.966	446.08
364.348	451.73
364.729	464.61
365.111	474.32
365.493	425.96
365.874	453.31
366.256	480.2
366.637	453.53
367.019	456.7
367.4	468.9
367.781	458.05
368.163	478.62
368.544	465.96
368.925	480.88
369.306	487.2
369.688	465.74
370.069	473.87
370.45	492.85
370.831	495.57
371.212	494.66
371.593	487.43
371.974	489.01
372.355	493.31
372.736	504.61
373.117	496.92
373.498	491.95
373.879	526.53
374.26	488.11
374.641	489.01
375.021	493.98
375.402	535.79
375.783	554.1
376.163	545.51
376.544	549.35
376.925	547.99
377.305	564.26
377.686	564.49
378.066	554.32
378.447	543.47
378.827	559.75
379.208	568.56
379.588	568.11
379.968	586.19
380.349	595
380.729	595.22
381.109	601.1
381.489	608.11
381.87	611.04
382.25	606.75
382.63	621.21
383.01	628.44
383.39	657.6
383.77	628.9
384.15	650.36
384.53	685.62
384.91	659.86
385.29	678.61
385.67	699.85
386.049	671.38
386.429	684.71
386.809	708.67
387.189	718.84
387.568	710.25
387.948	732.4
388.328	746.86
388.707	712.06
389.087	775.56
389.466	743.02
389.846	763.81
390.225	773.75
390.605	772.62
390.984	786.41
391.363	792.06
391.743	790.7
392.122	808.1
392.501	813.3
392.881	816.24
393.26	835.9
393.639	830.92
394.018	866.18
394.397	849.91
394.776	876.57
395.155	892.84
395.534	906.18
395.913	909.11
396.292	926.29
396.671	924.71
397.05	931.49
397.429	938.94
397.808	925.39
398.186	928.1
398.565	963.58
398.944	971.03
399.323	1005.16
399.701	1020.75
400.08	1001.99
400.458	1012.84
400.837	1021.88
401.215	1017.13
401.594	1013.97
401.972	1049.9
402.351	1063.69
402.729	1080.18
403.107	1109.56
403.486	1107.3
403.864	1121.09
404.242	1091.93
404.62	1143.46
404.999	1170.12
405.377	1191.14
405.755	1189.56
406.133	1187.53
406.511	1206.06
406.889	1233.63
407.267	1240.18
407.645	1274.3
408.023	1280.63
408.401	1303.68
408.779	1303.45
409.156	1330.8
409.534	1367.86
409.912	1354.3
410.29	1385.26
410.667	1405.15
411.045	1399.95
411.422	1438.59
411.8	1457.35
412.178	1481.75
412.555	1520.4
412.933	1517.23
413.31	1531.92
413.687	1522.88
414.065	1579.15
414.442	1590.68
414.819	1620.28
415.197	1633.16
415.574	1642.2
415.951	1677.68
416.328	1671.35
416.705	1679.26
417.082	1714.07
417.46	1764.01
417.837	1730.56
418.214	1725.82
418.591	1773.27
418.967	1763.78
419.344	1817.34
419.721	1826.83
420.098	1814.85
420.475	1882.42
420.852	1889.2
421.228	1900.73
421.605	1934.4
421.982	1970.33
422.358	1979.14
422.735	2000.84
423.111	2012.81
423.488	2058.46
423.864	2044.68
424.241	2093.04
424.617	2109.53
424.994	2098.91
425.37	2142.98
425.746	2166.71
426.123	2184.11
426.499	2222.75
426.875	2243.32
427.251	2263.66
427.627	2324.67
428.003	2325.57
428.379	2368.74
428.756	2374.16
429.132	2411.67
429.507	2467.72
429.883	2470.88
430.259	2525.8
430.635	2550.65
431.011	2558.11
431.387	2627.71
431.763	2710.2
432.138	2678.33
432.514	2749.52
432.89	2740.7
433.265	2791.32
433.641	2870.64
434.016	2869.74
434.392	2935.28
434.767	2970.98
435.143	2976.86
435.518	3020.02
435.894	2998.55
436.269	3063.86
436.644	3116.51
437.02	3149.96
437.395	3153.58
437.77	3188.6
438.145	3267.24
438.52	3272.89
438.895	3328.03
439.271	3339.56
439.646	3409.39
440.021	3394.25
440.395	3439.9
440.77	3450.97
441.145	3461.82
441.52	3539.78
441.895	3534.36
442.27	3587.01
442.645	3563.51
443.019	3636.5
443.394	3637.86
443.769	3658.87
444.143	3677.63
444.518	3760.11
444.892	3728.93
445.267	3766.21
445.641	3843.73
446.016	3802.6
446.39	3888.47
446.764	3923.05
447.139	3897.06
447.513	3973.21
447.887	3940.22
448.262	3941.8
448.636	3955.59
449.01	4034.68
449.384	4121.23
449.758	4089.37
450.132	4171.4
450.506	4151.29
450.88	4205.75
451.254	4253.43
451.628	4290.27
452.002	4321.68
452.376	4384.05
452.75	4418.63
453.123	4466.76
453.497	4504.27
453.871	4583.37
454.244	4676.47
454.618	4729.13
454.992	4737.26
455.365	4754.21
455.739	4889.57
456.112	4952.17
456.486	5028.1
456.859	5033.07
457.232	5106.74
457.606	5077.37
457.979	5160.53
458.352	5319.85
458.725	5327.98
459.099	5361.88
459.472	5508.77
459.845	5525.04
460.218	5572.49
460.591	5641.42
460.964	5664.92
461.337	5841.64
461.71	5892.26
462.083	5978.81
462.456	5951.47
462.829	6072.82
463.201	6126.6
463.574	6168.86
463.947	6282.31
464.32	6354.85
464.692	6443.21
465.065	6519.81
465.438	6553.03
465.81	6713.03
466.183	6688.62
466.555	6933.81
466.928	6861.95
467.3	6963.19
467.672	7025.79
468.045	7199.8
468.417	7235.5
468.789	7294.03
469.161	7395.72
469.534	7532.67
469.906	7652.21
470.278	7736.05
470.65	7827.12
471.022	8009.49
471.394	8107.8
471.766	8228.47
472.138	8266.66
472.51	8499.2
472.882	8523.15
473.253	8691.51
473.625	8787.33
473.997	9064.15
474.369	9089.24
474.74	9112.74
475.112	9281.32
475.484	9454.88
475.855	9590.02
476.227	9702.1
476.598	10057.35
476.97	10157.68
477.341	10328.53
477.713	10438.81
478.084	10557.22
478.455	10765.8
478.827	10884.9
479.198	11204.89
479.569	11288.05
479.94	11516.52
480.311	11630.87
480.682	11919.67
481.053	12246.44
481.424	12371.64
481.795	12460.45
482.166	12809.14
482.537	12844.85
482.908	13163.03
483.279	13223.37
483.65	13525.51
484.021	13723.47
484.391	13966.17
484.762	14099.5
485.133	14218.82
485.503	14400.51
485.874	14757.56
486.244	14874.17
486.615	15136.99
486.985	15286.82
487.356	15475.74
487.726	15803.19
488.097	16040.92
488.467	16075.72
488.837	16413.79
489.207	16604.3
489.578	16779.21
489.948	17000.89
490.318	17237.95
490.688	17328.34
491.058	17555
491.428	17853.3
491.798	18018.95
492.168	18392.72
492.538	18473.85
492.908	18656.67
493.278	18948.64
493.648	18929.66
494.017	19228.86
494.387	19392.47
494.757	19444.67
495.126	19717.43
495.496	19872.91
495.866	19981.83
496.235	20127.14
496.605	20280.36
496.974	20463.18
497.344	20629.27
497.713	20754.02
498.082	20954.92
498.452	21132.99
498.821	21391.97
499.19	21329.59
499.559	21553.54
499.928	21688
500.298	21880.77
500.667	22039.63
501.036	22045.51
501.405	22354.2
501.774	22477.81
502.143	22641.65
502.512	22771.82
502.88	22946.05
503.249	22902.89
503.618	23256.78
503.987	23275.53
504.356	23383.1
504.724	23534.96
505.093	23614.28
505.462	23727.27
505.83	23916.19
506.199	24114.15
506.567	24390.98
506.936	24411.77
507.304	24666.91
507.672	24819.45
508.041	24973.79
508.409	25189.61
508.777	25321.13
509.145	25515.25
509.514	25621.23
509.882	25727.44
510.25	25852.87
510.618	26171.95
510.986	26261.44
511.354	26537.14
511.722	26795.21
512.09	26960.18
512.458	26959.95
512.826	27264.13
513.193	27328.76
513.561	27473.84
513.929	27773.49
514.297	27951.34
514.664	28087.16
515.032	28273.37
515.4	28601.72
515.767	28591.78
516.135	28781.83
516.502	28797.65
516.869	29220.46
517.237	29402.15
517.604	29415.26
517.972	29742.93
518.339	29948.12
518.706	29986.32
519.073	30218.63
519.44	30400.09
519.808	30779.74
520.175	30798.27
520.542	31235.55
520.909	31396.9
521.276	31452.49
521.643	31693.62
522.009	31973.38
522.376	32168.41
522.743	32333.15
523.11	32682.97
523.477	33033.24
523.843	33188.04
524.21	33632.1
524.577	33792.77
524.943	33957.51
525.31	34100.11
525.676	34317.05
526.043	34580.32
526.409	34810.82
526.776	35159.97
527.142	35374.2
527.508	35579.16
527.874	35812.6
528.241	35949.55
528.607	36152.03
528.973	36449.87
529.339	36551.57
529.705	36746.82
530.071	37062.29
530.437	37273.13
530.803	37476.06
531.169	37710.18
531.535	37767.81
531.901	37948.14
532.267	38045.99
532.632	38236.49
532.998	38455.25
533.364	38685.3
533.73	38791.73
534.095	39151.5
534.461	39261.55
534.826	39492.73
535.192	39725.72
535.557	39859.73
535.923	39890.46
536.288	40133.62
536.653	40378.36
537.019	40246.16
537.384	40464.46
537.749	40685.47
538.114	40719.82
538.479	40834.84
538.845	41003.43
539.21	40998.91
539.575	41278.67
539.94	41361.38
540.305	41537.42
540.67	41592.11
541.034	41799.56
541.399	42033.46
541.764	42002.72
542.129	42218.31
542.494	42316.61
542.858	42503.28
543.223	42607
543.587	42891.29
543.952	42903.26
544.316	43003.37
544.681	43066.2
545.045	43255.8
545.41	43493.98
545.774	43695.79
546.138	43519.29
546.503	43796.57
546.867	43849.91
547.231	44097.58
547.595	44180.97
547.959	44352.72
548.324	44311.36
548.688	44412.6
549.052	44770.11
549.416	44867.73
549.779	44976.2
550.143	45133.49
550.507	45448.06
550.871	45547.94
551.235	45617.77
551.599	45812.34
551.962	46010.98
552.326	46045.78
552.689	46358.09
553.053	46102.73
553.417	46349.28
553.78	46740.9
554.143	46611.64
554.507	47004.17
554.87	47092.98
555.234	47396.48
555.597	47387.89
555.96	47356.71
556.323	47615.91
556.686	47698.84
557.05	48099.74
557.413	48206.18
557.776	48190.81
558.139	48547.86
558.502	48526.62
558.865	48695.65
559.228	48974.29
559.59	49040.05
559.953	49181.74
560.316	49589.64
560.679	49488.63
561.041	49841.39
561.404	49974.49
561.767	50202.51
562.129	50096.3
562.492	50625.55
562.854	50526.57
563.217	50614.02
563.579	50813.11
563.941	50982.37
564.304	51108.92
564.666	51244.29
565.028	51301.24
565.39	51483.83
565.753	51700.55
566.115	51806.76
566.477	52036.13
566.839	52130.59
567.201	52251.49
567.563	52328.55
567.925	52564.71
568.287	52526.74
568.648	52578.26
569.01	52825.04
569.372	53041.98
569.734	52920.85
570.095	53169.21
570.457	53342.99
570.819	53424.12
571.18	53317.23
571.542	53619.37
571.903	53645.81
572.265	53746.82
572.626	53837.21
572.987	53897.1
573.349	53979.81
573.71	54161.95
574.071	54193.14
574.432	54277.43
574.794	54410.08
575.155	54432
575.516	54333.92
575.877	54533.02
576.238	54652.11
576.599	54694.82
576.96	54747.92
577.32	54777.3
577.681	54868.6
578.042	54897.3
578.403	54910.63
578.763	54957.41
579.124	55093
579.485	55095.26
579.845	55189.72
580.206	55174.35
580.566	55225.65
580.927	55205.31
581.287	55319.44
581.648	55235.82
582.008	55362.15
582.368	55254.35
582.728	55347.68
583.089	55288.25
583.449	55296.61
583.809	55351.75
584.169	55375.7
584.529	55327.57
584.889	55641.23
585.249	55404.18
585.609	55332.54
585.969	55541.35
586.329	55472.88
586.688	55551.29
587.048	55485.53
587.408	55436.49
587.768	55475.14
588.127	55461.58
588.487	55409.38
588.846	55554.91
589.206	55349.49
589.565	55392.2
589.925	55569.6
590.284	55500.45
590.643	55596.94
591.003	55655.7
591.362	55740.67
591.721	55601.24
592.08	55572.54
592.44	55704.96
592.799	55627.68
593.158	55632.87
593.517	55555.14
593.876	55639.65
594.235	55557.85
594.593	55584.51
594.952	55598.3
595.311	55544.51
595.67	55590.16
596.029	55811.85
596.387	55696.6
596.746	55772.76
597.104	55700.67
597.463	55682.59
597.822	55814.79
598.18	55796.03
598.538	55650.95
598.897	55898.86
599.255	55681.46
599.613	56142.46
599.972	55906.76
600.33	56036.03
600.688	55952.64
601.046	55973.43
601.404	55992.41
601.762	55955.8
602.12	56079.42
602.478	56050.94
602.836	56026.76
603.194	55940.44
603.552	55967.55
603.91	55979.76
604.268	56140.2
604.625	56030.6
604.983	56147.21
605.341	56010.26
605.698	56175.68
606.056	56216.81
606.413	56172.97
606.771	56252.97
607.128	56342.69
607.485	56183.59
607.843	56255
608.2	56358.96
608.557	56458.61
608.914	56358.05
609.272	56518.5
609.629	56564.37
609.986	56598.5
610.343	56511.72
610.7	56722.56
611.057	56660.42
611.414	56585.39
611.771	56616.35
612.127	56680.08
612.484	56760.75
612.841	56815.44
613.198	56679.4
613.554	56709.46
613.911	56878.94
614.267	56850.02
614.624	56795.33
614.98	56897.7
615.337	57004.36
615.693	56906.74
616.05	56934.08
616.406	57106.05
616.762	56984.25
617.118	57001.88
617.475	56989.22
617.831	57116.68
618.187	57127.98
618.543	57176.34
618.899	57186.73
619.255	57160.06
619.611	57129.78
619.967	57219.95
620.323	57236
620.678	57168.43
621.034	57069.9
621.39	57099.28
621.746	57070.35
622.101	57378.14
622.457	57148.77
622.812	57143.12
623.168	57235.77
623.523	57305.37
623.879	57317.57
624.234	57080.52
624.589	57253.4
624.945	57222.44
625.3	57233.96
625.655	57236.45
626.01	57298.82
626.365	57308.76
626.72	57184.92
627.075	57160.52
627.43	57112.61
627.785	57123.68
628.14	57206.62
628.495	57149.44
628.85	57138.82
629.205	57097.92
629.559	57158.71
629.914	57119.84
630.269	57044.14
630.623	56929.11
630.978	56923.69
631.332	56976.79
631.687	56993.29
632.041	56900.86
632.396	56983.35
632.75	56797.36
633.104	56893.18
633.459	56774.76
633.813	56743.8
634.167	56757.14
634.521	56779.51
634.875	56765.95
635.229	56683.69
635.583	56559.63
635.937	56506.52
636.291	56609.34
636.645	56561.44
636.999	56489.57
637.352	56575.9
637.706	56440.99
638.06	56522.79
638.413	56299.52
638.767	56327.54
639.121	56412.51
639.474	56208.68
639.828	56258.62
640.181	56186.76
640.534	56273.99
640.888	56144.05
641.241	55968.46
641.594	56132.97
641.947	56185.63
642.301	56038.96
642.654	56055.46
643.007	56128.45
643.36	56032.64
643.713	55967.78
644.066	56071.05
644.419	55709.71
644.771	55430.62
645.124	55081.93
645.477	55022.04
645.83	54987.69
646.182	55049.16
646.535	55041.25
646.888	55102.72
647.24	54926.45
647.593	55140.91
647.945	54986.34
648.298	54818.66
648.65	54747.25
649.002	54714.03
649.355	54842.39
649.707	54662.05
650.059	54748.38
650.411	54971.42
650.763	54984.98
651.115	55372.09
651.467	55309.72
651.819	55261.81
652.171	55222.26
652.523	55170.29
652.875	55096.16
653.227	54972.33
653.578	55171.42
653.93	55126.45
654.282	54906.79
654.633	54889.16
654.985	54962.83
655.337	54793.35
655.688	54888.26
656.039	55000.35
656.391	54667.93
656.742	54792.44
657.094	54764.87
657.445	54947.92
657.796	54755.61
658.147	54665.44
658.498	54657.76
658.849	54729.85
659.2	54655.95
659.551	54591.77
659.902	54668.6
660.253	54644.65
660.604	54641.04
660.955	54522.85
661.306	54712.45
661.656	54627.7
662.007	54503.41
662.358	54493.69
662.708	54464.54
663.059	54464.09
663.409	54263.42
663.76	54512.45
664.11	54425.9
664.461	54391.78
664.811	54461.38
665.161	54441.72
665.511	54273.59
665.862	54259.8
666.212	54355.62
666.562	54472.68
666.912	54270.2
667.262	54269.29
667.612	54271.78
667.962	54284.66
668.312	54166.25
668.662	54283.08
669.011	54211.44
669.361	54203.08
669.711	54111.11
670.06	54042.41
670.41	54004.89
670.76	53960.6
671.109	53996.98
671.459	53981.39
671.808	53956.31
672.157	54035.63
672.507	53907.27
672.856	53796.09
673.205	53792.7
673.554	53900.94
673.904	53787.27
674.253	54000.15
674.602	53831.34
674.951	53419.15
675.3	53283.33
675.649	53698.01
675.998	53618.01
676.346	53638.8
676.695	53754.05
677.044	53495.3
677.393	53592.93
677.741	53692.13
678.09	53471.8
678.438	53455.76
678.787	53587.96
679.135	53503.66
679.484	53313.16
679.832	53434.74
680.181	53291.69
680.529	53349.32
680.877	53211.47
681.225	53215.31
681.573	53366.94
681.922	53128.98
682.27	53013.73
682.618	53075.88
682.966	53014.19
683.314	53003.34
683.661	52910.69
684.009	52708.43
684.357	52642.67
684.705	52588.66
685.053	52689.45
685.4	52593.86
685.748	52414.88
686.095	52455.33
686.443	52412.85
686.79	52268.22
687.138	52344.15
687.485	52238.61
687.832	52124.72
688.18	52227.77
688.527	51911.84
688.874	51964.27
689.221	51822.35
689.568	51783.26
689.915	51767.66
690.262	51595.47
690.609	51495.58
690.956	51503.72
691.303	51450.61
691.65	51151.41
691.997	51224.4
692.344	51168.13
692.69	51047.23
693.037	50983.96
693.383	50723.85
693.73	50768.82
694.077	50651.99
694.423	50521.82
694.769	50470.98
695.116	50451.31
695.462	50408.38
695.808	50201.83
696.155	50304.2
696.501	50046.13
696.847	50064.21
697.193	49779.24
697.539	49910.54
697.885	49657.44
698.231	49618.79
698.577	49452.24
698.923	49349.42
699.269	49257.22
699.614	49045.02
699.96	49126.83
700.306	48940.85
700.651	48848.42
700.997	48706.95
701.342	48634.19
701.688	48594.19
702.033	48290.69
702.379	48430.35
702.724	48212.96
703.069	48379.28
703.415	47887.77
703.76	47910.36
704.105	47725.96
704.45	47703.36
704.795	47424.95
705.14	47472.64
705.485	47402.58
705.83	47295.47
706.175	47297.73
706.52	47121.23
706.865	46934.8
707.209	46906.32
707.554	46702.26
707.899	46825.87
708.243	46646.89
708.588	46660.45
708.932	46346.56
709.277	46165.33
709.621	46285.32
709.966	46056.63
710.31	46166.23
710.654	45860.02
710.998	45843.07
711.342	45855.28
711.687	45740.48
712.031	45580.71
712.375	45314.95
712.719	45574.61
713.063	45399.24
713.407	45470.2
713.75	45144.11
714.094	45102.75
714.438	44850.33
714.782	44992.7
715.125	44867.51
715.469	44812.37
715.812	44477.91
716.156	44374.64
716.499	44512.49
716.843	44507.97
717.186	44034.08
717.53	44437.01
717.873	44239.27
718.216	44141.65
718.559	43825.5
718.902	43640.42
719.246	43814.2
719.589	43620.76
719.932	43467.54
720.275	43569.46
720.617	43516.81
720.96	43325.63
721.303	43372.63
721.646	43462.35
721.989	43143.03
722.331	43070.04
722.674	42898.52
723.016	42952.53
723.359	42788.92
723.701	42952.75
724.044	42783.27
724.386	42532.88
724.729	42604.29
725.071	42514.12
725.413	42569.94
725.755	42440.9
726.097	42219.89
726.439	42008.82
726.782	42035.26
727.124	42247.91
727.465	42011.76
727.807	41958.43
728.149	42011.08
728.491	41802.28
728.833	41716.18
729.175	41573.36
729.516	41478.22
729.858	41437.31
730.199	41542.62
730.541	41319.8
730.882	41278.9
731.224	41464.66
731.565	41065.35
731.906	41139.92
732.248	41126.59
732.589	40776.09
732.93	40818.35
733.271	40685.24
733.612	40996.87
733.953	40754.39
734.294	40607.51
734.635	40534.51
734.976	40643.21
735.317	40282.32
735.658	40337
735.999	40361.18
736.339	40102.89
736.68	40259.94
737.021	40078.03
737.361	39944.25
737.702	39991.25
738.042	39912.83
738.383	39774.99
738.723	39839.62
739.063	39660.41
739.404	39807.07
739.744	39738.15
740.084	39469.68
740.424	39609.57
740.764	39446.41
741.104	39527.76
741.444	39282.34
741.784	39200.76
742.124	39240.99
742.464	39108.11
742.804	39092.97
743.143	38966.64
743.483	38973.88
743.823	38851.85
744.162	38763.94
744.502	38618.86
744.841	38615.02
745.181	38632.87
745.52	38361.69
745.86	38488.24
746.199	38318.75
746.538	38252.31
746.877	38223.61
747.216	38345.87
747.556	37956.95
747.895	38149.49
748.234	37886.22
748.573	37900.68
748.911	37818.65
749.25	37785.88
749.589	37586.12
749.928	37474.03
750.267	37559
750.605	37513.58
750.944	37291.66
751.283	37235.84
751.621	37414.37
751.96	37162.62
752.298	37122.17
752.636	37057.54
