Data from foil_FLMS001491_036.txt Node
Date: Tue Feb 07 11:26:15 GMT 2017
User: dcchb
Spectrometer: FLMS00149
Trigger mode: 0
Integration Time (sec): 2.000000E-2
Scans to average: 10
Electric dark correction enabled: true
Nonlinearity correction enabled: false
Boxcar width: 0
XAxis mode: Wavelengths
Number of Pixels in Spectrum: 2048
>>>>>Begin Spectral Data<<<<<
341.393	-16.24
341.776	-16.24
342.16	-16.24
342.543	-62.79
342.927	-61.67
343.31	-65.96
343.693	-58.5
344.077	-75.9
344.46	-66.41
344.843	-48.11
345.226	-36.81
345.61	-32.06
345.993	-29.12
346.376	-8.33
346.759	26.02
347.142	10.42
347.525	40.48
347.908	63.3
348.291	57.2
348.674	99.69
349.057	124.09
349.44	117.09
349.823	165.22
350.206	172.91
350.588	270.76
350.971	272.79
351.354	283.41
351.737	325.9
352.119	324.09
352.502	354.37
352.884	355.95
353.267	371.77
353.65	381.04
354.032	379
354.414	372.22
354.797	406.12
355.179	413.12
355.562	419.45
355.944	443.18
356.326	429.4
356.709	439.79
357.091	430.98
357.473	458.32
357.855	441.6
358.238	460.36
358.62	453.12
359.002	452.22
359.384	462.16
359.766	426.23
360.148	460.36
360.53	448.38
360.912	468.94
361.294	455.61
361.676	470.98
362.057	448.15
362.439	441.82
362.821	436.4
363.203	465.55
363.584	470.07
363.966	461.03
364.348	459.9
364.729	489.28
365.111	460.36
365.493	464.87
365.874	454.03
366.256	454.48
366.637	468.94
367.019	471.88
367.4	475.04
367.781	480.69
368.163	488.15
368.544	467.13
368.925	492.67
369.306	495.83
369.688	501.71
370.069	484.31
370.45	499.22
370.831	482.73
371.212	516.17
371.593	489.51
371.974	504.42
372.355	499
372.736	523.4
373.117	525.21
373.498	509.39
373.879	502.84
374.26	527.25
374.641	512.33
375.021	535.83
375.402	532.9
375.783	568.6
376.163	584.19
376.544	586.45
376.925	560.47
377.305	550.97
377.686	589.17
378.066	597.53
378.447	574.93
378.827	580.35
379.208	579.22
379.588	613.8
379.968	598.88
380.349	609.96
380.729	619
381.109	646.11
381.489	637.07
381.87	636.62
382.25	655.38
382.63	647.69
383.01	654.47
383.39	667.36
383.77	692.89
384.15	667.13
384.53	665.1
384.91	689.28
385.29	711.2
385.67	697.41
386.049	709.84
386.429	727.01
386.809	750.07
387.189	738.54
387.568	753.45
387.948	734.7
388.328	780.35
388.707	788.48
389.087	808.59
389.466	782.38
389.846	810.18
390.225	822.83
390.605	812.66
390.984	830.29
391.363	834.36
391.743	848.82
392.122	886.11
392.501	865.32
392.881	900.12
393.26	903.73
393.639	922.49
394.018	954.13
394.397	928.37
394.776	943.96
395.155	941.92
395.534	965.43
395.913	965.88
396.292	973.79
396.671	998.87
397.05	1015.14
397.429	1006.56
397.808	1001.58
398.186	997.29
398.565	1064.86
398.944	1064.63
399.323	1043.62
399.701	1088.36
400.08	1070.96
400.458	1069.38
400.837	1118.19
401.215	1117.74
401.594	1152.77
401.972	1132.65
402.351	1140.34
402.729	1170.62
403.107	1164.29
403.486	1201.13
403.864	1200.22
404.242	1204.97
404.62	1230.73
404.999	1250.84
405.377	1256.72
405.755	1247.45
406.133	1300.56
406.511	1287.23
406.889	1340.78
407.267	1330.61
407.645	1355.47
408.023	1378.3
408.401	1407.67
408.779	1448.35
409.156	1425.75
409.534	1456.26
409.912	1463.94
410.29	1506.66
410.667	1532.42
411.045	1549.37
411.422	1560.44
411.8	1560.21
412.178	1593.66
412.555	1619.19
412.933	1641.57
413.31	1646.76
413.687	1698.97
414.065	1735.35
414.442	1748.46
414.819	1734.67
415.197	1766.76
415.574	1800.66
415.951	1849.7
416.328	1834.33
416.705	1844.5
417.082	1856.7
417.46	1901.22
417.837	1911.84
418.214	1936.7
418.591	1954.1
418.967	1967.89
419.344	1992.97
419.721	2017.38
420.098	2023.03
420.475	2067.09
420.852	2063.93
421.228	2086.53
421.605	2121.55
421.982	2157.26
422.358	2190.71
422.735	2199.97
423.111	2218.05
423.488	2263.92
423.864	2238.16
424.241	2288.78
424.617	2322.23
424.994	2300.31
425.37	2356.58
425.746	2364.94
426.123	2427.31
426.499	2423.69
426.875	2411.04
427.251	2500.53
427.627	2580.75
428.003	2569.68
428.379	2622.56
428.756	2660.98
429.132	2655.1
429.507	2700.52
429.883	2731.71
430.259	2812.16
430.635	2801.31
431.011	2860.97
431.387	2889.44
431.763	2966.5
432.138	2938.26
432.514	3003.34
432.89	3008.08
433.265	3108.65
433.641	3132.38
434.016	3158.36
434.392	3209.21
434.767	3269.55
435.143	3247.63
435.518	3322.65
435.894	3387.51
436.269	3380.96
436.644	3429.32
437.02	3467.51
437.395	3509.77
437.77	3518.13
438.145	3584.57
438.52	3627.05
438.895	3655.3
439.271	3678.35
439.646	3720.83
440.021	3737.78
440.395	3797.67
440.77	3775.52
441.145	3791.79
441.52	3934.16
441.895	3895.07
442.27	3908.63
442.645	3966.03
443.019	3989.98
443.394	4025.69
443.769	4058
444.143	3991.56
444.518	4067.49
444.892	4138.9
445.267	4167.38
445.641	4143.42
446.016	4177.09
446.39	4198.56
446.764	4316.3
447.139	4239.01
447.513	4301.38
447.887	4300.48
448.262	4319.01
448.636	4363.53
449.01	4453.02
449.384	4461.38
449.758	4528.95
450.132	4571.21
450.506	4610.53
450.88	4647.59
451.254	4654.6
451.628	4704.76
452.002	4808.49
452.376	4828.83
452.75	4846
453.123	4923.06
453.497	4997.18
453.871	5011.65
454.244	5127.13
454.618	5108.37
454.992	5214.81
455.365	5263.39
455.739	5370.73
456.112	5428.36
456.486	5522.37
456.859	5557.85
457.232	5658.64
457.606	5624.06
457.979	5724.85
458.352	5786.54
458.725	5894.34
459.099	5915.8
459.472	6022.02
459.845	6059.08
460.218	6134.78
460.591	6219.07
460.964	6239.41
461.337	6350.6
461.71	6467.65
462.083	6604.15
462.456	6578.39
462.829	6610.25
463.201	6770.02
463.574	6780.41
463.947	6904.25
464.32	7008.66
464.692	7139.5
465.065	7104.7
465.438	7270.8
465.81	7379.95
466.183	7456.1
466.555	7638.47
466.928	7645.7
467.3	7630.56
467.672	7767.28
468.045	7976.32
468.417	7980.84
468.789	8088.63
469.161	8199.36
469.534	8347.83
469.906	8514.38
470.278	8531.56
470.65	8719.12
471.022	8833.69
471.394	8976.74
471.766	9098.32
472.138	9128.38
472.51	9359.1
472.882	9488.14
473.253	9625.09
473.625	9703.95
473.997	9986.43
474.369	10024.62
474.74	10106.43
475.112	10338.51
475.484	10516.59
475.855	10705.06
476.227	10745.51
476.598	11108.21
476.97	11159.73
477.341	11444.7
477.713	11577.8
478.084	11637.91
478.455	11999.49
478.827	12091.01
479.198	12439.48
479.569	12449.64
479.94	12807.15
480.311	12956.3
480.682	13341.82
481.053	13535.94
481.424	13763.06
481.795	13853.9
482.166	14095.93
482.537	14155.36
482.908	14513.09
483.279	14633.54
483.65	14969.13
484.021	15291.83
484.391	15457.25
484.762	15579.51
485.133	15684.81
485.503	15893.62
485.874	16322.99
486.244	16493.83
486.615	16780.6
486.985	17005.23
487.356	17383.98
487.726	17467.82
488.097	17743.29
488.467	17816.51
488.837	18241.58
489.207	18445.19
489.578	18683.15
489.948	18871.17
490.318	19203.82
490.688	19187.09
491.058	19501.89
491.428	19723.35
491.798	19928.54
492.168	20379.83
492.538	20475.87
492.908	20610.11
493.278	20990.21
493.648	21032.7
494.017	21318.11
494.387	21484.44
494.757	21584.55
495.126	21890.53
495.496	21961.03
495.866	22103.85
496.235	22434.47
496.605	22583.16
496.974	22614.8
497.344	22906.32
497.713	22963.04
498.082	23251.62
498.452	23473.76
498.821	23567.09
499.19	23714.21
499.559	23918.04
499.928	24129.56
500.298	24132.73
500.667	24441.65
501.036	24443
501.405	24730.23
501.774	24779.26
502.143	24999.6
502.512	25253.6
502.88	25442.75
503.249	25450.66
503.618	25689.75
503.987	25797.09
504.356	25985.33
504.724	26110.08
505.093	26320.69
505.462	26395.94
505.83	26630.74
506.199	26853.79
506.567	27126.55
506.936	27112.54
507.304	27407.67
507.672	27611.28
508.041	27721.33
508.409	28046.07
508.777	28147.54
509.145	28353.18
509.514	28284.26
509.882	28666.62
510.25	28759.5
510.618	29138.92
510.986	29134.86
511.354	29519.93
511.722	29635.63
512.09	29921.73
512.458	29913.59
512.826	30172.57
513.193	30392.9
513.561	30597.64
513.929	30920.12
514.297	31214.57
514.664	31278.3
515.032	31350.84
515.4	31600.1
515.767	31676.03
516.135	32102.01
516.502	32022.69
516.869	32524.37
517.237	32775.44
517.604	32728.89
517.972	33178.36
518.339	33375.65
518.706	33487.74
519.073	33607.96
519.44	33957.55
519.808	34286.36
520.175	34347.37
520.542	34732
520.909	34891.09
521.276	35077.98
521.643	35456.72
522.009	35640.45
522.376	35901.23
522.743	36106.42
523.11	36424.16
523.477	36863.01
523.843	37084.48
524.21	37474.52
524.577	37594.29
524.943	37927.39
525.31	38082.87
525.676	38477.66
526.043	38775.73
526.409	38971.88
526.776	39367.81
527.142	39390.18
527.508	39510.85
527.874	39923.72
528.241	40114.45
528.607	40367.78
528.973	40746.75
529.339	40797.6
529.705	41245.05
530.071	41454.08
530.437	41555.09
530.803	41851.58
531.169	42049.77
531.535	42058.36
531.901	42298.35
532.267	42572.69
532.632	42880.93
532.998	42982.17
533.364	43397.53
533.73	43301.04
534.095	43884.75
534.461	43961.13
534.826	44044.07
535.192	44230.28
535.557	44576.48
535.923	44579.87
536.288	44775.35
536.653	44959.07
537.019	44991.61
537.384	45224.6
537.749	45436.8
538.114	45537.59
538.479	45690.35
538.845	45935.77
539.21	45739.16
539.575	46078.36
539.94	46181.86
540.305	46562.65
540.67	46608.29
541.034	46763.32
541.399	46937.33
541.764	47049.19
542.129	47158.79
542.494	47299.8
542.858	47349.52
543.223	47566.24
543.587	47780.92
543.952	47726.68
544.316	47912.21
544.681	47875.83
545.045	48205.09
545.41	48491.18
545.774	48527.34
546.138	48605.53
546.503	48783.38
546.867	48749.71
547.231	49097.72
547.595	49285.06
547.959	49456.81
548.324	49349.92
548.688	49420.2
549.052	49775.44
549.416	49764.37
549.779	49745.16
550.143	49982.67
550.507	50324.35
550.871	50415.43
551.235	50443.9
551.599	50747.62
551.962	50718.24
552.326	50885.92
552.689	51092.7
553.053	51041.4
553.417	51129.31
553.78	51688.16
554.143	51570.42
554.507	51586.02
554.87	51708.27
555.234	52008.38
555.597	51809.97
555.96	52008.6
556.323	52209.05
556.686	52214.47
557.05	52584.18
557.413	52742.82
557.776	52827.79
558.139	53077.5
558.502	53119.31
558.865	53216.48
559.228	53501.9
559.59	53575.12
559.953	53643.59
560.316	53959.51
560.679	53981.89
561.041	54166.97
561.404	54338.94
561.767	54420.29
562.129	54474.98
562.492	54695.99
562.854	54723.56
563.217	54853.05
563.579	54929.66
563.941	55126.71
564.304	55234.06
564.666	55390.89
565.028	55500.94
565.39	55570.32
565.753	55811.22
566.115	55929.41
566.477	55954.04
566.839	56081.49
567.201	56270.87
567.563	56298.21
567.925	56458.88
568.287	56475.38
568.648	56522.16
569.01	56718.31
569.372	56860.45
569.734	56843.51
570.095	57017.74
570.457	57153.1
570.819	57202.82
571.18	57193.55
571.542	57351.51
571.903	57342.02
572.265	57526.43
572.626	57602.13
572.987	57617.27
573.349	57786.31
573.71	57848.22
574.071	57920.54
574.432	57981.1
574.794	58168.67
575.155	58082.12
575.516	58041.44
575.877	58216.58
576.238	58246.63
576.599	58345.61
576.96	58358.04
577.32	58400.07
577.681	58546.96
578.042	58642.1
578.403	58571.6
578.763	58571.82
579.124	58636
579.485	58716.9
579.845	58824.02
580.206	58790.8
580.566	58841.42
580.927	58854.75
581.287	58865.15
581.648	58858.59
582.008	58949.66
582.368	58932.49
582.728	58970
583.089	58981.98
583.449	58998.25
583.809	58960.06
584.169	59029.21
584.529	59025.59
584.889	59200.96
585.249	59000.51
585.609	58977.91
585.969	59034.86
586.329	59034.41
586.688	59135.87
587.048	59031.7
587.408	58984.69
587.768	58970
588.127	59052.49
588.487	59051.13
588.846	59192.82
589.206	59019.04
589.565	59039.15
589.925	59192.37
590.284	59104.24
590.643	59156.44
591.003	59218.36
591.362	59241.41
591.721	59212.26
592.08	59210.67
592.44	59264.91
592.799	59292.25
593.158	59188.53
593.517	59177.23
593.876	59213.84
594.235	59143.11
594.593	59194.86
594.952	59301.29
595.311	59192.82
595.67	59250.22
596.029	59376.32
596.387	59348.75
596.746	59396.21
597.104	59295.87
597.463	59319.15
597.822	59464.91
598.18	59347.62
598.538	59363.44
598.897	59556.88
599.255	59305.59
599.613	59689.31
599.972	59544.45
600.33	59605.01
600.688	59469.43
601.046	59490.67
601.404	59623.09
601.762	59546.49
602.12	59669.87
602.478	59659.7
602.836	59684.33
603.194	59498.8
603.552	59621.06
603.91	59586.48
604.268	59630.78
604.625	59610.44
604.983	59692.24
605.341	59564.56
605.698	59751
606.056	59764.33
606.413	59798
606.771	59877.32
607.128	59835.07
607.485	59864.44
607.843	59852.92
608.2	59958.68
608.557	60020.15
608.914	59973.37
609.272	60096.3
609.629	60112.8
609.986	60191.44
610.343	60050.65
610.7	60307.82
611.057	60220.82
611.414	60203.19
611.771	60186.92
612.127	60298.78
612.484	60289.52
612.841	60332.23
613.198	60315.73
613.554	60278.44
613.911	60438.21
614.267	60392.56
614.624	60426.91
614.98	60496.97
615.337	60560.47
615.693	60581.71
616.05	60456.74
616.406	60606.34
616.762	60576.06
617.118	60510.53
617.475	60564.54
617.831	60678.66
618.187	60575.38
618.543	60515.05
618.899	60718.21
619.255	60694.93
619.611	60677.3
619.967	60789.84
620.323	60837.98
620.678	60738.32
621.034	60633.01
621.39	60655.16
621.746	60593.69
622.101	60883.63
622.457	60741.03
622.812	60774.25
623.168	60823.29
623.523	60813.34
623.879	60875.04
624.234	60730.18
624.589	60807.92
624.945	60807.69
625.3	60838.2
625.655	60846.56
626.01	60830.52
626.365	60824.19
626.72	60778.54
627.075	60763.18
627.43	60738.54
627.785	60655.16
628.14	60728.83
628.495	60721.82
628.85	60724.08
629.205	60581.03
629.559	60699.68
629.914	60601.37
630.269	60650.86
630.623	60660.58
630.978	60551.2
631.332	60634.59
631.687	60714.14
632.041	60587.59
632.396	60547.36
632.75	60547.36
633.104	60578.55
633.459	60405.22
633.813	60409.74
634.167	60403.19
634.521	60370.42
634.875	60381.94
635.229	60326.13
635.583	60226.02
635.937	60204.77
636.291	60157.32
636.645	60139.46
636.999	60122.06
637.352	60145.57
637.706	59958.23
638.06	60099.69
638.413	60049.97
638.767	59979.69
639.121	60052.01
639.474	59906.7
639.828	59973.14
640.181	59980.15
640.534	60037.55
640.888	59966.59
641.241	59741.28
641.594	59832.58
641.947	59900.15
642.301	59758.23
642.654	59785.57
643.007	59750.32
643.36	59758.01
643.713	59831.9
644.066	59799.13
644.419	59560.04
644.771	59352.37
645.124	58958.7
645.477	58861.53
645.83	58774.53
646.182	58818.82
646.535	58695.89
646.888	58821.53
647.24	58834.87
647.593	58965.26
647.945	58965.03
648.298	58783.12
648.65	58686.39
649.002	58596.45
649.355	58598.71
649.707	58536.57
650.059	58557.13
650.411	58848.88
650.763	58852.72
651.115	59135.65
651.467	59120.28
651.819	59121.41
652.171	58970.46
652.523	58988.53
652.875	58951.7
653.227	58829.22
653.578	58975.2
653.93	58864.47
654.282	58802.55
654.633	58684.81
654.985	58787.64
655.337	58838.48
655.688	58800.29
656.039	58833.74
656.391	58624.7
656.742	58652.5
657.094	58687.98
657.445	58699.5
657.796	58635.1
658.147	58618.15
658.498	58609.56
658.849	58635.1
659.2	58620.86
659.551	58539.05
659.902	58608.66
660.253	58538.6
660.604	58624.93
660.955	58395.78
661.306	58556.68
661.656	58464.25
662.007	58471.94
662.358	58406.18
662.708	58374.31
663.059	58380.41
663.409	58253.41
663.76	58495.44
664.11	58479.17
664.461	58461.99
664.811	58360.98
665.161	58389
665.511	58229.91
665.862	58314.43
666.212	58313.75
666.562	58302.9
666.912	58207.09
667.262	58238.72
667.612	58211.38
667.962	58233.3
668.312	58166.86
668.662	58308.33
669.011	58195.33
669.361	58234.88
669.711	58181.1
670.06	58110.36
670.41	58135.67
670.76	58087.54
671.109	58185.39
671.459	58092.74
671.808	58023.81
672.157	58050.93
672.507	57906.3
672.856	57922.12
673.205	57942.46
673.554	58052.97
673.904	57973.65
674.253	58119.18
674.602	58049.12
674.951	57608.68
675.3	57491.85
675.649	57906.98
675.998	57790.83
676.346	57812.29
676.695	57889.35
677.044	57705.63
677.393	57856.13
677.741	57764.61
678.09	57683.94
678.438	57544.96
678.787	57662.01
679.135	57709.02
679.484	57439.65
679.832	57632.86
680.181	57312.42
680.529	57403.04
680.877	57389.48
681.225	57274
681.573	57453.66
681.922	57334.34
682.27	57198.98
682.618	57156.04
682.966	57050.05
683.314	57095.93
683.661	57087.11
684.009	56878.76
684.357	56970.96
684.705	56868.14
685.053	56889.15
685.4	56802.83
685.748	56757.18
686.095	56715.37
686.443	56626.56
686.79	56608.71
687.138	56636.51
687.485	56633.57
687.832	56419.34
688.18	56554.7
688.527	56342.5
688.874	56367.59
689.221	56326
689.568	56184.99
689.915	56159.23
690.262	56140.47
690.609	56060.7
690.956	56037.65
691.303	56025.67
691.65	55842.85
691.997	55813.7
692.344	55576.87
692.69	55645.34
693.037	55630.88
693.383	55404.22
693.73	55293.49
694.077	55163.1
694.423	55289.87
694.769	55109.09
695.116	55134.4
695.462	55032.93
695.808	54881.07
696.155	54907.29
696.501	54723.56
696.847	54792.03
697.193	54435.21
697.539	54619.38
697.885	54336.23
698.231	54298.49
698.577	54378.49
698.923	54308.88
699.269	54131.26
699.614	53968.78
699.96	54016.01
700.306	53983.02
700.651	53690.37
700.997	53694.66
701.342	53750.93
701.688	53693.76
702.033	53624.61
702.379	53550.48
702.724	53434.1
703.069	53516.81
703.415	53100.1
703.76	53198.18
704.105	53085.64
704.45	53097.62
704.795	52967.68
705.14	52783.73
705.485	52759.32
705.83	52677.97
706.175	52684.97
706.52	52517.97
706.865	52278.65
707.209	52285.66
707.554	52261.48
707.899	52364.53
708.243	52131.31
708.588	52049.51
708.932	51839.12
709.277	51896.97
709.621	51892.68
709.966	51581.5
710.31	51665.56
710.654	51371.78
710.998	51621.72
711.342	51549.63
711.687	51367.94
712.031	51140.83
712.375	51080.49
712.719	51097.22
713.063	50910.33
713.407	51001.4
713.75	50902.64
714.094	50823.32
714.438	50751.24
714.782	50778.35
715.125	50503.56
715.469	50553.95
715.812	50411.36
716.156	50207.3
716.499	50405.48
716.843	50338.14
717.186	49890.92
717.53	50277.8
717.873	50269.21
718.216	50133.85
718.559	49874.2
718.902	49659.74
719.246	49700.42
719.589	49563.24
719.932	49511.27
720.275	49543.81
720.617	49448.45
720.96	49356.24
721.303	49412.06
721.646	49375.45
721.989	49209.58
722.331	49242.35
722.674	49011.17
723.016	48999.42
723.359	48892.08
723.701	48864.73
724.044	48711.52
724.386	48565.3
724.729	48885.3
725.071	48580.9
725.413	48508.58
725.755	48311.98
726.097	48329.38
726.439	48188.14
726.782	48163.51
727.124	48248.03
727.465	48001.03
727.807	47877.64
728.149	47850.3
728.491	47677.64
728.833	47755.16
729.175	47522.39
729.516	47678.77
729.858	47405.34
730.199	47404.66
730.541	47266.36
730.882	47201.27
731.224	47277.2
731.565	47120.82
731.906	47301.16
732.248	47194.27
732.589	46949.53
732.93	46818.23
733.271	47016.65
733.612	46900.49
733.953	46951.34
734.294	46742.75
734.635	46508.86
734.976	46761.96
735.317	46594.96
735.658	46569.88
735.999	46550.22
736.339	46379.15
736.68	46484.23
737.021	46118.59
737.361	46025.71
737.702	46147.06
738.042	46019.61
738.383	45910.23
738.723	45933.06
739.063	45581.43
739.404	45888.31
739.744	45666.62
740.084	45534.88
740.424	45610.13
740.764	45380.3
741.104	45676.57
741.444	45432.05
741.784	45116.36
742.124	45348.89
742.464	45174.66
742.804	45003.82
743.143	45046.3
743.483	44962.46
743.823	44866.19
744.162	44711.62
744.502	44951.39
744.841	44639.53
745.181	44710.94
745.52	44447
745.86	44586.43
746.199	44317.51
746.538	44224.4
746.877	44412.87
747.216	44263.72
747.556	44121.13
747.895	44081.13
748.234	43972.21
748.573	43889.04
748.911	43773.11
749.25	43882.94
749.589	43752.78
749.928	43715.04
750.267	43763.17
750.605	43539.67
750.944	43404.99
751.283	43251.32
751.621	43357.08
751.96	43174.94
752.298	43152.34
752.636	43003.19
