Data from foil_FLMS001491_001.txt Node
Date: Tue Feb 07 11:25:16 GMT 2017
User: dcchb
Spectrometer: FLMS00149
Trigger mode: 0
Integration Time (sec): 2.000000E-2
Scans to average: 10
Electric dark correction enabled: true
Nonlinearity correction enabled: false
Boxcar width: 0
XAxis mode: Wavelengths
Number of Pixels in Spectrum: 2048
>>>>>Begin Spectral Data<<<<<
341.393	3.56
341.776	3.56
342.16	3.56
342.543	-57.23
342.927	-64.01
343.31	-81.64
343.693	-66.5
344.077	-87.29
344.46	-48.42
344.843	-69.89
345.226	-29.89
345.61	-13.39
345.993	-25.82
346.376	-4.8
346.759	9.43
347.142	29.77
347.525	43.33
347.908	56.21
348.291	62.77
348.674	126.27
349.057	99.83
349.44	129.21
349.823	124.23
350.206	171.24
350.588	290.56
350.971	290.33
351.354	304.57
351.737	300.5
352.119	349.09
352.502	350.89
352.884	365.36
353.267	370.33
353.65	397.22
354.032	401.06
354.414	400.61
354.797	427.28
355.179	434.51
355.562	412.59
355.944	435.86
356.326	457.11
356.709	446.49
357.091	437.22
357.473	466.15
357.855	442.87
358.238	467.95
358.62	458.69
359.002	461.85
359.384	475.64
359.766	460.5
360.148	470.89
360.53	491.23
360.912	453.04
361.294	466.6
361.676	469.54
362.057	461.17
362.439	460.95
362.821	475.41
363.203	453.94
363.584	487.61
363.966	457.56
364.348	492.13
364.729	479.48
365.111	477.22
365.493	474.06
365.874	463.21
366.256	497.11
366.637	473.6
367.019	498.69
367.4	475.86
367.781	476.77
368.163	486.71
368.544	479.03
368.925	494.62
369.306	527.16
369.688	490.55
370.069	508.4
370.45	499.82
370.831	516.77
371.212	497.11
371.593	528.74
371.974	515.18
372.355	522.19
372.736	551.12
373.117	569.42
373.498	538.91
373.879	549.99
374.26	540.04
374.641	533.26
375.021	550.44
375.402	551.12
375.783	562.64
376.163	628.63
376.544	612.13
376.925	592.02
377.305	593.15
377.686	630.21
378.066	618.01
378.447	602.19
378.827	635.18
379.208	623.2
379.588	637.21
379.968	654.84
380.349	629.31
380.729	658.23
381.109	671.79
381.489	681.96
381.87	680.15
382.25	662.3
382.63	675.18
383.01	692.58
383.39	684.22
383.77	705.69
384.15	720.38
384.53	715.4
384.91	721.73
385.29	728.96
385.67	769.41
386.049	762.41
386.429	764.9
386.809	790.88
387.189	766.03
387.568	793.37
387.948	796.98
388.328	834.05
388.707	834.5
389.087	836.76
389.466	838.57
389.846	889.64
390.225	868.85
390.605	868.17
390.984	904.33
391.363	890.54
391.743	918.11
392.122	908.62
392.501	957.88
392.881	930.54
393.26	956.08
393.639	977.09
394.018	987.26
394.397	963.53
394.776	1008.5
395.155	1019.35
395.534	1012.8
395.913	1020.93
396.292	1032.46
396.671	1048.28
397.05	1073.36
397.429	1072.46
397.808	1077.88
398.186	1087.82
398.565	1106.36
398.944	1112.46
399.323	1109.29
399.701	1110.87
400.08	1149.07
400.458	1172.57
400.837	1177.77
401.215	1178.9
401.594	1177.77
401.972	1221.38
402.351	1221.38
402.729	1244.88
403.107	1244.88
403.486	1270.42
403.864	1292.11
404.242	1290.98
404.62	1326.01
404.999	1301.83
405.377	1334.6
405.755	1383.64
406.133	1384.09
406.511	1389.29
406.889	1438.1
407.267	1451.88
407.645	1462.28
408.023	1473.35
408.401	1482.84
408.779	1519.45
409.156	1537.53
409.534	1560.13
409.912	1583.4
410.29	1588.38
410.667	1625.66
411.045	1664.76
411.422	1657.75
411.8	1684.19
412.178	1707.7
412.555	1744.53
412.933	1755.83
413.31	1801.25
413.687	1824.3
414.065	1843.28
414.442	1860.69
414.819	1868.37
415.197	1862.72
415.574	1908.59
415.951	1947.24
416.328	1965.54
416.705	1950.85
417.082	1974.81
417.46	1988.59
417.837	2031.53
418.214	2058.42
418.591	2084.18
418.967	2071.3
419.344	2106.55
419.721	2149.27
420.098	2147.91
420.475	2182.48
420.852	2180.23
421.228	2235.14
421.605	2222.71
421.982	2268.13
422.358	2296.61
422.735	2312.43
423.111	2314.23
423.488	2402.14
423.864	2367.79
424.241	2456.6
424.617	2438.98
424.994	2490.95
425.37	2517.84
425.746	2539.09
426.123	2572.76
426.499	2581.57
426.875	2646.43
427.251	2636.26
427.627	2713.32
428.003	2755.13
428.379	2794.67
428.756	2814.33
429.132	2879.64
429.507	2913.77
429.883	2900.66
430.259	2954.22
430.635	2966.65
431.011	3007.1
431.387	3114.89
431.763	3155.79
432.138	3145.4
432.514	3213.87
432.89	3249.8
433.265	3266.98
433.641	3365.5
434.016	3353.3
434.392	3428.1
434.767	3501.77
435.143	3481.66
435.518	3530.47
435.894	3566.18
436.269	3596.46
436.644	3688.66
437.02	3746.51
437.395	3721.65
437.77	3803.46
438.145	3851.14
438.52	3884.59
438.895	3927.52
439.271	3897.47
439.646	4001.42
440.021	4021.76
440.395	4061.76
440.77	4043.23
441.145	4091.14
441.52	4175.2
441.895	4166.39
442.27	4195.09
442.645	4203.9
443.019	4295.2
443.394	4280.06
443.769	4353.95
444.143	4349.43
444.518	4450.9
444.892	4386.27
445.267	4483.44
445.641	4474.85
446.016	4526.38
446.39	4580.84
446.764	4591.69
447.139	4576.77
447.513	4682.08
447.887	4673.04
448.262	4702.87
448.636	4771.12
449.01	4811.34
449.384	4855.18
449.758	4880.72
450.132	4904.9
450.506	4954.84
450.88	4956.88
451.254	4991
451.628	5109.41
452.002	5108.96
452.376	5153.25
452.75	5248.17
453.123	5278.22
453.497	5383.98
453.871	5393.7
454.244	5485
454.618	5551.21
454.992	5614.49
455.365	5645.67
455.739	5753.01
456.112	5809.96
456.486	5911.65
456.859	5899.45
457.232	5989.39
457.606	5974.02
457.979	6160.91
458.352	6226.22
458.725	6308.7
459.099	6301.47
459.472	6438.87
459.845	6561.13
460.218	6505.76
460.591	6590.05
460.964	6638.86
461.337	6880.44
461.71	6853.77
462.083	7014.9
462.456	7009.25
462.829	7040.21
463.201	7137.16
463.574	7212.64
463.947	7297.6
464.32	7461.67
464.692	7535.34
465.065	7561.78
465.438	7666.63
465.81	7815.33
466.183	7874.76
466.555	8042.22
466.928	8074.53
467.3	8175.55
467.672	8193.85
468.045	8466.84
468.417	8477.91
468.789	8502.54
469.161	8682.65
469.534	8821.41
469.906	8908.86
470.278	8984.57
470.65	9124.22
471.022	9323.31
471.394	9522.18
471.766	9566.25
472.138	9648.73
472.51	9841.94
472.882	10003.75
473.253	10126
473.625	10209.62
473.997	10481.25
474.369	10522.38
474.74	10635.6
475.112	10769.15
475.484	11005.53
475.855	11126.66
476.227	11272.42
476.598	11591.96
476.97	11703.14
477.341	11966.41
477.713	12082.79
478.084	12137.48
478.455	12579.5
478.827	12625.15
479.198	13061.29
479.569	13034.4
479.94	13392.13
480.311	13412.02
480.682	13874.15
481.053	14111.21
481.424	14348.04
481.795	14431.43
482.166	14679.11
482.537	14802.27
482.908	15165.42
483.279	15317.51
483.65	15650.15
484.021	15974.89
484.391	16074.78
484.762	16307.54
485.133	16316.58
485.503	16641.54
485.874	16967.18
486.244	17184.58
486.615	17400.39
486.985	17613.04
487.356	17987.72
487.726	18176.41
488.097	18431.55
488.467	18539.12
488.837	18842.39
489.207	19178.65
489.578	19349.94
489.948	19605.3
490.318	19948.57
490.688	19952.41
491.058	20228.11
491.428	20504.04
491.798	20751.94
492.168	21119.84
492.538	21186.51
492.908	21462.66
493.278	21690.22
493.648	21766.15
494.017	21966.6
494.387	22272.58
494.757	22400.71
495.126	22642.96
495.496	22782.17
495.866	22979.23
496.235	23146.45
496.605	23420.34
496.974	23596.39
497.344	23786.44
497.713	23934.68
498.082	24082.47
498.452	24277.5
498.821	24453.09
499.19	24483.37
499.559	24703.02
499.928	24951.6
500.298	25080.87
500.667	25251.26
501.036	25276.34
501.405	25520.18
501.774	25632.94
502.143	25884.91
502.512	25919.94
502.88	26242.42
503.249	26325.8
503.618	26487.61
503.987	26612.13
504.356	26865.23
504.724	26970.08
505.093	26999.69
505.462	27258.89
505.83	27478.09
506.199	27609.39
506.567	28017.51
506.936	28009.6
507.304	28471.96
507.672	28575.69
508.041	28579.98
508.409	28725.52
508.777	28966.41
509.145	29194.43
509.514	29215.45
509.882	29550.13
510.25	29622.44
510.618	29866.05
510.986	29978.59
511.354	30283.67
511.722	30580.83
512.09	30791.45
512.458	30811.11
512.826	31176.75
513.193	31216.52
513.561	31276.41
513.929	31676.85
514.297	31977.41
514.664	32133.56
515.032	32313.22
515.4	32496.94
515.767	32678.41
516.135	32934.67
516.502	32660.78
516.869	33393.19
517.237	33488.1
517.604	33460.31
517.972	34025.94
518.339	34185.26
518.706	34394.75
519.073	34541.86
519.44	34860.5
519.808	35289.64
520.175	35094.84
520.542	35675.84
520.909	35773.24
521.276	35818.44
521.643	36265.43
522.009	36599.89
522.376	36702.93
522.743	36825.87
523.11	37277.16
523.477	37650.25
523.843	37782.23
524.21	38222.67
524.577	38537.91
524.943	38655.88
525.31	38936.55
525.676	39292.02
526.043	39398.68
526.409	39624.44
526.776	39944.43
527.142	40169.51
527.508	40491.99
527.874	40728.36
528.241	40888.13
528.607	41053.33
528.973	41327.22
529.339	41481.79
529.705	41878.39
530.071	42112.28
530.437	42260.98
530.803	42557.92
531.169	42812.15
531.535	42840.4
531.901	43179.83
532.267	43289.2
532.632	43541.85
532.998	43739.81
533.364	43927.6
533.73	44068.16
534.095	44333.47
534.461	44467.93
534.826	44824.75
535.192	44864.07
535.557	45245.53
535.923	45249.6
536.288	45358.75
536.653	45663.38
537.019	45609.59
537.384	45665.41
537.749	45966.87
538.114	45850.49
538.479	46007.32
538.845	46245.73
539.21	46242.57
539.575	46635.55
539.94	46676.23
540.305	46937.69
540.67	46912.16
541.034	47138.59
541.399	47173.62
541.764	47447.96
542.129	47546.04
542.494	47557.34
542.858	47882.53
543.223	47882.07
543.587	48194.16
543.952	48128.4
544.316	48247.04
544.681	48330.65
545.045	48607.25
545.41	48802.95
545.774	48827.36
546.138	48771.09
546.503	48935.38
546.867	49016.06
547.231	49262.15
547.595	49302.15
547.959	49390.06
548.324	49571.07
548.688	49765.87
549.052	49870.72
549.416	50042.02
549.779	50058.06
550.143	50227.1
550.507	50480.88
550.871	50540.31
551.235	50587.77
551.599	50752.96
551.962	50742.56
552.326	50991.37
552.689	51157.47
553.053	51091.71
553.417	51192.27
553.78	51618.47
554.143	51422.55
554.507	51731.46
554.87	51818.47
555.234	52136.2
555.597	51945.47
555.96	52177.33
556.323	52232.92
556.686	52428.85
557.05	52669.52
557.413	52732.12
557.776	52854.37
558.139	53072.22
558.502	53021.37
558.865	53115.38
559.228	53470.63
559.59	53508.59
559.953	53520.57
560.316	53791.98
560.679	53952.88
561.041	54062.93
561.404	54204.39
561.767	54434.22
562.129	54378.63
562.492	54594.21
562.854	54666.75
563.217	54700.88
563.579	54868.33
563.941	55072.39
564.304	55161.43
564.666	55320.3
565.028	55305.61
565.39	55432.38
565.753	55623.11
566.115	55675.77
566.477	55770.68
566.839	55928.64
567.201	56100.84
567.563	56103.78
567.925	56277.11
568.287	56268.29
568.648	56422.41
569.01	56561.62
569.372	56789.18
569.734	56721.16
570.095	56891.33
570.457	56963.64
570.819	56987.15
571.18	57016.75
571.542	57177.88
571.903	57223.98
572.265	57290.19
572.626	57297.87
572.987	57376.97
573.349	57449.51
573.71	57585.77
574.071	57634.59
574.432	57805.66
574.794	57875.03
575.155	57943.96
575.516	57847.01
575.877	57935.6
576.238	57970.62
576.599	58026.44
576.96	58082.26
577.32	58184.4
577.681	58283.16
578.042	58315.92
578.403	58275.47
578.763	58317.73
579.124	58399.54
579.485	58447.67
579.845	58555.69
580.206	58460.33
580.566	58486.32
580.927	58479.54
581.287	58505.3
581.648	58501
582.008	58609.48
582.368	58556.6
582.728	58574.67
583.089	58579.87
583.449	58567.22
583.809	58614.45
584.169	58646.09
584.529	58630.72
584.889	58868.23
585.249	58603.15
585.609	58639.76
585.969	58729.25
586.329	58691.96
586.688	58719.53
587.048	58710.26
587.408	58665.07
587.768	58711.85
588.127	58602.92
588.487	58607.44
588.846	58795.01
589.206	58650.38
589.565	58653.09
589.925	58779.64
590.284	58631.85
590.643	58639.31
591.003	58759.3
591.362	58825.29
591.721	58725.63
592.08	58766.08
592.44	58793.2
592.799	58843.37
593.158	58739.19
593.517	58752.75
593.876	58800.43
594.235	58715.91
594.593	58814.44
594.952	58844.95
595.311	58758.85
595.67	58855.35
596.029	58949.13
596.387	58976.7
596.746	58943.93
597.104	58837.27
597.463	58835.91
597.822	58987.77
598.18	58879.75
598.538	58841.11
598.897	58978.73
599.255	58861.22
599.613	59112.51
599.972	58999.52
600.33	58996.36
600.688	58971.73
601.046	59010.6
601.404	59085.62
601.762	59068.67
602.12	59189.12
602.478	59132.17
602.836	59173.3
603.194	59067.77
603.552	59132.63
603.91	58988.9
604.268	59203.36
604.625	59140.54
604.983	59221.66
605.341	59079.75
605.698	59255.33
606.056	59300.08
606.413	59211.27
606.771	59343.02
607.128	59351.6
607.485	59212.62
607.843	59255.79
608.2	59344.37
608.557	59352.28
608.914	59334.2
609.272	59354.54
609.629	59458.95
609.986	59517.02
610.343	59410.81
610.7	59609.45
611.057	59624.82
611.414	59522.45
611.771	59610.13
612.127	59714.08
612.484	59625.27
612.841	59757.47
613.198	59646.96
613.554	59621.88
613.911	59765.83
614.267	59772.84
614.624	59714.98
614.98	59843.79
615.337	59910.68
615.693	59888.09
616.05	59907.97
616.406	60057.12
616.762	59927.63
617.118	59835.43
617.475	59869.56
617.831	59976.9
618.187	59878.82
618.543	59962.66
618.899	60035.2
619.255	60002.43
619.611	59969.67
619.967	60115.65
620.323	60078.14
620.678	60039.04
621.034	59926.73
621.39	59939.38
621.746	59912.72
622.101	60168.98
622.457	59936.9
622.812	59941.19
623.168	60019.61
623.523	60035.88
623.879	60010.57
624.234	59864.13
624.589	59964.24
624.945	59940.29
625.3	60015.09
625.655	59925.15
626.01	59942.32
626.365	60030.91
626.72	59997.91
627.075	59979.61
627.43	59904.58
627.785	59895.32
628.14	59922.21
628.495	59900.97
628.85	59932.38
629.205	59879.5
629.559	59984.13
629.914	59849.67
630.269	59834.08
630.623	59726.28
630.978	59732.38
631.332	59781.42
631.687	59748.65
632.041	59707.3
632.396	59688.54
632.75	59643.35
633.104	59676.11
633.459	59593.63
633.813	59535.33
634.167	59532.84
634.521	59482.22
634.875	59515.89
635.229	59384.82
635.583	59304.15
635.937	59327.65
636.291	59266.18
636.645	59272.51
636.999	59197.26
637.352	59185.28
637.706	58996.81
638.06	59138.5
638.413	59065.28
638.767	58973.53
639.121	59019.63
639.474	58876.36
639.828	58895.34
640.181	58882.24
640.534	58966.08
640.888	58821.45
641.241	58673.2
641.594	58687.67
641.947	58897.83
642.301	58555.47
642.654	58676.37
643.007	58697.38
643.36	58649.7
643.713	58655.8
644.066	58675.69
644.419	58497.84
644.771	58230.05
645.124	57865.09
645.477	57854.69
645.83	57709.16
646.182	57735.6
646.535	57698.99
646.888	57792.77
647.24	57735.37
647.593	57861.92
647.945	57769.72
648.298	57618.99
648.65	57548.94
649.002	57521.82
649.355	57587.58
649.707	57362.05
650.059	57435.04
650.411	57662.61
650.763	57690.86
651.115	58020.79
651.467	57943.96
651.819	57845.65
652.171	57782.83
652.523	57734.47
652.875	57745.09
653.227	57696.05
653.578	57856.28
653.93	57751.87
654.282	57542.61
654.633	57506.23
654.985	57596.85
655.337	57582.38
655.688	57554.59
656.039	57682.27
656.391	57377.19
656.742	57467.59
657.094	57487.92
657.445	57513.69
657.796	57386.46
658.147	57348.49
658.498	57360.02
658.849	57389.17
659.2	57341.94
659.551	57264.2
659.902	57293.13
660.253	57177.42
660.604	57249.74
660.955	57126.58
661.306	57217.2
661.656	57134.26
662.007	57155.73
662.358	57129.97
662.708	57073.25
663.059	57143.75
663.409	56946.69
663.76	57144.2
664.11	57053.81
664.461	57092
664.811	57122.06
665.161	57033.47
665.511	56923.87
665.862	56987.6
666.212	56966.13
666.562	57002.29
666.912	56921.16
667.262	56868.96
667.612	56836.64
667.962	56813.36
668.312	56740.6
668.662	56907.6
669.011	56768.62
669.361	56759.36
669.711	56787.83
670.06	56670.54
670.41	56572.47
670.76	56597.55
671.109	56604.78
671.459	56577.89
671.808	56517.33
672.157	56622.41
672.507	56410.66
672.856	56422.41
673.205	56506.03
673.554	56544.22
673.904	56440.49
674.253	56539.25
674.602	56388.07
674.951	56060.39
675.3	55916.44
675.649	56288.41
675.998	56348.29
676.346	56264.68
676.695	56404.34
677.044	56177.68
677.393	56197.79
677.741	56170.67
678.09	56041.63
678.438	55947.85
678.787	56174.96
679.135	56066.27
679.484	55884.8
679.832	55967.74
680.181	55810.91
680.529	55777.91
680.877	55704.02
681.225	55642.55
681.573	55868.76
681.922	55619.5
682.27	55547.18
682.618	55601.19
682.966	55433.51
683.314	55598.71
683.661	55440.75
684.009	55253.41
684.357	55348.32
684.705	55179.74
685.053	55270.35
685.4	55214.76
685.748	55148.78
686.095	55102.22
686.443	54986.75
686.79	54938.39
687.138	54956.01
687.485	54916.24
687.832	54842.8
688.18	54766.19
688.527	54586.76
688.874	54601.22
689.221	54452.75
689.568	54422.92
689.915	54262.47
690.262	54356.03
690.609	54180.89
690.956	54145.86
691.303	54175.69
691.65	53963.95
691.997	53957.85
692.344	53764.63
692.69	53677.85
693.037	53699.1
693.383	53391.31
693.73	53573.22
694.077	53391.76
694.423	53374.13
694.769	53118.32
695.116	53090.98
695.462	53038.77
695.808	52893.47
696.155	52946.35
696.501	52785.22
696.847	52766.69
697.193	52514.95
697.539	52653.25
697.885	52412.58
698.231	52366.25
698.577	52375.97
698.923	52283.31
699.269	52098.01
699.614	51929.43
699.96	51893.04
700.306	51905.47
700.651	51796.77
700.997	51609.43
701.342	51594.29
701.688	51567.4
702.033	51414.64
702.379	51443.79
702.724	51292.38
703.069	51283.11
703.415	50976
703.76	50923.35
704.105	50843.8
704.45	50741.43
704.795	50605.39
705.14	50573.53
705.485	50505.96
705.83	50340.31
706.175	50336.93
706.52	50260.32
706.865	50183.26
707.209	50129.7
707.554	49913.43
707.899	49927.67
708.243	49873.66
708.588	49742.14
708.932	49466.44
709.277	49383.73
709.621	49571.07
709.966	49203.17
710.31	49375.14
710.654	49089.73
710.998	48978.09
711.342	49045.21
711.687	48914.36
712.031	48773.8
712.375	48718.44
712.719	48632.79
713.063	48637.31
713.407	48699.91
713.75	48406.58
714.094	48259.69
714.438	48207.26
714.782	48156.19
715.125	47932.47
715.469	47990.77
715.812	47720.04
716.156	47522.76
716.499	47454.74
716.843	47586.94
717.186	47420.84
717.53	47377.91
717.873	47471.24
718.216	47233.5
718.559	47163.45
718.902	46756.23
719.246	47009.78
719.589	46909.44
719.932	46687.53
720.275	46612.96
720.617	46666.74
720.96	46545.61
721.303	46445.95
721.646	46412.51
721.989	46173.19
722.331	46269.91
722.674	46098.17
723.016	46161.44
723.359	46058.39
723.701	46147.2
724.044	45796.71
724.386	45547.9
724.729	45850.26
725.071	45524.17
725.413	45466.32
725.755	45401.91
726.097	45346.32
726.439	45154.01
726.782	45144.97
727.124	45248.47
727.465	44954.24
727.807	45007.12
728.149	44906.79
728.491	44800.12
728.833	44906.56
729.175	44811.65
729.516	44627.47
729.858	44564.42
730.199	44561.26
730.541	44398.32
730.882	44297.08
731.224	44326.24
731.565	44100.93
731.906	44167.6
732.248	44051.21
732.589	43764.22
732.93	43608.97
733.271	43725.8
733.612	43843.54
733.953	43676.54
734.294	43584.56
734.635	43364.45
734.976	43479.48
735.317	43211.91
735.658	43290.1
735.999	43201.52
736.339	43112.26
736.68	43168.3
737.021	42935.76
737.361	42758.14
737.702	42962.43
738.042	42926.72
738.383	42891.7
738.723	42773.06
739.063	42622.1
739.404	42747.97
739.744	42467.3
740.084	42485.61
740.424	42349.56
740.764	42297.59
741.104	42320.41
741.444	42160.42
741.784	42052.85
742.124	42020.53
742.464	41957.26
742.804	42047.88
743.143	41743.7
743.483	41875
743.823	41570.15
744.162	41551.62
744.502	41594.78
744.841	41438.63
745.181	41523.6
745.52	41302.81
745.86	41309.82
746.199	41118.41
746.538	41076.38
746.877	41075.47
747.216	41193.66
747.556	40852.2
747.895	40808.59
748.234	40725.88
748.573	40510.74
748.911	40538.76
749.25	40522.49
749.589	40277.08
749.928	40324.53
750.267	40347.36
750.605	40059.68
750.944	40067.14
751.283	39920.7
751.621	39998.89
751.96	39640.03
