Data from foil_FLMS001491_030.txt Node
Date: Tue Feb 07 11:25:41 GMT 2017
User: dcchb
Spectrometer: FLMS00149
Trigger mode: 0
Integration Time (sec): 2.000000E-2
Scans to average: 10
Electric dark correction enabled: true
Nonlinearity correction enabled: false
Boxcar width: 0
XAxis mode: Wavelengths
Number of Pixels in Spectrum: 2048
>>>>>Begin Spectral Data<<<<<
341.393	-19.17
341.776	-19.17
342.16	-19.17
342.543	-70.46
342.927	-71.14
343.31	-68.2
343.693	-55.32
344.077	-48.77
344.46	-71.14
344.843	-53.74
345.226	-25.72
345.61	-34.08
345.993	-24.59
346.376	-13.52
346.759	16.31
347.142	19.48
347.525	47.27
347.908	51.57
348.291	76.65
348.674	80.49
349.057	103.32
349.44	133.82
349.823	135.86
350.206	165.91
350.588	240.49
350.971	259.7
351.354	293.82
351.737	303.54
352.119	328.85
352.502	325.23
352.884	332.91
353.267	359.13
353.65	363.42
354.032	354.38
354.414	377.66
354.797	372.46
355.179	391.22
355.562	393.48
355.944	405.68
356.326	413.14
356.709	405.68
357.091	405.23
357.473	428.28
357.855	439.58
358.238	440.03
358.62	433.7
359.002	436.64
359.384	435.74
359.766	439.35
360.148	429.64
360.53	449.75
360.912	456.75
361.294	435.29
361.676	443.87
362.057	423.31
362.439	418.79
362.821	453.36
363.203	446.13
363.584	432.35
363.966	444.78
364.348	421.5
364.729	431.44
365.111	435.74
365.493	452.46
365.874	448.17
366.256	455.62
366.637	451.56
367.019	445.23
367.4	470.76
367.781	449.52
368.163	464.44
368.544	458.11
368.925	464.66
369.306	470.31
369.688	466.7
370.069	471.89
370.45	465.11
370.831	460.82
371.212	475.06
371.593	489.75
371.974	478.22
372.355	515.28
372.736	498.33
373.117	511.67
373.498	472.8
373.879	501.05
374.26	494.04
374.641	463.31
375.021	489.52
375.402	534.94
375.783	534.04
376.163	557.54
376.544	559.8
376.925	539.69
377.305	536.75
377.686	544.21
378.066	545.11
378.447	557.32
378.827	569.29
379.208	576.3
379.588	557.32
379.968	567.03
380.349	590.99
380.729	614.72
381.109	584.43
381.489	603.87
381.87	609.74
382.25	614.72
382.63	634.6
383.01	635.96
383.39	648.84
383.77	651.1
384.15	656.52
384.53	679.57
384.91	640.93
385.29	672.79
385.67	688.39
386.049	699.91
386.429	696.07
386.809	698.56
387.189	680.93
387.568	714.15
387.948	717.76
388.328	735.84
388.707	745.56
389.087	736.29
389.466	736.97
389.846	772.68
390.225	791.89
390.605	782.85
390.984	777.42
391.363	802.73
391.743	821.94
392.122	816.97
392.501	827.82
392.881	830.3
393.26	855.39
393.639	880.02
394.018	873.47
394.397	871.21
394.776	900.58
395.155	889.74
395.534	873.69
395.913	906.23
396.292	944.88
396.671	941.26
397.05	939
397.429	956.85
397.808	955.72
398.186	967.7
398.565	988.49
398.944	1014.03
399.323	973.35
399.701	994.82
400.08	1020.35
400.458	1081.82
400.837	1039.34
401.215	1056.96
401.594	1077.53
401.972	1078.21
402.351	1070.07
402.729	1086.57
403.107	1097.64
403.486	1127.24
403.864	1120.69
404.242	1145.55
404.62	1155.27
404.999	1197.98
405.377	1215.6
405.755	1225.09
406.133	1247.02
406.511	1186.23
406.889	1232.55
407.267	1282.72
407.645	1312.32
408.023	1282.27
408.401	1350.52
408.779	1360.46
409.156	1325.88
409.534	1364.53
409.912	1381.93
410.29	1441.36
410.667	1421.02
411.045	1475.71
411.422	1444.52
411.8	1474.58
412.178	1514.35
412.555	1529.49
412.933	1586.44
413.31	1575.59
413.687	1601.81
414.065	1616.95
414.442	1613.33
414.819	1626.67
415.197	1633.22
415.574	1699.43
415.951	1732.88
416.328	1682.26
416.705	1757.28
417.082	1735.36
417.46	1776.04
417.837	1774.46
418.214	1776.94
418.591	1815.36
418.967	1816.49
419.344	1889.03
419.721	1884.74
420.098	1880.9
420.475	1888.58
420.852	1945.75
421.228	1988.46
421.605	1974.45
421.982	2009.48
422.358	1987.11
422.735	2040.44
423.111	2058.29
423.488	2105.3
423.864	2099.2
424.241	2125.18
424.617	2162.92
424.994	2141.91
425.37	2204.5
425.746	2168.8
426.123	2195.24
426.499	2240.44
426.875	2272.52
427.251	2333.09
427.627	2333.54
428.003	2375.35
428.379	2411.96
428.756	2419.41
429.132	2481.33
429.507	2503.48
429.883	2528.79
430.259	2586.64
430.635	2573.08
431.011	2606.53
431.387	2664.83
431.763	2730.14
432.138	2727.65
432.514	2763.36
432.89	2787.99
433.265	2867.54
433.641	2877.48
434.016	2872.74
434.392	2934.2
434.767	3007.65
435.143	2999.96
435.518	3044.03
435.894	3071.15
436.269	3092.62
436.644	3188.43
437.02	3185.5
437.395	3246.28
437.77	3231.82
438.145	3312.5
438.52	3317.47
438.895	3321.08
439.271	3354.08
439.646	3479.72
440.021	3476.34
440.395	3466.62
440.77	3416.9
441.145	3505.03
441.52	3536.45
441.895	3550.01
442.27	3593.39
442.645	3597.46
443.019	3655.99
443.394	3639.49
443.769	3626.61
444.143	3695.54
444.518	3774.41
444.892	3780.96
445.267	3785.71
445.641	3774.41
446.016	3792.03
446.39	3876.55
446.764	3877.23
447.139	3893.95
447.513	3920.84
447.887	3935.31
448.262	3950.45
448.636	3985.02
449.01	4028.41
449.384	4066.6
449.758	4090.56
450.132	4143.44
450.506	4159.26
450.88	4192.02
451.254	4161.06
451.628	4271.57
452.002	4279.48
452.376	4354.05
452.75	4389.31
453.123	4411.9
453.497	4483.77
453.871	4511.56
454.244	4625.23
454.618	4646.7
454.992	4679.92
455.365	4707.94
455.739	4810.76
456.112	4884.66
456.486	4907.03
456.859	4948.61
457.232	5047.14
457.606	5053.47
457.979	5138.21
458.352	5272.45
458.725	5298.89
459.099	5337.53
459.472	5443.97
459.845	5440.58
460.218	5526.9
460.591	5566
460.964	5579.78
461.337	5739.1
461.71	5837.63
462.083	5850.51
462.456	5935.71
462.829	5920.56
463.201	6045.31
463.574	6082.59
463.947	6056.83
464.32	6284.62
464.692	6323.72
465.065	6330.72
465.438	6457.95
465.81	6534.11
466.183	6626.99
466.555	6752.63
466.928	6812.97
467.3	6765.51
467.672	6922.12
468.045	7093.42
468.417	7085.51
468.789	7165.96
469.161	7251.38
469.534	7382.22
469.906	7553.29
470.278	7570.92
470.65	7708.31
471.022	7853.62
471.394	7965.03
471.766	8058.14
472.138	8201.18
472.51	8287.96
472.882	8423.55
473.253	8511.46
473.625	8626.03
473.997	8822.64
474.369	8830.77
474.74	9011.33
475.112	9161.84
475.484	9209.97
475.855	9397.76
476.227	9487.48
476.598	9795.94
476.97	9837.3
477.341	10055.15
477.713	10228.7
478.084	10317.51
478.455	10601.35
478.827	10622.81
479.198	10930.15
479.569	10919.98
479.94	11312.29
480.311	11307.32
480.682	11649.68
481.053	11923.12
481.424	12098.48
481.795	12232.04
482.166	12415.54
482.537	12536.89
482.908	12858.24
483.279	12888.97
483.65	13088.96
484.021	13460.03
484.391	13493.25
484.762	13607.59
485.133	13773.01
485.503	14000.13
485.874	14330.74
486.244	14463.16
486.615	14723.5
486.985	14875.13
487.356	15239.64
487.726	15269.25
488.097	15611.61
488.467	15667.2
488.837	15961.43
489.207	16173.85
489.578	16319.39
489.948	16506.5
490.318	16721.18
490.688	16749.43
491.058	17042.08
491.428	17176.31
491.798	17445.23
492.168	17805
492.538	17892.91
492.908	18107.36
493.278	18386.23
493.648	18399.78
494.017	18643.62
494.387	18702.83
494.757	18863.05
495.126	19040.67
495.496	19151.18
495.866	19336.26
496.235	19569.02
496.605	19736.92
496.974	19817.6
497.344	20119.29
497.713	20181.21
498.082	20252.62
498.452	20498.03
498.821	20590.01
499.19	20687.41
499.559	20947.29
499.928	21011.69
500.298	21275.42
500.667	21377.33
501.036	21439.03
501.405	21627.95
501.774	21594.28
502.143	21816.64
502.512	21925.57
502.88	22204.2
503.249	22227.48
503.618	22436.51
503.987	22481.71
504.356	22762.38
504.724	22951.3
505.093	22993.79
505.462	23030.62
505.83	23178.19
506.199	23417.51
506.567	23766.2
506.936	23775.91
507.304	24008
507.672	24219.97
508.041	24276.92
508.409	24477.14
508.777	24679.39
509.145	24862.89
509.514	24859.5
509.882	25030.34
510.25	25237.57
510.618	25418.81
510.986	25504.68
511.354	25735.41
511.722	25972.92
512.09	26140.37
512.458	26142.41
512.826	26412.91
513.193	26598.21
513.561	26713.24
513.929	27032.55
514.297	27251.98
514.664	27341.02
515.032	27507.79
515.4	27736.49
515.767	27840.21
516.135	27920.89
516.502	28039.08
516.869	28547.77
517.237	28651.27
517.604	28729.68
517.972	29070.69
518.339	29239.5
518.706	29186.85
519.073	29445.82
519.44	29779.37
519.808	29983.89
520.175	30039.7
520.542	30534.15
520.909	30633.59
521.276	30820.02
521.643	31160.35
522.009	31374.13
522.376	31377.07
522.743	31796.72
523.11	32027
523.477	32362.58
523.843	32563.48
524.21	32914.43
524.577	33231.03
524.943	33370.24
525.31	33433.29
525.676	33808.42
526.043	33999.6
526.409	34272.81
526.776	34643.43
527.142	34703.31
527.508	34936.3
527.874	35168.61
528.241	35245.67
528.607	35517.3
528.973	35812.21
529.339	35959.55
529.705	36375.81
530.071	36527.67
530.437	36680.89
530.803	36920.2
531.169	37269.8
531.535	37207.43
531.901	37381.43
532.267	37590.24
532.632	37746.62
532.998	37977.8
533.364	38147.74
533.73	38421.41
534.095	38725.58
534.461	38835.86
534.826	39019.36
535.192	39078.79
535.557	39383.87
535.923	39373.47
536.288	39494.6
536.653	39882.61
537.019	39797.87
537.384	40100.91
537.749	40177.29
538.114	40246.67
538.479	40484.4
538.845	40755.81
539.21	40649.37
539.575	41041.68
539.94	41127.32
540.305	41436.69
540.67	41439.4
541.034	41517.37
541.399	41728.89
541.764	41832.61
542.129	42039.84
542.494	42256.33
542.858	42238.48
543.223	42386.05
543.587	42766.6
543.952	42598.92
544.316	42851.8
544.681	42888.18
545.045	43079.59
545.41	43301.28
545.774	43460.14
546.138	43541.04
546.503	43576.07
546.867	43645
547.231	43999.79
547.595	44215.83
547.959	44224.42
548.324	44298.54
548.688	44602.26
549.052	44764.52
549.416	44767.45
549.779	44892.42
550.143	45162.24
550.507	45407.21
550.871	45612.85
551.235	45642.23
551.599	45810.36
551.962	45874.32
552.326	46033.41
552.689	46390.69
553.053	46229.56
553.417	46280.63
553.78	46855.99
554.143	46831.35
554.507	47032.03
554.87	47135.98
555.234	47611.9
555.597	47485.12
555.96	47571.22
556.323	47754.27
556.686	47895.28
557.05	48174.14
557.413	48169.4
557.776	48398.32
558.139	48625.66
558.502	48773.22
558.865	48951.07
559.228	49177.51
559.59	49310.38
559.953	49448.91
560.316	49829.92
560.679	49904.72
561.041	49911.05
561.404	50219.29
561.767	50476.68
562.129	50321.66
562.492	50733.85
562.854	50713.51
563.217	50821.3
563.579	50997.35
563.941	51245.25
564.304	51435.98
564.666	51637.78
565.028	51698.12
565.39	51807.72
565.753	51969.3
566.115	52052.01
566.477	52231.44
566.839	52366.12
567.201	52572.22
567.563	52543.97
567.925	52783.97
568.287	52818.77
568.648	52911.65
569.01	53014.92
569.372	53272.09
569.734	53258.53
570.095	53390.5
570.457	53542.82
570.819	53624.85
571.18	53666.65
571.542	53801.11
571.903	53913.43
572.265	54037.04
572.626	54215.11
572.987	54197.49
573.349	54279.52
573.71	54332.4
574.071	54428.44
574.432	54586.4
574.794	54836.11
575.155	54791.37
575.516	54719.28
575.877	54850.8
576.238	54816
576.599	54977.35
576.96	54931.03
577.32	55016.9
577.681	55077.69
578.042	55156.56
578.403	55185.48
578.763	55246.27
579.124	55324.24
579.485	55434.74
579.845	55517
580.206	55499.83
580.566	55462.99
580.927	55452.37
581.287	55536.89
581.648	55479.94
582.008	55587.28
582.368	55602.2
582.728	55606.94
583.089	55603.55
583.449	55638.35
583.809	55698.24
584.169	55708.63
584.529	55683.55
584.889	55822.08
585.249	55663.44
585.609	55580.95
585.969	55782.98
586.329	55566.49
586.688	55737.33
587.048	55668.18
587.408	55644.91
587.768	55689.88
588.127	55687.84
588.487	55586.6
588.846	55825.92
589.206	55700.72
589.565	55677.45
589.925	55804.45
590.284	55759.71
590.643	55796.99
591.003	55860.72
591.362	55871.12
591.721	55841.29
592.08	55860.49
592.44	56000.38
592.799	55939.36
593.158	55821.4
593.517	55819.59
593.876	55952.7
594.235	55907.5
594.593	55928.97
594.952	55965.58
595.311	55807.61
595.67	55900.95
596.029	55992.92
596.387	56032.92
596.746	56074.95
597.104	55872.25
597.463	55978.23
597.822	56038.57
598.18	56091.45
598.538	56032.69
598.897	56219.81
599.255	55940.94
599.613	56290.09
599.972	56065.69
600.33	56241.73
600.688	56105.69
601.046	56221.16
601.404	56273.82
601.762	56224.78
602.12	56357.66
602.478	56267.49
602.836	56362.18
603.194	56218.23
603.552	56276.98
603.91	56297.09
604.268	56376.64
604.625	56276.08
604.983	56401.72
605.341	56345.23
605.698	56498.22
606.056	56537.31
606.413	56476.52
606.771	56612.34
607.128	56561.27
607.485	56489.63
607.843	56466.81
608.2	56583.64
608.557	56699.57
608.914	56607.82
609.272	56771.43
609.629	56774.82
609.986	56822.96
610.343	56751.09
610.7	56928.26
611.057	56879.68
611.414	56838.77
611.771	56818.89
612.127	56963.74
612.484	56946.34
612.841	57037.41
613.198	57001.71
613.554	56981.82
613.911	57189.5
614.267	57153.57
614.624	57127.81
614.98	57100.46
615.337	57250.97
615.693	57226.11
616.05	57170.74
616.406	57323.05
616.762	57216.17
617.118	57175.71
617.475	57196.05
617.831	57235.6
618.187	57235.6
618.543	57388.14
618.899	57483.95
619.255	57384.3
619.611	57344.52
619.967	57426.78
620.323	57404.63
620.678	57348.82
621.034	57339.55
621.39	57287.8
621.746	57271.53
622.101	57580
622.457	57303.85
622.812	57406.89
623.168	57470.85
623.523	57486.67
623.879	57566.66
624.234	57291.42
624.589	57464.29
624.945	57497.74
625.3	57513.11
625.655	57504.97
626.01	57531.41
626.365	57499.55
626.72	57545.87
627.075	57540.68
627.43	57460.45
627.785	57382.71
628.14	57430.4
628.495	57493.9
628.85	57475.59
629.205	57334.35
629.559	57530.73
629.914	57274.02
630.269	57324.86
630.623	57278.31
630.978	57133.68
631.332	57299.1
631.687	57385.43
632.041	57254.13
632.396	57221.36
632.75	57156.28
633.104	57140.01
633.459	57039.9
633.813	57024.76
634.167	56958.09
634.521	56975.04
634.875	56969.17
635.229	57019.79
635.583	56779.11
635.937	56745.67
636.291	56774.59
636.645	56815.95
636.999	56677.65
637.352	56716.97
637.706	56652.56
638.06	56760.58
638.413	56641.49
638.767	56583.64
639.121	56703.64
639.474	56499.8
639.828	56583.19
640.181	56584.77
640.534	56618.21
640.888	56462.51
641.241	56439.91
641.594	56415.28
641.947	56420.03
642.301	56337.77
642.654	56293.25
643.007	56292.12
643.36	56212.12
643.713	56202.63
644.066	56393.36
644.419	56063.43
644.771	55797.22
645.124	55480.39
645.477	55309.1
645.83	55176.22
646.182	55129.44
646.535	55115.2
646.888	55413.73
647.24	55326.27
647.593	55434.07
647.945	55439.94
648.298	55330.56
648.65	55290.79
649.002	55117.01
649.355	55110.46
649.707	54957.24
650.059	54951.82
650.411	55208.53
650.763	55280.85
651.115	55636.55
651.467	55559.49
651.819	55574.63
652.171	55478.81
652.523	55382.99
652.875	55332.37
653.227	55175.99
653.578	55428.64
653.93	55414.86
654.282	55350.45
654.633	55284.69
654.985	55147.29
655.337	55234.52
655.688	55255.99
656.039	55258.93
656.391	55006.96
656.742	55108.88
657.094	55102.32
657.445	55197.69
657.796	54965.6
658.147	55046.73
658.498	54966.28
658.849	54974.87
659.2	54871.14
659.551	54864.14
659.902	54910.69
660.253	54885.15
660.604	54895.32
660.955	54677.93
661.306	54766.96
661.656	54770.35
662.007	54722.67
662.358	54759.05
662.708	54688.77
663.059	54659.17
663.409	54469.34
663.76	54744.37
664.11	54706.17
664.461	54709.79
664.811	54720.64
665.161	54649.9
665.511	54527.87
665.862	54535.11
666.212	54615.56
666.562	54607.65
666.912	54634.31
667.262	54547.31
667.612	54491.72
667.962	54557.7
668.312	54462.34
668.662	54530.13
669.011	54373.08
669.361	54463.92
669.711	54371.49
670.06	54350.48
670.41	54275
670.76	54286.3
671.109	54305.96
671.459	54227.32
671.808	54196.13
672.157	54346.18
672.507	54225.28
672.856	54076.13
673.205	54116.36
673.554	54261.44
673.904	54159.07
674.253	54275.9
674.602	54073.87
674.951	53713.88
675.3	53526.09
675.649	54071.61
675.998	54073.65
676.346	53967.44
676.695	54073.42
677.044	53791.85
677.393	53951.62
677.741	53995.91
678.09	53842.69
678.438	53709.59
678.787	53852.41
679.135	53777.84
679.484	53668.46
679.832	53775.35
680.181	53508.47
680.529	53623.27
680.877	53532.42
681.225	53425.53
681.573	53688.35
681.922	53366.32
682.27	53249.26
682.618	53242.48
682.966	53248.36
683.314	53443.61
683.661	53315.7
684.009	53070.96
684.357	52926.11
684.705	52903.28
685.053	52955.03
685.4	52923.17
685.748	52794.36
686.095	52746
686.443	52623.52
686.79	52567.02
687.138	52691.54
687.485	52551.65
687.832	52535.16
688.18	52501.71
688.527	52333.81
688.874	52357.31
689.221	52190.31
689.568	52115.06
689.915	51971.11
690.262	51950.99
690.609	51783.99
690.956	51775.86
691.303	51816.98
691.65	51720.04
691.997	51593.71
692.344	51462.42
692.69	51359.82
693.037	51380.61
693.383	51120.05
693.73	51223.78
694.077	51127.29
694.423	51000.74
694.769	50918.25
695.116	50808.2
695.462	50769.55
695.808	50617.02
696.155	50725.49
696.501	50491.14
696.847	50424.93
697.193	50057.94
697.539	50315.78
697.885	49967.32
698.231	49773.87
698.577	49798.96
698.923	49922.12
699.269	49794.21
699.614	49545.41
699.96	49455.69
700.306	49380.89
700.651	49268.58
700.997	49128.47
701.342	49172.99
701.688	48997.85
702.033	48953.33
702.379	48836.27
702.724	48541.59
703.069	48732.09
703.415	48271.09
703.76	48326.91
704.105	48385.66
704.45	48215.72
704.795	47909.74
705.14	47845.56
705.485	47785.68
705.83	47803.31
706.175	47888.27
706.52	47620.49
706.865	47462.75
707.209	47402.64
707.554	47277.9
707.899	47203.1
708.243	46975.3
708.588	47026.15
708.932	46768.53
709.277	46650.12
709.621	46812.6
709.966	46530.34
710.31	46671.13
710.654	46291.03
710.998	46253.06
711.342	46232.5
711.687	46135.1
712.031	46077.7
712.375	45784.6
712.719	45895.78
713.063	45793.41
713.407	45870.25
713.75	45611.72
714.094	45569.24
714.438	45359.08
714.782	45571.05
715.125	45291.51
715.469	45281.34
715.812	44955.47
716.156	44812.42
716.499	44670.28
716.843	44832.99
717.186	44616.5
717.53	44760.45
717.873	44611.07
718.216	44706.66
718.559	44524.75
718.902	44177.64
719.246	44223.06
719.589	44246.11
719.932	44016.06
720.275	44115.72
720.617	43988.49
720.96	43778.55
721.303	43833.69
721.646	43897.65
721.989	43606.13
722.331	43723.19
722.674	43469.86
723.016	43564.55
723.359	43324.55
723.701	43421.27
724.044	43235.97
724.386	43106.71
724.729	43282.75
725.071	43225.8
725.413	42968.86
725.755	43023.32
726.097	42666.27
726.439	42611.8
726.782	42599.15
727.124	42624.23
727.465	42380.62
727.807	42451.13
728.149	42201.42
728.491	42165.04
728.833	42202.32
729.175	42032.38
729.516	42086.85
729.858	41891.14
730.199	41916.91
730.541	41692.05
730.882	41763.01
731.224	41872.61
731.565	41603.92
731.906	41533.41
732.248	41572.06
732.589	41307.2
732.93	41252.74
733.271	41338.16
733.612	41211.16
733.953	41385.17
734.294	41190.15
734.635	41102.24
734.976	41102.46
735.317	40786.99
735.658	40915.8
735.999	40817.95
736.339	40672.65
736.68	40868.57
737.021	40789.93
737.361	40567.79
737.702	40684.85
738.042	40446.21
738.383	40314.24
738.723	40556.72
739.063	40144.52
739.404	40202.83
739.744	40199.21
740.084	40029.95
740.424	40045.54
740.764	39927.35
741.104	40151.08
741.444	39917.64
741.784	39656.17
742.124	39639.68
742.464	39630.86
742.804	39591.32
743.143	39333.92
743.483	39509.29
743.823	39314.71
744.162	39110.65
744.502	39227.03
744.841	39185
745.181	39253.02
745.52	38951.56
745.86	38949.07
746.199	38909.08
746.538	38744.56
746.877	38829.08
747.216	38717.67
747.556	38741.85
747.895	38577.11
748.234	38441.29
748.573	38410.33
748.911	38484.91
749.25	38423.89
749.589	38171.47
749.928	38357.68
750.267	38208.53
750.605	38015.99
750.944	37980.51
751.283	37784.36
751.621	37748.2
751.96	37404.48
752.298	37496.01
