Data from foil_FLMS001491_025.txt Node
Date: Tue Feb 07 11:25:40 GMT 2017
User: dcchb
Spectrometer: FLMS00149
Trigger mode: 0
Integration Time (sec): 2.000000E-2
Scans to average: 10
Electric dark correction enabled: true
Nonlinearity correction enabled: false
Boxcar width: 0
XAxis mode: Wavelengths
Number of Pixels in Spectrum: 2048
>>>>>Begin Spectral Data<<<<<
341.393	-18.54
341.776	-18.54
342.16	-18.54
342.543	-43.85
342.927	-71.2
343.31	-81.14
343.693	-68.94
344.077	-76.62
344.46	-48.15
344.843	-55.83
345.226	-44.08
345.61	-27.36
345.993	-24.19
346.376	-3.63
346.759	-1.14
347.142	36.82
347.525	46.09
347.908	58.52
348.291	84.05
348.674	82.24
349.057	123.37
349.44	125.63
349.823	138.74
350.206	178.29
350.588	247.44
350.971	277.72
351.354	283.82
351.737	300.99
352.119	305.51
352.502	332.41
352.884	339.64
353.267	340.99
353.65	371.73
354.032	385.74
354.414	389.35
354.797	400.88
355.179	398.39
355.562	392.07
355.944	404.72
356.326	414.66
356.709	428.9
357.091	419.64
357.473	440.2
357.855	453.08
358.238	440.88
358.62	436.13
359.002	439.3
359.384	426.64
359.766	439.3
360.148	416.7
360.53	450.14
360.912	452.86
361.294	455.12
361.676	424.83
362.057	420.09
362.439	436.81
362.821	446.3
363.203	452.4
363.584	446.75
363.966	432.29
364.348	438.84
364.729	475.68
365.111	452.86
365.493	430.93
365.874	433.87
366.256	447.43
366.637	468
367.019	455.34
367.4	448.79
367.781	482.23
368.163	460.76
368.544	457.15
368.925	472.97
369.306	472.06
369.688	479.3
370.069	468.9
370.45	467.32
370.831	456.02
371.212	492.63
371.593	484.04
371.974	483.81
372.355	518.16
372.736	508.67
373.117	496.92
373.498	504.38
373.879	483.59
374.26	474.1
374.641	483.81
375.021	484.72
375.402	522.46
375.783	535.79
376.163	573.08
376.544	569.69
376.925	550.93
377.305	536.47
377.686	566.98
378.066	550.25
378.447	585.51
378.827	563.13
379.208	557.71
379.588	592.51
379.968	558.84
380.349	604.72
380.729	596.13
381.109	595.68
381.489	599.07
381.87	616.01
382.25	634.55
382.63	618.73
383.01	623.7
383.39	624.15
383.77	654.21
384.15	651.95
384.53	670.7
384.91	694.66
385.29	691.04
385.67	677.26
386.049	675.9
386.429	691.04
386.809	718.16
387.189	705.96
387.568	723.13
387.948	700.53
388.328	716.8
388.707	735.56
389.087	753.19
389.466	749.34
389.846	776.46
390.225	777.59
390.605	773.98
390.984	801.32
391.363	791.6
391.743	827.76
392.122	822.11
392.501	841.55
392.881	870.7
393.26	867.31
393.639	871.38
394.018	894.88
394.397	900.3
394.776	885.61
395.155	897.14
395.534	894.88
395.913	908.66
396.292	900.53
396.671	952.96
397.05	967.64
397.429	958.15
397.808	978.27
398.186	954.54
398.565	1012.16
398.944	995.67
399.323	1027.53
399.701	1035.21
400.08	1050.58
400.458	1032.5
400.837	1063.91
401.215	1078.15
401.594	1067.75
401.972	1084.48
402.351	1094.65
402.729	1106.17
403.107	1126.74
403.486	1122.89
403.864	1153.18
404.242	1157.24
404.62	1174.19
404.999	1199.95
405.377	1176
405.755	1219.39
406.133	1206.96
406.511	1232.72
406.889	1287.64
407.267	1294.42
407.645	1309.78
408.023	1319.95
408.401	1323.79
408.779	1343.45
409.156	1372.61
409.534	1349.78
409.912	1382.32
410.29	1436.33
410.667	1466.16
411.045	1492.6
411.422	1450.34
411.8	1496.9
412.178	1542.77
412.555	1547.52
412.933	1560.62
413.31	1604.92
413.687	1592.26
414.065	1611.47
414.442	1630.68
414.819	1667.29
415.197	1680.17
415.574	1664.57
415.951	1724.23
416.328	1744.57
416.705	1743.89
417.082	1786.61
417.46	1805.14
417.837	1806.94
418.214	1804.91
418.591	1847.85
418.967	1848.07
419.344	1877.68
419.721	1877.68
420.098	1875.42
420.475	1911.12
420.852	1936.43
421.228	1964.45
421.605	1991.35
421.982	2008.75
422.358	2010.33
422.735	2066.15
423.111	2053.94
423.488	2102.3
423.864	2117.67
424.241	2124.45
424.617	2160.38
424.994	2182.98
425.37	2181.85
425.746	2207.16
426.123	2208.74
426.499	2224.11
426.875	2284.67
427.251	2315.63
427.627	2384.33
428.003	2393.82
428.379	2409.41
428.756	2455.29
429.132	2506.36
429.507	2526.7
429.883	2549.52
430.259	2609.86
430.635	2639.46
431.011	2630.43
431.387	2675.85
431.763	2750.65
432.138	2742.74
432.514	2792
432.89	2808.95
433.265	2878.55
433.641	2921.72
434.016	2929.17
434.392	3005.78
434.767	3017.76
435.143	3054.82
435.518	3064.31
435.894	3092.33
436.269	3136.17
436.644	3156.97
437.02	3188.83
437.395	3229.51
437.77	3252.33
438.145	3340.46
438.52	3320.35
438.895	3353.12
439.271	3373.23
439.646	3506.56
440.021	3503.4
440.395	3457.52
440.77	3474.02
441.145	3540.91
441.52	3562.38
441.895	3573.45
442.27	3643.96
442.645	3643.73
443.019	3712.43
443.394	3691.41
443.769	3755.82
444.143	3717.18
444.518	3783.62
444.892	3768.25
445.267	3775.71
445.641	3860.22
446.016	3892.99
446.39	3888.25
446.764	3877.17
447.139	3879.43
447.513	3983.16
447.887	3968.02
448.262	4016.6
448.636	4027
449.01	4108.13
449.384	4144.28
449.758	4125.3
450.132	4223.83
450.506	4203.04
450.88	4235.13
451.254	4243.04
451.628	4311.96
452.002	4317.84
452.376	4395.8
452.75	4402.36
453.123	4410.27
453.497	4541.34
453.871	4596.48
454.244	4697.49
454.618	4697.94
454.992	4750.14
455.365	4768.9
455.739	4887.31
456.112	4910.82
456.486	4930.93
456.859	5021.1
457.232	5134.54
457.606	5098.16
457.979	5217.02
458.352	5294.99
458.725	5294.99
459.099	5341.54
459.472	5496.79
459.845	5597.35
460.218	5616.79
460.591	5658.82
460.964	5660.63
461.337	5817.69
461.71	5886.16
462.083	5915.31
462.456	5970
462.829	5975.42
463.201	6134.74
463.574	6109.43
463.947	6176.77
464.32	6364.11
464.692	6407.05
465.065	6466.03
465.438	6502.19
465.81	6627.83
466.183	6675.52
466.555	6797.77
466.928	6880.26
467.3	6880.71
467.672	6956.19
468.045	7208.16
468.417	7139.01
468.789	7228.27
469.161	7339.68
469.534	7460.58
469.906	7577.87
470.278	7661.71
470.65	7830.06
471.022	7865.09
471.394	8048.14
471.766	8112.77
472.138	8231.63
472.51	8437.73
472.882	8457.16
473.253	8594.79
473.625	8708.01
473.997	8864.84
474.369	8946.19
474.74	9085.62
475.112	9219.63
475.484	9412.85
475.855	9504.82
476.227	9605.61
476.598	9885.83
476.97	9996.79
477.341	10232.26
477.713	10378.02
478.084	10428.19
478.455	10723.32
478.827	10714.28
479.198	11121.05
479.569	11111.33
479.94	11386.35
480.311	11462.51
480.682	11758.55
481.053	12035.15
481.424	12281.24
481.795	12332.99
482.166	12434.69
482.537	12697.05
482.908	12949.25
483.279	13053.88
483.65	13348.79
484.021	13534.55
484.391	13700.19
484.762	13859.96
485.133	13991.93
485.503	14195.32
485.874	14515.08
486.244	14684.35
486.615	14961.85
486.985	14993.26
487.356	15274.39
487.726	15486.58
488.097	15766.58
488.467	15761.83
488.837	16137.64
489.207	16321.36
489.578	16562.26
489.948	16654.24
490.318	16935.36
490.688	16966.09
491.058	17194.11
491.428	17463.71
491.798	17644.95
492.168	17987.54
492.538	18101.88
492.908	18329.67
493.278	18537.13
493.648	18622.77
494.017	18849.66
494.387	18961.07
494.757	19162.19
495.126	19301.4
495.496	19370.78
495.866	19543.65
496.235	19853.25
496.605	19992.68
496.974	20001.72
497.344	20251.2
497.713	20386.12
498.082	20513.12
498.452	20700.46
498.821	20766.45
499.19	20972.09
499.559	21210.05
499.928	21404.39
500.298	21441.23
500.667	21601.45
501.036	21643.94
501.405	21892.97
501.774	21887.32
502.143	22120.99
502.512	22094.09
502.88	22446.85
503.249	22520.98
503.618	22651.59
503.987	22826.73
504.356	23022.43
504.724	23102.88
505.093	23198.92
505.462	23484.11
505.83	23498.13
506.199	23795.97
506.567	24062.4
506.936	23955.97
507.304	24310.31
507.672	24422.85
508.041	24562.5
508.409	24816.28
508.777	24987.13
509.145	25037.29
509.514	25164.52
509.882	25370.62
510.25	25400
510.618	25634.79
510.986	25751.85
511.354	25963.82
511.722	26178.73
512.09	26458.95
512.458	26494.66
512.826	26676.8
513.193	26885.15
513.561	27014.87
513.929	27352.49
514.297	27493.27
514.664	27775.53
515.032	27796.54
515.4	27982.75
515.767	28357.66
516.135	28322.18
516.502	28238.34
516.869	28862.96
517.237	28921.26
517.604	29035.15
517.972	29401.7
518.339	29559.89
518.706	29623.16
519.073	29768.69
519.44	29919.2
519.808	30348.57
520.175	30337.27
520.542	30820.42
520.909	31014.09
521.276	31074.65
521.643	31422.21
522.009	31649.1
522.376	31897
522.743	32093.83
523.11	32390.09
523.477	32739.24
523.843	32956.18
524.21	33310.52
524.577	33515.94
524.943	33788.7
525.31	33935.82
525.676	34242.93
526.043	34433.2
526.409	34583.26
526.776	34848.56
527.142	35082.23
527.508	35316.8
527.874	35660.29
528.241	35678.82
528.607	35822.55
528.973	36220.95
529.339	36147.28
529.705	36670.66
530.071	36845.8
530.437	37263.64
530.803	37350.64
531.169	37563.29
531.535	37509.06
531.901	37847.8
532.267	37935.71
532.632	38342.48
532.998	38557.84
533.364	38634.45
533.73	38859.98
534.095	39090.71
534.461	39194.44
534.826	39455.45
535.192	39612.28
535.557	39905.6
535.923	39798.49
536.288	40005.49
536.653	40301.98
537.019	40155.31
537.384	40544
537.749	40652.02
538.114	40751
538.479	40842.53
538.845	41038
539.21	41107.15
539.575	41329.29
539.94	41576.07
540.305	41698.1
540.67	41706.69
541.034	42051.99
541.399	42207.92
541.764	42463.73
542.129	42522.48
542.494	42595.7
542.858	42769.93
543.223	42794.11
543.587	43127.44
543.952	43140.32
544.316	43290.82
544.681	43182.35
545.045	43463.25
545.41	43833.86
545.774	43838.83
546.138	43971.49
546.503	44179.62
546.867	44158.6
547.231	44451.47
547.595	44562.66
547.959	44650.11
548.324	44758.58
548.688	45039.93
549.052	45319.7
549.416	45241.06
549.779	45341.84
550.143	45616.64
550.507	45810.98
550.871	45987.03
551.235	46060.92
551.599	46371.2
551.962	46379.78
552.326	46528.71
552.689	46751.3
553.053	46609.83
553.417	46766.21
553.78	47312.64
554.143	47239.42
554.507	47459.75
554.87	47545.4
555.234	47972.74
555.597	47694.1
555.96	47979.74
556.323	48095.9
556.686	48277.81
557.05	48557.81
557.413	48593.51
557.776	48797.12
558.139	49279.37
558.502	49119.82
558.865	49205.02
559.228	49653.6
559.59	49619.47
559.953	49802.74
560.316	50101.49
560.679	50195.05
561.041	50473.01
561.404	50595.27
561.767	50852.21
562.129	50778.09
562.492	51231.63
562.854	51169.04
563.217	51245.64
563.579	51352.31
563.941	51630.04
564.304	51752.3
564.666	51919.07
565.028	52010.14
565.39	52159.29
565.753	52348.67
566.115	52519.28
566.477	52631.82
566.839	52743.01
567.201	52849.9
567.563	52931.93
567.925	53152.49
568.287	53160.4
568.648	53170.11
569.01	53385.02
569.372	53511.35
569.734	53545.02
570.095	53714.96
570.457	53874.5
570.819	53983.88
571.18	54048.28
571.542	54081.05
571.903	54223.42
572.265	54393.81
572.626	54470.64
572.987	54516.29
573.349	54635.39
573.71	54699.11
574.071	54677.87
574.432	54901.59
574.794	55147.91
575.155	55050.74
575.516	54955.6
575.877	55124.19
576.238	55217.74
576.599	55223.17
576.96	55160.57
577.32	55244.18
577.681	55356.72
578.042	55419.77
578.403	55542.93
578.763	55498.41
579.124	55604.85
579.485	55689.6
579.845	55720.78
580.206	55741.35
580.566	55718.97
580.927	55729.82
581.287	55855.69
581.648	55791.06
582.008	55910.38
582.368	55871.29
582.728	55865.41
583.089	55869.93
583.449	55841.68
583.809	56008.91
584.169	55958.29
584.529	55904.73
584.889	56067.21
585.249	55996.25
585.609	55874.22
585.969	56006.65
586.329	55922.36
586.688	56057.27
587.048	56027.44
587.408	55909.48
587.768	55946.76
588.127	55974.33
588.487	55986.54
588.846	56153.76
589.206	55969.36
589.565	55933.88
589.925	56089.36
590.284	55996.25
590.643	56135.46
591.003	56149.47
591.362	56120.09
591.721	56114.67
592.08	56172.97
592.44	56185.18
592.799	56189.92
593.158	56155.12
593.517	56101.11
593.876	56179.07
594.235	56157.61
594.593	56164.16
594.952	56254.55
595.311	56174.78
595.67	56184.72
596.029	56308.11
596.387	56317.15
596.746	56316.92
597.104	56236.93
597.463	56295
597.822	56398.05
598.18	56284.16
598.538	56297.04
598.897	56477.37
599.255	56171.84
599.613	56565.96
599.972	56367.09
600.33	56442.12
600.688	56378.16
601.046	56518.73
601.404	56566.86
601.762	56484.6
602.12	56681.89
602.478	56624.49
602.836	56551.95
603.194	56510.82
603.552	56555.33
603.91	56528.67
604.268	56675.33
604.625	56555.79
604.983	56715.33
605.341	56636.01
605.698	56765.05
606.056	56823.8
606.413	56760.08
606.771	56867.64
607.128	56843.69
607.485	56747.65
607.843	56802.79
608.2	56899.05
608.557	56934.53
608.914	56836.01
609.272	57052.27
609.629	57051.14
609.986	57083
610.343	57016.34
610.7	57179.27
611.057	57109.44
611.414	57036.45
611.771	57109.9
612.127	57266.5
612.484	57214.07
612.841	57268.31
613.198	57200.97
613.554	57288.65
613.911	57440.06
614.267	57347.63
614.624	57356.9
614.98	57401.19
615.337	57512.6
615.693	57403.67
616.05	57417.23
616.406	57537.46
616.762	57426.27
617.118	57419.27
617.475	57464.92
617.831	57494.07
618.187	57544.24
618.543	57607.51
618.899	57775.19
619.255	57695.19
619.611	57601.18
619.967	57659.03
620.323	57741.52
620.678	57589.43
621.034	57633.5
621.39	57532.71
621.746	57496.55
622.101	57858.35
622.457	57692.25
622.812	57671.92
623.168	57780.39
623.523	57721.41
623.879	57803.21
624.234	57601.41
624.589	57761.86
624.945	57785.13
625.3	57795.53
625.655	57806.6
626.01	57885.92
626.365	57830.78
626.72	57802.53
627.075	57793.49
627.43	57700.39
627.785	57684.12
628.14	57709.2
628.495	57741.97
628.85	57677.57
629.205	57633.95
629.559	57716.43
629.914	57586.27
630.269	57542.65
630.623	57444.13
630.978	57408.65
631.332	57570
631.687	57655.42
632.041	57471.7
632.396	57435.31
632.75	57407.06
633.104	57476.89
633.459	57415.65
633.813	57277.8
634.167	57254.75
634.521	57223.57
634.875	57277.12
635.229	57298.37
635.583	57066.73
635.937	57095.43
636.291	57066.28
636.645	57082.33
636.999	57030.35
637.352	57008.2
637.706	56881.88
638.06	56974.98
638.413	57024.93
638.767	56889.56
639.121	56930.92
639.474	56786.29
639.828	56826.51
640.181	56867.87
640.534	56930.47
640.888	56779.06
641.241	56732.96
641.594	56740.41
641.947	56746.52
642.301	56619.74
642.654	56582.45
643.007	56556.24
643.36	56415.9
643.713	56512.62
644.066	56698.61
644.419	56357.83
644.771	56142.46
645.124	55784.73
645.477	55638.3
645.83	55562.82
646.182	55310.4
646.535	55507.45
646.888	55677.62
647.24	55721.23
647.593	55793.77
647.945	55722.36
648.298	55645.3
648.65	55519.66
649.002	55377.51
649.355	55345.88
649.707	55218.65
650.059	55223.84
650.411	55532.54
650.763	55587.45
651.115	55893.88
651.467	55810.04
651.819	55858.18
652.171	55810.04
652.523	55705.41
652.875	55703.15
653.227	55545.42
653.578	55740.44
653.93	55640.1
654.282	55574.57
654.633	55485.76
654.985	55539.99
655.337	55539.32
655.688	55550.39
656.039	55618.18
656.391	55352.65
656.742	55378.64
657.094	55443.95
657.445	55408.92
657.796	55328.02
658.147	55320.79
658.498	55346.55
658.849	55216.61
659.2	55146.78
659.551	55132.32
659.902	55236.5
660.253	55130.29
660.604	55164.86
660.955	55041.25
661.306	55067.92
661.656	55005.09
662.007	55007.35
662.358	55024.53
662.708	55000.12
663.059	54980.91
663.409	54820.47
663.76	54985.43
664.11	55048.26
664.461	54980.01
664.811	55028.6
665.161	55022.72
665.511	54846.23
665.862	54851.88
666.212	54887.81
666.562	54943.63
666.912	54859.79
667.262	54769.39
667.612	54765.78
667.962	54812.1
668.312	54830.86
668.662	54902.72
669.011	54752.22
669.361	54704.08
669.711	54669.06
670.06	54642.39
670.41	54632.9
670.76	54487.14
671.109	54653.46
671.459	54662.96
671.808	54545.22
672.157	54639.68
672.507	54416.63
672.856	54453.7
673.205	54382.06
673.554	54604.88
673.904	54429.74
674.253	54606.46
674.602	54456.86
674.951	54045.8
675.3	53853.49
675.649	54288.73
675.998	54302.96
676.346	54329.63
676.695	54428.39
677.044	54168.05
677.393	54302.51
677.741	54224.32
678.09	54118.79
678.438	54058.23
678.787	54165.79
679.135	54146.36
679.484	53952.92
679.832	54018.45
680.181	53832.92
680.529	53996.76
680.877	53906.59
681.225	53807.38
681.573	53839.25
681.922	53689.42
682.27	53574.62
682.618	53632.47
682.966	53613.72
683.314	53726.71
683.661	53553.15
684.009	53354.06
684.357	53297.79
684.705	53207.63
685.053	53253.95
685.4	53249.21
685.748	53091.25
686.095	53077.91
686.443	53001.98
686.79	52970.57
687.138	52919.95
687.485	52950.23
687.832	52779.16
688.18	52673.63
688.527	52695.1
688.874	52663.46
689.221	52567.64
689.568	52397.7
689.915	52345.5
690.262	52317.71
690.609	52258.95
690.956	52212.85
691.303	52136.47
691.65	51995.91
691.997	52000.65
692.344	51730.6
692.69	51684.05
693.037	51734.22
693.383	51482.02
693.73	51636.14
694.077	51402.25
694.423	51441.57
694.769	51275.47
695.116	51189.15
695.462	51168.81
695.808	50999.55
696.155	51076.61
696.501	50736.05
696.847	50837.52
697.193	50459.45
697.539	50691.99
697.885	50386.68
698.231	50256.52
698.577	50241.83
698.923	50259.23
699.269	50132.68
699.614	49925.9
699.96	49809.98
700.306	49812.24
700.651	49611.34
700.997	49499.48
701.342	49386.03
701.688	49321.63
702.033	49255.19
702.379	49104.46
702.724	49167.05
703.069	49115.53
703.415	48747.63
703.76	48641.19
704.105	48711.47
704.45	48628.76
704.795	48386.96
705.14	48266.29
705.485	48285.27
705.83	48088.44
706.175	48271.48
706.52	48096.57
706.865	47897.26
707.209	47755.34
707.554	47721.89
707.899	47695.23
708.243	47510.38
708.588	47415.46
708.932	47277.16
709.277	47277.16
709.621	47153.55
709.966	46898.87
710.31	47095.02
710.654	46688.25
710.998	46634.69
711.342	46723.28
711.687	46575.26
712.031	46300.46
712.375	46274.48
712.719	46350.63
713.063	46267.92
713.407	46257.3
713.75	46186.34
714.094	46082.39
714.438	45957.87
714.782	45953.35
715.125	45650.54
715.469	45743.19
715.812	45374.84
716.156	45199.48
716.499	45171.45
716.843	45325.57
717.186	44978.69
717.53	45222.53
717.873	45102.75
718.216	44928.97
718.559	44864.79
718.902	44580.51
719.246	44618.25
719.589	44537.57
719.932	44437.46
720.275	44484.01
720.617	44517.01
720.96	44238.6
721.303	44245.15
721.646	44214.87
721.989	44076.57
722.331	44041.77
722.674	43932.39
723.016	43863.92
723.359	43831.83
723.701	43905.5
724.044	43586.86
724.386	43520.88
724.729	43771.04
725.071	43553.42
725.413	43473.87
725.755	43443.59
726.097	43283.82
726.439	43023.04
726.782	43117.04
727.124	43185.52
727.465	42752.31
727.807	42662.59
728.149	42697.62
728.491	42700.11
728.833	42607.68
729.175	42417.85
729.516	42394.35
729.858	42360.23
730.199	42350.74
730.541	42209.05
730.882	42087.92
731.224	42305.77
731.565	42081.37
731.906	42049.73
732.248	42009.28
732.589	41780.81
732.93	41580.14
733.271	41681.6
733.612	41828.49
733.953	41775.61
734.294	41681.6
734.635	41555.05
734.976	41537.2
735.317	41354.83
735.658	41235.06
735.999	41296.08
736.339	41120.71
736.68	41275.51
737.021	41130.66
737.361	40875.3
737.702	41174.5
738.042	40934.28
738.383	40741.06
738.723	41077.32
739.063	40539.94
739.404	40619.48
739.744	40561.41
740.084	40276.21
740.424	40425.82
740.764	40373.84
741.104	40455.87
741.444	40167.97
741.784	40102.21
742.124	39965.26
742.464	39960.97
742.804	39906.96
743.143	39849.11
743.483	39838.94
743.823	39633.97
744.162	39629.68
744.502	39695.44
744.841	39448.67
745.181	39553.3
745.52	39363.02
745.86	39399.85
746.199	39128.67
746.538	39177.71
746.877	39259.29
747.216	39387.42
747.556	39064.72
747.895	38880.32
748.234	38772.98
748.573	38967.55
748.911	38808.91
749.25	38779.31
749.589	38622.7
749.928	38771.17
750.267	38582.7
750.605	38467.45
750.944	38321.46
751.283	38140.68
751.621	38069.49
751.96	37812.32
752.298	37798.99
752.636	37907.01
