Data from foil_FLMS001491_072.txt Node
Date: Tue Feb 07 11:36:42 GMT 2017
User: dcchb
Spectrometer: FLMS00149
Trigger mode: 0
Integration Time (sec): 2.000000E-2
Scans to average: 10
Electric dark correction enabled: true
Nonlinearity correction enabled: false
Boxcar width: 0
XAxis mode: Wavelengths
Number of Pixels in Spectrum: 2048
>>>>>Begin Spectral Data<<<<<
341.393	-22.61
341.776	-22.61
342.16	-22.61
342.543	-57.87
342.927	-51.99
343.31	-73.01
343.693	-42.27
344.077	-59.22
344.46	-43.4
344.843	-46.34
345.226	-50.63
345.61	-45.66
345.993	-14.48
346.376	-13.57
346.759	18.52
347.142	13.54
347.525	43.6
347.908	54.22
348.291	67.78
348.674	87.67
349.057	103.26
349.44	128.34
349.823	153.43
350.206	184.61
350.588	244.05
350.971	258.06
351.354	291.73
351.737	300.09
352.119	338.73
352.502	325.4
352.884	347.32
353.267	336.7
353.65	352.97
354.032	364.27
354.414	373.08
354.797	358.85
355.179	390.94
355.562	387.77
355.944	415.57
356.326	407.66
356.709	418.96
357.091	406.53
357.473	430.03
357.855	435.23
358.238	408.79
358.62	431.61
359.002	414.89
359.384	423.25
359.766	423.93
360.148	426.19
360.53	425.06
360.912	415.57
361.294	423.25
361.676	419.64
362.057	422.57
362.439	433.65
362.821	425.06
363.203	429.35
363.584	416.25
363.966	411.5
364.348	409.69
364.729	434.78
365.111	416.7
365.493	420.31
365.874	415.12
366.256	427.55
366.637	418.96
367.019	442.69
367.4	420.77
367.781	439.3
368.163	412.18
368.544	406.3
368.925	435.23
369.306	450.82
369.688	440.88
370.069	454.66
370.45	428.22
370.831	445.62
371.212	452.4
371.593	444.27
371.974	453.53
372.355	456.47
372.736	457.15
373.117	466.87
373.498	474.78
373.879	478.39
374.26	459.86
374.641	459.63
375.021	453.76
375.402	493.98
375.783	509.35
376.163	542.34
376.544	538.95
376.925	490.37
377.305	507.09
377.686	502.8
378.066	518.16
378.447	518.84
378.827	513.42
379.208	522.23
379.588	550.03
379.968	513.19
380.349	509.13
380.729	553.19
381.109	547.54
381.489	570.14
381.87	552.51
382.25	564.94
382.63	555.23
383.01	589.12
383.39	587.32
383.77	592.74
384.15	583.47
384.53	616.01
384.91	585.51
385.29	622.34
385.67	626.41
386.049	631.83
386.429	631.16
386.809	616.01
387.189	657.82
387.568	646.75
387.948	637.26
388.328	665.05
388.707	658.05
389.087	682
389.466	684.26
389.846	672.06
390.225	694.88
390.605	685.39
390.984	703.7
391.363	686.97
391.743	736.01
392.122	708.67
392.501	721.1
392.881	736.01
393.26	736.24
393.639	765.62
394.018	752.51
394.397	781.66
394.776	770.81
395.155	778.27
395.534	769.46
395.913	783.92
396.292	807.2
396.671	819.85
397.05	815.33
397.429	823.02
397.808	844.03
398.186	843.81
398.565	833.18
398.944	866.18
399.323	863.24
399.701	879.74
400.08	882.67
400.458	890.81
400.837	886.52
401.215	903.46
401.594	904.37
401.972	930.36
402.351	929.9
402.729	926.29
403.107	946.18
403.486	954.54
403.864	967.64
404.242	961.32
404.62	976.68
404.999	1002.22
405.377	1005.84
405.755	1041.31
406.133	1035.66
406.511	1071.6
406.889	1066.85
407.267	1070.24
407.645	1080.18
408.023	1081.99
408.401	1112.95
408.779	1148.43
409.156	1174.64
409.534	1158.37
409.912	1158.37
410.29	1199.95
410.667	1194.3
411.045	1235.43
411.422	1227.52
411.8	1249.9
412.178	1274.3
412.555	1292.83
412.933	1298.93
413.31	1304.13
413.687	1332.15
414.065	1358.14
414.442	1376.67
414.819	1374.19
415.197	1381.42
415.574	1410.8
415.951	1417.8
416.328	1424.81
416.705	1408.54
417.082	1466.16
417.46	1455.31
417.837	1470.46
418.214	1485.14
418.591	1564.24
418.967	1530.12
419.344	1530.12
419.721	1546.16
420.098	1537.57
420.475	1594.97
420.852	1627.29
421.228	1638.13
421.605	1620.73
421.982	1633.84
422.358	1668.19
422.735	1668.42
423.111	1676.78
423.488	1708.19
423.864	1738.02
424.241	1732.6
424.617	1758.13
424.994	1801.52
425.37	1804.23
425.746	1795.42
426.123	1846.27
426.499	1872.48
426.875	1875.19
427.251	1924.91
427.627	1913.38
428.003	1987.28
428.379	1981.63
428.756	2026.83
429.132	1991.12
429.507	2045.81
429.883	2054.62
430.259	2103.66
430.635	2112.7
431.011	2134.84
431.387	2211
431.763	2243.32
432.138	2233.6
432.514	2294.84
432.89	2284.45
433.265	2336.42
433.641	2369.42
434.016	2346.82
434.392	2413.03
434.767	2449.64
435.143	2443.09
435.518	2459.13
435.894	2498.23
436.269	2540.03
436.644	2561.5
437.02	2569.41
437.395	2623.87
437.77	2645.79
438.145	2679.92
438.52	2724.43
438.895	2723.53
439.271	2755.85
439.646	2810.99
440.021	2812.12
440.395	2819.12
440.77	2814.6
441.145	2848.72
441.52	2895.95
441.895	2912
442.27	2894.83
442.645	2914.03
443.019	2958.78
443.394	2942.28
443.769	2981.15
444.143	2947.03
444.518	3046.46
444.892	3008.04
445.267	3054.14
445.641	3101.6
446.016	3119.68
446.39	3130.07
446.764	3143.63
447.139	3172.78
447.513	3227.47
447.887	3203.29
448.262	3241.03
448.636	3269.96
449.01	3265.89
449.384	3290.29
449.758	3313.8
450.132	3351.99
450.506	3376.17
450.88	3410.07
451.254	3408.48
451.628	3526.22
452.002	3526.9
452.376	3561.02
452.75	3593.79
453.123	3572.1
453.497	3658.19
453.871	3661.36
454.244	3767.57
454.618	3783.39
454.992	3806.89
455.365	3854.57
455.739	3930.05
456.112	3947
456.486	4007.11
456.859	4018.86
457.232	4061.12
457.606	4122.82
457.979	4136.83
458.352	4270.38
458.725	4286.43
459.099	4281.46
459.472	4368.23
459.845	4472.18
460.218	4501.34
460.591	4529.36
460.964	4560.54
461.337	4669.69
461.71	4669.24
462.083	4749.01
462.456	4788.79
462.829	4807.54
463.201	4891.61
463.574	4907.2
463.947	4963.7
464.32	5095.45
464.692	5138.16
465.065	5200.98
465.438	5193.75
465.81	5258.15
466.183	5379.73
466.555	5428.09
466.928	5497.24
467.3	5501.76
467.672	5624.92
468.045	5753.05
468.417	5776.33
468.789	5803
469.161	5896.1
469.534	5981.52
469.906	6085.93
470.278	6139.03
470.65	6210.22
471.022	6318.01
471.394	6433.04
471.766	6511.45
472.138	6588.06
472.51	6667.38
472.882	6810.65
473.253	6802.52
473.625	6946.47
473.997	7138.1
474.369	7101.04
474.74	7204.09
475.112	7383.29
475.484	7464.2
475.855	7629.84
476.227	7714.13
476.598	7861.25
476.97	7913.45
477.341	8161.81
477.713	8256.94
478.084	8294.91
478.455	8541.91
478.827	8580.55
479.198	8828.45
479.569	8810.83
479.94	9116.36
480.311	9207.65
480.682	9400.64
481.053	9584.37
481.424	9730.13
481.795	9816.9
482.166	10014.41
482.537	10060.51
482.908	10321.07
483.279	10385.02
483.65	10553.61
484.021	10816.88
484.391	10897.33
484.762	10994.73
485.133	11147.49
485.503	11256.87
485.874	11530.3
486.244	11644.88
486.615	11719.9
486.985	11959.45
487.356	12223.17
487.726	12330.06
488.097	12527.34
488.467	12553.78
488.837	12823.6
489.207	12959.87
489.578	13204.61
489.948	13274.21
490.318	13442.12
490.688	13484.38
491.058	13710.13
491.428	13977.92
491.798	14081.88
492.168	14333.62
492.538	14378.59
492.908	14603.44
493.278	14792.59
493.648	14754.63
494.017	14814.96
494.387	15073.26
494.757	15262.18
495.126	15402.74
495.496	15342.63
495.866	15522.29
496.235	15753.02
496.605	15866.91
496.974	15974.71
497.344	16122.05
497.713	16207.92
498.082	16373.79
498.452	16495.37
498.821	16546.9
499.19	16655.59
499.559	16773.56
499.928	17022.36
500.298	16967.9
500.667	17168.57
501.036	17147.11
501.405	17475.01
501.774	17364.95
502.143	17609.47
502.512	17659.18
502.88	17807.43
503.249	17950.02
503.618	17957.93
503.987	17998.83
504.356	18217.36
504.724	18253.07
505.093	18315.89
505.462	18491.48
505.83	18596.33
506.199	18858.7
506.567	19039.49
506.936	19066.6
507.304	19201.97
507.672	19356.09
508.041	19399.7
508.409	19515.4
508.777	19703.42
509.145	19829.97
509.514	19887.82
509.882	20026.35
510.25	20192
510.618	20362.16
510.986	20338.89
511.354	20585.43
511.722	20794.92
512.09	20976.84
512.458	20950.62
512.826	21114.01
513.193	21224.96
513.561	21398.97
513.929	21466.77
514.297	21569.59
514.664	21873.99
515.032	22099.52
515.4	22095.9
515.767	22205.73
516.135	22406.18
516.502	22399.62
516.869	22789.67
517.237	22890.68
517.604	22807.07
517.972	23124.58
518.339	23290.67
518.706	23365.02
519.073	23534.96
519.44	23653.83
519.808	23917.78
520.175	23963.42
520.542	24307.6
520.909	24407.93
521.276	24409.74
521.643	24684.99
522.009	24985.77
522.376	24992.55
522.743	25204.29
523.11	25384.63
523.477	25681.34
523.843	25807.67
524.21	26090.37
524.577	26267.32
524.943	26402
525.31	26587.76
525.676	26826.17
526.043	27000.41
526.409	27102.55
526.776	27395.2
527.142	27515.19
527.508	27637.9
527.874	27887.61
528.241	27896.2
528.607	28138.68
528.973	28368.73
529.339	28375.06
529.705	28723.3
530.071	28882.62
530.437	29140.24
530.803	29239.9
531.169	29426.33
531.535	29388.14
531.901	29499.32
532.267	29665.87
532.632	29959.65
532.998	30007.78
533.364	30141.79
533.73	30266.99
534.095	30499.52
534.461	30587.2
534.826	30824.03
535.192	30831.27
535.557	31143.35
535.923	31167.75
536.288	31199.62
536.653	31470.34
537.019	31336.79
537.384	31728.19
537.749	31743.11
538.114	31804.35
538.479	31850.9
538.845	31992.82
539.21	32034.85
539.575	32309.87
539.94	32339.47
540.305	32496.76
540.67	32562.52
541.034	32717.77
541.399	32749.41
541.764	32950.08
542.129	32949.18
542.494	33249.06
542.858	33289.73
543.223	33281.37
543.587	33593
543.952	33543.74
544.316	33821.02
544.681	33781.92
545.045	33881.13
545.41	34131.29
545.774	34159.31
546.138	34334.68
546.503	34281.34
546.867	34308.01
547.231	34681.56
547.595	34696.7
547.959	34820.31
548.324	34945.06
548.688	34973.98
549.052	35065.73
549.416	35359.06
549.779	35406.74
550.143	35438.15
550.507	35689.67
550.871	35789.55
551.235	35806.95
551.599	36030.68
551.962	36170.79
552.326	36287.85
552.689	36501.62
553.053	36474.28
553.417	36671.79
553.78	37017.32
554.143	36877.89
554.507	37125.34
554.87	37026.36
555.234	37540.47
555.597	37313.36
555.96	37513.35
556.323	37717.41
556.686	37852.78
557.05	38145.88
557.413	38245.76
557.776	38435.81
558.139	38648.91
558.502	38626.09
558.865	38718.52
559.228	38963.93
559.59	39149.01
559.953	39357.82
560.316	39623.35
560.679	39626.06
561.041	40033.06
561.404	40047.52
561.767	40534.97
562.129	40353.28
562.492	40640.5
562.854	40671.46
563.217	40765.02
563.579	40831.91
563.941	41265.57
564.304	41365
564.666	41447.26
565.028	41682.28
565.39	41910.3
565.753	42094.25
566.115	42333.34
566.477	42481.81
566.839	42482.26
567.201	42774.91
567.563	42905.98
567.925	43030.04
568.287	43183.94
568.648	43132.64
569.01	43613.75
569.372	43768.1
569.734	43614.21
570.095	43965.16
570.457	44049.9
570.819	44114.53
571.18	44039.96
571.542	44409.44
571.903	44476.33
572.265	44653.5
572.626	44548.65
572.987	44825.02
573.349	44855.08
573.71	44996.99
574.071	45180.49
574.432	45290.77
574.794	45618
575.155	45456.42
575.516	45604.89
575.877	45710.87
576.238	45830.65
576.599	45910.42
576.96	46048.27
577.32	46061.83
577.681	46172.11
578.042	46269.73
578.403	46243.06
578.763	46124.87
579.124	46435.15
579.485	46567.12
579.845	46582.49
580.206	46547.69
580.566	46572.32
580.927	46554.47
581.287	46839.43
581.648	46738.64
582.008	46824.74
582.368	46705.65
582.728	46765.31
583.089	46794.01
583.449	46699.77
583.809	46848.7
584.169	46942.03
584.529	46656.39
584.889	47096.83
585.249	46823.84
585.609	46851.64
585.969	46900.9
586.329	46856.15
586.688	46960.78
587.048	46967.79
587.408	46921.24
587.768	47114.91
588.127	46960.11
588.487	46785.87
588.846	47172.08
589.206	46839.21
589.565	46886.89
589.925	47105.19
590.284	46896.83
590.643	47002.14
591.003	47022.03
591.362	47206.88
591.721	47005.98
592.08	47027.22
592.44	47154.45
592.799	47142.25
593.158	47097.73
593.517	47092.53
593.876	47121.23
594.235	46961.69
594.593	47089.6
594.952	47120.1
595.311	47118.75
595.67	47298.63
596.029	47356.03
596.387	47375.24
596.746	47415.01
597.104	47178.63
597.463	47188.58
597.822	47258.4
598.18	47284.84
598.538	47242.59
598.897	47487.1
599.255	47129.14
599.613	47815
599.972	47412.75
600.33	47454.11
600.688	47366.65
601.046	47536.82
601.404	47649.81
601.762	47611.62
602.12	47734.32
602.478	47750.82
602.836	47604.84
603.194	47530.71
603.552	47627.89
603.91	47429.25
604.268	47771.16
604.625	47521.67
604.983	47735.45
605.341	47643.93
605.698	47889.12
606.056	47923.25
606.413	47808.22
606.771	48050.7
607.128	48046.86
607.485	48062.68
607.843	47980.42
608.2	48181.32
608.557	48244.14
608.914	48082.11
609.272	48316
609.629	48178.15
609.986	48399.17
610.343	48232.16
610.7	48602.1
611.057	48389
611.414	48399.17
611.771	48426.96
612.127	48542.44
612.484	48578.6
612.841	48617.24
613.198	48515.55
613.554	48516.68
613.911	48751.02
614.267	48560.29
614.624	48636.22
614.98	48814.75
615.337	48869.21
615.693	48841.41
616.05	48736.11
616.406	49012.71
616.762	48964.12
617.118	48893.62
617.475	48899.94
617.831	49051.13
618.187	49041.18
618.543	49060.39
618.899	49184.91
619.255	49141.52
619.611	49022.65
619.967	49283.44
620.323	49248.41
620.678	49166.6
621.034	49061.52
621.39	48962.31
621.746	48904.01
622.101	49415.64
622.457	49019.49
622.812	49170.22
623.168	49118.47
623.523	49054.52
623.879	49260.61
624.234	49037.11
624.589	49194.85
624.945	49154.63
625.3	49271.68
625.655	49295.64
626.01	49208.41
626.365	49279.14
626.72	49162.54
627.075	49242.53
627.43	49131.12
627.785	49023.33
628.14	49082.31
628.495	49052.03
628.85	48993.5
629.205	48839.38
629.559	49031.92
629.914	48797.57
630.269	48834.18
630.623	48685.26
630.978	48613.62
631.332	49038.47
631.687	48921.19
632.041	48780.17
632.396	48731.13
632.75	48664.24
633.104	48585.83
633.459	48648.65
633.813	48516.22
634.167	48511.48
634.521	48391.26
634.875	48484.81
635.229	48437.36
635.583	48257.7
635.937	48237.59
636.291	48147.42
636.645	48072.85
636.999	47990.81
637.352	47993.53
637.706	47774.32
638.06	47958.27
638.413	47914.66
638.767	47719.86
639.121	47910.59
639.474	47711.27
639.828	47616.13
640.181	47743.82
640.534	47633.31
640.888	47510.6
641.241	47383.82
641.594	47335.01
641.947	47365.75
642.301	47319.65
642.654	47307.89
643.007	47246.2
643.36	47273.09
643.713	47173.89
644.066	47145.19
644.419	46866.1
644.771	46332.33
645.124	45920.36
645.477	45896.41
645.83	45785
646.182	45831.78
646.535	45701.61
646.888	45894.6
647.24	45678.33
647.593	45917.2
647.945	45850.98
648.298	45543.87
648.65	45557.88
649.002	45395.18
649.355	45469.98
649.707	45303.43
650.059	45412.58
650.411	45769.63
650.763	45740.48
651.115	46126.23
651.467	46184.31
651.819	45952.9
652.171	45918.55
652.523	45827.03
652.875	45797.65
653.227	45732.79
653.578	45972.56
653.93	45916.97
654.282	45778.22
654.633	45679.91
654.985	45696.64
655.337	45672.91
655.688	45625.23
656.039	45683.98
656.391	45417.1
656.742	45496.42
657.094	45309.3
657.445	45513.37
657.796	45315.18
658.147	45229.98
658.498	45193.37
658.849	45241.73
659.2	45306.59
659.551	45165.8
659.902	45234.73
660.253	45084.22
660.604	45121.29
660.955	45032.47
661.306	45023.89
661.656	45043.32
662.007	44933.72
662.358	44933.27
662.708	44770.11
663.059	44810.11
663.409	44630.22
663.76	44886.49
664.11	44808.75
664.461	44884.23
664.811	44816.43
665.161	44667.74
665.511	44616.21
665.862	44706.38
666.212	44781.63
666.562	44683.33
666.912	44702.31
667.262	44468.42
667.612	44472.71
667.962	44514.52
668.312	44425.26
668.662	44650.34
669.011	44512.94
669.361	44572.6
669.711	44381.42
670.06	44393.62
670.41	44215.55
670.76	44161.76
671.109	44321.31
671.459	44233.17
671.808	44033.63
672.157	44176
672.507	43973.52
672.856	43959.96
673.205	43956.34
673.554	44122.89
673.904	43895.33
674.253	44173.97
674.602	43891.71
674.951	43294.67
675.3	43283.82
675.649	43820.98
675.998	43634.32
676.346	43789.57
676.695	43833.18
677.044	43593.87
677.393	43639.97
677.741	43686.52
678.09	43405.4
678.438	43361.56
678.787	43375.57
679.135	43385.51
679.484	43190.94
679.832	43190.94
680.181	43124.05
680.529	43236.36
680.877	43088.57
681.225	43063.49
681.573	43223.71
681.922	42755.25
682.27	42764.29
682.618	42762.25
682.966	42923.83
683.314	42697.39
683.661	42735.36
684.009	42368.14
684.357	42393.9
684.705	42225.54
685.053	42357.74
685.4	42260.8
685.748	41891.77
686.095	42139.89
686.443	41790.53
686.79	41758.89
687.138	42007.69
687.485	41906.45
687.832	41567.93
688.18	41664.2
688.527	41472.12
688.874	41420.82
689.221	41263.53
689.568	41193.25
689.915	40972.47
690.262	41032.13
690.609	40917.78
690.956	40771.34
691.303	40679.82
691.65	40463.78
691.997	40440.28
692.344	40185.14
692.69	40243.9
693.037	40299.72
693.383	39960.29
693.73	40098.82
694.077	39673.29
694.423	39778.83
694.769	39647.53
695.116	39625.38
695.462	39594.65
695.808	39329.57
696.155	39284.38
696.501	39229.91
696.847	39001.67
697.193	38726.2
697.539	39001.9
697.885	38722.58
698.231	38630.16
698.577	38479.43
698.923	38323.72
699.269	38153.78
699.614	38163.28
699.96	37957.18
700.306	38104.07
700.651	37809.16
700.997	37653.46
701.342	37547.93
701.688	37551.54
702.033	37465.89
702.379	37426.57
702.724	37317.42
703.069	37388.61
703.415	36964.66
703.76	36949.75
704.105	36959.47
704.45	36763.99
704.795	36645.8
705.14	36496.88
705.485	36525.81
705.83	36358.58
706.175	36321.74
706.52	36346.83
706.865	36125.14
707.209	36094.18
707.554	35867.07
707.899	35906.39
708.243	35849.66
708.588	35816.45
708.932	35544.59
709.277	35522.22
709.621	35488.77
709.966	35187.08
710.31	35206.29
710.654	34970.82
710.998	35041.78
711.342	35140.08
711.687	34807.88
712.031	34821.22
712.375	34768.11
712.719	34704.84
713.063	34660.77
713.407	34856.7
713.75	34440.44
714.094	34399.99
714.438	34265.53
714.782	34334.22
715.125	34145.75
715.469	34197.5
715.812	33868.02
716.156	33877.51
716.499	33794.58
716.843	33635.94
717.186	33506.45
717.53	33723.84
717.873	33749.61
718.216	33552.1
718.559	33493.57
718.902	33305.55
719.246	33376.51
719.589	33115.95
719.932	33044.99
720.275	33092.9
720.617	32992.11
720.96	33005.67
721.303	32897.65
721.646	32860.14
721.989	32681.61
722.331	32708.73
722.674	32695.4
723.016	32644.78
723.359	32536.31
723.701	32632.57
724.044	32321.17
724.386	32164.34
724.729	32244.56
725.071	32120.05
725.413	32195.98
725.755	32217.44
726.097	32010.22
726.439	31813.61
726.782	31883.67
727.124	31989.43
727.465	31789.66
727.807	31763.44
728.149	31597.35
728.491	31616.78
728.833	31607.74
729.175	31432.83
729.516	31390.35
729.858	31379.5
730.199	31279.39
730.541	31263.57
730.882	31055.67
731.224	31241.2
731.565	31046.4
731.906	30958.27
732.248	31005.5
732.589	30899.51
732.93	30702
733.271	30807.31
733.612	30878.72
733.953	30755.79
734.294	30699.52
734.635	30556.02
734.976	30677.6
735.317	30648.67
735.658	30470.82
735.999	30342.01
736.339	30338.85
736.68	30342.69
737.021	30321.9
737.361	30107.22
737.702	30268.34
738.042	30199.64
738.383	30054.11
738.723	30012.53
739.063	30017.95
739.404	30025.19
739.744	29852.99
740.084	29901.57
740.424	29878.97
740.764	29758.07
741.104	29883.95
741.444	29574.8
741.784	29539.32
742.124	29518.31
742.464	29391.76
742.804	29357.18
743.143	29438.08
743.483	29401.92
743.823	29069.73
744.162	29080.13
744.502	29111.76
744.841	29016.85
745.181	29061.14
745.52	28934.59
745.86	28961.71
746.199	28882.84
746.538	28848.94
746.877	28877.42
747.216	28884.65
747.556	28664.32
747.895	28583.42
748.234	28403.31
748.573	28527.6
748.911	28447.6
749.25	28424.1
749.589	28190.43
749.928	28204.89
750.267	28179.13
750.605	28178.91
750.944	28072.24
751.283	28107.27
751.621	28009.19
751.96	27920.16
752.298	27935.97
752.636	27851.91
752.975	27669.77
753.313	27549.54
