Data from foil_FLMS001491_056.txt Node
Date: Tue Feb 07 11:27:11 GMT 2017
User: dcchb
Spectrometer: FLMS00149
Trigger mode: 0
Integration Time (sec): 2.000000E-2
Scans to average: 10
Electric dark correction enabled: true
Nonlinearity correction enabled: false
Boxcar width: 0
XAxis mode: Wavelengths
Number of Pixels in Spectrum: 2048
>>>>>Begin Spectral Data<<<<<
341.393	-23.33
341.776	-23.33
342.16	-23.33
342.543	-47.51
342.927	-72.6
343.31	-89.09
343.693	-77.57
344.077	-66.04
344.46	-45.48
344.843	-38.47
345.226	-42.32
345.61	-48.42
345.993	-17.01
346.376	-3.45
346.759	9.21
347.142	33.61
347.525	39.94
347.908	80.17
348.291	73.16
348.674	88.3
349.057	103.44
349.44	121.97
349.823	147.28
350.206	176.66
350.588	237.68
350.971	249.43
351.354	277.9
351.737	282.42
352.119	303.21
352.502	311.35
352.884	324.91
353.267	332.14
353.65	337.11
354.032	330.78
354.414	342.99
354.797	372.14
355.179	361.06
355.562	362.19
355.944	372.14
356.326	407.84
356.709	387.28
357.091	390.22
357.473	415.3
357.855	398.8
358.238	408.52
358.62	413.27
359.002	381.63
359.384	405.58
359.766	409.65
360.148	424.11
360.53	419.59
360.912	393.38
361.294	392.93
361.676	409.2
362.057	414.17
362.439	417.79
362.821	399.71
363.203	418.92
363.584	386.15
363.966	411.68
364.348	411.01
364.729	419.37
365.111	399.03
365.493	431.34
365.874	412.14
366.256	406.26
366.637	408.97
367.019	395.87
367.4	433.15
367.781	411.23
368.163	431.8
368.544	433.15
368.925	398.35
369.306	425.92
369.688	428.63
370.069	423.66
370.45	424.57
370.831	419.59
371.212	457.56
371.593	446.94
371.974	439.03
372.355	413.04
372.736	445.13
373.117	455.98
373.498	460.72
373.879	444
374.26	458.91
374.641	435.41
375.021	449.65
375.402	467.95
375.783	484.9
376.163	522.64
376.544	502.98
376.925	476.54
377.305	491.23
377.686	488.29
378.066	504.11
378.447	524
378.827	500.95
379.208	496.43
379.588	516.77
379.968	525.13
380.349	530.33
380.729	553.15
381.109	542.98
381.489	551.34
381.87	562.19
382.25	536.43
382.63	543.66
383.01	572.81
383.39	536.88
383.77	563.77
384.15	592.02
384.53	583.43
384.91	584.33
385.29	600.15
385.67	617.33
386.049	618.68
386.429	601.74
386.809	625.46
387.189	625.69
387.568	649.19
387.948	638.34
388.328	653.94
388.707	655.97
389.087	670.21
389.466	677.89
389.846	683.32
390.225	678.12
390.605	709.53
390.984	712.02
391.363	722.18
391.743	712.92
392.122	741.17
392.501	733.03
392.881	745.91
393.26	777.32
393.639	764.44
394.018	802.41
394.397	778.91
394.776	787.27
395.155	800.6
395.534	804.89
395.913	784.33
396.292	824.33
396.671	812.58
397.05	849.41
397.429	838.79
397.808	867.94
398.186	873.59
398.565	865.46
398.944	901.84
399.323	880.82
399.701	906.13
400.08	898.9
400.458	901.16
400.837	933.03
401.215	954.27
401.594	953.82
401.972	972.57
402.351	991.78
402.729	1004.21
403.107	1033.14
403.486	1017.09
403.864	1033.14
404.242	1003.31
404.62	1054.38
404.999	1050.09
405.377	1047.83
405.755	1051.89
406.133	1083.76
406.511	1091.89
406.889	1102.06
407.267	1176.18
407.645	1159.01
408.023	1191.55
408.401	1188.61
408.779	1167.14
409.156	1199.01
409.534	1218.89
409.912	1229.29
410.29	1276.75
410.667	1268.38
411.045	1321.49
411.422	1348.83
411.8	1356.07
412.178	1365.11
412.555	1385.44
412.933	1414.14
413.31	1430.87
413.687	1425.44
414.065	1444.43
414.442	1467.93
414.819	1482.84
415.197	1512.9
415.574	1520.36
415.951	1558.77
416.328	1554.48
416.705	1562.39
417.082	1569.85
417.46	1622.05
417.837	1640.35
418.214	1649.17
418.591	1616.4
418.967	1677.64
419.344	1706.79
419.721	1733.23
420.098	1726.23
420.475	1765.32
420.852	1774.13
421.228	1811.42
421.605	1835.83
421.982	1841.7
422.358	1870.4
422.735	1857.3
423.111	1893
423.488	1902.27
423.864	1935.49
424.241	1987.01
424.617	2004.64
424.994	2032.21
425.37	2039.66
425.746	2044.18
426.123	2077.63
426.499	2085.76
426.875	2122.83
427.251	2166.21
427.627	2205.54
428.003	2257.06
428.379	2243.95
428.756	2292.31
429.132	2304.06
429.507	2350.16
429.883	2393.78
430.259	2436.94
430.635	2487.56
431.011	2484.4
431.387	2525.98
431.763	2585.19
432.138	2592.64
432.514	2605.75
432.89	2658.4
433.265	2710.61
433.641	2757.84
434.016	2790.83
434.392	2825.63
434.767	2932.97
435.143	2904.95
435.518	2950.6
435.894	3006.64
436.269	3013.88
436.644	3067.66
437.02	3105.17
437.395	3139.52
437.77	3153.98
438.145	3194.44
438.52	3229.46
438.895	3306.3
439.271	3317.37
439.646	3429.68
440.021	3420.64
440.395	3404.15
440.77	3428.1
441.145	3510.13
441.52	3530.02
441.895	3551.04
442.27	3563.92
442.645	3585.84
443.019	3658.15
443.394	3674.88
443.769	3727.76
444.143	3782.67
444.518	3824.25
444.892	3815.66
445.267	3821.99
445.641	3854.08
446.016	3921.42
446.39	3945.15
446.764	3968.88
447.139	3991.03
447.513	4071.47
447.887	4077.35
448.262	4119.84
448.636	4141.98
449.01	4185.14
449.384	4221.08
449.758	4275.54
450.132	4378.81
450.506	4364.8
450.88	4410.22
451.254	4430.34
451.628	4490.22
452.002	4525.7
452.376	4594.62
452.75	4617.68
453.123	4660.61
453.497	4789.2
453.871	4747.16
454.244	4876.43
454.618	4889.31
454.992	4998
455.365	4978.12
455.739	5127.94
456.112	5134.95
456.486	5145.8
456.859	5233.03
457.232	5392.34
457.606	5341.5
457.979	5417.2
458.352	5494.04
458.725	5560.7
459.099	5625.33
459.472	5701.26
459.845	5782.39
460.218	5817.19
460.591	5910.75
460.964	5933.12
461.337	6039.11
461.71	6090.63
462.083	6241.59
462.456	6279.1
462.829	6263.73
463.201	6378.76
463.574	6415.37
463.947	6510.73
464.32	6677.51
464.692	6688.36
465.065	6734.23
465.438	6868.01
465.81	7003.83
466.183	7011.74
466.555	7195.46
466.928	7195.91
467.3	7243.59
467.672	7378.73
468.045	7512.97
468.417	7602
468.789	7629.12
469.161	7705.5
469.534	7823.69
469.906	8069.11
470.278	8131.71
470.65	8162.21
471.022	8367.41
471.394	8491.92
471.766	8565.59
472.138	8603.56
472.51	8778.24
472.882	9020.95
473.253	9080.38
473.625	9227.27
473.997	9456.64
474.369	9441.73
474.74	9582.97
475.112	9783.42
475.484	9930.3
475.855	10087.81
476.227	10211.65
476.598	10558.08
476.97	10595.6
477.341	10755.59
477.713	10956.49
478.084	11094.79
478.455	11306.09
478.827	11336.37
479.198	11764.38
479.569	11744.95
479.94	12184.03
480.311	12201.2
480.682	12506.28
481.053	12830.79
481.424	12966.61
481.795	13142.2
482.166	13323.66
482.537	13550.77
482.908	13842.07
483.279	13914.38
483.65	14223.52
484.021	14527.25
484.391	14683.85
484.762	14795.26
485.133	14971.75
485.503	15208.13
485.874	15505.07
486.244	15679.98
486.615	15927.89
486.985	16171.27
487.356	16446.52
487.726	16615.33
488.097	16903.91
488.467	17026.39
488.837	17412.37
489.207	17608.75
489.578	17881.06
489.948	18048.51
490.318	18307.26
490.688	18385
491.058	18668.38
491.428	18931.2
491.798	19072.44
492.168	19493.89
492.538	19583.16
492.908	19851.85
493.278	20130.49
493.648	20173.2
494.017	20437.82
494.387	20708.33
494.757	20806.63
495.126	20999.39
495.496	21180.63
495.866	21336.11
496.235	21426.05
496.605	21724.8
496.974	21808.18
497.344	21992.59
497.713	22155.52
498.082	22368.62
498.452	22614.49
498.821	22862.39
499.19	22769.97
499.559	23102.61
499.928	23356.84
500.298	23425.32
500.667	23607.46
501.036	23673.45
501.405	23925.64
501.774	23987.56
502.143	24248.35
502.512	24315.69
502.88	24609.92
503.249	24674.55
503.618	24926.52
503.987	24947.99
504.356	25172.39
504.724	25362.21
505.093	25498.03
505.462	25528.31
505.83	25717.91
506.199	26123.32
506.567	26296.88
506.936	26342.08
507.304	26657.1
507.672	26699.13
508.041	26912.91
508.409	27139.34
508.777	27376.62
509.145	27702.72
509.514	27639.67
509.882	27875.59
510.25	28078.08
510.618	28309.03
510.986	28308.13
511.354	28570.27
511.722	28852.97
512.09	28988.79
512.458	29015.23
512.826	29423.58
513.193	29504.93
513.561	29693.17
513.929	29980.85
514.297	30192.14
514.664	30498.58
515.032	30501.97
515.4	30842.75
515.767	30973.82
516.135	31140.59
516.502	31006.81
516.869	31583.07
517.237	31658.77
517.604	31771.99
517.972	32251.52
518.339	32475.02
518.706	32532.2
519.073	32670.04
519.44	32909.59
519.808	33319.29
520.175	33273.87
520.542	33887.41
520.909	33870.24
521.276	33935.1
521.643	34240.17
522.009	34589.99
522.376	34777.79
522.743	34967.39
523.11	35357.43
523.477	35664.54
523.843	35958.77
524.21	36274.47
524.577	36588.59
524.943	36597.63
525.31	36840.56
525.676	37173.43
526.043	37476.7
526.409	37641.67
526.776	37971.15
527.142	38064.71
527.508	38349.67
527.874	38732.48
528.241	38825.82
528.607	38775.42
528.973	39271
529.339	39513.71
529.705	39874.6
530.071	40142.62
530.437	40194.59
530.803	40419.45
531.169	40689.27
531.535	40641.36
531.901	40828.7
532.267	41110.95
532.632	41273.43
532.998	41498.06
533.364	41637.72
533.73	41734.21
534.095	42076.8
534.461	42154.77
534.826	42522.44
535.192	42608.31
535.557	42986.84
535.923	42916.78
536.288	43111.8
536.653	43421.4
537.019	43255.3
537.384	43401.06
537.749	43663.65
538.114	43787.72
538.479	43924.21
538.845	44063.87
539.21	44072.46
539.575	44198.56
539.94	44418.21
540.305	44584.31
540.67	44628.37
541.034	44758.77
541.399	44983.62
541.764	45147.68
542.129	45268.81
542.494	45246.44
542.858	45417.28
543.223	45669.03
543.587	45909.92
543.952	45876.7
544.316	45919.87
544.681	45887.55
545.045	46214.1
545.41	46390.36
545.774	46517.82
546.138	46439.63
546.503	46688.43
546.867	46676.68
547.231	47030.35
547.595	47095.43
547.959	47246.38
548.324	47340.17
548.688	47377
549.052	47485.25
549.416	47725.69
549.779	47694.28
550.143	47796.65
550.507	48122.07
550.871	48202.07
551.235	47967.5
551.599	48411.55
551.962	48398.22
552.326	48619.91
552.689	48954.14
553.053	48671.66
553.417	48799.79
553.78	49220.34
554.143	49185.32
554.507	49391.64
554.87	49617.17
555.234	49912.98
555.597	49702.59
555.96	49971.96
556.323	50017.61
556.686	50156.59
557.05	50377.83
557.413	50402.46
557.776	50605.39
558.139	50980.07
558.502	50880.64
558.865	51110.92
559.228	51298.71
559.59	51275.43
559.953	51236.79
560.316	51578.7
560.679	51597.68
561.041	51799.03
561.404	52010.1
561.767	52170.1
562.129	52139.14
562.492	52482.18
562.854	52345.01
563.217	52577.32
563.579	52616.19
563.941	52829.97
564.304	52969.85
564.666	53199.9
565.028	53213.23
565.39	53240.13
565.753	53398.54
566.115	53477.41
566.477	53674.24
566.839	53771.64
567.201	53878.07
567.563	53861.58
567.925	54112.42
568.287	54134.11
568.648	54225.18
569.01	54457.49
569.372	54599.64
569.734	54587.43
570.095	54674.66
570.457	54829.24
570.819	54928.44
571.18	54913.3
571.542	55025.84
571.903	55058.61
572.265	55209.79
572.626	55254.08
572.987	55356
573.349	55393.97
573.71	55333.18
574.071	55525.26
574.432	55676.67
574.794	55875.54
575.155	55828.98
575.516	55826.72
575.877	55927.29
576.238	55926.16
576.599	55996.66
576.96	56010.22
577.32	56014.97
577.681	56135.87
578.042	56154.85
578.403	56077.34
578.763	56247.5
579.124	56278.01
579.485	56341.74
579.845	56351.68
580.206	56315.07
580.566	56353.04
580.927	56431.23
581.287	56515.07
581.648	56402.75
582.008	56532.69
582.368	56534.95
582.728	56579.02
583.089	56559.59
583.449	56507.61
583.809	56533.6
584.169	56541.06
584.529	56468.74
584.889	56746.93
585.249	56515.97
585.609	56444.79
585.969	56639.58
586.329	56555.97
586.688	56592.58
587.048	56611.79
587.408	56538.8
587.768	56526.82
588.127	56534.28
588.487	56495.41
588.846	56718.23
589.206	56528.17
589.565	56547.38
589.925	56699.92
590.284	56567.27
590.643	56634.16
591.003	56703.99
591.362	56804.78
591.721	56554.84
592.08	56581.28
592.44	56745.34
592.799	56743.08
593.158	56637.55
593.517	56700.6
593.876	56677.78
594.235	56636.65
594.593	56715.06
594.952	56708.96
595.311	56560.49
595.67	56688.62
596.029	56808.85
596.387	56864.66
596.746	56776.76
597.104	56737.43
597.463	56728.62
597.822	56839.13
598.18	56754.61
598.538	56792.35
598.897	56840.26
599.255	56647.49
599.613	57018.56
599.972	56751.45
600.33	56921.38
600.688	56763.2
601.046	56864.89
601.404	57032.34
601.762	56916.41
602.12	57057.2
602.478	56993.47
602.836	57127.71
603.194	56930.42
603.552	57028.5
603.91	56961.84
604.268	57057.2
604.625	56930.65
604.983	57068.95
605.341	57026.92
605.698	57179.68
606.056	57123.64
606.413	57084.77
606.771	57164.54
607.128	57167.03
607.485	57050.19
607.843	57108.05
608.2	57234.37
608.557	57245.22
608.914	57320.7
609.272	57301.49
609.629	57308.04
609.986	57461.03
610.343	57376.74
610.7	57510.3
611.057	57405.89
611.414	57436.63
611.771	57457.64
612.127	57564.53
612.484	57451.54
612.841	57630.74
613.198	57532.22
613.554	57542.61
613.911	57660.57
614.267	57651.53
614.624	57668.03
614.98	57692.21
615.337	57714.58
615.693	57714.36
616.05	57677.3
616.406	57758.42
616.762	57724.08
617.118	57706.9
617.475	57676.39
617.831	57769.27
618.187	57810.85
618.543	57835.71
618.899	57952.54
619.255	57901.7
619.611	57826.67
619.967	57918.65
620.323	57941.7
620.678	57847.24
621.034	57764.3
621.39	57766.56
621.746	57767.24
622.101	58005.88
622.457	57811.76
622.812	57887.46
623.168	57884.52
623.523	57769.27
623.879	57911.87
624.234	57715.71
624.589	57789.16
624.945	57820.8
625.3	57759.33
625.655	57670.97
626.01	57702.16
626.365	57715.49
626.72	57734.92
627.075	57787.12
627.43	57692.21
627.785	57576.51
628.14	57713.68
628.495	57700.57
628.85	57645.43
629.205	57609.28
629.559	57787.58
629.914	57614.7
630.269	57535.83
630.623	57438.21
630.978	57377.87
631.332	57491.54
631.687	57645.21
632.041	57426.23
632.396	57428.72
632.75	57257.65
633.104	57327.7
633.459	57207.03
633.813	57223.75
634.167	57220.81
634.521	57154.15
634.875	57225.78
635.229	57210.64
635.583	57086.35
635.937	57080.02
636.291	57005.9
636.645	56973.36
636.999	56910.76
637.352	56932.68
637.706	56766.59
638.06	56789.41
638.413	56809.07
638.767	56681.62
639.121	56795.96
639.474	56672.58
639.828	56541.51
640.181	56540.6
640.534	56550.77
640.888	56492.24
641.241	56312.14
641.594	56354.85
641.947	56394.84
642.301	56254.06
642.654	56283.66
643.007	56275.98
643.36	56188.97
643.713	56217.22
644.066	56226.04
644.419	56092.25
644.771	55888.64
645.124	55687.74
645.477	55713.73
645.83	55481.87
646.182	55325.95
646.535	55290.47
646.888	55229.23
647.24	55001.21
647.593	55200.07
647.945	55106.52
648.298	54895.68
648.65	54869.69
649.002	54755.11
649.355	54916.47
649.707	54746.53
650.059	54950.36
650.411	55337.7
650.763	55293.63
651.115	55544.47
651.467	55381.76
651.819	55287.98
652.171	55218.6
652.523	55224.03
652.875	55218.6
653.227	55145.61
653.578	55311.71
653.93	55125.27
654.282	55055.67
654.633	54933.87
654.985	54954.88
655.337	54888.67
655.688	54978.84
656.039	54944.94
656.391	54772.51
656.742	54771.84
657.094	54820.87
657.445	54878.95
657.796	54834.43
658.147	54709.24
658.498	54670.6
658.849	54765.96
659.2	54676.02
659.551	54696.36
659.902	54691.16
660.253	54567.77
660.604	54640.77
660.955	54473.99
661.306	54506.31
661.656	54367.78
662.007	54404.61
662.358	54467.89
662.708	54405.52
663.059	54429.25
663.409	54146.77
663.76	54363.03
664.11	54344.5
664.461	54358.51
664.811	54223.15
665.161	54248.46
665.511	54122.81
665.862	54249.14
666.212	54229.7
666.562	54276.03
666.912	54194.22
667.262	54116.71
667.612	54166.65
667.962	54193.77
668.312	54021.8
668.662	54237.61
669.011	54009.14
669.361	53986.09
669.711	53951.07
670.06	53901.58
670.41	53858.87
670.76	53854.8
671.109	53992.2
671.459	53866.32
671.808	53721.02
672.157	53737.74
672.507	53629.72
672.856	53594.92
673.205	53653.22
673.554	53679.44
673.904	53403.74
674.253	53660.68
674.602	53570.96
674.951	53251.65
675.3	53044.2
675.649	53444.19
675.998	53298.2
676.346	53396.28
676.695	53461.14
677.044	53177.53
677.393	53303.63
677.741	53367.81
678.09	53187.25
678.438	53166.68
678.787	53126.68
679.135	53180.92
679.484	52984.09
679.832	53093.46
680.181	52784.54
680.529	52918.1
680.877	52803.75
681.225	52693.93
681.573	52839.46
681.922	52612.8
682.27	52476.08
682.618	52555.4
682.966	52565.57
683.314	52598.79
683.661	52359.92
684.009	52257.78
684.357	52117.9
684.705	52087.84
685.053	52139.82
685.4	52101.17
685.748	51971.91
686.095	51926.04
686.443	51727.4
686.79	51624.57
687.138	51757.9
687.485	51724.23
687.832	51539.61
688.18	51513.39
688.527	51268.43
688.874	51308.42
689.221	51159.95
689.568	51166.96
689.915	51014.42
690.262	50988.43
690.609	50880.41
690.956	50799.06
691.303	50809.91
691.65	50549.8
691.997	50555.22
692.344	50343.7
692.69	50249.7
693.037	50339.64
693.383	50032.07
693.73	50126.76
694.077	49950.95
694.423	49854
694.769	49695.59
695.116	49523.39
695.462	49477.29
695.808	49183.51
696.155	49382.15
696.501	49119.1
696.847	49113.45
697.193	48916.17
697.539	48938.32
697.885	48620.13
698.231	48507.82
698.577	48405
698.923	48339.24
699.269	48243.19
699.614	48066.93
699.96	47978.34
700.306	47966.82
700.651	47721.4
700.997	47630.33
701.342	47784.68
701.688	47529.77
702.033	47330.45
702.379	47450.67
702.724	47211.13
703.069	47346.04
703.415	46834.19
703.76	46922.1
704.105	46902.67
704.45	46715.78
704.795	46506.52
705.14	46391.27
705.485	46347.2
705.83	46269.91
706.175	46200.54
706.52	46139.75
706.865	45850.49
707.209	45998.06
707.554	45783.15
707.899	45809.81
708.243	45639.87
708.588	45498.18
708.932	45155.14
709.277	45238.75
709.621	45318.98
709.966	45018.19
710.31	45195.82
710.654	44734.13
710.998	44789.5
711.342	44777.07
711.687	44549.51
712.031	44371.88
712.375	44212.57
712.719	44327.82
713.063	44178.22
713.407	44250.98
713.75	43898.22
714.094	43954.27
714.438	43590.89
714.782	43747.72
715.125	43616.65
715.469	43511.34
715.812	43407.62
716.156	43033.39
716.499	43105.7
716.843	43026.16
717.186	42904.58
717.53	43020.51
717.873	43154.29
718.216	42779.16
718.559	42794.07
718.902	42406.96
719.246	42672.72
719.589	42314.54
719.932	42109.34
720.275	42091.04
720.617	42104.6
720.96	42055.56
721.303	42162
721.646	42144.37
721.989	41756.59
722.331	41737.83
722.674	41765.85
723.016	41710.26
723.359	41499.87
723.701	41733.99
724.044	41262.59
724.386	41155.7
724.729	41277.73
725.071	41099.88
725.413	41008.13
725.755	41059.2
726.097	40837.97
726.439	40598.2
726.782	40455.83
727.124	40685.2
727.465	40632.55
727.807	40467.81
728.149	40386.68
728.491	40169.96
728.833	40312.33
729.175	40160.02
729.516	40012.45
729.858	40111.88
730.199	40148.04
730.541	39974.49
730.882	39877.31
731.224	39724.55
731.565	39475.52
731.906	39449.3
732.248	39545.57
732.589	39320.27
732.93	39208.4
733.271	39157.33
733.612	39292.02
733.953	39225.35
734.294	39016.54
734.635	38950.11
734.976	38869.66
735.317	38686.84
735.658	38717.57
735.999	38759.15
736.339	38535.2
736.68	38701.75
737.021	38387.63
737.361	38229.45
737.702	38379.05
738.042	38327.75
738.383	38126.17
738.723	38103.57
739.063	38030.36
739.404	38093.63
739.744	37839.17
740.084	37893.18
740.424	37836.01
740.764	37636.69
741.104	37899.06
741.444	37564.15
741.784	37373.42
742.124	37365.74
742.464	37260.66
742.804	37257.72
743.143	37220.21
743.483	37161.9
743.823	37137.95
744.162	37011.17
744.502	37006.65
744.841	36821.12
745.181	36885.98
745.52	36563.95
745.86	36588.81
746.199	36528.25
746.538	36531.19
746.877	36455.26
747.216	36582.71
747.556	36307.69
747.895	36392.43
748.234	36278.09
748.573	36325.09
748.911	36245.32
749.25	36003.97
749.589	35834.26
749.928	35990.86
750.267	35836.06
750.605	35690.53
750.944	35627.03
751.283	35461.38
751.621	35625.22
751.96	35273.59
752.298	35364.66
752.636	35483.08
