Data from foil_FLMS001491_095.txt Node
Date: Tue Feb 07 11:37:33 GMT 2017
User: dcchb
Spectrometer: FLMS00149
Trigger mode: 0
Integration Time (sec): 2.000000E-2
Scans to average: 10
Electric dark correction enabled: true
Nonlinearity correction enabled: false
Boxcar width: 0
XAxis mode: Wavelengths
Number of Pixels in Spectrum: 2048
>>>>>Begin Spectral Data<<<<<
341.393	-21.41
341.776	-21.41
342.16	-21.41
342.543	-80.85
342.927	-77
343.31	-58.25
343.693	-87.17
344.077	-48.08
344.46	-52.6
344.843	-54.63
345.226	-48.3
345.61	-36.33
345.993	-11.24
346.376	-9.43
346.759	12.03
347.142	15.42
347.525	37.12
347.908	54.74
348.291	48.87
348.674	106.49
349.057	131.35
349.44	123.9
349.823	151.69
350.206	165.7
350.588	259.71
350.971	253.16
351.354	255.64
351.737	285.7
352.119	296.77
352.502	315.75
352.884	341.74
353.267	340.61
353.65	343.55
354.032	348.75
354.414	356.43
354.797	378.58
355.179	381.74
355.562	365.47
355.944	387.62
356.326	396.43
356.709	401.18
357.091	407.28
357.473	392.36
357.855	405.24
358.238	395.3
358.62	430.1
359.002	429.42
359.384	410.89
359.766	410.67
360.148	415.41
360.53	424.45
360.912	414.28
361.294	415.19
361.676	424.23
362.057	436.2
362.439	428.97
362.821	420.16
363.203	428.07
363.584	413.83
363.966	407.05
364.348	427.39
364.729	425.36
365.111	426.03
365.493	398.69
365.874	413.38
366.256	416.09
366.637	420.38
367.019	423.55
367.4	405.92
367.781	434.4
368.163	454.51
368.544	427.39
368.925	440.04
369.306	435.07
369.688	433.49
370.069	434.4
370.45	430.78
370.831	440.27
371.212	447.28
371.593	468.07
371.974	458.8
372.355	452.25
372.736	489.99
373.117	462.87
373.498	466.71
373.879	472.81
374.26	452.02
374.641	448.63
375.021	454.06
375.402	486.82
375.783	510.33
376.163	537.22
376.544	522.53
376.925	482.76
377.305	511.68
377.686	507.84
378.066	502.19
378.447	510.78
378.827	525.24
379.208	514.62
379.588	498.12
379.968	532.47
380.349	545.35
380.729	545.8
381.109	543.77
381.489	556.65
381.87	561.62
382.25	572.47
382.63	573.83
383.01	580.15
383.39	584.9
383.77	594.62
384.15	591.23
384.53	597.78
384.91	617.22
385.29	591.45
385.67	597.1
386.049	619.25
386.429	652.47
386.809	621.28
387.189	631.45
387.568	657.67
387.948	655.63
388.328	680.04
388.707	652.47
389.087	683.88
389.466	683.2
389.846	697.21
390.225	699.93
390.605	709.19
390.984	735.63
391.363	720.72
391.743	735.4
392.122	752.81
392.501	753.93
392.881	762.97
393.26	788.51
393.639	790.09
394.018	778.34
394.397	783.76
394.776	792.13
395.155	819.02
395.534	826.93
395.913	813.59
396.292	851.79
396.671	839.81
397.05	850.66
397.429	869.64
397.808	858.11
398.186	853.59
398.565	894.04
398.944	888.17
399.323	896.98
399.701	934.95
400.08	926.81
400.458	937.66
400.837	944.66
401.215	940.82
401.594	964.32
401.972	956.64
402.351	997.32
402.729	989.41
403.107	994.83
403.486	1028.05
403.864	1015.17
404.242	1055.4
404.62	1053.59
404.999	1047.71
405.377	1089.52
405.755	1100.14
406.133	1105.56
406.511	1098.33
406.889	1104.43
407.267	1104.66
407.645	1144.21
408.023	1164.77
408.401	1202.74
408.779	1169.97
409.156	1227.59
409.534	1230.98
409.912	1230.53
410.29	1270.53
410.667	1306.01
411.045	1306.69
411.422	1322.51
411.8	1314.15
412.178	1347.59
412.555	1380.13
412.933	1385.78
413.31	1443.86
413.687	1440.02
414.065	1430.75
414.442	1469.17
414.819	1517.3
415.197	1491.99
415.574	1482.73
415.951	1543.97
416.328	1566.12
416.705	1541.48
417.082	1554.59
417.46	1589.85
417.837	1606.79
418.214	1644.53
418.591	1666.68
418.967	1636.85
419.344	1697.64
419.721	1694.7
420.098	1681.14
420.475	1755.94
420.852	1752.33
421.228	1764.98
421.605	1779.22
421.982	1827.35
422.358	1820.57
422.735	1842.95
423.111	1822.61
423.488	1876.17
423.864	1898.09
424.241	1934.69
424.617	1941.02
424.994	1963.17
425.37	1960.68
425.746	1999.1
426.123	1997.29
426.499	2058.08
426.875	2060.34
427.251	2118.42
427.627	2141.47
428.003	2173.78
428.379	2188.7
428.756	2227.12
429.132	2244.07
429.507	2287.91
429.883	2282.48
430.259	2342.37
430.635	2365.42
431.011	2373.1
431.387	2428.02
431.763	2486.54
432.138	2477.96
432.514	2546.2
432.89	2525.19
433.265	2579.65
433.641	2630.5
434.016	2654
434.392	2735.35
434.767	2723.6
435.143	2770.61
435.518	2814.67
435.894	2833.43
436.269	2832.3
436.644	2861.9
437.02	2883.6
437.395	2900.32
437.77	3010.15
438.145	3015.57
438.52	3053.99
438.895	3082.01
439.271	3088.34
439.646	3174.66
440.021	3178.96
440.395	3203.81
440.77	3193.19
441.145	3235.23
441.52	3314.09
441.895	3303.02
442.27	3300.53
442.645	3323.81
443.019	3385.05
443.394	3380.53
443.769	3402.9
444.143	3383.24
444.518	3485.16
444.892	3507.76
445.267	3530.59
445.641	3497.82
446.016	3567.65
446.39	3599.28
446.764	3623.24
447.139	3576.23
447.513	3698.72
447.887	3678.38
448.262	3715.21
448.636	3730.58
449.01	3771.48
449.384	3850.8
449.758	3797.24
450.132	3908.43
450.506	3898.71
450.88	3954.75
451.254	3973.29
451.628	3954.53
452.002	4092.83
452.376	4069.78
452.75	4138.7
453.123	4155.2
453.497	4284.01
453.871	4246.95
454.244	4340.28
454.618	4375.31
454.992	4424.35
455.365	4441.75
455.739	4567.39
456.112	4622.99
456.486	4670.22
456.859	4695.98
457.232	4771.68
457.606	4764.9
457.979	4834.28
458.352	4956.08
458.725	5006.25
459.099	5038.12
459.472	5141.62
459.845	5180.49
460.218	5233.82
460.591	5319.24
460.964	5315.62
461.337	5456.86
461.71	5504.77
462.083	5621.15
462.456	5599.46
462.829	5645.33
463.201	5740.47
463.574	5777.08
463.947	5874.48
464.32	5980.46
464.692	6064.08
465.065	6086.68
465.438	6229.72
465.81	6283.73
466.183	6333.22
466.555	6455.71
466.928	6449.38
467.3	6449.38
467.672	6617.74
468.045	6781.35
468.417	6797.39
468.789	6820.44
469.161	6979.99
469.534	7072.41
469.906	7239.19
470.278	7277.38
470.65	7357.15
471.022	7515.11
471.394	7649.8
471.766	7737.48
472.138	7857.25
472.51	7982.45
472.882	8053.86
473.253	8201.87
473.625	8283.23
473.997	8517.12
474.369	8503.79
474.74	8581.75
475.112	8824.23
475.484	9030.55
475.855	9117.56
476.227	9151.45
476.598	9424.22
476.97	9513.93
477.341	9741.72
477.713	9931.09
478.084	9947.37
478.455	10265.78
478.827	10298.32
479.198	10667.35
479.569	10685.2
479.94	10956.15
480.311	11058.97
480.682	11225.3
481.053	11532.63
481.424	11697.38
481.795	11798.62
482.166	12001.32
482.537	12099.85
482.908	12406.96
483.279	12429.11
483.65	12761.3
484.021	13031.58
484.391	13143.89
484.762	13338.69
485.133	13423.21
485.503	13675.4
485.874	13897.09
486.244	14073.13
486.615	14348.61
486.985	14500.92
487.356	14722.16
487.726	14929.61
488.097	15170.28
488.467	15264.74
488.837	15550.61
489.207	15732.52
489.578	15981.56
489.948	16010.03
490.318	16309.46
490.688	16429.91
491.058	16638.94
491.428	16868.77
491.798	17042.77
492.168	17430.33
492.538	17412.03
492.908	17658.35
493.278	17974.27
493.648	17979.92
494.017	18133.82
494.387	18303.08
494.757	18452.9
495.126	18724.76
495.496	18697.64
495.866	18939.67
496.235	19172.21
496.605	19308.02
496.974	19432.99
497.344	19527.45
497.713	19686.09
498.082	19896.93
498.452	20061.45
498.821	20172.41
499.19	20211.5
499.559	20388.67
499.928	20708.44
500.298	20709.34
500.667	20962.44
501.036	21006.74
501.405	21200.4
501.774	21151.14
502.143	21401.3
502.512	21431.81
502.88	21665.93
503.249	21749.09
503.618	21904.34
503.987	21970.78
504.356	22272.24
504.724	22392.69
505.093	22469.07
505.462	22617.99
505.83	22832.9
506.199	22978.44
506.567	23290.74
506.936	23174.36
507.304	23426.11
507.672	23530.06
508.041	23670.17
508.409	23901.35
508.777	24060.89
509.145	24290.72
509.514	24374.1
509.882	24602.35
510.25	24642.8
510.618	24888.67
510.986	24843.92
511.354	25122.56
511.722	25349.45
512.09	25566.39
512.458	25543.34
512.826	25825.82
513.193	25982.65
513.561	26109.43
513.929	26410.44
514.297	26672.12
514.664	26826.02
515.032	26878.9
515.4	27099.91
515.767	27212.9
516.135	27361.37
516.502	27173.58
516.869	27945.08
517.237	27949.38
517.604	27867.12
517.972	28315.47
518.339	28495.8
518.706	28521.34
519.073	28806.98
519.44	28971.05
519.808	29274.32
520.175	29344.82
520.542	29737.35
520.909	29895.54
521.276	29875.2
521.643	30226.61
522.009	30413.27
522.376	30583.21
522.743	30924.44
523.11	31160.82
523.477	31491.21
523.843	31716.51
524.21	31906.56
524.577	32130.96
524.943	32353.78
525.31	32389.94
525.676	32731.4
526.043	32951.51
526.409	33220.2
526.776	33544.03
527.142	33584.26
527.508	33915.1
527.874	34061.31
528.241	34189.67
528.607	34274.86
528.973	34708.75
529.339	34711.91
529.705	35172.01
530.071	35438.67
530.437	35454.49
530.803	35697.87
531.169	35995.72
531.535	35977.64
531.901	36064.64
532.267	36284.53
532.632	36570.85
532.998	36651.97
533.364	36943.72
533.73	37047.67
534.095	37204.95
534.461	37360.2
534.826	37479.52
535.192	37819.85
535.557	38015.33
535.923	37973.3
536.288	38180.75
536.653	38402.89
537.019	38295.55
537.384	38563.11
537.749	38802.88
538.114	38789.77
538.479	38922.65
538.845	39177.33
539.21	39109.99
539.575	39387.5
539.94	39603.53
540.305	39715.85
540.67	39648.73
541.034	39809.63
541.399	40049.62
541.764	40165.55
542.129	40212.78
542.494	40317.19
542.858	40387.24
543.223	40405.77
543.587	40823.84
543.952	40792.2
544.316	40954.91
544.681	40963.05
545.045	41342.92
545.41	41412.07
545.774	41611.84
546.138	41554.22
546.503	41819.07
546.867	41809.13
547.231	42116.01
547.595	42228.55
547.959	42258.61
548.324	42407.08
548.688	42492.27
549.052	42585.38
549.416	42683.68
549.779	42882.54
550.143	42809.1
550.507	43315.3
550.871	43446.6
551.235	43381.74
551.599	43784.44
551.962	43750.54
552.326	43836.42
552.689	44115.73
553.053	43914.38
553.417	44110.54
553.78	44680.92
554.143	44464.42
554.507	44749.61
554.87	44821.93
555.234	45261.01
555.597	45032.32
555.96	45404.06
556.323	45420.11
556.686	45582.59
557.05	45831.39
557.413	46014.44
557.776	46110.93
558.139	46412.17
558.502	46469.34
558.865	46559.06
559.228	46891.25
559.59	47024.13
559.953	47112.49
560.316	47417.79
560.679	47325.14
561.041	47731.68
561.404	47732.13
561.767	48033.14
562.129	48000.83
562.492	48409.86
562.854	48305.9
563.217	48448.95
563.579	48585.45
563.941	48850.52
564.304	48994.25
564.666	49250.74
565.028	49272.89
565.39	49424.97
565.753	49683.04
566.115	49771.18
566.477	49865.86
566.839	49968.91
567.201	50115.12
567.563	50274.89
567.925	50428.56
568.287	50451.39
568.648	50586.52
569.01	50732.96
569.372	50983.12
569.734	50957.81
570.095	51196.9
570.457	51406.16
570.819	51406.16
571.18	51433.28
571.542	51600.96
571.903	51591.69
572.265	51833.27
572.626	51809.54
572.987	51839.15
573.349	51921.18
573.71	52136.54
574.071	52223.32
574.432	52277.1
574.794	52523.42
575.155	52532.69
575.516	52434.61
575.877	52564.32
576.238	52614.04
576.599	52783.3
576.96	52769.74
577.32	52796.86
577.681	52822.17
578.042	52924.31
578.403	52931.32
578.763	52986.01
579.124	53072.33
579.485	53177.64
579.845	53198.66
580.206	53169.05
580.566	53222.16
580.927	53242.05
581.287	53271.42
581.648	53182.84
582.008	53389.16
582.368	53223.97
582.728	53402.72
583.089	53317.07
583.449	53376.28
583.809	53465.77
584.169	53375.6
584.529	53338.32
584.889	53573.34
585.249	53353.23
585.609	53315.94
585.969	53510.74
586.329	53401.14
586.688	53431.87
587.048	53353.68
587.408	53265.32
587.768	53378.99
588.127	53356.62
588.487	53387.58
588.846	53570.4
589.206	53444.98
589.565	53409.5
589.925	53568.82
590.284	53431.19
590.643	53536.28
591.003	53522.72
591.362	53623.28
591.721	53487.01
592.08	53579.66
592.44	53582.15
592.799	53588.03
593.158	53444.98
593.517	53422.38
593.876	53536.28
594.235	53466.45
594.593	53531.76
594.952	53614.01
595.311	53529.5
595.67	53588.93
596.029	53690.4
596.387	53662.37
596.746	53661.02
597.104	53628.02
597.463	53607.23
597.822	53715.71
598.18	53719.32
598.538	53566.11
598.897	53825.76
599.255	53583.51
599.613	53981.24
599.972	53784.63
600.33	53845.19
600.688	53650.62
601.046	53818.53
601.404	53903.72
601.762	53867.11
602.12	53990.95
602.478	53980.78
602.836	53931.97
603.194	53923.16
603.552	53890.16
603.91	53803.16
604.268	54069.37
604.625	53915.02
604.983	54080.67
605.341	53964.51
605.698	54031.86
606.056	54126.77
606.413	54128.12
606.771	54175.36
607.128	54289.7
607.485	54089.93
607.843	54150.72
608.2	54258.74
608.557	54380.1
608.914	54175.13
609.272	54344.39
609.629	54406.99
609.986	54520.2
610.343	54312.75
610.7	54564.95
611.057	54489.25
611.414	54413.54
611.771	54569.7
612.127	54564.05
612.484	54548.9
612.841	54680.88
613.198	54534.89
613.554	54602.46
613.911	54803.81
614.267	54685.4
614.624	54725.85
614.98	54857.82
615.337	54823.93
615.693	54835.68
616.05	54809.01
616.406	54878.39
616.762	54857.6
617.118	54802.68
617.475	54880.87
617.831	54900.76
618.187	54915
618.543	54939.18
618.899	55094.65
619.255	55088.1
619.611	54973.07
619.967	55013.75
620.323	55116.35
620.678	54962.45
621.034	54950.02
621.39	54975.33
621.746	54905.51
622.101	55187.08
622.457	54921.32
622.812	54945.96
623.168	55075.67
623.523	55080.87
623.879	55122
624.234	54888.56
624.589	55021.43
624.945	55043.35
625.3	55103.69
625.655	54986.63
626.01	55070.7
626.365	55056.91
626.72	55009.46
627.075	55029.34
627.43	54993.19
627.785	54917.71
628.14	54955
628.495	54911.16
628.85	54883.36
629.205	54841.33
629.559	54994.09
629.914	54783.7
630.269	54767.43
630.623	54765.17
630.978	54598.39
631.332	54718.84
631.687	54795
632.041	54628
632.396	54815.34
632.75	54519.98
633.104	54541.22
633.459	54490.6
633.813	54459.19
634.167	54451.96
634.521	54365.63
634.875	54480.88
635.229	54382.13
635.583	54282.7
635.937	54326.76
636.291	54239.53
636.645	54148.01
636.999	54132.42
637.352	54158.63
637.706	54005.42
638.06	54055.58
638.413	53989.15
638.767	53925.64
639.121	53972.87
639.474	53892.65
639.828	53872.54
640.181	53860.79
640.534	53843.61
640.888	53759.77
641.241	53551.19
641.594	53542.6
641.947	53667.8
642.301	53504.19
642.654	53552.32
643.007	53463.96
643.36	53435.49
643.713	53427.58
644.066	53519.55
644.419	53216.96
644.771	53035.27
645.124	52618.56
645.477	52506.7
645.83	52480.26
646.182	52420.6
646.535	52244.56
646.888	52371.79
647.24	52062.87
647.593	52249.53
647.945	52280.49
648.298	52018.12
648.65	51973.83
649.002	51872.36
649.355	51994.4
649.707	51886.6
650.059	52036.88
650.411	52322.75
650.763	52409.3
651.115	52659.69
651.467	52495.17
651.819	52499.69
652.171	52397.32
652.523	52403.88
652.875	52400.49
653.227	52331.34
653.578	52443.65
653.93	52382.63
654.282	52201.85
654.633	52187.84
654.985	52117.56
655.337	52141.74
655.688	52065.35
656.039	52175.18
656.391	51911.23
656.742	52016.09
657.094	51918.24
657.445	52116.43
657.796	51981.29
658.147	51788.98
658.498	51826.49
658.849	51886.83
659.2	51758.24
659.551	51669.43
659.902	51791.24
660.253	51766.6
660.604	51752.82
660.955	51589.89
661.306	51744.91
661.656	51702.2
662.007	51655.2
662.358	51534.29
662.708	51606.84
663.059	51567.29
663.409	51275.77
663.76	51497.91
664.11	51515.76
664.461	51432.15
664.811	51392.15
665.161	51326.84
665.511	51303.79
665.862	51362.55
666.212	51402.09
666.562	51354.41
666.912	51305.15
667.262	51265.15
667.612	51204.59
667.962	51221.76
668.312	51110.58
668.662	51223.12
669.011	51191.25
669.361	51117.13
669.711	51129.11
670.06	51045.27
670.41	50943.12
670.76	50894.99
671.109	51067.87
671.459	50887.08
671.808	50829.23
672.157	50940.41
672.507	50680.98
672.856	50723.02
673.205	50601.89
673.554	50781.55
673.904	50625.17
674.253	50882.56
674.602	50708.1
674.951	50299.98
675.3	49985.63
675.649	50523.02
675.998	50386.75
676.346	50565.73
676.695	50433.98
677.044	50250.94
677.393	50315.8
677.741	50332.97
678.09	50304.95
678.438	50207.32
678.787	50253.42
679.135	50267.44
679.484	49955.81
679.832	49980.44
680.181	49810.95
680.529	49953.77
680.877	49862.02
681.225	49738.41
681.573	50039.87
681.922	49616.15
682.27	49535.48
682.618	49498.42
682.966	49447.8
683.314	49508.81
683.661	49359.44
684.009	49149.05
684.357	49120.35
684.705	49088.94
685.053	49156.5
685.4	49105.21
685.748	48886.91
686.095	48757.42
686.443	48675.61
686.79	48609.17
687.138	48604.43
687.485	48652.11
687.832	48410.31
688.18	48326.47
688.527	48141.39
688.874	48118.57
689.221	48127.15
689.568	48023.88
689.915	47924.9
690.262	47818.23
690.609	47709.08
690.956	47560.16
691.303	47553.61
691.65	47408.75
691.997	47294.63
692.344	47131.47
692.69	47073.17
693.037	47062.77
693.383	46587.08
693.73	46856.45
694.077	46693.07
694.423	46555.22
694.769	46360.87
695.116	46145.06
695.462	46146.87
695.808	46018.06
696.155	46008.56
696.501	45752.07
696.847	45679.08
697.193	45440.9
697.539	45649.03
697.885	45343.05
698.231	45191.64
698.577	45130.4
698.923	45144.63
699.269	44900.12
699.614	44692.67
699.96	44625.55
700.306	44637.98
700.651	44451.09
700.997	44397.53
701.342	44106.02
701.688	44207.93
702.033	44004.32
702.379	43941.95
702.724	43825.34
703.069	43960.03
703.415	43391.01
703.76	43388.97
704.105	43488.63
704.45	43297.22
704.795	43139.04
705.14	42947.4
705.485	42870.34
705.83	42747.86
706.175	42791.7
706.52	42553.29
706.865	42538.37
707.209	42469.9
707.554	42381.32
707.899	42431.71
708.243	42127.76
708.588	42124.15
708.932	41833.31
709.277	41736.13
709.621	41845.51
709.966	41544.05
710.31	41537.04
710.654	41060.9
710.998	41227.22
711.342	41139.31
711.687	41033.78
712.031	40955.82
712.375	40728.7
712.719	40869.49
713.063	40775.48
713.407	40742.49
713.75	40637.63
714.094	40550.4
714.438	40424.76
714.782	40325.55
715.125	40235.38
715.469	40159.68
715.812	39831.1
716.156	39790.87
716.499	39790.42
716.843	39880.14
717.186	39550.65
717.53	39621.84
717.873	39561.5
718.216	39385.46
718.559	39513.37
718.902	39286.03
719.246	39292.36
719.589	39011.01
719.932	38968.07
720.275	39009.65
720.617	38937.11
720.96	38743.9
721.303	38823.22
721.646	38591.81
721.989	38471.59
722.331	38550.91
722.674	38469.33
723.016	38423
723.359	38364.47
723.701	38294.19
724.044	38116.34
724.386	37903.24
724.729	38192.5
725.071	37871.83
725.413	37815.33
725.755	37873.86
726.097	37558.16
726.439	37462.57
726.782	37456.92
727.124	37598.16
727.465	37232.07
727.807	37223.48
728.149	37142.58
728.491	37150.49
728.833	37060.78
729.175	36983.26
729.516	36941.91
729.858	36744.4
730.199	36885.64
730.541	36780.56
730.882	36596.61
731.224	36796.38
731.565	36530.62
731.906	36397.29
732.248	36579.21
732.589	36215.83
732.93	36202.49
733.271	36087.02
733.612	36158.88
733.953	36169.95
734.294	35896.06
734.635	35858.1
734.976	35935.61
735.317	35676.86
735.658	35547.37
735.999	35710.3
736.339	35414.94
736.68	35633.92
737.021	35384.44
737.361	35373.36
737.702	35461.5
738.042	35263.08
738.383	35310.54
738.723	35228.51
739.063	35099.47
739.404	35225.12
739.744	34871
740.084	34747.62
740.424	34874.39
740.764	34828.29
741.104	34788.52
741.444	34615.42
741.784	34540.17
742.124	34579.49
742.464	34632.82
742.804	34518.7
743.143	34324.58
743.483	34423.56
743.823	34151.93
744.162	34110.8
744.502	34222.21
744.841	33957.36
745.181	34006.85
745.52	33867.64
745.86	33865.15
746.199	33749.23
746.538	33719.62
746.877	33785.16
747.216	33611.15
747.556	33512.4
747.895	33512.17
748.234	33272.4
748.573	33158.05
748.911	33280.76
749.25	33337.03
749.589	32968.23
749.928	33068.11
750.267	33050.94
750.605	32830.15
750.944	32687.78
751.283	32791.51
751.621	32751.96
751.96	32634.23
752.298	32633.32
752.636	32546.77
752.975	32250.51
