Data from foil_FLMS001491_081.txt Node
Date: Tue Feb 07 11:36:55 GMT 2017
User: dcchb
Spectrometer: FLMS00149
Trigger mode: 0
Integration Time (sec): 2.000000E-2
Scans to average: 10
Electric dark correction enabled: true
Nonlinearity correction enabled: false
Boxcar width: 0
XAxis mode: Wavelengths
Number of Pixels in Spectrum: 2048
>>>>>Begin Spectral Data<<<<<
341.393	-20.45
341.776	-20.45
342.16	-20.45
342.543	-43.95
342.927	-66.55
343.31	-68.13
343.693	-70.85
344.077	-68.81
344.46	-67.46
344.843	-66.55
345.226	-44.86
345.61	-41.69
345.993	-16.61
346.376	5.99
346.759	18.64
347.142	31.07
347.525	52.09
347.908	62.03
348.291	81.24
348.674	93.44
349.057	100.45
349.44	135.48
349.823	154.69
350.206	183.61
350.588	282.59
350.971	310.61
351.354	313.1
351.737	321.69
352.119	351.52
352.502	351.74
352.884	389.48
353.267	395.81
353.65	406.88
354.032	411.85
354.414	431.97
354.797	451.4
355.179	455.47
355.562	432.87
355.944	455.24
356.326	463.83
356.709	470.16
357.091	472.19
357.473	452.53
357.855	470.16
358.238	443.72
358.62	482.36
359.002	466.32
359.384	484.17
359.766	496.6
360.148	476.26
360.53	480.78
360.912	478.97
361.294	505.86
361.676	483.26
362.057	491.4
362.439	477.16
362.821	489.14
363.203	525.97
363.584	488.46
363.966	503.15
364.348	487.11
364.729	494.79
365.111	518.29
365.493	490.27
365.874	510.38
366.256	489.59
366.637	504.05
367.019	510.38
367.4	517.39
367.781	512.42
368.163	527.33
368.544	532.08
368.925	537.73
369.306	548.35
369.688	529.14
370.069	545.86
370.45	541.79
370.831	536.37
371.212	542.47
371.593	551.74
371.974	569.14
372.355	560.55
372.736	564.17
373.117	593.54
373.498	593.32
373.879	573.66
374.26	563.49
374.641	539.53
375.021	557.16
375.402	597.61
375.783	626.31
376.163	669.7
376.544	639.87
376.925	629.93
377.305	641.45
377.686	630.83
378.066	631.28
378.447	645.52
378.827	659.76
379.208	654.56
379.588	669.25
379.968	691.17
380.349	681
380.729	659.53
381.109	703.15
381.489	692.07
381.87	697.72
382.25	702.47
382.63	725.74
383.01	743.6
383.39	722.58
383.77	743.37
384.15	740.43
384.53	761.22
384.91	781.34
385.29	789.7
385.67	803.48
386.049	768
386.429	801.9
386.809	825.4
387.189	806.42
387.568	821.11
387.948	852.29
388.328	857.27
388.707	879.41
389.087	882.12
389.466	895.68
389.846	909.69
390.225	905.17
390.605	930.03
390.984	951.27
391.363	931.84
391.743	966.64
392.122	944.27
392.501	966.87
392.881	1000.09
393.26	1007.09
393.639	1019.75
394.018	1031.27
394.397	1032.63
394.776	1053.19
395.155	1075.11
395.534	1074.44
395.913	1104.04
396.292	1106.75
396.671	1096.36
397.05	1095.68
397.429	1115.56
397.808	1153.98
398.186	1139.52
398.565	1171.16
398.944	1147.2
399.323	1168.9
399.701	1220.87
400.08	1193.75
400.458	1200.76
400.837	1226.97
401.215	1233.07
401.594	1248.44
401.972	1271.04
402.351	1312.62
402.729	1304.71
403.107	1301.32
403.486	1325.28
403.864	1308.33
404.242	1367.08
404.62	1365.5
404.999	1377.03
405.377	1418.15
405.755	1434.43
406.133	1426.74
406.511	1471.26
406.889	1465.84
407.267	1513.29
407.645	1514.65
408.023	1551.26
408.401	1565.27
408.779	1572.28
409.156	1608.43
409.534	1603.23
409.912	1636.91
410.29	1669.45
410.667	1686.85
411.045	1724.14
411.422	1741.99
411.8	1762.78
412.178	1776.34
412.555	1822.66
412.933	1815.66
413.31	1881.19
413.687	1882.55
414.065	1891.81
414.442	1930.46
414.819	1948.31
415.197	1967.74
415.574	2015.2
415.951	2021.3
416.328	2044.35
416.705	2016.33
417.082	2044.13
417.46	2056.33
417.837	2115.76
418.214	2100.85
418.591	2163.67
418.967	2149.21
419.344	2208.42
419.721	2225.82
420.098	2203.9
420.475	2290.9
420.852	2284.57
421.228	2287.06
421.605	2313.72
421.982	2375.87
422.358	2375.87
422.735	2404.57
423.111	2404.34
423.488	2457
423.864	2464
424.241	2514.17
424.617	2506.94
424.994	2542.19
425.37	2591.01
425.746	2569.76
426.123	2621.51
426.499	2650.21
426.875	2657.9
427.251	2739.93
427.627	2784.67
428.003	2790.77
428.379	2807.72
428.756	2881.62
429.132	2900.38
429.507	2970.43
429.883	2960.71
430.259	3026.02
430.635	3066.47
431.011	3084.78
431.387	3159.35
431.763	3205.23
432.138	3224.21
432.514	3267.37
432.89	3244.1
433.265	3370.42
433.641	3391.21
434.016	3421.04
434.392	3484.54
434.767	3487.93
435.143	3494.26
435.518	3606.35
435.894	3632.79
436.269	3619.9
436.644	3722.95
437.02	3754.82
437.395	3736.74
437.77	3823.74
438.145	3785.78
438.52	3893.34
438.895	3943.29
439.271	3925.66
439.646	4030.74
440.021	4075.49
440.395	4023.74
440.77	4056.96
441.145	4039.33
441.52	4172.88
441.895	4144.64
442.27	4188.25
442.645	4194.58
443.019	4277.06
443.394	4264.41
443.769	4283.16
444.143	4312.09
444.518	4379.66
444.892	4335.82
445.267	4399.09
445.641	4399.77
446.016	4440.67
446.39	4540.78
446.764	4552.08
447.139	4529.94
447.513	4633.89
447.887	4578.98
448.262	4675.92
448.636	4659.43
449.01	4747.56
449.384	4780.1
449.758	4769.25
450.132	4887.67
450.506	4869.36
450.88	4897.16
451.254	4957.27
451.628	5010.38
452.002	5023.26
452.376	5042.92
452.75	5099.19
453.123	5150.03
453.497	5285.17
453.871	5282.91
454.244	5412.4
454.618	5480.42
454.992	5534.43
455.365	5516.58
455.739	5684.03
456.112	5730.81
456.486	5710.25
456.859	5776.01
457.232	5925.38
457.606	5905.27
457.979	5995.89
458.352	6130.12
458.725	6193.17
459.099	6180.29
459.472	6287.41
459.845	6407.18
460.218	6486.72
460.591	6488.3
460.964	6519.04
461.337	6677.23
461.71	6783.21
462.083	6897.33
462.456	6860.72
462.829	6831.57
463.201	7029.76
463.574	7118.34
463.947	7123.77
464.32	7322.18
464.692	7356.98
465.065	7392.24
465.438	7525.11
465.81	7691.44
466.183	7658.44
466.555	7888.27
466.928	7966.01
467.3	7942.95
467.672	8023.4
468.045	8288.93
468.417	8270.18
468.789	8335.94
469.161	8431.3
469.534	8557.4
469.906	8744.97
470.278	8858.19
470.65	8981.12
471.022	9126.2
471.394	9330.04
471.766	9296.14
472.138	9446.42
472.51	9621.1
472.882	9744.49
473.253	9890.93
473.625	9964.6
473.997	10262.44
474.369	10280.52
474.74	10396.45
475.112	10593.05
475.484	10757.57
475.855	10995.08
476.227	11014.29
476.598	11398.23
476.97	11468.06
477.341	11719.13
477.713	11877.99
478.084	11912.57
478.455	12258.55
478.827	12386.91
479.198	12803.17
479.569	12709.84
479.94	13135.13
480.311	13124.06
480.682	13462.81
481.053	13723.59
481.424	14013.53
481.795	14179.18
482.166	14336.46
482.537	14491.48
482.908	14751.14
483.279	14929.21
483.65	15224.8
484.021	15502.3
484.391	15658.91
484.762	15709.3
485.133	15927.6
485.503	16205.11
485.874	16603.74
486.244	16760.58
486.615	17071.08
486.985	17195.14
487.356	17523.49
487.726	17648.69
488.097	17951.96
488.467	18099.98
488.837	18436.24
489.207	18586.74
489.578	18979.95
489.948	19044.58
490.318	19398.92
490.688	19477.34
491.058	19865.58
491.428	20044.11
491.798	20173.82
492.168	20602.96
492.538	20606.8
492.908	20842.5
493.278	21186
493.648	21208.37
494.017	21338.76
494.387	21601.35
494.757	21770.84
495.126	22056.71
495.496	22104.84
495.866	22224.16
496.235	22425.96
496.605	22674.55
496.974	22891.04
497.344	23067.76
497.713	23166.96
498.082	23298.94
498.452	23602.2
498.821	23612.83
499.19	23767.4
499.559	24039.03
499.928	24155.41
500.298	24242.87
500.667	24521.5
501.036	24493.71
501.405	24820.7
501.774	24858.22
502.143	25083.75
502.512	25289.84
502.88	25420.24
503.249	25426.56
503.618	25772.54
503.987	25889.15
504.356	26175.24
504.724	26167.79
505.093	26386.54
505.462	26477.16
505.83	26587.21
506.199	26909.01
506.567	27142.68
506.936	27183.81
507.304	27548.09
507.672	27685.49
508.041	27736.56
508.409	27993.5
508.777	28183.55
509.145	28336.77
509.514	28466.48
509.882	28690.88
510.25	28815.85
510.618	29155.96
510.986	29283.64
511.354	29391.2
511.722	29783.28
512.09	29977.4
512.458	29967.46
512.826	30260.33
513.193	30409.03
513.561	30553.43
513.929	30863.93
514.297	31171.72
514.664	31424.6
515.032	31446.07
515.4	31883.12
515.767	31836.11
516.135	32076.11
516.502	32006.73
516.869	32599.93
517.237	32641.51
517.604	32726.71
517.972	33194.04
518.339	33371.89
518.706	33531.21
519.073	33702.96
519.44	33870.41
519.808	34258.65
520.175	34361.24
520.542	34724.17
520.909	35017.72
521.276	35011.62
521.643	35487.77
522.009	35647.31
522.376	36039.62
522.743	36303.11
523.11	36577.68
523.477	36948.29
523.843	37058.8
524.21	37439.58
524.577	37713.25
524.943	38019.9
525.31	38084.54
525.676	38534.24
526.043	38770.39
526.409	38856.94
526.776	39388
527.142	39406.08
527.508	39810.59
527.874	39930.14
528.241	40139.4
528.607	40380.07
528.973	40889.66
529.339	40759.72
529.705	41320.83
530.071	41692.12
530.437	41685.12
530.803	42063.19
531.169	42131.66
531.535	42153.35
531.901	42443.74
532.267	42581.59
532.632	42920.34
532.998	43073.1
533.364	43341.35
533.73	43540.89
534.095	43822.01
534.461	43964.15
534.826	44246.63
535.192	44238.72
535.557	44729.33
535.923	44577.25
536.288	44821.31
536.653	45024.92
537.019	45040.28
537.384	45314.85
537.749	45482.98
538.114	45645.24
538.479	45776.31
538.845	45929.53
539.21	46037.09
539.575	46223.98
539.94	46498.33
540.305	46721.82
540.67	46710.75
541.034	46887.24
541.399	47094.47
541.764	47128.82
542.129	47420.79
542.494	47342.6
542.858	47657.39
543.223	47679.76
543.587	47862.81
543.952	47899.19
544.316	48122.69
544.681	48176.93
545.045	48316.81
545.41	48660.98
545.774	48677.03
546.138	48873.18
546.503	49074.53
546.867	49008.09
547.231	49334.86
547.595	49444.01
547.959	49575.98
548.324	49519.26
548.688	49788.63
549.052	49922.64
549.416	50038.35
549.779	50023.2
550.143	50226.36
550.507	50521.72
550.871	50686.01
551.235	50766.69
551.599	51013.91
551.962	50951.09
552.326	51091.2
552.689	51330.29
553.053	51184.76
553.417	51403.51
553.78	51827.22
554.143	51795.36
554.507	51919.65
554.87	52068.57
555.234	52392.18
555.597	52266.08
555.96	52481.22
556.323	52661.78
556.686	52730.7
557.05	52980.41
557.413	53110.35
557.776	53101.99
558.139	53386.28
558.502	53427.18
558.865	53555.54
559.228	53678.48
559.59	53932.25
559.953	53996.66
560.316	54396.42
560.679	54349.42
561.041	54364.33
561.404	54633.25
561.767	54764.55
562.129	54760.71
562.492	55068.95
562.854	55041.38
563.217	55214.71
563.579	55311.43
563.941	55442.72
564.304	55569.95
564.666	55814.24
565.028	55789.15
565.39	55976.27
565.753	56122.71
566.115	56242.25
566.477	56368.8
566.839	56482.02
567.201	56688.11
567.563	56637.95
567.925	56790.48
568.287	56870.71
568.648	56940.54
569.01	57162.23
569.372	57175.56
569.734	57212.85
570.095	57483.8
570.457	57476.12
570.819	57478.6
571.18	57636.79
571.542	57839.27
571.903	57870.68
572.265	57945.26
572.626	58055.76
572.987	58114.52
573.349	58078.13
573.71	58243.78
574.071	58287.17
574.432	58387.5
574.794	58592.92
575.155	58536.2
575.516	58547.95
575.877	58664.11
576.238	58697.78
576.599	58780.26
576.96	58839.92
577.32	58794.73
577.681	58922.18
578.042	59022.97
578.403	59061.61
578.763	59090.99
579.124	59145
579.485	59188.84
579.845	59251.66
580.206	59219.12
580.566	59270.42
580.927	59273.36
581.287	59360.81
581.648	59312.9
582.008	59438.1
582.368	59314.94
582.728	59446.91
583.089	59377.53
583.449	59357.65
583.809	59459.57
584.169	59507.02
584.529	59472.45
584.889	59516.29
585.249	59464.54
585.609	59443.52
585.969	59577.3
586.329	59413.92
586.688	59550.41
587.048	59506.8
587.408	59524.2
587.768	59531.88
588.127	59521.26
588.487	59490.3
588.846	59650.97
589.206	59540.47
589.565	59545.21
589.925	59720.8
590.284	59570.75
590.643	59627.7
591.003	59636.51
591.362	59716.28
591.721	59651.43
592.08	59639.45
592.44	59714.25
592.799	59713.57
593.158	59635.61
593.517	59695.72
593.876	59728.26
594.235	59687.58
594.593	59725.32
594.952	59710.18
595.311	59627.02
595.67	59806
596.029	59958.31
596.387	59876.05
596.746	59948.59
597.104	59815.26
597.463	59827.92
597.822	59963.06
598.18	59910.85
598.538	59876.28
598.897	60015.48
599.255	59855.26
599.613	60186.33
599.972	59944.53
600.33	59993.79
600.688	59901.59
601.046	59967.12
601.404	60088.02
601.762	60058.42
602.12	60191.52
602.478	60165.08
602.836	60094.35
603.194	59983.17
603.552	60074.24
603.91	60067.69
604.268	60251.18
604.625	60188.59
604.983	60247.79
605.341	60160.57
605.698	60327.11
606.056	60347.68
606.413	60343.39
606.771	60372.76
607.128	60431.07
607.485	60290.51
607.843	60309.94
608.2	60468.35
608.557	60449.15
608.914	60370.95
609.272	60560.55
609.629	60550.39
609.986	60573.21
610.343	60569.14
610.7	60761.68
611.057	60712.64
611.414	60682.36
611.771	60729.82
612.127	60795.35
612.484	60763.71
612.841	60850.26
613.198	60724.17
613.554	60758.97
613.911	60882.13
614.267	60939.3
614.624	60874.44
614.98	60989.92
615.337	61046.19
615.693	60977.49
616.05	60923.03
616.406	61151.05
616.762	60998.28
617.118	61077.83
617.475	61052.52
617.831	61078.96
618.187	61171.39
618.543	61167.54
618.899	61247.99
619.255	61208.22
619.611	61120.09
619.967	61223.36
620.323	61335.9
620.678	61215.45
621.034	61135.91
621.39	61164.83
621.746	61132.29
622.101	61379.74
622.457	61169.35
622.812	61266.98
623.168	61303.13
623.523	61292.51
623.879	61335.45
624.234	61233.31
624.589	61297.03
624.945	61275.11
625.3	61329.57
625.655	61269.24
626.01	61304.72
626.365	61318.95
626.72	61246.41
627.075	61309.01
627.43	61308.78
627.785	61140.88
628.14	61191.05
628.495	61242.8
628.85	61291.38
629.205	61174.32
629.559	61227.43
629.914	61090.71
630.269	61155.12
630.623	61029.47
630.978	61018.4
631.332	61137.71
631.687	61165.28
632.041	61039.19
632.396	61024.95
632.75	60996.25
633.104	61038.96
633.459	60907.66
633.813	60879.19
634.167	60871.96
634.521	60901.79
634.875	60884.61
635.229	60870.6
635.583	60779.76
635.937	60773.2
636.291	60748.35
636.645	60742.92
636.999	60619.54
637.352	60645.75
637.706	60504.74
638.06	60678.07
638.413	60566.2
638.767	60573.89
639.121	60586.77
639.474	60471.52
639.828	60510.61
640.181	60455.25
640.534	60433.78
640.888	60398.3
641.241	60245.99
641.594	60324.4
641.947	60387.45
642.301	60238.53
642.654	60267
643.007	60249.38
643.36	60235.37
643.713	60196.27
644.066	60284.86
644.419	60031.75
644.771	59694.36
645.124	59309.29
645.477	59235.17
645.83	59256.63
646.182	59316.97
646.535	59384.77
646.888	59472.9
647.24	59392.68
647.593	59562.84
647.945	59586.79
648.298	59448.27
648.65	59335.73
649.002	59186.81
649.355	59171.89
649.707	59043.98
650.059	59074.04
650.411	59318.33
650.763	59438.78
651.115	59742.72
651.467	59675.15
651.819	59661.6
652.171	59553.58
652.523	59534.59
652.875	59533.24
653.227	59378.66
653.578	59498.44
653.93	59416.4
654.282	59358.55
654.633	59331.21
654.985	59362.85
655.337	59371.66
655.688	59348.61
656.039	59350.42
656.391	59118.33
656.742	59187.26
657.094	59257.54
657.445	59278.33
657.796	59126.47
658.147	59204.88
658.498	59072.23
658.849	59184.32
659.2	59178.44
659.551	59076.98
659.902	59182.51
660.253	59103.19
660.604	59136.64
660.955	58971.22
661.306	59088.73
661.656	59007.15
662.007	59014.38
662.358	58961.27
662.708	58909.98
663.059	58918.34
663.409	58701.17
663.76	58891.45
664.11	58949.3
664.461	58982.06
664.811	58919.92
665.161	58797.21
665.511	58774.84
665.862	58781.62
666.212	58930.54
666.562	58832.46
666.912	58865.23
667.262	58773.03
667.612	58727.61
667.962	58814.61
668.312	58675.63
668.662	58849.87
669.011	58775.52
669.361	58702.07
669.711	58734.16
670.06	58658.01
670.41	58616.42
670.76	58574.62
671.109	58629.76
671.459	58600.15
671.808	58536.65
672.157	58576.88
672.507	58474.96
672.856	58411.01
673.205	58505.02
673.554	58603.77
673.904	58436.54
674.253	58581.4
674.602	58469.99
674.951	58022.77
675.3	57953.39
675.649	58336.66
675.998	58336.88
676.346	58385.7
676.695	58453.49
677.044	58213.5
677.393	58299.6
677.741	58273.83
678.09	58236.55
678.438	58146.38
678.787	58170.11
679.135	58188.87
679.484	58018.47
679.832	58117.91
680.181	57948.42
680.529	58052.37
680.877	57963.79
681.225	57924.01
681.573	58008.31
681.922	57803.34
682.27	57808.31
682.618	57796.33
682.966	57686.05
683.314	57674.98
683.661	57557.47
684.009	57517.92
684.357	57406.29
684.705	57430.92
685.053	57448.77
685.4	57395.89
685.748	57234.31
686.095	57215.33
686.443	57080.42
686.79	57112.51
687.138	57096.92
687.485	57138.72
687.832	57079.29
688.18	57082.45
688.527	56860.99
688.874	56839.3
689.221	56799.75
689.568	56710.49
689.915	56642.69
690.262	56617.83
690.609	56526.31
690.956	56474.56
691.303	56511.85
691.65	56343.04
691.997	56343.26
692.344	56232.76
692.69	56128.81
693.037	56130.61
693.383	55957.96
693.73	56046.77
694.077	55782.6
694.423	55795.48
694.769	55661.47
695.116	55645.2
695.462	55611.98
695.808	55504.19
696.155	55504.42
696.501	55289.96
696.847	55363.86
697.193	55212.67
697.539	55243.41
697.885	54956.63
698.231	54882.06
698.577	54873.7
698.923	54834.15
699.269	54781.27
699.614	54597.32
699.96	54479.36
700.306	54482.3
700.651	54377.67
700.997	54279.36
701.342	54208.18
701.688	54230.55
702.033	54051.8
702.379	54120.95
702.724	53936.32
703.069	54027.62
703.415	53610.91
703.76	53717.34
704.105	53657.69
704.45	53490.01
704.795	53461.08
705.14	53300.86
705.485	53285.04
705.83	53221.09
706.175	53260.18
706.52	53188.32
706.865	52970.92
707.209	53038.49
707.554	52835.79
707.899	52886.18
708.243	52695.68
708.588	52670.59
708.932	52496.13
709.277	52370.04
709.621	52416.59
709.966	52207.1
710.31	52365.74
710.654	52033.77
710.998	52074.45
711.342	52063.6
711.687	51941.12
712.031	51706.55
712.375	51683.27
712.719	51636.04
713.063	51585.88
713.407	51639.43
713.75	51517.85
714.094	51612.32
714.438	51373.9
714.782	51298.43
715.125	51240.8
715.469	51238.77
715.812	51076.51
716.156	50867.7
716.499	50894.59
716.843	50860.47
717.186	50703.41
717.53	50902.05
717.873	50901.15
718.216	50594.04
718.559	50474.94
718.902	50284.21
719.246	50282.63
719.589	50228.4
719.932	50114.73
720.275	50182.3
720.617	50078.8
720.96	50001.06
721.303	49905.47
721.646	49826.37
721.989	49655.08
722.331	49780.27
722.674	49696.89
723.016	49590.67
723.359	49567.62
723.701	49464.35
724.044	49283.56
724.386	49255.77
724.729	49339.61
725.071	49211.25
725.413	49004.93
725.755	49025.26
726.097	48895.1
726.439	48720.64
726.782	48722.45
727.124	48902.1
727.465	48761.77
727.807	48669.57
728.149	48454.43
728.491	48433.87
728.833	48490.82
729.175	48183.03
729.516	48100.32
729.858	48073.88
730.199	48087.21
730.541	48068.23
730.882	47928.57
731.224	48058.74
731.565	47857.61
731.906	47735.81
732.248	47708.24
732.589	47639.99
732.93	47375.59
733.271	47437.74
733.612	47371.3
733.953	47439.77
734.294	47280.68
734.635	47202.26
734.976	47248.14
735.317	46896.51
735.658	47008.82
735.999	46960.91
736.339	46837.07
736.68	47055.37
737.021	46678.66
737.361	46665.33
737.702	46663.29
738.042	46680.92
738.383	46489.96
738.723	46499.23
739.063	46253.36
739.404	46345.79
739.744	46213.36
740.084	45918.68
740.424	46066.25
740.764	46029.41
741.104	46135.62
741.444	45753.94
741.784	45870.32
742.124	45807.27
742.464	45792.81
742.804	45752.13
743.143	45577.67
743.483	45655.18
743.823	45477.56
744.162	45466.49
744.502	45504.23
744.841	45257.68
745.181	45263.78
745.52	45104.01
745.86	45042.54
746.199	44880.29
746.538	44742.44
746.877	44926.84
747.216	44786.51
747.556	44540.64
747.895	44543.8
748.234	44457.7
748.573	44443.69
748.911	44227.2
749.25	44114.66
749.589	43959.86
749.928	44018.39
750.267	44175.45
750.605	43858.85
750.944	43830.15
751.283	43535.92
751.621	43746.76
751.96	43496.37
