Data from foil_FLMS001491_021.txt Node
Date: Tue Feb 07 11:25:40 GMT 2017
User: dcchb
Spectrometer: FLMS00149
Trigger mode: 0
Integration Time (sec): 2.000000E-2
Scans to average: 10
Electric dark correction enabled: true
Nonlinearity correction enabled: false
Boxcar width: 0
XAxis mode: Wavelengths
Number of Pixels in Spectrum: 2048
>>>>>Begin Spectral Data<<<<<
341.393	-18.6
341.776	-18.6
342.16	-18.6
342.543	-38.26
342.927	-72.61
343.31	-50.01
343.693	-56.11
344.077	-57.92
344.46	-57.7
344.843	-56.11
345.226	-50.92
345.61	-19.28
345.993	-11.37
346.376	-24.7
346.759	-6.17
347.142	20.04
347.525	46.93
347.908	43.54
348.291	79.93
348.674	89.19
349.057	110.66
349.44	130.77
349.823	167.38
350.206	180.26
350.588	245.8
350.971	285.8
351.354	286.02
351.737	296.64
352.119	308.85
352.502	321.5
352.884	352.91
353.267	358.79
353.65	368.51
354.032	378.22
354.414	389.07
354.797	391.78
355.179	377.77
355.562	396.08
355.944	407.83
356.326	388.17
356.709	401.5
357.091	421.39
357.473	425
357.855	435.4
358.238	441.5
358.62	429.3
359.002	447.15
359.384	429.3
359.766	448.73
360.148	434.49
360.53	434.72
360.912	454.83
361.294	431.33
361.676	439.92
362.057	460.48
362.439	440.14
362.821	450.09
363.203	457.09
363.584	428.84
363.966	448.51
364.348	417.77
364.729	445.12
365.111	437.88
365.493	465
365.874	436.3
366.256	442.4
366.637	464.32
367.019	443.08
367.4	454.61
367.781	474.95
368.163	474.49
368.544	443.76
368.925	457.32
369.306	476.08
369.688	470.88
370.069	486.02
370.45	485.11
370.831	499.13
371.212	472.01
371.593	488.73
371.974	497.54
372.355	510.88
372.736	504.77
373.117	526.02
373.498	492.8
373.879	491.44
374.26	500.03
374.641	493.48
375.021	485.57
375.402	518.79
375.783	560.37
376.163	569.63
376.544	570.54
376.925	550.42
377.305	539.58
377.686	562.85
378.066	563.08
378.447	578.22
378.827	573.02
379.208	583.19
379.588	589.29
379.968	559.91
380.349	589.52
380.729	608.27
381.109	603.98
381.489	625
381.87	623.19
382.25	631.55
382.63	639.23
383.01	636.97
383.39	634.04
383.77	651.44
384.15	649.86
384.53	659.35
384.91	681.72
385.29	685.56
385.67	677.2
386.049	690.98
386.429	713.13
386.809	690.76
387.189	723.75
387.568	737.76
387.948	732.79
388.328	760.59
388.707	761.04
389.087	770.53
389.466	765.78
389.846	780.7
390.225	797.65
390.605	799.91
390.984	814.15
391.363	820.47
391.743	843.97
392.122	810.76
392.501	861.15
392.881	847.36
393.26	857.76
393.639	884.88
394.018	874.26
394.397	885.1
394.776	918.78
395.155	903.41
395.534	897.31
395.913	937.98
396.292	929.17
396.671	946.12
397.05	962.84
397.429	965.55
397.808	961.03
398.186	999.45
398.565	1002.39
398.944	1014.82
399.323	998.77
399.701	1017.53
400.08	1016.63
400.458	1021.6
400.837	1069.28
401.215	1082.16
401.594	1063.86
401.972	1112.89
402.351	1102.5
402.729	1102.5
403.107	1150.63
403.486	1144.08
403.864	1141.59
404.242	1141.82
404.62	1183.63
404.999	1194.02
405.377	1186.79
405.755	1199.67
406.133	1211.2
406.511	1226.56
406.889	1272.44
407.267	1273.57
407.645	1312.66
408.023	1302.72
408.401	1327.8
408.779	1362.83
409.156	1347.46
409.534	1393.79
409.912	1422.04
410.29	1444.19
410.667	1464.75
411.045	1496.16
411.422	1473.56
411.8	1460.23
412.178	1521.92
412.555	1576.16
412.933	1571.64
413.31	1609.83
413.687	1601.47
414.065	1629.94
414.442	1633.78
414.819	1681.24
415.197	1702.48
415.574	1732.31
415.951	1727.57
416.328	1749.04
416.705	1745.42
417.082	1762.59
417.46	1805.08
417.837	1802.37
418.214	1844.4
418.591	1843.5
418.967	1874.68
419.344	1890.05
419.721	1914
420.098	1922.59
420.475	1928.47
420.852	1989.03
421.228	1952.65
421.605	1998.29
421.982	2013.44
422.358	2034.23
422.735	2056.82
423.111	2039.88
423.488	2095.92
423.864	2138.18
424.241	2118.07
424.617	2157.61
424.994	2206.43
425.37	2193.54
425.746	2224.5
426.123	2257.5
426.499	2286.42
426.875	2297.72
427.251	2346.99
427.627	2370.04
428.003	2399.87
428.379	2422.46
428.756	2431.96
429.132	2482.12
429.507	2511.28
429.883	2559.18
430.259	2607.77
430.635	2627.88
431.011	2689.35
431.387	2711.95
431.763	2761.66
432.138	2748.78
432.514	2765.51
432.89	2806.86
433.265	2869.46
433.641	2928.67
434.016	2933.19
434.392	3007.31
434.767	3007.99
435.143	3048.89
435.518	3059.74
435.894	3151.48
436.269	3116.68
436.644	3167.3
437.02	3231.03
437.395	3247.75
437.77	3294.53
438.145	3314.42
438.52	3347.19
438.895	3402.78
439.271	3354.87
439.646	3447.3
440.021	3471.02
440.395	3478.48
440.77	3502.44
441.145	3518.48
441.52	3619.27
441.895	3580.85
442.27	3636.22
442.645	3621.98
443.019	3671.02
443.394	3689.78
443.769	3720.96
444.143	3717.12
444.518	3792.82
444.892	3723.67
445.267	3760.73
445.641	3815.42
446.016	3822.43
446.39	3938.58
446.764	3902.2
447.139	3917.34
447.513	3951.69
447.887	3981.07
448.262	3979.03
448.636	4030.78
449.01	4073.95
449.384	4113.27
449.758	4193.49
450.132	4159.14
450.506	4187.62
450.88	4252.92
451.254	4259.48
451.628	4331.34
452.002	4350.1
452.376	4412.02
452.75	4438.23
453.123	4469.87
453.497	4547.38
453.871	4543.99
454.244	4638.68
454.618	4674.38
454.992	4772.23
455.365	4774.95
455.739	4912.79
456.112	4963.19
456.486	4998.89
456.859	5021.27
457.232	5124.09
457.606	5141.04
457.979	5163.64
458.352	5304.87
458.725	5327.02
459.099	5353.69
459.472	5437.07
459.845	5550.97
460.218	5629.61
460.591	5631.65
460.964	5679.55
461.337	5850.62
461.71	5876.16
462.083	5980.34
462.456	5963.84
462.829	5978.53
463.201	6054.46
463.574	6101.69
463.947	6217.39
464.32	6368.35
464.692	6401.34
465.065	6421
465.438	6549.36
465.81	6621
466.183	6669.58
466.555	6853.99
466.928	6821.67
467.3	6838.85
467.672	6983.93
468.045	7138.95
468.417	7174.2
468.789	7266.86
469.161	7353.18
469.534	7453.29
469.906	7606.06
470.278	7670.91
470.65	7745.94
471.022	7936.22
471.394	8041.3
471.766	8155.2
472.138	8218.7
472.51	8401.74
472.882	8565.58
473.253	8624.11
473.625	8694.16
473.997	8922.63
474.369	8989.98
474.74	9054.15
475.112	9237.65
475.484	9366.24
475.855	9521.71
476.227	9583.41
476.598	9948.14
476.97	9977.97
477.341	10220.68
477.713	10349.26
478.084	10397.62
478.455	10693.89
478.827	10742.92
479.198	11099.07
479.569	11153.76
479.94	11365.28
480.311	11525.95
480.682	11698.83
481.053	12045.26
481.424	12264.47
481.795	12378.36
482.166	12467.85
482.537	12647.05
482.908	12944.45
483.279	13060.83
483.65	13250.43
484.021	13499.46
484.391	13686.8
484.762	13857.87
485.133	14028.26
485.503	14213.79
485.874	14431.41
486.244	14636.61
486.615	14915.7
486.985	15003.83
487.356	15367.21
487.726	15426.19
488.097	15714.32
488.467	15746.63
488.837	16076.34
489.207	16342.78
489.578	16569.44
489.948	16648.31
490.318	16916.09
490.688	16908.64
491.058	17248.06
491.428	17536.64
491.798	17670.43
492.168	18013.47
492.538	18093.46
492.908	18256.17
493.278	18506.11
493.648	18624.98
494.017	18835.14
494.387	19058.41
494.757	19222.47
495.126	19405.29
495.496	19335.24
495.866	19495.24
496.235	19759.86
496.605	19873.53
496.974	20143.81
497.344	20282.56
497.713	20360.3
498.082	20535.66
498.452	20724.13
498.821	20880.06
499.19	20886.16
499.559	21116.21
499.928	21333.83
500.298	21364.57
500.667	21560.49
501.036	21538.8
501.405	21889.52
501.774	21842.52
502.143	22111.44
502.512	22010.65
502.88	22397.98
503.249	22412.67
503.618	22601.59
503.987	22793.23
504.356	22959.55
504.724	23042.04
505.093	23278.87
505.462	23392.99
505.83	23586.2
506.199	23648.57
506.567	24016.93
506.936	23946.87
507.304	24383.24
507.672	24450.59
508.041	24604.48
508.409	24709.11
508.777	24900.07
509.145	25102.77
509.514	25065.26
509.882	25350.68
510.25	25488.98
510.618	25615.08
510.986	25727.61
511.354	25885.12
511.722	26290.09
512.09	26439.23
512.458	26500.93
512.826	26701.83
513.193	26881.26
513.561	26945.66
513.929	27271.08
514.297	27394.01
514.664	27699.77
515.032	27842.81
515.4	28116.93
515.767	28123.26
516.135	28330.48
516.502	28182.69
516.869	28797.59
517.237	29059.73
517.604	29034.19
517.972	29390.34
518.339	29490
518.706	29557.8
519.073	29778.58
519.44	29957.79
519.808	30341.96
520.175	30375.4
520.542	30778.56
520.909	30981.71
521.276	31113.24
521.643	31432.78
522.009	31586.22
522.376	31964.96
522.743	32035.02
523.11	32404.05
523.477	32785.28
523.843	32900.76
524.21	33242.9
524.577	33544.58
524.943	33748.65
525.31	33892.15
525.676	34227.73
526.043	34484.67
526.409	34533.71
526.776	35069.52
527.142	34961.27
527.508	35191.77
527.874	35445.33
528.241	35716.73
528.607	35743.62
528.973	36252.76
529.339	36306.09
529.705	36708.34
530.071	36962.8
530.437	37143.59
530.803	37493.86
531.169	37592.39
531.535	37470.58
531.901	37687.3
532.267	37937.01
532.632	38268.75
532.998	38383.55
533.364	38657.22
533.73	38875.07
534.095	39068.05
534.461	39281.38
534.826	39324.77
535.192	39566.12
535.557	39836.62
535.923	39660.13
536.288	39943.96
536.653	40243.84
537.019	40190.29
537.384	40397.96
537.749	40571.74
538.114	40751.85
538.479	40933.09
538.845	40956.14
539.21	41032.07
539.575	41281.78
539.94	41559.06
540.305	41840.86
540.67	41777.36
541.034	42014.42
541.399	42191.14
541.764	42400.85
542.129	42544.57
542.494	42603.55
542.858	42695.76
543.223	42667.73
543.587	43057.55
543.952	43098.91
544.316	43176.65
544.681	43163.09
545.045	43482.18
545.41	43634.26
545.774	43834.48
546.138	43799.23
546.503	44100.46
546.867	44162.61
547.231	44480.57
547.595	44562.6
547.959	44698.42
548.324	44809.37
548.688	44890.27
549.052	45127.56
549.416	45153.54
549.779	45231.96
550.143	45671.5
550.507	45843.92
550.871	46028.32
551.235	45925.73
551.599	46276
551.962	46333.63
552.326	46474.19
552.689	46674.18
553.053	46588.08
553.417	46835.53
553.78	47329.98
554.143	47233.26
554.507	47466.93
554.87	47534.95
555.234	47880.48
555.597	47761.61
555.96	47914.38
556.323	48091.55
556.686	48309.62
557.05	48572.89
557.413	48591.87
557.776	48852.43
558.139	49049.71
558.502	49135.13
558.865	49258.3
559.228	49553.2
559.59	49712.07
559.953	49754.78
560.316	50228.44
560.679	50119.74
561.041	50435.21
561.404	50598.6
561.767	50766.05
562.129	50744.58
562.492	51101.86
562.854	51158.13
563.217	51157.45
563.579	51282.2
563.941	51571.23
564.304	51645.58
564.666	51919.69
565.028	51936.19
565.39	52058.22
565.753	52275.62
566.115	52310.87
566.477	52520.13
566.839	52679.22
567.201	52840.12
567.563	52890.52
567.925	53055.48
568.287	53102.71
568.648	53233.78
569.01	53293.67
569.372	53486.43
569.734	53537.5
570.095	53776.37
570.457	53918.74
570.819	53909.25
571.18	53958.06
571.542	54121.44
571.903	54210.48
572.265	54295.9
572.626	54391.95
572.987	54438.05
573.349	54539.51
573.71	54635.1
574.071	54718.04
574.432	54823.8
574.794	55056.56
575.155	55019.5
575.516	54950.12
575.877	55076.22
576.238	55209.78
576.599	55200.96
576.96	55127.07
577.32	55185.82
577.681	55317.34
578.042	55442.54
578.403	55456.78
578.763	55543.1
579.124	55602.99
579.485	55716.2
579.845	55757.33
580.206	55680.05
580.566	55777.67
580.927	55769.08
581.287	55884.11
581.648	55694.74
582.008	55932.24
582.368	55823.09
582.728	55867.61
583.089	55864.68
583.449	55931.34
583.809	55949.87
584.169	56012.02
584.529	55916.2
584.889	56088.62
585.249	55906.71
585.609	55818.35
585.969	55970.44
586.329	55862.64
586.688	56078.23
587.048	56017.89
587.408	55998.91
587.768	55827.61
588.127	55902.41
588.487	55918.46
588.846	56081.17
589.206	55957.55
589.565	55915.97
589.925	56101.51
590.284	55950.55
590.643	56038.46
591.003	56130.2
591.362	56136.08
591.721	56018.34
592.08	56123.65
592.44	56240.94
592.799	56118.68
593.158	56090.66
593.517	56064.22
593.876	56240.94
594.235	56114.84
594.593	56218.56
594.952	56242.52
595.311	56036.2
595.67	56151.45
596.029	56257.21
596.387	56300.37
596.746	56292.69
597.104	56198.23
597.463	56193.48
597.822	56289.97
598.18	56232.35
598.538	56321.16
598.897	56418.56
599.255	56139.24
599.613	56581.27
599.972	56352.12
600.33	56494.72
600.688	56398.45
601.046	56477.09
601.404	56527.26
601.762	56458.78
602.12	56609.29
602.478	56626.46
602.836	56542.85
603.194	56476.18
603.552	56569.97
603.91	56456.52
604.268	56636.86
604.625	56533.81
604.983	56734.03
605.341	56583.98
605.698	56799.79
606.056	56783.3
606.413	56754.82
606.771	56801.83
607.128	56745.1
607.485	56732.67
607.843	56706.69
608.2	56884.99
608.557	56925.66
608.914	56855.16
609.272	57092.21
609.629	57019.67
609.986	57147.13
610.343	57011.09
610.7	57130.63
611.057	57069.39
611.414	57089.05
611.771	57140.12
612.127	57207.24
612.484	57164.53
612.841	57204.3
613.198	57211.98
613.554	57218.99
613.911	57403.17
614.267	57390.06
614.624	57383.96
614.98	57296.28
615.337	57498.98
615.693	57407.91
616.05	57411.08
616.406	57509.38
616.762	57458.98
617.118	57416.95
617.475	57423.96
617.831	57504.86
618.187	57621.69
618.543	57582.82
618.899	57694.68
619.255	57640.22
619.611	57635.02
619.967	57681.12
620.323	57658.98
620.678	57606.1
621.034	57519.09
621.39	57479.77
621.746	57564.07
622.101	57797.73
622.457	57614.23
622.812	57606.78
623.168	57747.56
623.523	57782.36
623.879	57819.88
624.234	57593.9
624.589	57722.71
624.945	57715.02
625.3	57798.64
625.655	57749.15
626.01	57770.61
626.365	57827.79
626.72	57761.57
627.075	57727.68
627.43	57698.98
627.785	57619.21
628.14	57700.33
628.495	57698.75
628.85	57654.23
629.205	57505.54
629.559	57729.03
629.914	57543.5
630.269	57541.24
630.623	57480.68
630.978	57404.07
631.332	57530.17
631.687	57580.56
632.041	57486.78
632.396	57508.93
632.75	57428.02
633.104	57372.43
633.459	57250.63
633.813	57224.19
634.167	57190.97
634.521	57163.4
634.875	57230.51
635.229	57149.61
635.583	57093.12
635.937	57065.77
636.291	57041.82
636.645	56985.78
636.999	56932.67
637.352	57021.71
637.706	56860.36
638.06	57010.41
638.413	56961.37
638.767	56839.79
639.121	56845.67
639.474	56765.44
639.828	56874.82
640.181	56834.59
640.534	56804.54
640.888	56712.56
641.241	56641.83
641.594	56653.81
641.947	56702.39
642.301	56549.4
642.654	56614.94
643.007	56502.17
643.36	56446.58
643.713	56480.48
644.066	56531.55
644.419	56333.14
644.771	56099.02
645.124	55750.55
645.477	55563.44
645.83	55446.16
646.182	55391.24
646.535	55405.7
646.888	55671.46
647.24	55611.35
647.593	55725.24
647.945	55705.36
648.298	55590.11
648.65	55494.97
649.002	55367.74
649.355	55276.89
649.707	55189.66
650.059	55193.73
650.411	55480.5
650.763	55552.37
651.115	55926.82
651.467	55892.92
651.819	55841.62
652.171	55704.23
652.523	55623.78
652.875	55647.73
653.227	55546.04
653.578	55723.44
653.93	55580.39
654.282	55512.14
654.633	55483.44
654.985	55569.54
655.337	55475.08
655.688	55504.01
656.039	55602.54
656.391	55255.65
656.742	55420.85
657.094	55334.52
657.445	55389.89
657.796	55314.63
658.147	55329.77
658.498	55258.36
658.849	55273.96
659.2	55168.87
659.551	55057.01
659.902	55251.13
660.253	55074.87
660.604	55121.64
660.955	54988.31
661.306	55078.03
661.656	54958.48
662.007	55010.01
662.358	55049.33
662.708	54986.05
663.059	54994.64
663.409	54798.26
663.76	54907.41
664.11	54931.14
664.461	54985.15
664.811	54976.56
665.161	54900.18
665.511	54810.24
665.862	54777.92
666.212	54845.94
666.562	54882.55
666.912	54755.55
667.262	54827.64
667.612	54791.94
667.962	54772.73
668.312	54680.07
668.662	54914.87
669.011	54687.76
669.361	54660.19
669.711	54676.91
670.06	54621.54
670.41	54596.46
670.76	54552.62
671.109	54680.75
671.459	54488.89
671.808	54568.66
672.157	54667.19
672.507	54387.65
672.856	54385.62
673.205	54450.93
673.554	54462
673.904	54413.41
674.253	54523.24
674.602	54496.35
674.951	53924.16
675.3	53864.05
675.649	54271.95
675.998	54217.49
676.346	54352.4
676.695	54406.18
677.044	54130.03
677.393	54188.11
677.741	54276.69
678.09	54160.77
678.438	54006.64
678.787	54116.92
679.135	54119.18
679.484	53922.35
679.832	54002.58
680.181	53773.88
680.529	53901.34
680.877	53898.4
681.225	53725.3
681.573	53879.87
681.922	53631.97
682.27	53581.8
682.618	53518.3
682.966	53544.51
683.314	53678.29
683.661	53458.86
684.009	53265.65
684.357	53235.59
684.705	53222.26
685.053	53343.39
685.4	53172.54
685.748	53006.9
686.095	52989.95
686.443	52898.2
686.79	52855.04
687.138	52947.92
687.485	52936.84
687.832	52716.28
688.18	52711.99
688.527	52552.9
688.874	52692.1
689.221	52568.26
689.568	52336.41
689.915	52277.2
690.262	52286.01
690.609	52170.08
690.956	52085.57
691.303	52088.28
691.65	52002.18
691.997	51939.58
692.344	51728.51
692.69	51649.64
693.037	51740.26
693.383	51466.82
693.73	51627.95
694.077	51382.53
694.423	51284.91
694.769	51392.48
695.116	51123.78
695.462	51138.47
695.808	50908.42
696.155	51161.3
696.501	50804.24
696.847	50752.04
697.193	50552.27
697.539	50555.89
697.885	50209.46
698.231	50107.99
698.577	50180.76
698.923	50213.98
699.269	50156.12
699.614	49900.99
699.96	49796.13
700.306	49735.57
700.651	49614.44
700.997	49433.66
701.342	49414.22
701.688	49338.07
702.033	49197.05
702.379	49269.59
702.724	49018.53
703.069	48988.02
703.415	48619.22
703.76	48642.27
704.105	48742.83
704.45	48671.64
704.795	48313.01
705.14	48248.83
705.485	48174.71
705.83	48183.07
706.175	48161.83
706.52	47872.12
706.865	47855.17
707.209	47800.71
707.554	47674.83
707.899	47678
708.243	47360.49
708.588	47324.79
708.932	47185.13
709.277	47124.79
709.621	47154.17
709.966	46781.98
710.31	46996.21
710.654	46621.3
710.998	46646.39
711.342	46635.77
711.687	46339.28
712.031	46363
712.375	46201.88
712.719	46247.75
713.063	46140.86
713.407	46171.6
713.75	45983.58
714.094	45878.27
714.438	45847.99
714.782	45774.09
715.125	45593.08
715.469	45666.98
715.812	45285.97
716.156	45038.97
716.499	45180.44
716.843	45182.24
717.186	44935.02
717.53	45148.57
717.873	45216.14
718.216	45012.08
718.559	44898.64
718.902	44528.25
719.246	44550.17
719.589	44557.4
719.932	44342.72
720.275	44382.72
720.617	44360.12
720.96	44311.08
721.303	44214.59
721.646	44269.5
721.989	44110.86
722.331	43959.23
722.674	43852.34
723.016	43912.22
723.359	43703.19
723.701	43846.91
724.044	43622.06
724.386	43446.7
724.729	43757.42
725.071	43525.79
725.413	43480.82
725.755	43268.62
726.097	43044.67
726.439	42930.78
726.782	43022.53
727.124	43033.37
727.465	42738.01
727.807	42764.68
728.149	42608.75
728.491	42510.45
728.833	42713.38
729.175	42449.66
729.516	42372.6
729.858	42302.55
730.199	42232.49
730.541	42167.63
730.882	41961.54
731.224	42286.28
731.565	41900.75
731.906	41843.57
732.248	41919.28
732.589	41689.68
732.93	41625.28
733.271	41609.46
733.612	41791.6
733.953	41823.46
734.294	41585.05
734.635	41325.85
734.976	41457.14
735.317	41271.39
735.658	41123.14
735.999	41210.37
736.339	41000.21
736.68	41133.76
737.021	41138.28
737.361	40851.28
737.702	41190.94
738.042	40916.14
738.383	40689.25
738.723	40932.64
739.063	40566.77
739.404	40665.98
739.744	40439.54
740.084	40158.87
740.424	40306.21
740.764	40397.74
741.104	40461.46
741.444	40116.16
741.784	40026.9
742.124	40061.02
742.464	39881.59
742.804	39931.99
743.143	39701.71
743.483	39894.02
743.823	39630.53
744.162	39539
744.502	39611.32
744.841	39525.44
745.181	39556.18
745.52	39175.17
745.86	39304.43
746.199	39287.71
746.538	39029.41
746.877	39082.07
747.216	39155.51
747.556	38927.95
747.895	38961.62
748.234	38783.77
748.573	38893.6
748.911	38817.67
749.25	38778.34
749.589	38473.04
749.928	38612.7
750.267	38550.33
750.605	38419.71
750.944	38174.07
751.283	38049.55
751.621	38126.84
751.96	37805.71
752.298	37813.4
