Data from foil_FLMS001491_092.txt Node
Date: Tue Feb 07 11:37:32 GMT 2017
User: dcchb
Spectrometer: FLMS00149
Trigger mode: 0
Integration Time (sec): 2.000000E-2
Scans to average: 10
Electric dark correction enabled: true
Nonlinearity correction enabled: false
Boxcar width: 0
XAxis mode: Wavelengths
Number of Pixels in Spectrum: 2048
>>>>>Begin Spectral Data<<<<<
341.393	-28.05
341.776	-28.05
342.16	-28.05
342.543	-59.46
342.927	-79.8
343.31	-81.83
343.693	-75.28
344.077	-74.6
344.46	-69.63
344.843	-56.3
345.226	-35.96
345.61	-12.91
345.993	-12.46
346.376	-0.71
346.759	20.99
347.142	14.43
347.525	34.55
347.908	60.76
348.291	70.48
348.674	96.69
349.057	121.78
349.44	139.18
349.823	122.45
350.206	168.33
350.588	251.72
350.971	267.08
351.354	255.11
351.737	264.37
352.119	296.69
352.502	320.42
352.884	328.78
353.267	317.03
353.65	345.73
354.032	344.37
354.414	380.75
354.797	360.87
355.179	391.6
355.562	373.3
355.944	385.72
356.326	394.76
356.709	402.45
357.091	396.8
357.473	398.83
357.855	406.51
358.238	399.74
358.62	434.54
359.002	424.14
359.384	416.46
359.766	419.17
360.148	418.72
360.53	411.26
360.912	407.19
361.294	418.49
361.676	408.77
362.057	401.54
362.439	430.24
362.821	402.9
363.203	387.31
363.584	422.11
363.966	409.9
364.348	425.95
364.729	425.05
365.111	419.4
365.493	416.23
365.874	417.36
366.256	428.21
366.637	414.42
367.019	422.33
367.4	393.41
367.781	416.46
368.163	415.1
368.544	434.99
368.925	426.18
369.306	438.38
369.688	431.6
370.069	446.97
370.45	428.44
370.831	459.85
371.212	457.59
371.593	435.21
371.974	463.01
372.355	459.17
372.736	454.65
373.117	444.25
373.498	484.7
373.879	454.2
374.26	418.72
374.641	434.76
375.021	450.81
375.402	472.5
375.783	486.51
376.163	529.22
376.544	514.08
376.925	517.25
377.305	485.38
377.686	494.42
378.066	500.3
378.447	525.83
378.827	511.37
379.208	513.86
379.588	518.83
379.968	519.96
380.349	544.82
380.729	534.19
381.109	524.48
381.489	557.25
381.87	575.32
382.25	555.21
382.63	578.94
383.01	563.12
383.39	559.05
383.77	587.75
384.15	588.43
384.53	586.62
384.91	613.51
385.29	621.2
385.67	614.42
386.049	646.73
386.429	623.23
386.809	632.27
387.189	646.28
387.568	660.97
387.948	646.28
388.328	680.86
388.707	667.07
389.087	682.67
389.466	686.73
389.846	702.78
390.225	708.88
390.605	722.44
390.984	721.99
391.363	728.31
391.743	730.8
392.122	757.92
392.501	761.31
392.881	750.01
393.26	754.08
393.639	777.35
394.018	785.49
394.397	788.2
394.776	809.89
395.155	809.44
395.534	814.19
395.913	802.21
396.292	833.62
396.671	871.36
397.05	841.08
397.429	844.7
397.808	864.81
398.186	852.15
398.565	889.21
398.944	865.26
399.323	907.52
399.701	912.72
400.08	926.95
400.458	909.78
400.837	946.16
401.215	937.8
401.594	950
401.972	984.35
402.351	962.21
402.729	993.39
403.107	1013.5
403.486	999.04
403.864	1041.75
404.242	1038.36
404.62	1061.64
404.999	1072.49
405.377	1062.32
405.755	1065.25
406.133	1096.89
406.511	1130.34
406.889	1113.61
407.267	1126.95
407.645	1157.91
408.023	1175.76
408.401	1187.29
408.779	1181.64
409.156	1206.04
409.534	1207.85
409.912	1259.83
410.29	1296.21
410.667	1258.92
411.045	1298.24
411.422	1316.1
411.8	1330.56
412.178	1357.45
412.555	1361.52
412.933	1386.6
413.31	1409.88
413.687	1405.81
414.065	1454.17
414.442	1458.69
414.819	1474.74
415.197	1506.6
415.574	1510.89
415.951	1516.54
416.328	1572.81
416.705	1561.06
417.082	1578.69
417.46	1595.64
417.837	1624.34
418.214	1599.7
418.591	1622.08
418.967	1648.52
419.344	1673.83
419.721	1706.82
420.098	1704.79
420.475	1727.16
420.852	1725.58
421.228	1746.14
421.605	1787.27
421.982	1799.02
422.358	1811.45
422.735	1856.42
423.111	1860.71
423.488	1865.01
423.864	1909.98
424.241	1917.66
424.617	1945.23
424.994	1924.67
425.37	1992.24
425.746	1994.04
426.123	2000.6
426.499	2003.99
426.875	2060.03
427.251	2104.78
427.627	2140.25
428.003	2169.86
428.379	2158.11
428.756	2197.65
429.132	2240.36
429.507	2286.92
429.883	2280.36
430.259	2310.42
430.635	2375.05
431.011	2396.97
431.387	2441.49
431.763	2460.47
432.138	2514.26
432.514	2530.3
432.89	2545.89
433.265	2613.69
433.641	2627.47
434.016	2684.42
434.392	2712.89
434.767	2793.34
435.143	2746.79
435.518	2792.21
435.894	2811.65
436.269	2854.36
436.644	2901.36
437.02	2941.59
437.395	2938.88
437.77	2956.5
438.145	3037.41
438.52	3015.71
438.895	3090.74
439.271	3099.78
439.646	3137.74
440.021	3172.09
440.395	3157.4
440.77	3118.08
441.145	3163.5
441.52	3309.04
441.895	3295.93
442.27	3305.2
442.645	3332.77
443.019	3383.16
443.394	3363.73
443.769	3455.7
444.143	3397.85
444.518	3462.71
444.892	3456.15
445.267	3525.3
445.641	3500.67
446.016	3544.06
446.39	3567.11
446.764	3616.37
447.139	3609.59
447.513	3643.94
447.887	3638.52
448.262	3686.88
448.636	3692.98
449.01	3792.87
449.384	3831.06
449.758	3780.21
450.132	3887.33
450.506	3955.12
450.88	3895.91
451.254	3961.68
451.628	4014.33
452.002	4071.5
452.376	4076.7
452.75	4131.61
453.123	4182.23
453.497	4232.85
453.871	4224.27
454.244	4318.5
454.618	4378.61
454.992	4425.39
455.365	4431.27
455.739	4579.51
456.112	4568.67
456.486	4587.2
456.859	4703.12
457.232	4766.85
457.606	4782.44
457.979	4826.29
458.352	4919.84
458.725	5018.6
459.099	5006.17
459.472	5124.36
459.845	5175.2
460.218	5257.23
460.591	5310.57
460.964	5315.99
461.337	5484.35
461.71	5554.18
462.083	5623.55
462.456	5594.85
462.829	5658.13
463.201	5744.23
463.574	5732.7
463.947	5914.39
464.32	5984.22
464.692	6024.9
465.065	6088.85
465.438	6196.42
465.81	6250.43
466.183	6340.6
466.555	6468.05
466.928	6473.47
467.3	6514.83
467.672	6584.21
468.045	6713.47
468.417	6769.51
468.789	6857.42
469.161	6957.08
469.534	7111.65
469.906	7206.34
470.278	7228.71
470.65	7347.58
471.022	7449.49
471.394	7720.67
471.766	7709.37
472.138	7763.61
472.51	7962.47
472.882	8048.57
473.253	8134.67
473.625	8279.08
473.997	8478.17
474.369	8546.41
474.74	8658.95
475.112	8765.84
475.484	8962.45
475.855	9094.65
476.227	9152.5
476.598	9445.6
476.97	9534.18
477.341	9759.04
477.713	9865.7
478.084	9905.93
478.455	10194.73
478.827	10266.14
479.198	10636.3
479.569	10585
479.94	10916.75
480.311	10982.06
480.682	11274.03
481.053	11524.64
481.424	11690.74
481.795	11841.47
482.166	12011.86
482.537	12173.89
482.908	12399.19
483.279	12546.53
483.65	12799.18
484.021	12967.54
484.391	13171.15
484.762	13353.52
485.133	13452.27
485.503	13650.46
485.874	13975.65
486.244	13983.78
486.615	14283.66
486.985	14460.83
487.356	14806.59
487.726	14808.62
488.097	15120.48
488.467	15138.78
488.837	15555.27
489.207	15741.25
489.578	15968.59
489.948	16150.96
490.318	16371.74
490.688	16374.46
491.058	16698.06
491.428	16945.74
491.798	17085.17
492.168	17391.15
492.538	17380.53
492.908	17609
493.278	17802.44
493.648	17964.7
494.017	18120.17
494.387	18357.23
494.757	18434.06
495.126	18696.88
495.496	18763.32
495.866	18902.53
496.235	19134.38
496.605	19336.64
496.974	19465.9
497.344	19613.92
497.713	19727.59
498.082	19785.44
498.452	20015.04
498.821	20078.31
499.19	20241.7
499.559	20441.69
499.928	20644.85
500.298	20784.96
500.667	20920.78
501.036	20921.23
501.405	21213.65
501.774	21130.26
502.143	21401.67
502.512	21471.95
502.88	21640.98
503.249	21768.66
503.618	21936.57
503.987	22097.47
504.356	22130.24
504.724	22335.66
505.093	22447.74
505.462	22695.19
505.83	22789.2
506.199	22972.25
506.567	23273.94
506.936	23248.4
507.304	23561.39
507.672	23514.16
508.041	23678.9
508.409	23898.78
508.777	24094.03
509.145	24338.31
509.514	24307.13
509.882	24559.78
510.25	24652.2
510.618	24793.44
510.986	24938.3
511.354	25007.9
511.722	25263.71
512.09	25479.75
512.458	25429.13
512.826	25809.69
513.193	25989.57
513.561	26122.45
513.929	26335.1
514.297	26594.53
514.664	26789.78
515.032	26806.72
515.4	27068.19
515.767	27243.55
516.135	27342.53
516.502	27214.17
516.869	27849.86
517.237	28003.98
517.604	27873.14
517.972	28329.62
518.339	28461.6
518.706	28566.23
519.073	28745.88
519.44	28903.84
519.808	29185.19
520.175	29224.29
520.542	29631.06
520.909	29821.79
521.276	29856.14
521.643	30131.38
522.009	30395.56
522.376	30518.94
522.743	30911.7
523.11	31180.62
523.477	31254.52
523.843	31533.38
524.21	31900.15
524.577	32155.28
524.943	32354.38
525.31	32391.89
525.676	32814.7
526.043	32913.91
526.409	33107.8
526.776	33562.48
527.142	33639.54
527.508	33720.22
527.874	34102.13
528.241	34161.33
528.607	34387.54
528.973	34619.17
529.339	34738.72
529.705	35103
530.071	35414.18
530.437	35581.41
530.803	35811.01
531.169	35908.41
531.535	35941.17
531.901	36088.97
532.267	36306.59
532.632	36489.18
532.998	36636.3
533.364	36906.8
533.73	37021.15
534.095	37177.53
534.461	37398.99
534.826	37570.96
535.192	37675.82
535.557	37955.81
535.923	37953.1
536.288	38127.33
536.653	38379.98
537.019	38347.21
537.384	38420.2
537.749	38662.23
538.114	38808.22
538.479	38850.48
538.845	39169.11
539.21	39014.99
539.575	39458.14
539.94	39485.26
540.305	39737.91
540.67	39723.22
541.034	39856.32
541.399	40063.78
541.764	40032.59
542.129	40235.75
542.494	40259.48
542.858	40481.17
543.223	40455.41
543.587	40690.2
543.952	40877.99
544.316	41148.49
544.681	40992.79
545.045	41195.95
545.41	41369.05
545.774	41535.6
546.138	41551.65
546.503	41672.77
546.867	41768.37
547.231	42000.68
547.595	42173.78
547.959	42235.25
548.324	42365.86
548.688	42515.01
549.052	42648.57
549.416	42674.78
549.779	42921.78
550.143	42858.51
550.507	43328.78
550.871	43299.17
551.235	43330.13
551.599	43673.63
551.962	43785.26
552.326	43963.11
552.689	44094.18
553.053	43962.66
553.417	44119.26
553.78	44579.36
554.143	44527.39
554.507	44662.07
554.87	44736.65
555.234	45389.06
555.597	44975.51
555.96	45301.15
556.323	45516.29
556.686	45459.79
557.05	45878.54
557.413	45858.2
557.776	45981.81
558.139	46329.15
558.502	46514.23
558.865	46450.95
559.228	46869.7
559.59	46906.54
559.953	47054.1
560.316	47446.86
560.679	47339.29
561.041	47623.58
561.404	47718.94
561.767	48071.48
562.129	47798.94
562.492	48390.34
562.854	48358.7
563.217	48345.37
563.579	48518.92
563.941	48767.28
564.304	48955.97
564.666	49154.84
565.028	49290.88
565.39	49422.4
565.753	49561.83
566.115	49751.66
566.477	49835.05
566.839	49913.01
567.201	50106
567.563	50172.44
567.925	50451.53
568.287	50491.53
568.648	50679.77
569.01	50731.52
569.372	50986.43
569.734	50952.98
570.095	51152.3
570.457	51370.82
570.819	51374.89
571.18	51334.44
571.542	51490.6
571.903	51613.76
572.265	51679.29
572.626	51758.38
572.987	51834.54
573.349	51952.73
573.71	52009
574.071	52198.83
574.432	52305.26
574.794	52494.64
575.155	52499.16
575.516	52418.93
575.877	52521.98
576.238	52606.27
576.599	52640.4
576.96	52703.22
577.32	52725.14
577.681	52796.78
578.042	52914.51
578.403	52932.37
578.763	53056.66
579.124	53022.53
579.485	53069.99
579.845	53298.91
580.206	53061.4
580.566	53177.78
580.927	53135.3
581.287	53249.87
581.648	53178.23
582.008	53359.25
582.368	53196.99
582.728	53429.53
583.089	53295.29
583.449	53332.35
583.809	53367.16
584.169	53372.35
584.529	53255.75
584.889	53540.03
585.249	53413.03
585.609	53321.28
585.969	53442.18
586.329	53420.94
586.688	53446.02
587.048	53436.08
587.408	53316.08
587.768	53394.5
588.127	53283.77
588.487	53338.23
588.846	53590.65
589.206	53365.12
589.565	53444.22
589.925	53445.35
590.284	53391.34
590.643	53474.5
591.003	53508.17
591.362	53545.68
591.721	53472.24
592.08	53559.69
592.44	53618
592.799	53524.44
593.158	53414.39
593.517	53402.18
593.876	53538
594.235	53542.52
594.593	53504.33
594.952	53564.67
595.311	53521.5
595.67	53460.49
596.029	53749.29
596.387	53733.47
596.746	53720.37
597.104	53595.62
597.463	53669.97
597.822	53767.6
598.18	53620.03
598.538	53603.76
598.897	53759.24
599.255	53579.13
599.613	53967.59
599.972	53804.88
600.33	53729.41
600.688	53734.6
601.046	53801.95
601.404	53899.57
601.762	53834.71
602.12	54008.5
602.478	53850.08
602.836	53950.42
603.194	53842.62
603.552	53970.3
603.91	53917.65
604.268	53954.94
604.625	53879.01
604.983	54026.35
605.341	53882.4
605.698	54084.88
606.056	54104.09
606.413	54041.49
606.771	54130.53
607.128	54158.55
607.485	54115.39
607.843	54101.37
608.2	54196.51
608.557	54294.59
608.914	54214.14
609.272	54416.62
609.629	54400.35
609.986	54394.7
610.343	54254.82
610.7	54493.23
611.057	54427.24
611.414	54423.17
611.771	54449.61
612.127	54626.78
612.484	54525.77
612.841	54614.58
613.198	54576.16
613.554	54608.25
613.911	54719.21
614.267	54642.38
614.624	54672.21
614.98	54763.28
615.337	54792.66
615.693	54804.86
616.05	54693.45
616.406	54894.35
616.762	54804.41
617.118	54806.89
617.475	54821.81
617.831	54867.68
618.187	54990.39
618.543	54919.21
618.899	55031.97
619.255	54937.74
619.611	54988.36
619.967	55094.57
620.323	55059.09
620.678	54997.17
621.034	54899.55
621.39	54924.63
621.746	54895.25
622.101	55160.56
622.457	54942.71
622.812	54940
623.168	55076.94
623.523	55031.29
623.879	55108.58
624.234	54976.38
624.589	54989.03
624.945	54987.23
625.3	55016.83
625.655	54962.37
626.01	55083.04
626.365	55142.02
626.72	54950.84
627.075	55056.6
627.43	54868.36
627.785	54838.76
628.14	54911.07
628.495	54923.73
628.85	54909.71
629.205	54711.75
629.559	55022.71
629.914	54693.22
630.269	54814.58
630.623	54683.05
630.978	54588.59
631.332	54731.87
631.687	54752.66
632.041	54602.38
632.396	54704.07
632.75	54512.44
633.104	54553.11
633.459	54514.47
633.813	54419.56
634.167	54411.42
634.521	54408.48
634.875	54390.41
635.229	54416.62
635.583	54255.95
635.937	54307.92
636.291	54228.6
636.645	54149.28
636.999	54099.11
637.352	54141.15
637.706	54005.56
638.06	54066.35
638.413	53948.38
638.767	53842.17
639.121	53966.24
639.474	53807.6
639.828	53857.54
640.181	53771.21
640.534	53788.39
640.888	53636.3
641.241	53553.82
641.594	53619.8
641.947	53716.53
642.301	53501.84
642.654	53492.35
643.007	53506.81
643.36	53429.08
643.713	53435.4
644.066	53455.97
644.419	53205.13
644.771	53036.09
645.124	52564.92
645.477	52596.33
645.83	52418.48
646.182	52314.53
646.535	52206.96
646.888	52338.93
647.24	52079.51
647.593	52319.27
647.945	52335.77
648.298	52138.26
648.65	51998.6
649.002	51799.51
649.355	51887.65
649.707	51858.95
650.059	51959.51
650.411	52301.65
650.763	52328.31
651.115	52653.28
651.467	52562.88
651.819	52469.1
652.171	52380.06
652.523	52291.48
652.875	52323.12
653.227	52268.65
653.578	52446.05
653.93	52487.41
654.282	52168.54
654.633	52106.85
654.985	52194.98
655.337	52185.27
655.688	52072.5
656.039	52151.14
656.391	51855.33
656.742	51998.6
657.094	51870.25
657.445	51989.34
657.796	51907.08
658.147	51845.61
658.498	51725.17
658.849	51862.79
659.2	51737.59
659.551	51660.99
659.902	51797.48
660.253	51678.16
660.604	51746.18
660.955	51599.52
661.306	51706.41
661.656	51616.69
662.007	51587.77
662.358	51500.09
662.708	51511.16
663.059	51481.78
663.409	51201.11
663.76	51546.41
664.11	51336.25
664.461	51435
664.811	51435
665.161	51401.11
665.511	51286.76
665.862	51298.96
666.212	51354.1
666.562	51374.67
666.912	51217.38
667.262	51234.56
667.612	51130.83
667.962	51181
668.312	51172.41
668.662	51281.56
669.011	51217.61
669.361	51087.89
669.711	51047.44
670.06	50937.39
670.41	50910.27
670.76	50952.3
671.109	50905.75
671.459	50877.5
671.808	50853.1
672.157	50886.77
672.507	50647.23
672.856	50716.83
673.205	50648.81
673.554	50755.47
673.904	50566.1
674.253	50881.35
674.602	50685.64
674.951	50199.33
675.3	49969.28
675.649	50442.49
675.998	50456.05
676.346	50454.24
676.695	50518.64
677.044	50212.21
677.393	50364.98
677.741	50500.11
678.09	50258.76
678.438	50196.17
678.787	50273.23
679.135	50254.92
679.484	49930.41
679.832	50079.33
680.181	49841.37
680.529	49990.97
680.877	49812.45
681.225	49776.29
681.573	49903.74
681.922	49592.79
682.27	49628.95
682.618	49570.19
682.966	49427.15
683.314	49419.92
683.661	49338.56
684.009	49104.44
684.357	49049.98
684.705	49074.84
685.053	49091.56
685.4	48989.64
685.748	48697.22
686.095	48847.95
686.443	48621.74
686.79	48593.04
687.138	48541.75
687.485	48540.84
687.832	48460.84
688.18	48517.79
688.527	48165.48
688.874	48210
689.221	48085.71
689.568	48012.49
689.915	47911.71
690.262	47882.33
690.609	47789.9
690.956	47613.18
691.303	47469.91
691.65	47330.48
691.997	47237.15
692.344	46985.4
692.69	47029.7
693.037	47020.66
693.383	46631.51
693.73	46789.02
694.077	46552.65
694.423	46498.18
694.769	46318.3
695.116	46217.29
695.462	46161.47
695.808	45969.61
696.155	46066.56
696.501	45716.51
696.847	45810.52
697.193	45455.5
697.539	45565.1
697.885	45335.95
698.231	45088.05
698.577	45087.15
698.923	45042.86
699.269	44819.58
699.614	44763.31
699.96	44660.72
700.306	44494.17
700.651	44469.08
700.997	44322.65
701.342	44159.71
701.688	44075.65
702.033	43958.82
702.379	43939.61
702.724	43909.55
703.069	43960.62
703.415	43437.93
703.76	43288.33
704.105	43314.99
704.45	43267.31
704.795	43085.62
705.14	42911.16
705.485	42912.97
705.83	42639.08
706.175	42788
706.52	42538.51
706.865	42468.69
707.209	42419.2
707.554	42114.57
707.899	42267.11
708.243	42105.76
708.588	41984.18
708.932	41776.27
709.277	41653.11
709.621	41787.12
709.966	41436.4
710.31	41558.2
710.654	41068.95
710.998	41164.77
711.342	41241.37
711.687	40968.84
712.031	40995.96
712.375	40796.19
712.719	40822.4
713.063	40776.53
713.407	40899.01
713.75	40554.84
714.094	40534.05
714.438	40367.5
714.782	40422.19
715.125	40190.33
715.469	40225.13
715.812	39784.69
716.156	39577.69
716.499	39671.02
716.843	39679.83
717.186	39480.29
717.53	39630.34
717.873	39658.36
718.216	39431.48
718.559	39370.01
718.902	39109.68
719.246	39170.47
719.589	39021.77
719.932	38866.97
720.275	38999.85
720.617	38852.74
720.96	38803.02
721.303	38669.01
721.646	38749.24
721.989	38433.54
722.331	38495.68
722.674	38416.59
723.016	38408.68
723.359	38247.55
723.701	38273.32
724.044	38150.16
724.386	37859.09
724.729	38043.72
725.071	37836.04
725.413	37751.75
725.755	37767.79
726.097	37529.15
726.439	37494.35
726.782	37406.45
727.124	37390.63
727.465	37261.14
727.807	37206.68
728.149	37136.85
728.491	37155.6
728.833	37157.19
729.175	36956.97
729.516	36982.95
729.858	36910.64
730.199	36864.77
730.541	36741.38
730.882	36668.16
731.224	36787.48
731.565	36437.66
731.906	36386.36
732.248	36499.58
732.589	36265.01
732.93	36032.02
733.271	36055.52
733.612	36097.33
733.953	36120.6
734.294	35801.52
734.635	35840.84
734.976	35860.5
735.317	35640.84
735.658	35659.6
735.999	35651.46
736.339	35509.55
736.68	35653.95
737.021	35410.79
737.361	35397.91
737.702	35445.14
738.042	35327.4
738.383	35264.58
738.723	35153.62
739.063	35038.37
739.404	35140.74
739.744	34888.32
740.084	34893.74
740.424	34953.4
740.764	34805.84
741.104	34842.67
741.444	34604.49
741.784	34507.31
742.124	34680.64
742.464	34343.48
742.804	34536.46
743.143	34359.52
743.483	34253.99
743.823	34112.07
744.162	34153.2
744.502	34131.5
744.841	33963.15
745.181	34057.61
745.52	33816.48
745.86	33891.28
746.199	33731.74
746.538	33670.05
746.877	33698.29
747.216	33678.41
747.556	33540.11
747.895	33514.57
748.234	33270.51
748.573	33278.42
748.911	33151.42
749.25	33236.61
749.589	32905.32
749.928	33085.2
750.267	33022.83
750.605	32874.14
750.944	32735.16
751.283	32796.17
751.621	32782.84
751.96	32423.3
752.298	32497.2
752.636	32417.65
752.975	32391.66
753.313	32235.28
