Data from foil_FLMS001491_087.txt Node
Date: Tue Feb 07 11:36:56 GMT 2017
User: dcchb
Spectrometer: FLMS00149
Trigger mode: 0
Integration Time (sec): 2.000000E-2
Scans to average: 10
Electric dark correction enabled: true
Nonlinearity correction enabled: false
Boxcar width: 0
XAxis mode: Wavelengths
Number of Pixels in Spectrum: 2048
>>>>>Begin Spectral Data<<<<<
341.393	-25.2
341.776	-25.2
342.16	-25.2
342.543	-86.44
342.927	-72.2
343.31	-63.39
343.693	-54.57
344.077	-80.34
344.46	-66.33
344.843	-53.9
345.226	-17.51
345.61	-26.33
345.993	-20.9
346.376	10.96
346.759	-7.34
347.142	16.61
347.525	43.73
347.908	59.77
348.291	63.84
348.674	94.35
349.057	101.35
349.44	138.87
349.823	130.05
350.206	187.9
350.588	264.96
350.971	312.42
351.354	348.13
351.737	338.86
352.119	356.71
352.502	385.41
352.884	382.93
353.267	382.93
353.65	405.75
354.032	395.58
354.414	421.57
354.797	440.55
355.179	453.66
355.562	463.15
355.944	449.37
356.326	455.24
356.709	471.96
357.091	459.54
357.473	460.44
357.855	488.91
358.238	482.13
358.62	485.52
359.002	466.77
359.384	479.65
359.766	476.94
360.148	484.62
360.53	503.83
360.912	490.95
361.294	492.3
361.676	497.95
362.057	484.39
362.439	502.92
362.821	494.56
363.203	491.17
363.584	518.07
363.966	490.72
364.348	505.86
364.729	498.18
365.111	513.55
365.493	503.6
365.874	514.45
366.256	514
366.637	541.34
367.019	531.62
367.4	531.85
367.781	513.09
368.163	530.04
368.544	540.21
368.925	538.4
369.306	550.38
369.688	534.11
370.069	514.68
370.45	545.64
370.831	532.08
371.212	547.9
371.593	544.05
371.974	549.25
372.355	547.9
372.736	581.34
373.117	580.21
373.498	565.97
373.879	567.1
374.26	556.71
374.641	545.86
375.021	547.9
375.402	609.14
375.783	627.89
376.163	661.34
376.544	666.76
376.925	608.46
377.305	600.1
377.686	638.51
378.066	631.51
378.447	648.23
378.827	654.11
379.208	669.47
379.588	650.94
379.968	677.61
380.349	668.8
380.729	667.44
381.109	698.4
381.489	699.3
381.87	715.35
382.25	703.82
382.63	713.09
383.01	716.03
383.39	736.82
383.77	742.92
384.15	767.55
384.53	785.86
384.91	798.74
385.29	792.18
385.67	794.67
386.049	785.18
386.429	804.84
386.809	821.33
387.189	830.37
387.568	839.64
387.948	854.1
388.328	850.49
388.707	886.42
389.087	876.47
389.466	861.79
389.846	892.74
390.225	913.31
390.605	919.18
390.984	942.46
391.363	957.38
391.743	941.33
392.122	959.86
392.501	986.08
392.881	978.62
393.26	993.53
393.639	996.24
394.018	1021.1
394.397	1054.32
394.776	1055.23
395.155	1051.16
395.534	1081.44
395.913	1085.96
396.292	1083.47
396.671	1116.92
397.05	1114.21
397.429	1122.8
397.808	1132.96
398.186	1142
398.565	1141.33
398.944	1168.22
399.323	1204.83
399.701	1189.23
400.08	1189.91
400.458	1228.1
400.837	1229.46
401.215	1282.34
401.594	1226.3
401.972	1261.1
402.351	1275.79
402.729	1289.12
403.107	1307.65
403.486	1302.68
403.864	1313.75
404.242	1365.27
404.62	1361.89
404.999	1397.14
405.377	1415.67
405.755	1414.99
406.133	1457.7
406.511	1465.39
406.889	1464.71
407.267	1513.07
407.645	1545.16
408.023	1517.14
408.401	1549.68
408.779	1578.83
409.156	1607.53
409.534	1603.23
409.912	1657.7
410.29	1683.46
410.667	1704.93
411.045	1707.86
411.422	1729.56
411.8	1742.89
412.178	1822.89
412.555	1812.04
412.933	1833.96
413.31	1863.11
413.687	1875.32
414.065	1933.17
414.442	1947.86
414.819	1983.56
415.197	1982.21
415.574	1978.82
415.951	2005.48
416.328	2007.97
416.705	2048.65
417.082	2055.65
417.46	2110.11
417.837	2108.08
418.214	2103.56
418.591	2119.15
418.967	2162.99
419.344	2186.5
419.721	2219.49
420.098	2233.05
420.475	2282.54
420.852	2257.68
421.228	2283.44
421.605	2310.33
421.982	2323.44
422.358	2379.71
422.735	2383.78
423.111	2394.17
423.488	2419.48
423.864	2448.86
424.241	2521.18
424.617	2533.61
424.994	2523.44
425.37	2598.24
425.746	2600.5
426.123	2668.97
426.499	2637.11
426.875	2663.77
427.251	2710.55
427.627	2775.63
428.003	2804.33
428.379	2859.92
428.756	2866.48
429.132	2918.91
429.507	2951
429.883	2987.15
430.259	3068.05
430.635	3040.71
431.011	3059.47
431.387	3169.3
431.763	3211.55
432.138	3204.32
432.514	3286.58
432.89	3240.25
433.265	3369.74
433.641	3393.02
434.016	3396.41
434.392	3490.87
434.767	3547.82
435.143	3535.61
435.518	3601.15
435.894	3637.53
436.269	3655.38
436.644	3757.3
437.02	3718.21
437.395	3738.77
437.77	3813.35
438.145	3834.36
438.52	3854.25
438.895	3900.58
439.271	3930.18
439.646	4050.85
440.021	4057.18
440.395	4057.41
440.77	4018.09
441.145	4117.07
441.52	4157.97
441.895	4187.12
442.27	4237.29
442.645	4188.25
443.019	4285.65
443.394	4303.5
443.769	4350.96
444.143	4308.25
444.518	4417.85
444.892	4345.31
445.267	4386.44
445.641	4448.36
446.016	4440.9
446.39	4504.63
446.764	4550.95
447.139	4510.95
447.513	4617.17
447.887	4623.04
448.262	4635.47
448.636	4669.82
449.01	4701.91
449.384	4762.02
449.758	4757.05
450.132	4886.09
450.506	4850.83
450.88	4884.28
451.254	4929.47
451.628	5036.36
452.002	5051.51
452.376	5092.63
452.75	5152.29
453.123	5159.3
453.497	5272.52
453.871	5313.42
454.244	5417.37
454.618	5420.54
454.992	5505.28
455.365	5484.49
455.739	5666.63
456.112	5690.81
456.486	5723.35
456.859	5817.36
457.232	5887.87
457.606	5904.36
457.979	5991.14
458.352	6110.69
458.725	6131.93
459.099	6234.53
459.472	6341.42
459.845	6366.95
460.218	6428.19
460.591	6510.9
460.964	6522.43
461.337	6703.67
461.71	6740.5
462.083	6887.62
462.456	6880.16
462.829	6941.4
463.201	6985.24
463.574	7076.09
463.947	7174.16
464.32	7338.23
464.692	7390.2
465.065	7398.34
465.438	7544.55
465.81	7617.99
466.183	7740.02
466.555	7830.64
466.928	7937.08
467.3	7934.82
467.672	8031.99
468.045	8235.15
468.417	8281.93
468.789	8362.6
469.161	8461.59
469.534	8608.25
469.906	8754.46
470.278	8791.52
470.65	8927.34
471.022	9153.32
471.394	9296.82
471.766	9363.48
472.138	9468.56
472.51	9680.08
472.882	9809.35
473.253	9836.92
473.625	10033.75
473.997	10223.8
474.369	10257.24
474.74	10393.29
475.112	10601.64
475.484	10784.69
475.855	10907.85
476.227	11072.36
476.598	11403.88
476.97	11425.35
477.341	11724.32
477.713	11861.27
478.084	11870.31
478.455	12282.5
478.827	12386
479.198	12709.84
479.569	12726.78
479.94	13106.44
480.311	13263.04
480.682	13449.02
481.053	13776.93
481.424	13943.93
481.795	14124.49
482.166	14319.51
482.537	14499.84
482.908	14813.73
483.279	14997.46
483.65	15243.78
484.021	15557.67
484.391	15651.23
484.762	15785.23
485.133	16016.64
485.503	16235.62
485.874	16681.48
486.244	16736.4
486.615	16993.79
486.985	17266.33
487.356	17535.47
487.726	17749.93
488.097	18052.29
488.467	18056.81
488.837	18497.03
489.207	18710.13
489.578	18955.55
489.948	19072.15
490.318	19237.57
490.688	19456.1
491.058	19693.38
491.428	20015.63
491.798	20201.39
492.168	20582.4
492.538	20673.47
492.908	20902.39
493.278	21051.31
493.648	21167.69
494.017	21427.57
494.387	21594.57
494.757	21733.78
495.126	22083.37
495.496	22049.48
495.866	22206.31
496.235	22599.52
496.605	22700.53
496.974	22894.2
497.344	23158.37
497.713	23170.13
498.082	23289.44
498.452	23586.16
498.821	23681.75
499.19	23835.87
499.559	24076.77
499.928	24295.29
500.298	24467.49
500.667	24595.17
501.036	24505.91
501.405	24835.17
501.774	24732.12
502.143	25033.81
502.512	25198.32
502.88	25473.34
503.249	25555.37
503.618	25731.41
503.987	25891.86
504.356	26019.99
504.724	26325.3
505.093	26253.66
505.462	26524.61
505.83	26613.88
506.199	26914.66
506.567	27301.54
506.936	27221.32
507.304	27558.03
507.672	27629.67
508.041	27672.15
508.409	27946.95
508.777	28279.37
509.145	28467.39
509.514	28370.89
509.882	28718.23
510.25	28817.21
510.618	29143.75
510.986	29216.29
511.354	29379
511.722	29749.84
512.09	30004.52
512.458	29930.4
512.826	30285.19
513.193	30455.81
513.561	30612.19
513.929	30904.61
514.297	31239.52
514.664	31351.83
515.032	31397.93
515.4	31799.05
515.767	31977.8
516.135	32041.76
516.502	31956.79
516.869	32608.07
517.237	32807.84
517.604	32819.36
517.972	33277.2
518.339	33494.6
518.706	33434.94
519.073	33672.22
519.44	33969.62
519.808	34336.61
520.175	34372.77
520.542	34823.38
520.909	34907.22
521.276	35191.05
521.643	35521.89
522.009	35741.09
522.376	36090.24
522.743	36169.11
523.11	36536.55
523.477	36896.54
523.843	36998.69
524.21	37412.01
524.577	37765.67
524.943	37947.59
525.31	38262.84
525.676	38627.8
526.043	38781.92
526.409	39021.91
526.776	39370.15
527.142	39515.23
527.508	39776.02
527.874	39968.55
528.241	40223.91
528.607	40410.12
528.973	40743
529.339	40870.9
529.705	41396.99
530.071	41695.97
530.437	41763.08
530.803	42080.59
531.169	42226.12
531.535	42397.87
531.901	42426.57
532.267	42537.07
532.632	43010.28
532.998	43071.07
533.364	43378.41
533.73	43481.91
534.095	43855.01
534.461	43973.65
534.826	44286.86
535.192	44258.84
535.557	44732.95
535.923	44723.23
536.288	44902.66
536.653	45160.73
537.019	44999.16
537.384	45247.74
537.749	45604.79
538.114	45649.08
538.479	45883.43
538.845	46157.54
539.21	46116.64
539.575	46299.46
539.94	46537.19
540.305	46899.9
540.67	46745.32
541.034	46743.52
541.399	47072.32
541.764	47178.08
542.129	47364.74
542.494	47421.92
542.858	47590.95
543.223	47691.97
543.587	48033.88
543.952	47962.69
544.316	48151.16
544.681	48141.22
545.045	48492.4
545.41	48593.19
545.774	48858.49
546.138	48798.15
546.503	49091.7
546.867	49010.12
547.231	49377.35
547.595	49424.35
547.959	49580.5
548.324	49687.62
548.688	49685.13
549.052	49922.42
549.416	49981.62
549.779	50156.99
550.143	50307.04
550.507	50529.86
550.871	50774.37
551.235	50731.66
551.599	50990.18
551.962	50949.28
552.326	51215.26
552.689	51434.69
553.053	51302.04
553.417	51438.53
553.78	51876.49
554.143	51689.6
554.507	51924.85
554.87	51998.75
555.234	52444.84
555.597	52354.67
555.96	52539.52
556.323	52699.74
556.686	52680.08
557.05	52973.18
557.413	53033.75
557.776	53148.32
558.139	53369.33
558.502	53411.36
558.865	53538.82
559.228	53815.2
559.59	53856.32
559.953	53956.89
560.316	54358.68
560.679	54335.86
561.041	54442.52
561.404	54708.96
561.767	54848.39
562.129	54753.02
562.492	55078.66
562.854	55113.69
563.217	55168.61
563.579	55364.31
563.941	55529.5
564.304	55641.36
564.666	55787.8
565.028	55827.8
565.39	55946.44
565.753	56159.31
566.115	56264.85
566.477	56366.09
566.839	56432.3
567.201	56665.29
567.563	56708.68
567.925	56924.04
568.287	56860.54
568.648	56892.4
569.01	57166.97
569.372	57324.03
569.734	57249.46
570.095	57444.7
570.457	57551.82
570.819	57606.51
571.18	57734.19
571.542	57915.65
571.903	57917.91
572.265	58006.5
572.626	58041.75
572.987	58136.21
573.349	58201.29
573.71	58245.59
574.071	58314.74
574.432	58465.92
574.794	58670.43
575.155	58554.73
575.516	58534.39
575.877	58646.03
576.238	58727.83
576.599	58832.01
576.96	58868.17
577.32	58893.48
577.681	58955.62
578.042	59096.86
578.403	58978.22
578.763	59070.88
579.124	59121.72
579.485	59227.71
579.845	59258.89
580.206	59238.78
580.566	59301.83
580.927	59344.32
581.287	59422.51
581.648	59252.11
582.008	59500.7
582.368	59368.95
582.728	59471.77
583.089	59455.95
583.449	59378.89
583.809	59551.77
584.169	59528.72
584.529	59474.71
584.889	59650.97
585.249	59472
585.609	59429.96
585.969	59555.84
586.329	59446.23
586.688	59611.88
587.048	59584.31
587.408	59571.65
587.768	59606.46
588.127	59554.03
588.487	59505.22
588.846	59657.53
589.206	59503.63
589.565	59536.4
589.925	59737.07
590.284	59693.01
590.643	59633.12
591.003	59681.03
591.362	59733.46
591.721	59667.92
592.08	59718.99
592.44	59728.94
592.799	59782.04
593.158	59703.4
593.517	59777.75
593.876	59750.86
594.235	59751.08
594.593	59788.82
594.952	59766
595.311	59744.53
595.67	59801.7
596.029	59900.23
596.387	59917.41
596.746	59936.39
597.104	59793.34
597.463	59830.63
597.822	59982.04
598.18	59858.65
598.538	59788.15
598.897	60043.96
599.255	59796.05
599.613	60159.66
599.972	60001.93
600.33	60084.63
600.688	59921.25
601.046	60046.9
601.404	60147.91
601.762	60103.17
602.12	60202.82
602.478	60167.57
602.836	60187.46
603.194	60055.03
603.552	60117.4
603.91	60050.29
604.268	60277.85
604.625	60181.36
604.983	60267.45
605.341	60138.87
605.698	60331.41
606.056	60384.51
606.413	60326.89
606.771	60385.19
607.128	60415.25
607.485	60320.11
607.843	60363.5
608.2	60394.01
608.557	60486.66
608.914	60446.43
609.272	60604.85
609.629	60603.72
609.986	60611.17
610.343	60558.97
610.7	60722.13
611.057	60709.25
611.414	60730.95
611.771	60751.96
612.127	60767.55
612.484	60797.16
612.841	60836.48
613.198	60792.19
613.554	60791.96
613.911	60994.89
614.267	60932.97
614.624	60903.14
614.98	60973.65
615.337	61115.12
615.693	61008
616.05	61002.12
616.406	61127.09
616.762	61040.77
617.118	61069.24
617.475	61119.64
617.831	61131.61
618.187	61121.22
618.543	61211.84
618.899	61286.41
619.255	61217.03
619.611	61161.22
619.967	61258.84
620.323	61273.53
620.678	61247.09
621.034	61138.39
621.39	61217.03
621.746	61179.07
622.101	61370.7
622.457	61203.25
622.812	61249.8
623.168	61306.75
623.523	61358.73
623.879	61384.49
624.234	61239.18
624.589	61309.24
624.945	61314.21
625.3	61367.09
625.655	61325.73
626.01	61316.69
626.365	61324.38
626.72	61310.14
627.075	61297.71
627.43	61258.84
627.785	61256.13
628.14	61290.48
628.495	61247.09
628.85	61239.63
629.205	61093.42
629.559	61273.53
629.914	61134.55
630.269	61189.01
630.623	61021.79
630.978	61057.94
631.332	61217.26
631.687	61207.32
632.041	61022.69
632.396	61117.6
632.75	61062.01
633.104	61013.42
633.459	60919.19
633.813	60914.67
634.167	60908.79
634.521	60892.07
634.875	60970.49
635.229	60921.22
635.583	60778.18
635.937	60766.65
636.291	60734.11
636.645	60823.37
636.999	60687.56
637.352	60718.52
637.706	60591.97
638.06	60662.47
638.413	60588.58
638.767	60615.92
639.121	60581.12
639.474	60497.96
639.828	60491.86
640.181	60563.94
640.534	60474.91
640.888	60436.49
641.241	60376.6
641.594	60343.16
641.947	60361.92
642.301	60240.11
642.654	60294.12
643.007	60341.13
643.36	60219.32
643.713	60274.01
644.066	60323.72
644.419	60034.01
644.771	59730.75
645.124	59322.39
645.477	59249.4
645.83	59253.24
646.182	59310.64
646.535	59364.65
646.888	59554.93
647.24	59455.72
647.593	59599.45
647.945	59548.6
648.298	59464.54
648.65	59397.42
649.002	59166.92
649.355	59292.57
649.707	59023.87
650.059	59091.21
650.411	59341.38
650.763	59414.82
651.115	59767.81
651.467	59649.17
651.819	59705.21
652.171	59531.43
652.523	59513.35
652.875	59496.4
653.227	59360.59
653.578	59592.67
653.93	59449.17
654.282	59391.77
654.633	59307.03
654.985	59377.31
655.337	59348.16
655.688	59341.6
656.039	59316.52
656.391	59139.12
656.742	59205.79
657.094	59300.25
657.445	59313.36
657.796	59271.77
658.147	59171.66
658.498	59187.48
658.849	59197.88
659.2	59112.46
659.551	59036.3
659.902	59176.64
660.253	59096.41
660.604	59130.54
660.955	58955.62
661.306	59070.2
661.656	58970.77
662.007	59066.36
662.358	59007.15
662.708	58946.59
663.059	58909.3
663.409	58677.44
663.76	58943.2
664.11	58909.75
664.461	59049.86
664.811	58962.4
665.161	58889.41
665.511	58815.06
665.862	58768.74
666.212	58892.12
666.562	58889.41
666.912	58882.86
667.262	58806.25
667.612	58694.39
667.962	58775.97
668.312	58727.16
668.662	58831.79
669.011	58772.58
669.361	58742.07
669.711	58738.23
670.06	58633.6
670.41	58567.61
670.76	58634.5
671.109	58672.92
671.459	58571.68
671.808	58557.44
672.157	58610.32
672.507	58399.93
672.856	58449.88
673.205	58468.18
673.554	58561.74
673.904	58486.03
674.253	58545.92
674.602	58478.12
674.951	58116.78
675.3	57971.92
675.649	58416.2
675.998	58352.25
676.346	58419.59
676.695	58427.5
677.044	58215.76
677.393	58293.5
677.741	58347.05
678.09	58217.57
678.438	58154.52
678.787	58243.78
679.135	58259.6
679.484	58036.55
679.832	58100.73
680.181	57983
680.529	57997.46
680.877	58013.95
681.225	57888.08
681.573	58031.81
681.922	57912.04
682.27	57806.73
682.618	57834.75
682.966	57679.27
683.314	57692.38
683.661	57657.58
684.009	57543.01
684.357	57415.78
684.705	57434.76
685.053	57473.63
685.4	57410.35
685.748	57297.36
686.095	57265.05
686.443	57102.79
686.79	57146.86
687.138	57196.58
687.485	57100.08
687.832	56962.01
688.18	57036.81
688.527	56929.46
688.874	56878.39
689.221	56850.37
689.568	56687.44
689.915	56643.82
690.262	56687.21
690.609	56522.69
690.956	56456.26
691.303	56481.57
691.65	56282.47
691.997	56393.43
692.344	56251.97
692.69	56167.22
693.037	56145.76
693.383	55986.21
693.73	56139.65
694.077	55859.89
694.423	55764.75
694.769	55816.5
695.116	55651.31
695.462	55582.61
695.808	55526.79
696.155	55632.1
696.501	55357.98
696.847	55322.05
697.193	55192.79
697.539	55195.72
697.885	54985.56
698.231	54962.28
698.577	54919.12
698.923	54898.33
699.269	54745.79
699.614	54623.99
699.96	54446.82
700.306	54511
700.651	54382.19
700.997	54280.95
701.342	54214.51
701.688	54183.1
702.033	54171.12
702.379	54117.33
702.724	53938.58
703.069	53982.2
703.415	53711.47
703.76	53756.44
704.105	53664.46
704.45	53532.49
704.795	53335.89
705.14	53265.83
705.485	53362.33
705.83	53310.58
706.175	53432.15
706.52	53237.81
706.865	53033.97
707.209	52989.23
707.554	52869.46
707.899	52918.5
708.243	52784.94
708.588	52762.34
708.932	52465.85
709.277	52396.93
709.621	52407.55
709.966	52155.35
710.31	52275.12
710.654	52075.81
710.998	52100.21
711.342	52055.47
711.687	51953.78
712.031	51869.71
712.375	51587.46
712.719	51746.77
713.063	51697.74
713.407	51730.5
713.75	51541.58
714.094	51584.75
714.438	51459.32
714.782	51219.33
715.125	51179.11
715.469	51196.96
715.812	51051.2
716.156	50947.25
716.499	50991.77
716.843	50949.28
717.186	50660.25
717.53	50883.07
717.873	50886.91
718.216	50770.98
718.559	50508.39
718.902	50348.85
719.246	50421.61
719.589	50286.47
719.932	50150.21
720.275	50097.1
720.617	50097.78
720.96	49888.52
721.303	49934.85
721.646	49857.11
721.989	49694.85
722.331	49803.78
722.674	49649.88
723.016	49621.41
723.359	49574.18
723.701	49657.34
724.044	49398.81
724.386	49151.36
724.729	49444.46
725.071	49145.49
725.413	49073.4
725.755	49044.47
726.097	48776.01
726.439	48794.76
726.782	48869.11
727.124	48926.06
727.465	48784.82
727.807	48578.04
728.149	48509.57
728.491	48380.08
728.833	48465.05
729.175	48270.93
729.516	48195.46
729.858	48093.99
730.199	48028.23
730.541	47954.11
730.882	48046.53
731.224	48115.46
731.565	47862.36
731.906	47858.74
732.248	47821.91
732.589	47567.22
732.93	47443.84
733.271	47449.49
733.612	47438.41
733.953	47486.32
734.294	47185.99
734.635	47102.38
734.976	47283.16
735.317	47028.71
735.658	47097.63
735.999	46890.63
736.339	46813.57
736.68	46943.74
737.021	46656.97
737.361	46541.04
737.702	46774.7
738.042	46654.03
738.383	46494.48
738.723	46638.21
739.063	46382.4
739.404	46318.44
739.744	46140.82
740.084	46018.56
740.424	46153.25
740.764	46098.56
741.104	46127.49
741.444	45920.04
741.784	45916.87
742.124	45964.55
742.464	45880.49
742.804	45749.64
743.143	45692.92
743.483	45797.78
743.823	45609.54
744.162	45503.55
744.502	45548.52
744.841	45242.09
745.181	45274.63
745.52	45072.83
745.86	44994.41
746.199	44785.15
746.538	44797.81
746.877	44909.21
747.216	44820.63
747.556	44624.25
747.895	44539.05
748.234	44427.87
748.573	44382
748.911	44343.58
749.25	44258.61
749.589	43971.84
749.928	44118.27
750.267	44158.27
750.605	43858.62
750.944	43858.62
751.283	43653.88
751.621	43788.11
751.96	43525.75
