Data from foil_FLMS001491_080.txt Node
Date: Tue Feb 07 11:36:43 GMT 2017
User: dcchb
Spectrometer: FLMS00149
Trigger mode: 0
Integration Time (sec): 2.000000E-2
Scans to average: 10
Electric dark correction enabled: true
Nonlinearity correction enabled: false
Boxcar width: 0
XAxis mode: Wavelengths
Number of Pixels in Spectrum: 2048
>>>>>Begin Spectral Data<<<<<
341.393	-14.18
341.776	-14.18
342.16	-14.18
342.543	-64.57
342.927	-63.44
343.31	-44.46
343.693	-74.29
344.077	-66.83
344.46	-65.03
344.843	-52.82
345.226	-16.89
345.61	-40.62
345.993	-29.77
346.376	-3.33
346.759	25.14
347.142	22.88
347.525	13.39
347.908	44.12
348.291	72.14
348.674	97.68
349.057	118.7
349.44	126.15
349.823	147.85
350.206	196.66
350.588	267.62
350.971	245.93
351.354	287.28
351.737	297.45
352.119	313.27
352.502	327.28
352.884	354.85
353.267	339.48
353.65	358.92
354.032	338.8
354.414	390.33
354.797	372.25
355.179	367.96
355.562	390.55
355.944	401.18
356.326	408.86
356.709	416.09
357.091	401.4
357.473	413.38
357.855	421.74
358.238	431.46
358.62	409.54
359.002	423.77
359.384	423.77
359.766	404.57
360.148	426.94
360.53	418.35
360.912	409.54
361.294	423.32
361.676	426.49
362.057	422.87
362.439	419.48
362.821	443.89
363.203	428.52
363.584	438.92
363.966	432.59
364.348	439.59
364.729	427.62
365.111	425.81
365.493	438.46
365.874	435.07
366.256	434.4
366.637	424.45
367.019	426.26
367.4	449.76
367.781	421.97
368.163	439.59
368.544	438.24
368.925	442.3
369.306	449.99
369.688	452.25
370.069	459.48
370.45	461.97
370.831	449.31
371.212	445.24
371.593	459.25
371.974	456.77
372.355	460.38
372.736	471.46
373.117	464
373.498	450.89
373.879	461.06
374.26	453.83
374.641	477.56
375.021	475.75
375.402	472.36
375.783	497.44
376.163	525.69
376.544	536.09
376.925	494.51
377.305	495.18
377.686	513.26
378.066	510.55
378.447	539.48
378.827	532.47
379.208	537.44
379.588	527.95
379.968	523.66
380.349	518.01
380.729	536.99
381.109	537.22
381.489	555.3
381.87	558.46
382.25	558.01
382.63	550.55
383.01	562.98
383.39	573.15
383.77	575.63
384.15	579.7
384.53	589.87
384.91	585.13
385.29	604.33
385.67	611.11
386.049	615.63
386.429	625.12
386.809	627.16
387.189	626.03
387.568	635.52
387.948	660.83
388.328	675.74
388.707	658.34
389.087	662.41
389.466	667.38
389.846	678.91
390.225	677.55
390.605	704.9
390.984	688.85
391.363	740.6
391.743	726.82
392.122	734.5
392.501	723.88
392.881	745.57
393.26	757.32
393.639	774.27
394.018	752.81
394.397	798.23
394.776	770.43
395.155	767.95
395.534	779.47
395.913	812.92
396.292	800.49
396.671	827.38
397.05	834.38
397.429	831.22
397.808	831.67
398.186	832.58
398.565	865.57
398.944	882.52
399.323	855.4
399.701	863.31
400.08	876.87
400.458	903.31
400.837	922.29
401.215	893.59
401.594	909.41
401.972	911.67
402.351	920.48
402.729	958.68
403.107	949.64
403.486	953.7
403.864	970.43
404.242	982.86
404.62	1002.74
404.999	1022.63
405.377	1009.3
405.755	1023.08
406.133	1044.1
406.511	1042.06
406.889	1070.54
407.267	1078.45
407.645	1081.61
408.023	1094.49
408.401	1101.95
408.779	1123.42
409.156	1147.6
409.534	1163.64
409.912	1156.18
410.29	1193.7
410.667	1192.79
411.045	1184.43
411.422	1208.39
411.8	1251.1
412.178	1244.54
412.555	1270.98
412.933	1253.81
413.31	1294.94
413.687	1323.41
414.065	1328.61
414.442	1361.38
414.819	1383.07
415.197	1389.62
415.574	1395.05
415.951	1402.05
416.328	1452.9
416.705	1438.44
417.082	1461.26
417.46	1478.89
417.837	1497.42
418.214	1509.62
418.591	1496.29
418.967	1491.99
419.344	1544.87
419.721	1565.67
420.098	1543.74
420.475	1560.47
420.852	1602.73
421.228	1608.38
421.605	1602.73
421.982	1602.5
422.358	1666
422.735	1707.36
423.111	1652.67
423.488	1699.22
423.864	1757.75
424.241	1732.67
424.617	1769.73
424.994	1750.74
425.37	1784.19
425.746	1798.88
426.123	1814.25
426.499	1813.57
426.875	1869.39
427.251	1899.89
427.627	1932.89
428.003	1957.07
428.379	1967.91
428.756	1973.79
429.132	2031.42
429.507	2015.6
429.883	2048.82
430.259	2072.32
430.635	2078.65
431.011	2122.94
431.387	2151.64
431.763	2169.04
432.138	2221.47
432.514	2245.65
432.89	2239.32
433.265	2308.24
433.641	2317.51
434.016	2346.66
434.392	2376.94
434.767	2444.06
435.143	2430.05
435.518	2426.66
435.894	2462.59
436.269	2514.57
436.644	2554.57
437.02	2574.45
437.395	2580.33
437.77	2609.25
438.145	2653.32
438.52	2672.98
438.895	2694.67
439.271	2709.82
439.646	2772.41
440.021	2782.58
440.395	2776.25
440.77	2783.03
441.145	2800.43
441.52	2857.16
441.895	2888.34
442.27	2864.61
442.645	2926.31
443.019	2915.91
443.394	2959.98
443.769	3002.69
444.143	2981.45
444.518	3036.59
444.892	3003.59
445.267	3072.52
445.641	3069.35
446.016	3070.48
446.39	3103.7
446.764	3102.57
447.139	3120.2
447.513	3183.93
447.887	3196.13
448.262	3191.39
448.636	3270.7
449.01	3225.28
449.384	3243.36
449.758	3318.16
450.132	3347.99
450.506	3384.15
450.88	3389.57
451.254	3401.32
451.628	3399.52
452.002	3517.03
452.376	3482.68
452.75	3519.06
453.123	3559.51
453.497	3625.27
453.871	3637.47
454.244	3735.78
454.618	3751.14
454.992	3758.6
455.365	3840.63
455.739	3895.1
456.112	3993.85
456.486	3946.62
456.859	4054.87
457.232	4091.25
457.606	4098.25
457.979	4147.52
458.352	4260.74
458.725	4246.27
459.099	4260.96
459.472	4354.52
459.845	4410.56
460.218	4422.31
460.591	4501.41
460.964	4510.67
461.337	4635.19
461.71	4672.48
462.083	4731.46
462.456	4768.97
462.829	4807.16
463.201	4874.28
463.574	4888.74
463.947	4971.68
464.32	5056.19
464.692	5073.37
465.065	5132.12
465.438	5223.87
465.81	5295.74
466.183	5268.39
466.555	5421.61
466.928	5422.29
467.3	5434.72
467.672	5548.39
468.045	5692.56
468.417	5658.44
468.789	5737.53
469.161	5820.47
469.534	5871.77
469.906	6030.63
470.278	6144.98
470.65	6103.17
471.022	6282.15
471.394	6357.18
471.766	6408.25
472.138	6480.56
472.51	6605.53
472.882	6727.56
473.253	6814.57
473.625	6937.95
473.997	7050.94
474.369	7066.99
474.74	7153.31
475.112	7287.32
475.484	7445.06
475.855	7581.33
476.227	7624.94
476.598	7836.91
476.97	7923.92
477.341	8078.26
477.713	8172.72
478.084	8198.26
478.455	8444.35
478.827	8520.28
479.198	8813.38
479.569	8821.07
479.94	9049.08
480.311	9092.02
480.682	9261.73
481.053	9508.96
481.424	9657.43
481.795	9721.83
482.166	9911.21
482.537	10014.26
482.908	10208.6
483.279	10286.11
483.65	10529.5
484.021	10719.1
484.391	10823.95
484.762	10944.18
485.133	11017.85
485.503	11223.94
485.874	11407.89
486.244	11493.31
486.615	11693.53
486.985	11896.47
487.356	11995.9
487.726	12215.78
488.097	12411.26
488.467	12461.2
488.837	12793.17
489.207	12877.46
489.578	13081.52
489.948	13121.29
490.318	13398.8
490.688	13360.16
491.058	13673.6
491.428	13767.83
491.798	13963.76
492.168	14180.02
492.538	14285.1
492.908	14425.89
493.278	14579.79
493.648	14598.32
494.017	14849.16
494.387	14845.54
494.757	15048.93
495.126	15161.01
495.496	15268.58
495.866	15445.07
496.235	15570.49
496.605	15747.89
496.974	15840.54
497.344	15948.11
497.713	16066.98
498.082	16200.53
498.452	16321.44
498.821	16318.72
499.19	16502.45
499.559	16618.38
499.928	16673.97
500.298	16879.16
500.667	16958.25
501.036	16973.62
501.405	17090.23
501.774	17217.46
502.143	17383.55
502.512	17459.26
502.88	17749.42
503.249	17726.37
503.618	17897.21
503.987	17883.43
504.356	18013.37
504.724	18104.44
505.093	18339.24
505.462	18310.08
505.83	18422.4
506.199	18539.23
506.567	18787.59
506.936	18826.91
507.304	19097.63
507.672	19110.74
508.041	19281.58
508.409	19376.27
508.777	19505.31
509.145	19733.55
509.514	19704.62
509.882	19878.4
510.25	19962.24
510.618	20151.39
510.986	20291.27
511.354	20388.67
511.722	20605.84
512.09	20746.63
512.458	20736.01
512.826	20964.93
513.193	21005.15
513.561	21097.35
513.929	21322.43
514.297	21461.19
514.664	21660.05
515.032	21751.12
515.4	21948.41
515.767	22081.51
516.135	22161.51
516.502	22155.86
516.869	22583.19
517.237	22608.5
517.604	22607.82
517.972	22943.63
518.339	23115.61
518.706	23203.06
519.073	23292.55
519.44	23487.8
519.808	23741.81
520.175	23693.44
520.542	24125.52
520.909	24212.3
521.276	24162.36
521.643	24495.23
522.009	24647.77
522.376	24826.75
522.743	24994.88
523.11	25351.25
523.477	25397.58
523.843	25607.52
524.21	25910.11
524.577	25968.87
524.943	26243.66
525.31	26209.31
525.676	26551.9
526.043	26779.01
526.409	26914.83
526.776	27301.26
527.142	27132.68
527.508	27367.92
527.874	27680.91
528.241	27688.14
528.607	27909.61
528.973	28123.38
529.339	28128.13
529.705	28567.67
530.071	28682.24
530.437	28814.89
530.803	29067.77
531.169	29175.33
531.535	29137.14
531.901	29276.12
532.267	29430.7
532.632	29668.2
532.998	29628.2
533.364	30013.05
533.73	30164.46
534.095	30294.4
534.461	30327.62
534.826	30480.84
535.192	30746.37
535.557	30894.61
535.923	30841.51
536.288	30930.54
536.653	31133.25
537.019	31052.12
537.384	31353.81
537.749	31520.81
538.114	31603.75
538.479	31592.9
538.845	31827.02
539.21	31886.45
539.575	32017.07
539.94	31975.03
540.305	32310.85
540.67	32229.04
541.034	32345.19
541.399	32595.81
541.764	32735.69
542.129	32821.57
542.494	32882.13
542.858	32979.75
543.223	33042.13
543.587	33313.08
543.952	33297.03
544.316	33375.45
544.681	33348.56
545.045	33703.8
545.41	33803.01
545.774	33949.45
546.138	33939.05
546.503	34100.63
546.867	34002.33
547.231	34381.07
547.595	34480.96
547.959	34532.93
548.324	34468.98
548.688	34727.96
549.052	34885.69
549.416	34833.04
549.779	35086.37
550.143	35122.97
550.507	35450.88
550.871	35572.68
551.235	35527.94
551.599	35819.23
551.962	35872.79
552.326	36070.07
552.689	36197.52
553.053	36081.59
553.417	36240.23
553.78	36587.12
554.143	36514.35
554.507	36714.57
554.87	36878.86
555.234	37109.82
555.597	37134.45
555.96	37307.78
556.323	37514.1
556.686	37519.97
557.05	37743.24
557.413	37860.3
557.776	38006.51
558.139	38146.17
558.502	38357.69
558.865	38392.95
559.228	38752.26
559.59	38885.14
559.953	39031.57
560.316	39298.91
560.679	39290.55
561.041	39538.68
561.404	39649.64
561.767	39985.67
562.129	39865.22
562.492	40335.27
562.854	40436.51
563.217	40361.48
563.579	40657.74
563.941	40911.75
564.304	41010.96
564.666	41283.72
565.028	41289.37
565.39	41464.95
565.753	41801.9
566.115	41853.42
566.477	42025.62
566.839	42117.59
567.201	42438.94
567.563	42506.28
567.925	42816.78
568.287	42855.43
568.648	42787.86
569.01	43167.96
569.372	43417.9
569.734	43185.14
570.095	43579.02
570.457	43670.55
570.819	43709.19
571.18	43799.36
571.542	44012.91
571.903	44173.36
572.265	44267.14
572.626	44292.45
572.987	44578.77
573.349	44558.43
573.71	44665.1
574.071	44828.03
574.432	45033.45
574.794	45222.82
575.155	45151.86
575.516	45199.32
575.877	45242.48
576.238	45389.15
576.599	45407.9
576.96	45541.68
577.32	45618.74
577.681	45782.13
578.042	45972.63
578.403	45891.51
578.763	45835.69
579.124	45977.6
579.485	46160.2
579.845	46238.16
580.206	46167.2
580.566	46094.21
580.927	46186.19
581.287	46467.54
581.648	46194.1
582.008	46402.45
582.368	46211.5
582.728	46518.83
583.089	46383.92
583.449	46324.94
583.809	46459.85
584.169	46512.96
584.529	46491.49
584.889	46775.55
585.249	46517.93
585.609	46389.12
585.969	46642.9
586.329	46485.16
586.688	46617.14
587.048	46556.8
587.408	46531.71
587.768	46454.43
588.127	46455.33
588.487	46474.99
588.846	46795.44
589.206	46436.8
589.565	46624.59
589.925	46748.21
590.284	46557.48
590.643	46653.75
591.003	46710.47
591.362	46773.29
591.721	46695.33
592.08	46722.9
592.44	46876.56
592.799	46918.6
593.158	46787.75
593.517	46722.44
593.876	46754.53
594.235	46671.37
594.593	46571.49
594.952	46861.2
595.311	46554.99
595.67	46801.31
596.029	46965.15
596.387	47016.67
596.746	47022.55
597.104	46893.51
597.463	46837.02
597.822	46936.22
598.18	46798.15
598.538	46844.02
598.897	47227.74
599.255	46841.76
599.613	47397.45
599.972	47196.1
600.33	47152.26
600.688	47015.09
601.046	47106.16
601.404	47205.37
601.762	47126.73
602.12	47335.76
602.478	47351.81
602.836	47250.11
603.194	47076.78
603.552	47272.03
603.91	47100.06
604.268	47512.48
604.625	47258.47
604.983	47354.74
605.341	47256.67
605.698	47554.74
606.056	47707.05
606.413	47512.03
606.771	47708.41
607.128	47809.42
607.485	47457.79
607.843	47667.73
608.2	47814.62
608.557	47968.74
608.914	47736.43
609.272	47931.45
609.629	47942.07
609.986	48205.12
610.343	47922.19
610.7	48181.16
611.057	48116.98
611.414	48112.69
611.771	48144.55
612.127	48323.53
612.484	48142.75
612.841	48368.95
613.198	48247.15
613.554	48192.24
613.911	48447.6
614.267	48289.63
614.624	48254.38
614.98	48429.07
615.337	48636.29
615.693	48468.61
616.05	48552
616.406	48674.03
616.762	48535.96
617.118	48569.17
617.475	48593.36
617.831	48693.69
618.187	48602.17
618.543	48590.19
618.899	48896.17
619.255	48790.64
619.611	48696.4
619.967	48820.24
620.323	48949.28
620.678	48802.84
621.034	48732.56
621.39	48708.83
621.746	48595.16
622.101	49070.18
622.457	48710.64
622.812	48833.35
623.168	48780.47
623.523	48723.52
623.879	48959.9
624.234	48697.08
624.589	48769.62
624.945	48996.06
625.3	48824.08
625.655	48850.52
626.01	48835.16
626.365	48940.46
626.72	48774.59
627.075	48835.16
627.43	48642.62
627.785	48683.3
628.14	48771.88
628.495	48677.19
628.85	48648.04
629.205	48466.8
629.559	48696.63
629.914	48388.61
630.269	48517.42
630.623	48501.61
630.978	48413.92
631.332	48482.4
631.687	48473.58
632.041	48274.49
632.396	48369.18
632.75	48228.17
633.104	48295.06
633.459	48164.89
633.813	48177.09
634.167	48169.64
634.521	48114.27
634.875	48094.39
635.229	47975.52
635.583	47821.4
635.937	47823.21
636.291	47636.32
636.645	47824.11
636.999	47569.2
637.352	47612.14
637.706	47429.54
638.06	47487.4
638.413	47436.1
638.767	47345.03
639.121	47492.14
639.474	47317.91
639.828	47258.02
640.181	47271.58
640.534	47171.02
640.888	47109.33
641.241	46913.4
641.594	47062.1
641.947	47157.69
642.301	47019.16
642.654	46953.17
643.007	46871.59
643.36	46828.43
643.713	46796.79
644.066	46858.49
644.419	46505.27
644.771	46031.16
645.124	45500.78
645.477	45602.7
645.83	45397.51
646.182	45377.39
646.535	45399.77
646.888	45604.28
647.24	45274.8
647.593	45577.62
647.945	45433.66
648.298	45097.4
648.65	45165.65
649.002	45016.73
649.355	45207.68
649.707	44924.75
650.059	44969.04
650.411	45396.6
650.763	45364.97
651.115	45876.59
651.467	45828.68
651.819	45652.42
652.171	45504.17
652.523	45504.17
652.875	45548.46
653.227	45315.7
653.578	45542.14
653.93	45461.69
654.282	45201.81
654.633	45091.75
654.985	45283.16
655.337	45316.83
655.688	45192.54
656.039	45400.44
656.391	44985.99
656.742	45033.45
657.094	45100.11
657.445	45116.38
657.796	44934.47
658.147	44867.8
658.498	44704.64
658.849	44983.05
659.2	44850.18
659.551	44681.59
659.902	44799.56
660.253	44790.07
660.604	44790.52
660.955	44624.19
661.306	44702.38
661.656	44705.55
662.007	44560.92
662.358	44518.21
662.708	44537.42
663.059	44477.98
663.409	44104.89
663.76	44527.25
664.11	44441.15
664.461	44275.73
664.811	44262.4
665.161	44357.76
665.511	44241.38
665.862	44322.73
666.212	44397.31
666.562	44281.83
666.912	44130.2
667.262	44117.99
667.612	44225.56
667.962	44173.13
668.312	44040.71
668.662	44247.71
669.011	44094.49
669.361	44019.46
669.711	44033.93
670.06	43965.45
670.41	43962.06
670.76	43873.25
671.109	44052.68
671.459	43758
671.808	43671.68
672.157	43798.9
672.507	43448.63
672.856	43538.8
673.205	43605.92
673.554	43727.27
673.904	43417.67
674.253	43719.13
674.602	43435.98
674.951	42865.14
675.3	42729.78
675.649	43374.06
675.998	43247.51
676.346	43305.81
676.695	43400.72
677.044	43041.41
677.393	43248.41
677.741	43219.26
678.09	43124.57
678.438	42878.03
678.787	43107.4
679.135	42946.72
679.484	42694.3
679.832	42895.2
680.181	42601.87
680.529	42706.5
680.877	42726.39
681.225	42568.88
681.573	42820.85
681.922	42534.98
682.27	42362.33
682.618	42428.77
682.966	42365.27
683.314	42466.51
683.661	42259.96
684.009	41966.86
684.357	41987.43
684.705	41873.53
685.053	42092.28
685.4	41781.56
685.748	41656.14
686.095	41583.14
686.443	41537.95
686.79	41406.88
687.138	41523.94
687.485	41348.12
687.832	41061.8
688.18	41331.17
688.527	41088.69
688.874	41041.92
689.221	40871.07
689.568	40772.77
689.915	40543.85
690.262	40558.09
690.609	40392.67
690.956	40366
691.303	40512.44
691.65	40156.29
691.997	40195.84
692.344	39873.13
692.69	39851.66
693.037	39982.28
693.383	39587.04
693.73	39575.51
694.077	39307.27
694.423	39408.74
694.769	39243.54
695.116	39211.45
695.462	39153.38
695.808	39000.16
696.155	39041.97
696.501	38754.52
696.847	38665.03
697.193	38348.65
697.539	38570.12
697.885	38168.54
698.231	38086.51
698.577	38065.5
698.923	38115.44
699.269	37857.82
699.614	37727.43
699.96	37776.69
700.306	37799.97
700.651	37549.35
700.997	37366.08
701.342	37268.91
701.688	37383.03
702.033	37094.67
702.379	37087.89
702.724	37041.57
703.069	37061.45
703.415	36607
703.76	36564.74
704.105	36589.38
704.45	36461.02
704.795	36251.98
705.14	36218.99
705.485	36203.85
705.83	36067.13
706.175	36019.9
706.52	35748.72
706.865	35706.91
707.209	35646.8
707.554	35616.75
707.899	35549.18
708.243	35503.08
708.588	35377.21
708.932	35126.59
709.277	35008.18
709.621	35155.29
709.966	34850.21
710.31	35004.33
710.654	34828.97
710.998	34755.98
711.342	34751.46
711.687	34673.95
712.031	34447.29
712.375	34329.32
712.719	34404.12
713.063	34270.57
713.407	34340.17
713.75	34170.01
714.094	34079.84
714.438	33828.09
714.782	33988.32
715.125	33816.34
715.469	33817.25
715.812	33543.36
716.156	33496.8
716.499	33561.43
716.843	33513.98
717.186	33306.53
717.53	33438.73
717.873	33445.05
718.216	33326.86
718.559	33115.57
718.902	32941.56
719.246	33147.43
719.589	32933.65
719.932	32739.31
720.275	32737.95
720.617	32687.33
720.96	32694.11
721.303	32516.94
721.646	32608.24
721.989	32352.43
722.331	32436.94
722.674	32416.15
723.016	32288.7
723.359	32243.28
723.701	32189.27
724.044	32071.76
724.386	31834.93
724.729	32104.75
725.071	31825.66
725.413	31886.68
725.755	31748.15
726.097	31723.29
726.439	31626.57
726.782	31575.05
727.124	31712.22
727.465	31461.38
727.807	31423.64
728.149	31340.48
728.491	31308.84
728.833	31265.45
729.175	31160.59
729.516	31238.33
729.858	31074.27
730.199	31056.64
730.541	30923.31
730.882	30993.59
731.224	30923.76
731.565	30700.04
731.906	30684.45
732.248	30719.47
732.589	30519.03
732.93	30496.88
733.271	30548.63
733.612	30615.3
733.953	30534.85
734.294	30424.34
734.635	30346.38
734.976	30402.87
735.317	30130.56
735.658	30107.74
735.999	30086.5
736.339	29941.19
736.68	30298.69
737.021	30078.14
737.361	29887.86
737.702	30155.42
738.042	29834.53
738.383	29789.56
738.723	29925.37
739.063	29604.93
739.404	29713.85
739.744	29678.6
740.084	29512.05
740.424	29491.94
740.764	29472.95
741.104	29530.35
741.444	29370.36
741.784	29232.96
742.124	29196.8
742.464	29148.44
742.804	28904.38
743.143	29123.13
743.483	29065.73
743.823	28870.03
744.162	28858.96
744.502	28830.94
744.841	28702.35
745.181	28704.16
745.52	28731.73
745.86	28738.74
746.199	28607.89
746.538	28544.62
746.877	28649.7
747.216	28472.75
747.556	28395.24
747.895	28367.45
748.234	28174
748.573	28156.15
748.911	28029.83
749.25	28089.49
749.589	27981.47
749.928	27941.24
750.267	27971.52
750.605	27867.12
750.944	27849.04
751.283	27751.87
751.621	27754.81
751.96	27685.66
752.298	27629.84
752.636	27486.34
