Data from foil_FLMS001491_071.txt Node
Date: Tue Feb 07 11:36:41 GMT 2017
User: dcchb
Spectrometer: FLMS00149
Trigger mode: 0
Integration Time (sec): 2.000000E-2
Scans to average: 10
Electric dark correction enabled: true
Nonlinearity correction enabled: false
Boxcar width: 0
XAxis mode: Wavelengths
Number of Pixels in Spectrum: 2048
>>>>>Begin Spectral Data<<<<<
341.393	-8.86
341.776	-8.86
342.16	-8.86
342.543	-63.09
342.927	-87.95
343.31	-60.83
343.693	-77.33
344.077	-85.24
344.46	-71.23
344.843	-60.15
345.226	-59.48
345.61	-29.42
345.993	-17.67
346.376	5.61
346.759	27.53
347.142	20.3
347.525	58.49
347.908	65.27
348.291	82.22
348.674	87.86
349.057	114.08
349.44	129.22
349.823	139.61
350.206	174.87
350.588	235.43
350.971	282.66
351.354	274.98
351.737	303.23
352.119	309.55
352.502	345.03
352.884	340.97
353.267	344.58
353.65	353.62
354.032	354.75
354.414	381.19
354.797	369.44
355.179	393.85
355.562	397.01
355.944	374.41
356.326	402.21
356.709	382.09
357.091	410.12
357.473	415.54
357.855	416.9
358.238	418.93
358.62	407.63
359.002	427.74
359.384	433.84
359.766	408.99
360.148	406.95
360.53	433.39
360.912	420.06
361.294	434.75
361.676	420.29
362.057	427.29
362.439	408.99
362.821	434.52
363.203	415.09
363.584	430.68
363.966	414.64
364.348	434.07
364.729	415.77
365.111	430.45
365.493	426.84
365.874	439.27
366.256	432.26
366.637	426.61
367.019	417.57
367.4	434.97
367.781	436.33
368.163	423.22
368.544	421.87
368.925	425.03
369.306	422.09
369.688	446.95
370.069	445.82
370.45	455.76
370.831	433.62
371.212	456.44
371.593	441.75
371.974	430.45
372.355	459.38
372.736	467.97
373.117	476.1
373.498	466.16
373.879	472.49
374.26	448.53
374.641	459.38
375.021	441.53
375.402	487.4
375.783	484.24
376.163	518.36
376.544	481.3
376.925	491.02
377.305	493.73
377.686	505.26
378.066	497.12
378.447	501.41
378.827	512.03
379.208	533.28
379.588	538.25
379.968	531.7
380.349	546.16
380.729	544.58
381.109	556.55
381.489	549.77
381.87	561.98
382.25	569.21
382.63	563.78
383.01	591.81
383.39	559.04
383.77	568.76
384.15	583.22
384.53	582.32
384.91	597.91
385.29	609.43
385.67	605.59
386.049	618.02
386.429	616.89
386.809	641.97
387.189	633.39
387.568	647.85
387.948	651.69
388.328	684.69
388.707	660.73
389.087	652.37
389.466	695.76
389.846	677.23
390.225	679.71
390.605	671.8
390.984	688.53
391.363	732.82
391.743	727.17
392.122	738.24
392.501	747.73
392.881	741.18
393.26	730.33
393.639	748.64
394.018	774.63
394.397	755.64
394.776	787.28
395.155	787.73
395.534	769.43
395.913	813.04
396.292	802.65
396.671	813.5
397.05	815.3
397.429	827.51
397.808	834.29
398.186	825.25
398.565	839.26
398.944	860.27
399.323	831.8
399.701	871.35
400.08	871.8
400.458	868.41
400.837	879.71
401.215	891.46
401.594	912.02
401.972	920.84
402.351	934.85
402.729	931.23
403.107	956.32
403.486	972.81
403.864	984.34
404.242	983.21
404.62	983.66
404.999	1021.85
405.377	1002.64
405.755	1045.58
406.133	1036.54
406.511	1037.44
406.889	1041.96
407.267	1080.16
407.645	1079.25
408.023	1084
408.401	1119.93
408.779	1125.58
409.156	1143.43
409.534	1135.75
409.912	1173.26
410.29	1229.53
410.667	1208.29
411.045	1222.52
411.422	1250.55
411.8	1247.61
412.178	1260.94
412.555	1293.03
412.933	1302.75
413.31	1311.79
413.687	1331.67
414.065	1338
414.442	1368.96
414.819	1396.76
415.197	1366.48
415.574	1414.61
415.951	1406.93
416.328	1434.72
416.705	1433.82
417.082	1442.18
417.46	1485.57
417.837	1488.96
418.214	1487.38
418.591	1508.62
418.967	1488.28
419.344	1523.31
419.721	1542.52
420.098	1548.17
420.475	1594.72
420.852	1557.2
421.228	1609.63
421.605	1622.51
421.982	1635.17
422.358	1661.16
422.735	1689.4
423.111	1667.48
423.488	1700.93
423.864	1739.35
424.241	1770.31
424.617	1757.43
424.994	1779.35
425.37	1823.86
425.746	1808.72
426.123	1833.81
426.499	1852.79
426.875	1858.67
427.251	1879.23
427.627	1937.99
428.003	1945.44
428.379	1953.8
428.756	1986.57
429.132	2008.04
429.507	2067.47
429.883	2096.17
430.259	2128.26
430.635	2124.42
431.011	2139.79
431.387	2180.24
431.763	2241.03
432.138	2218.2
432.514	2282.38
432.89	2251.88
433.265	2308.15
433.641	2338.43
434.016	2388.14
434.392	2421.59
434.767	2428.59
435.143	2456.84
435.518	2487.12
435.894	2493.9
436.269	2515.37
436.644	2583.17
437.02	2590.62
437.395	2591.98
437.77	2669.27
438.145	2680.57
438.52	2670.85
438.895	2714.69
439.271	2731.19
439.646	2800.11
440.021	2802.82
440.395	2810.73
440.77	2777.51
441.145	2838.53
441.52	2885.98
441.895	2871.97
442.27	2892.54
442.645	2914.46
443.019	2972.99
443.394	2959.2
443.769	2990.39
444.143	3030.39
444.518	3054.34
444.892	3060.22
445.267	3084.85
445.641	3129.82
446.016	3093.66
446.39	3139.99
446.764	3151.06
447.139	3139.31
447.513	3196.03
447.887	3205.52
448.262	3249.36
448.636	3248.46
449.01	3289.14
449.384	3294.11
449.758	3323.26
450.132	3345.18
450.506	3356.71
450.88	3406.65
451.254	3419.08
451.628	3495.46
452.002	3528.68
452.376	3548.11
452.75	3534.78
453.123	3615.68
453.497	3658.62
453.871	3688.67
454.244	3745.62
454.618	3776.36
454.992	3823.81
455.365	3835.56
455.739	3939.06
456.112	3984.03
456.486	3979.97
456.859	3989.68
457.232	4115.33
457.606	4119.85
457.979	4189.23
458.352	4217.93
458.725	4306.29
459.099	4287.3
459.472	4421.54
459.845	4442.55
460.218	4480.07
460.591	4483
460.964	4553.28
461.337	4683.22
461.71	4696.33
462.083	4810.23
462.456	4796.67
462.829	4810.23
463.201	4859.26
463.574	4942.43
463.947	4982.65
464.32	5108.98
464.692	5165.92
465.065	5180.61
465.438	5220.16
465.81	5341.74
466.183	5293.83
466.555	5491.56
466.928	5457.44
467.3	5543.09
467.672	5627.38
468.045	5733.59
468.417	5756.19
468.789	5755.96
469.161	5859.01
469.534	5984.43
469.906	6101.72
470.278	6125.45
470.65	6195.27
471.022	6334.03
471.394	6444.08
471.766	6543.06
472.138	6550.29
472.51	6668.71
472.882	6760.91
473.253	6882.71
473.625	6969.04
473.997	7096.95
474.369	7152.76
474.74	7219.65
475.112	7415.58
475.484	7468.24
475.855	7652.64
476.227	7705.29
476.598	7896.7
476.97	7989.8
477.341	8123.13
477.713	8265.73
478.084	8301.43
478.455	8500.07
478.827	8588.66
479.198	8841.99
479.569	8839.27
479.94	9171.69
480.311	9213.27
480.682	9369.88
481.053	9590.89
481.424	9758.35
481.795	9805.35
482.166	9981.62
482.537	10115.85
482.908	10329.63
483.279	10454.6
483.65	10573.46
484.021	10836.96
484.391	10933.23
484.762	10975.71
485.133	11161.47
485.503	11334.35
485.874	11520.11
486.244	11636.71
486.615	11921.68
486.985	11907.44
487.356	12246.64
487.726	12286.64
488.097	12470.82
488.467	12561.44
488.837	12755.55
489.207	12982.22
489.578	13207.97
489.948	13298.59
490.318	13451.36
490.688	13544.69
491.058	13662.65
491.428	13932.25
491.798	14056.54
492.168	14327.72
492.538	14318.9
492.908	14553.02
493.278	14816.07
493.648	14794.6
494.017	14960.02
494.387	15115.94
494.757	15149.84
495.126	15433.9
495.496	15487.91
495.866	15523.62
496.235	15675.03
496.605	15809.26
496.974	15884.29
497.344	16062.36
497.713	16197.05
498.082	16323.6
498.452	16534.44
498.821	16493.76
499.19	16651.27
499.559	16765.84
499.928	17025.05
500.298	16956.8
500.667	17190.01
501.036	17114.99
501.405	17303.46
501.774	17337.81
502.143	17563.79
502.512	17663.22
502.88	17858.25
503.249	17888.3
503.618	17986.15
503.987	18072.48
504.356	18282.41
504.724	18304.79
505.093	18450.77
505.462	18489.64
505.83	18606.7
506.199	18748.17
506.567	19045.78
506.936	18900.25
507.304	19266.12
507.672	19394.93
508.041	19362.61
508.409	19534.13
508.777	19629.72
509.145	19947.68
509.514	19827.01
509.882	20009.6
510.25	20194.45
510.618	20318.75
510.986	20470.38
511.354	20637.83
511.722	20812.07
512.09	20866.53
512.458	20881.44
512.826	21067.65
513.193	21214.54
513.561	21293.86
513.929	21671.03
514.297	21745.6
514.664	21893.62
515.032	21949.66
515.4	22174.06
515.767	22264.68
516.135	22494.96
516.502	22378.35
516.869	22724.33
517.237	22918.23
517.604	22785.57
517.972	23128.84
518.339	23310.31
518.706	23369.51
519.073	23549.62
519.44	23597.3
519.808	23788.71
520.175	23980.34
520.542	24325.87
520.909	24371.75
521.276	24373.78
521.643	24685.41
522.009	24777.39
522.376	25055.8
522.743	25243.81
523.11	25481.77
523.477	25721.54
523.843	25788.88
524.21	26016.9
524.577	26253.96
524.943	26357.46
525.31	26482.88
525.676	26798.58
526.043	26951.34
526.409	27072.24
526.776	27450.31
527.142	27495.05
527.508	27730.53
527.874	27877.19
528.241	27967.81
528.607	28170.74
528.973	28368.25
529.339	28463.39
529.705	28726.43
530.071	28942.47
530.437	28986.54
530.803	29153.99
531.169	29443.7
531.535	29293.42
531.901	29539.75
532.267	29708.78
532.632	29910.81
532.998	30070.81
533.364	30192.84
533.73	30272.38
534.095	30585.59
534.461	30631.69
534.826	30789.88
535.192	30960.27
535.557	31104.68
535.923	31132.7
536.288	31206.14
536.653	31426.25
537.019	31351.45
537.384	31591.9
537.749	31779.91
538.114	31733.36
538.479	31875.28
538.845	32112.79
539.21	31902.17
539.575	32143.52
539.94	32439.78
540.305	32548.25
540.67	32553
541.034	32672.77
541.399	32765.42
541.764	32825.08
542.129	33145.07
542.494	33169.03
542.858	33225.07
543.223	33437.04
543.587	33709.81
543.952	33545.74
544.316	33776.47
544.681	33765.85
545.045	33903.92
545.41	34024.83
545.774	34229.57
546.138	34383.91
546.503	34291.71
546.867	34254.88
547.231	34583
547.595	34707.75
547.959	34847.85
548.324	34940.06
548.688	35007.17
549.052	35154.29
549.416	35166.94
549.779	35315.87
550.143	35403.55
550.507	35640.83
550.871	35788.62
551.235	35869.97
551.599	36072.23
551.962	36211.89
552.326	36247.37
552.689	36393.35
553.053	36345.67
553.417	36605.1
553.78	37113.33
554.143	36881.93
554.507	37148.36
554.87	37126.89
555.234	37435.36
555.597	37337.28
555.96	37492.98
556.323	37775.91
556.686	37831.73
557.05	38186.75
557.413	38274.88
557.776	38333.64
558.139	38632.61
558.502	38697.7
558.865	38769.79
559.228	39197.8
559.59	39118.03
559.953	39312.82
560.316	39710.33
560.679	39725.92
561.041	39988.74
561.404	39960.94
561.767	40550.08
562.129	40341.04
562.492	40694.25
562.854	40666.68
563.217	40857.19
563.579	41000.24
563.941	41289.49
564.304	41392.77
564.666	41676.38
565.028	41741.91
565.39	41835.92
565.753	42091.51
566.115	42317.04
566.477	42472.06
566.839	42646.75
567.201	42677.25
567.563	42840.64
567.925	43221.42
568.287	43085.6
568.648	43296.67
569.01	43399.04
569.372	43807.62
569.734	43516.1
570.095	44033.6
570.457	44064.79
570.819	44154.05
571.18	44205.57
571.542	44390.43
571.903	44555.85
572.265	44606.92
572.626	44660.7
572.987	44798.55
573.349	44938.89
573.71	45060.47
574.071	45298.2
574.432	45351.99
574.794	45645.31
575.155	45499.1
575.516	45485.32
575.877	45681.92
576.238	45847.79
576.599	45895.93
576.96	45897.73
577.32	46076.03
577.681	46160.55
578.042	46204.17
578.403	46160.78
578.763	46230.15
579.124	46421.34
579.485	46536.59
579.845	46536.36
580.206	46520.09
580.566	46450.04
580.927	46544.5
581.287	46747.2
581.648	46633.76
582.008	46859.74
582.368	46755.56
582.728	46952.62
583.089	46813.19
583.449	46778.61
583.809	46851.38
584.169	46908.55
584.529	46843.47
584.889	47153.52
585.249	46913.3
585.609	46753.98
585.969	46841.44
586.329	46785.17
586.688	46906.52
587.048	46955.11
587.408	46848.9
587.768	46929.8
588.127	46862.45
588.487	46889.12
588.846	47062.9
589.206	46833.98
589.565	46788.33
589.925	46976.8
590.284	46988.55
590.643	46992.62
591.003	47099.51
591.362	47271.26
591.721	47138.38
592.08	47206.17
592.44	47251.6
592.799	47196
593.158	47068.1
593.517	47099.96
593.876	47166.63
594.235	47029.23
594.593	47000.3
594.952	47115.55
595.311	46972.06
595.67	47174.76
596.029	47326.4
596.387	47267.64
596.746	47377.24
597.104	47239.17
597.463	47225.16
597.822	47321.65
598.18	47239.17
598.538	47236
598.897	47501.53
599.255	47192.84
599.613	47694.07
599.972	47554.64
600.33	47580.18
600.688	47374.53
601.046	47534.98
601.404	47605.03
601.762	47568.65
602.12	47766.16
602.478	47820.62
602.836	47670.79
603.194	47422.89
603.552	47569.55
603.91	47487.07
604.268	47759.83
604.625	47619.27
604.983	47776.1
605.341	47638.25
605.698	47868.76
606.056	47979.49
606.413	47925.25
606.771	48065.36
607.128	48135.19
607.485	47870.34
607.843	47922.31
608.2	48140.84
608.557	48202.76
608.914	48144.68
609.272	48301.29
609.629	48384.22
609.986	48369.76
610.343	48302.64
610.7	48542.18
611.057	48461.06
611.414	48413.6
611.771	48492.69
612.127	48536.08
612.484	48590.54
612.841	48648.17
613.198	48501.06
613.554	48453.15
613.911	48715.29
614.267	48637.55
614.624	48743.31
614.98	48838.9
615.337	48822.63
615.693	48767.49
616.05	48866.02
616.406	49081.15
616.762	48894.72
617.118	48889.75
617.475	48997.54
617.831	49014.94
618.187	49032.57
618.543	48966.35
618.899	49194.37
619.255	49131.77
619.611	49094.71
619.967	49299.68
620.323	49220.36
620.678	49079.57
621.034	49005.67
621.39	49047.03
621.746	49111.43
622.101	49405.89
622.457	49091.77
622.812	49131.32
623.168	49116.86
623.523	49166.12
623.879	49304.65
624.234	49126.12
624.589	49168.38
624.945	49257.42
625.3	49244.99
625.655	49196.18
626.01	49203.86
626.365	49163.18
626.72	49130.64
627.075	49141.26
627.43	49091.77
627.785	49008.61
628.14	49156.86
628.495	49089.29
628.85	48968.61
629.205	48861.5
629.559	49041.83
629.914	48825.79
630.269	48964.32
630.623	48741.5
630.978	48686.14
631.332	48857.88
631.687	48827.6
632.041	48757.55
632.396	48765.46
632.75	48687.94
633.104	48773.14
633.459	48533.37
633.813	48565.01
634.167	48543.54
634.521	48463.99
634.875	48491.79
635.229	48479.81
635.583	48177.9
635.937	48137.45
636.291	48200.72
636.645	48174.96
636.999	47981.97
637.352	48129.54
637.706	47770.23
638.06	47927.74
638.413	47868.98
638.767	47799.6
639.121	47897.46
639.474	47801.64
639.828	47721.87
640.181	47652.04
640.534	47638.71
640.888	47539.5
641.241	47264.25
641.594	47325.04
641.947	47493.17
642.301	47351.48
642.654	47411.82
643.007	47421.31
643.36	47196.23
643.713	47223.35
644.066	47218.6
644.419	47008.44
644.771	46541.33
645.124	45964.85
645.477	45917.85
645.83	45637.4
646.182	45761.92
646.535	45845.76
646.888	45923.95
647.24	45624.29
647.593	45843.05
647.945	45861.12
648.298	45601.92
648.65	45544.07
649.002	45388.82
649.355	45525.31
649.707	45297.75
650.059	45302.95
650.411	45703.39
650.763	45833.55
651.115	46172.75
651.467	46086.2
651.819	46105.86
652.171	45935.02
652.523	45908.58
652.875	45780.67
653.227	45590.85
653.578	46036.49
653.93	45838.07
654.282	45838.3
654.633	45610.28
654.985	45708.13
655.337	45801.47
655.688	45652.32
656.039	45827.45
656.391	45361.48
656.742	45514.47
657.094	45439.21
657.445	45625.2
657.796	45332.78
658.147	45156.96
658.498	45256.17
658.849	45333
659.2	45176.85
659.551	45163.52
659.902	45152.89
660.253	45049.85
660.604	45130.97
660.955	45030.64
661.306	45166.91
661.656	44833.81
662.007	44993.58
662.358	44941.37
662.708	44824.09
663.059	44796.52
663.409	44547.71
663.76	44952.22
664.11	44787.03
664.461	44842.39
664.811	44831.1
665.161	44741.38
665.511	44706.35
665.862	44699.8
666.212	44821.83
666.562	44778.89
666.912	44564.89
667.262	44493.03
667.612	44542.06
667.962	44569.41
668.312	44475.85
668.662	44670.42
669.011	44500.26
669.361	44362.63
669.711	44453.25
670.06	44403.08
670.41	44268.17
670.76	44255.29
671.109	44281.05
671.459	44214.84
671.808	44049.19
672.157	44056.88
672.507	43984.11
672.856	43871.12
673.205	43989.54
673.554	44025.47
673.904	43942.08
674.253	44124
674.602	44025.92
674.951	43257.13
675.3	43230.23
675.649	43880.16
675.998	43675.87
676.346	43740.5
676.695	43773.04
677.044	43483.56
677.393	43722.2
677.741	43680.39
678.09	43368.99
678.438	43326.95
678.787	43422.77
679.135	43345.48
679.484	43171.48
679.832	43207.18
680.181	42977.36
680.529	43230.23
680.877	42906.63
681.225	43111.59
681.573	43264.13
681.922	42913.18
682.27	42794.09
682.618	42769
682.966	42705.73
683.314	42887.42
683.661	42546.18
684.009	42507.09
684.357	42192.07
684.705	42320.2
685.053	42401.55
685.4	42143.71
685.748	42133.99
686.095	41936.48
686.443	41807.45
686.79	41727
687.138	41897.39
687.485	41741.01
687.832	41636.38
688.18	41555.25
688.527	41521.35
688.874	41482.03
689.221	41309.83
689.568	40990.07
689.915	40995.49
690.262	40968.37
690.609	40898.54
690.956	40716.18
691.303	40626.46
691.65	40539.91
691.997	40531.77
692.344	40135.17
692.69	40266.02
693.037	40250.42
693.383	39772.7
693.73	39962.52
694.077	39787.16
694.423	39713.72
694.769	39756.65
695.116	39441.86
695.462	39513.04
695.808	39317.57
696.155	39461.29
696.501	39143.79
696.847	39097.01
697.193	38737.92
697.539	38904.7
697.885	38660.64
698.231	38577.47
698.577	38484.14
698.923	38453.64
699.269	38299.06
699.614	38008.22
699.96	38024.49
700.306	38175.9
700.651	37855.69
700.997	37613.66
701.342	37601.68
701.688	37545.41
702.033	37462.48
702.379	37518.07
702.724	37312.65
703.069	37398.97
703.415	37003.28
703.76	36862.94
704.105	36825.43
704.45	36811.42
704.795	36666.11
705.14	36589.05
705.485	36586.11
705.83	36288.49
706.175	36404.88
706.52	36248.27
706.865	36173.7
707.209	36037.2
707.554	35829.07
707.899	35876.98
708.243	35716.53
708.588	35725.35
708.932	35457.56
709.277	35426.82
709.621	35617.55
709.966	35209.65
710.31	35321.74
710.654	35166.04
710.998	35140.95
711.342	35163.1
711.687	35053.73
712.031	34776.9
712.375	34669.33
712.719	34530.35
713.063	34535.09
713.407	34774.18
713.75	34526.96
714.094	34393.63
714.438	34287.64
714.782	34364.7
715.125	34211.94
715.469	34234.99
715.812	33965.17
716.156	33890.14
716.499	33879.97
716.843	33847.43
717.186	33666.87
717.53	33798.84
717.873	33761.78
718.216	33622.8
718.559	33461
718.902	33211.97
719.246	33351.85
719.589	33267.78
719.932	33000.67
720.275	33037.06
720.617	33123.83
720.96	33067.79
721.303	32942.82
721.646	32902.82
721.989	32677.06
722.331	32774.92
722.674	32673.67
723.016	32695.14
723.359	32653.34
723.701	32599.55
724.044	32429.39
724.386	32141.94
724.729	32216.74
725.071	32195.27
725.413	32179.9
725.755	32212.9
726.097	32004.09
726.439	31896.07
726.782	31880.25
727.124	31921.83
727.465	31721.16
727.807	31760.93
728.149	31711.21
728.491	31511.9
728.833	31530.43
729.175	31395.52
729.516	31402.52
729.858	31318.46
730.199	31381.96
730.541	31297.44
730.882	31248.18
731.224	31288.4
731.565	31143.77
731.906	31091.12
732.248	31122.98
732.589	30808.41
732.93	30740.62
733.271	30803.22
733.612	30814.29
733.953	30799.37
734.294	30688.64
734.635	30624.01
734.976	30704.46
735.317	30564.35
735.658	30481.19
735.999	30430.12
736.339	30456.33
736.68	30381.98
737.021	30296.79
737.361	30209.56
737.702	30338.37
738.042	30237.35
738.383	30153.74
738.723	30149
739.063	30054.08
739.404	30047.98
739.744	29888.21
740.084	29754.88
740.424	29814.77
740.764	29752.85
741.104	29776.58
741.444	29607.54
741.784	29468.56
742.124	29561.89
742.464	29431.27
742.804	29438.51
743.143	29460.65
743.483	29376.13
743.823	29161
744.162	29158.06
744.502	29222.47
744.841	29114.9
745.181	29111.51
745.52	28920.78
745.86	28926.65
746.199	28904.73
746.538	28846.66
746.877	28789.03
747.216	28729.37
747.556	28734.34
747.895	28730.28
748.234	28507.68
748.573	28490.28
748.911	28453.45
749.25	28299.1
749.589	28132.33
749.928	28276.95
750.267	28322.83
750.605	28237.18
750.944	28105.21
751.283	28125.09
751.621	28057.98
751.96	27863.86
752.298	27986.79
752.636	27821.37
752.975	27641.72
