Data from foil_FLMS001491_096.txt Node
Date: Tue Feb 07 11:37:33 GMT 2017
User: dcchb
Spectrometer: FLMS00149
Trigger mode: 0
Integration Time (sec): 2.000000E-2
Scans to average: 10
Electric dark correction enabled: true
Nonlinearity correction enabled: false
Boxcar width: 0
XAxis mode: Wavelengths
Number of Pixels in Spectrum: 2048
>>>>>Begin Spectral Data<<<<<
341.393	-15.31
341.776	-15.31
342.16	-15.31
342.543	-61.86
342.927	-67.51
343.31	-79.72
343.693	-74.29
344.077	-69.77
344.46	-81.75
344.843	-42.2
345.226	-42.43
345.61	-25.03
345.993	-14.86
346.376	-4.01
346.759	18.36
347.142	32.15
347.525	44.8
347.908	68.98
348.291	84.57
348.674	96.1
349.057	89.09
349.44	139.04
349.823	127.51
350.206	153.5
350.588	221.75
350.971	274.63
351.354	259.94
351.737	266.94
352.119	283.44
352.502	316.66
352.884	298.35
353.267	332.48
353.65	342.19
354.032	350.78
354.414	371.57
354.797	356.43
355.179	345.13
355.562	384.91
355.944	382.65
356.326	389.88
356.709	411.12
357.091	398.69
357.473	387.84
357.855	407.28
358.238	388.75
358.62	431.23
359.002	398.92
359.384	395.53
359.766	416.32
360.148	405.24
360.53	424.45
360.912	412.25
361.294	415.86
361.676	413.6
362.057	432.14
362.439	413.38
362.821	420.38
363.203	407.73
363.584	405.92
363.966	404.57
364.348	424.23
364.729	402.53
365.111	390.78
365.493	406.83
365.874	402.76
366.256	453.83
366.637	395.3
367.019	434.17
367.4	431.68
367.781	446.37
368.163	444.56
368.544	426.49
368.925	415.19
369.306	423.32
369.688	451.12
370.069	436.88
370.45	434.17
370.831	425.36
371.212	436.88
371.593	443.21
371.974	455.19
372.355	454.96
372.736	455.64
373.117	482.76
373.498	442.08
373.879	440.27
374.26	445.24
374.641	441.63
375.021	458.8
375.402	479.14
375.783	499.25
376.163	516.43
376.544	513.26
376.925	488.63
377.305	502.87
377.686	520.95
378.066	513.94
378.447	509.65
378.827	531.34
379.208	520.04
379.588	525.92
379.968	525.01
380.349	544.45
380.729	544
381.109	542.42
381.489	555.3
381.87	557.78
382.25	566.6
382.63	541.74
383.01	576.99
383.39	589.65
383.77	568.4
384.15	581.28
384.53	609.76
384.91	614.28
385.29	625.58
385.67	592.81
386.049	616.76
386.429	615.86
386.809	657.89
387.189	638.91
387.568	659.47
387.948	643.43
388.328	671.45
388.707	679.13
389.087	677.33
389.466	697.89
389.846	659.7
390.225	705.57
390.605	678.46
390.984	746.03
391.363	715.52
391.743	710.32
392.122	744.67
392.501	739.92
392.881	772.47
393.26	764.33
393.639	776.76
394.018	770.21
394.397	803.2
394.776	828.51
395.155	794.39
395.534	817.89
395.913	812.24
396.292	826.93
396.671	858.56
397.05	836.19
397.429	839.13
397.808	882.75
398.186	883.88
398.565	880.03
398.944	901.05
399.323	917.77
399.701	912.35
400.08	905.8
400.458	940.82
400.837	945.79
401.215	968.62
401.594	936.98
401.972	969.07
402.351	976.53
402.729	987.38
403.107	989.86
403.486	1002.52
403.864	1021.95
404.242	1006.81
404.62	1074.6
404.999	1043.87
405.377	1089.07
405.755	1066.92
406.133	1082.06
406.511	1096.98
406.889	1109.63
407.267	1121.83
407.645	1166.35
408.023	1173.36
408.401	1168.84
408.779	1168.16
409.156	1233.7
409.534	1244.54
409.912	1249.29
410.29	1240.25
410.667	1267.37
411.045	1282.73
411.422	1294.26
411.8	1335.16
412.178	1376.74
412.555	1357.76
412.933	1395.73
413.31	1423.3
413.687	1411.32
414.065	1440.24
414.442	1467.14
414.819	1474.82
415.197	1506.91
415.574	1517.53
415.951	1519.56
416.328	1541.03
416.705	1537.42
417.082	1589.85
417.46	1582.39
417.837	1616.29
418.214	1622.16
418.591	1610.86
418.967	1651.99
419.344	1655.83
419.721	1686.79
420.098	1719.11
420.475	1742.16
420.852	1733.34
421.228	1764.3
421.605	1765.66
421.982	1796.62
422.358	1829.16
422.735	1839.33
423.111	1827.35
423.488	1907.8
423.864	1905.09
424.241	1932.44
424.617	1943.96
424.994	1943.28
425.37	1976.5
425.746	1979.67
426.123	2009.95
426.499	2013.11
426.875	2058.08
427.251	2079.78
427.627	2174.01
428.003	2167.01
428.379	2189.38
428.756	2197.29
429.132	2233.44
429.507	2297.62
429.883	2283.16
430.259	2332.88
430.635	2371.07
431.011	2384.4
431.387	2411.07
431.763	2469.37
432.138	2485.87
432.514	2533.78
432.89	2538.97
433.265	2614.23
433.641	2643.6
434.016	2629.37
434.392	2691.96
434.767	2731.96
435.143	2737.61
435.518	2798.63
435.894	2830.94
436.269	2865.29
436.644	2935.12
437.02	2909.36
437.395	2932.18
437.77	2983.48
438.145	3018.06
438.52	3035.23
438.895	3091.5
439.271	3097.15
439.646	3161.33
440.021	3204.49
440.395	3203.59
440.77	3153.87
441.145	3236.36
441.52	3293.76
441.895	3299.18
442.27	3290.59
442.645	3318.16
443.019	3384.83
443.394	3378.95
443.769	3440.64
444.143	3418.05
444.518	3465.28
444.892	3430.7
445.267	3483.81
445.641	3483.58
446.016	3587.08
446.39	3592.73
446.764	3565.84
447.139	3613.75
447.513	3665.72
447.887	3615.55
448.262	3710.47
448.636	3715.21
449.01	3776.23
449.384	3833.18
449.758	3873.4
450.132	3911.82
450.506	3869.56
450.88	3900.74
451.254	3958.37
451.628	3993.17
452.002	4038.14
452.376	4109.33
452.75	4122.21
453.123	4114.52
453.497	4200.62
453.871	4247.63
454.244	4362.2
454.618	4379.83
454.992	4432.71
455.365	4382.99
455.739	4536.89
456.112	4542.54
456.486	4675.41
456.859	4694.17
457.232	4801.74
457.606	4750.21
457.979	4865.24
458.352	4976.42
458.725	5005.12
459.099	5047.61
459.472	5159.92
459.845	5176.87
460.218	5239.01
460.591	5255.74
460.964	5326.02
461.337	5459.57
461.71	5526.01
462.083	5621.15
462.456	5606.91
462.829	5647.82
463.201	5732.34
463.574	5774.59
463.947	5845.78
464.32	6000.58
464.692	6015.49
465.065	6131.19
465.438	6169.39
465.81	6263.85
466.183	6327.57
466.555	6463.16
466.928	6511.75
467.3	6522.37
467.672	6603.05
468.045	6754.46
468.417	6770.05
468.789	6792.87
469.161	6970.49
469.534	7042.36
469.906	7246.65
470.278	7256.59
470.65	7306.31
471.022	7483.7
471.394	7665.17
471.766	7706.75
472.138	7819.74
472.51	7972.28
472.882	8122.55
473.253	8160.75
473.625	8351.48
473.997	8493.39
474.369	8533.62
474.74	8647.74
475.112	8775.87
475.484	9009.31
475.855	9099.48
476.227	9198.23
476.598	9455.85
476.97	9546.25
477.341	9772.68
477.713	9894.49
478.084	9934.48
478.455	10250.41
478.827	10291.09
479.198	10532.21
479.569	10550.06
479.94	10964.51
480.311	11032.53
480.682	11262.59
481.053	11562.92
481.424	11637.26
481.795	11786.64
482.166	11976.69
482.537	12203.8
482.908	12384.82
483.279	12526.51
483.65	12773.51
484.021	13051.01
484.391	13053.27
484.762	13295.3
485.133	13421.17
485.503	13674.95
485.874	13975.28
486.244	14049.18
486.615	14286.01
486.985	14507.25
487.356	14777.07
487.726	14834.24
488.097	15221.58
488.467	15206.66
488.837	15558.97
489.207	15696.14
489.578	16039.63
489.948	15994.66
490.318	16323.7
490.688	16445.73
491.058	16663.12
491.428	16853.4
491.798	17032.83
492.168	17399.15
492.538	17416.55
492.908	17680.04
493.278	17823.99
493.648	17967.95
494.017	18249.07
494.387	18334.94
494.757	18496.07
495.126	18649.28
495.496	18732.22
495.866	18903.29
496.235	19166.11
496.605	19416.95
496.974	19510.96
497.344	19557.73
497.713	19699.2
498.082	19919.31
498.452	20108.91
498.821	20164.5
499.19	20184.61
499.559	20530.36
499.928	20502.34
500.298	20742.11
500.667	21041.54
501.036	20901.43
501.405	21137.35
501.774	21289.67
502.143	21534.63
502.512	21485.59
502.88	21785.7
503.249	21789.77
503.618	21875.87
503.987	22024.56
504.356	22209.64
504.724	22373.93
505.093	22472.23
505.462	22608.28
505.83	22810.76
506.199	22964.88
506.567	23277.64
506.936	23190.41
507.304	23551.3
507.672	23500
508.041	23727.79
508.409	23954.68
508.777	24055.24
509.145	24264.5
509.514	24384.5
509.882	24495.46
510.25	24581.33
510.618	24859.06
510.986	24937.25
511.354	25223.35
511.722	25294.31
512.09	25510.35
512.458	25556.67
512.826	25914.63
513.193	25996.66
513.561	26126.15
513.929	26391.23
514.297	26602.97
514.664	26823.98
515.032	26949.18
515.4	27175.39
515.767	27188.72
516.135	27406.57
516.502	27312.33
516.869	27747.12
517.237	27998.87
517.604	27895.59
517.972	28288.35
518.339	28499.87
518.706	28606.54
519.073	28725.18
519.44	28978.28
519.808	29196.8
520.175	29371.71
520.542	29698.71
520.909	29855.54
521.276	29941.19
521.643	30209.21
522.009	30374.85
522.376	30573.26
522.743	30779.59
523.11	31202.85
523.477	31417.54
523.843	31462.05
524.21	31978.2
524.577	32311.75
524.943	32372.54
525.31	32524.85
525.676	32784.28
526.043	33022.47
526.409	33105.63
526.776	33586.29
527.142	33670.13
527.508	33849.56
527.874	34037.35
528.241	34309.21
528.607	34401.64
528.973	34759.82
529.339	34741.06
529.705	35196.42
530.071	35349.41
530.437	35460.82
530.803	35803.63
531.169	35989.39
531.535	35907.13
531.901	36010.18
532.267	36230.97
532.632	36553.22
532.998	36678.87
533.364	36876.38
533.73	36914.34
534.095	37385.97
534.461	37376.93
534.826	37622.12
535.192	37794.99
535.557	38049
535.923	37989.34
536.288	38192.27
536.653	38464.13
537.019	38348.43
537.384	38620.06
537.749	38728.98
538.114	38825.25
538.479	38942.31
538.845	39059.37
539.21	39107.95
539.575	39317.89
539.94	39442.41
540.305	39698.9
540.67	39662.29
541.034	39880.59
541.399	40072.9
541.764	40021.38
542.129	40307.25
542.494	40305.89
542.858	40488.71
543.223	40556.05
543.587	40843.5
543.952	40958.08
544.316	41056.83
544.681	40914.69
545.045	41229.25
545.41	41524.39
545.774	41575.69
546.138	41587.89
546.503	41711.28
546.867	41837.83
547.231	42103.81
547.595	42134.77
547.959	42217.7
548.324	42427.42
548.688	42575.43
549.052	42539.05
549.416	42717.58
549.779	42789.44
550.143	43049.09
550.507	43372.93
550.871	43378.58
551.235	43474.17
551.599	43682.52
551.962	43718.68
552.326	43923.65
552.689	44152.12
553.053	43947.15
553.417	44219.46
553.78	44790.74
554.143	44450.41
554.507	44717.52
554.87	44944.64
555.234	45256.27
555.597	45103.73
555.96	45223.73
556.323	45315.7
556.686	45601.34
557.05	45895.57
557.413	45913.65
557.776	46160.65
558.139	46302.12
558.502	46482.22
558.865	46587.76
559.228	46900.52
559.59	46898.48
559.953	46975.09
560.316	47462.76
560.679	47444.91
561.041	47816.65
561.404	47901.62
561.767	48141.39
562.129	47845.13
562.492	48361.04
562.854	48402.85
563.217	48437.43
563.579	48708.38
563.941	48902.27
564.304	49022.95
564.666	49188.59
565.028	49347.91
565.39	49319.66
565.753	49538.64
566.115	49641.24
566.477	49890.5
566.839	49961
567.201	50089.36
567.563	50280.99
567.925	50514.66
568.287	50476.24
568.648	50578.84
569.01	50784.03
569.372	51078.71
569.734	50914.65
570.095	51106.74
570.457	51317.13
570.819	51425.6
571.18	51466.73
571.542	51597.34
571.903	51673.05
572.265	51753.27
572.626	51864.46
572.987	51948.75
573.349	52056.09
573.71	52171.79
574.071	52203.2
574.432	52347.83
574.794	52505.34
575.155	52615.17
575.516	52373.59
575.877	52665.56
576.238	52618.11
576.599	52694.04
576.96	52722.06
577.32	52679.12
577.681	52858.1
578.042	52938.1
578.403	52954.14
578.763	52998.89
579.124	53073.46
579.485	53236.85
579.845	53208.6
580.206	53188.04
580.566	53200.24
580.927	53214.7
581.287	53353.46
581.648	53229.17
582.008	53418.99
582.368	53227.58
582.728	53386
583.089	53298.99
583.449	53361.59
583.809	53407.47
584.169	53436.84
584.529	53270.75
584.889	53512.55
585.249	53467.35
585.609	53372.44
585.969	53497.18
586.329	53289.5
586.688	53431.87
587.048	53402.04
587.408	53323.85
587.768	53444.3
588.127	53434.13
588.487	53364.76
588.846	53585.54
589.206	53402.72
589.565	53453.34
589.925	53446.11
590.284	53451.31
590.643	53564.52
591.003	53560.23
591.362	53652.88
591.721	53459.44
592.08	53490.4
592.44	53579.89
592.799	53608.14
593.158	53435.94
593.517	53562.72
593.876	53509.38
594.235	53488.82
594.593	53494.24
594.952	53538.08
595.311	53597.97
595.67	53583.73
596.029	53705.99
596.387	53741.92
596.746	53751.41
597.104	53543.51
597.463	53599.78
597.822	53767.23
598.18	53606.33
598.538	53595.71
598.897	53940.79
599.255	53548.25
599.613	53958.86
599.972	53758.64
600.33	53893.78
600.688	53689.72
601.046	53865.31
601.404	53936.94
601.762	53862.14
602.12	54016.04
602.478	53946.21
602.836	54028.01
603.194	53874.35
603.552	53889.04
603.91	53758.19
604.268	54082.25
604.625	53925.19
604.983	54004.96
605.341	53918.64
605.698	54109.14
606.056	54106.43
606.413	54036.38
606.771	54198.18
607.128	54199.31
607.485	54090.39
607.843	54088.35
608.2	54236.82
608.557	54353.43
608.914	54272.3
609.272	54378.74
609.629	54396.37
609.986	54501.22
610.343	54404.95
610.7	54539.87
611.057	54456.03
611.414	54400.89
611.771	54448.12
612.127	54586.42
612.484	54524.95
612.841	54648.79
613.198	54577.38
613.554	54562.01
613.911	54719.07
614.267	54764.27
614.624	54736.92
614.98	54801.78
615.337	54952.28
615.693	54850.82
616.05	54812.4
616.406	54957.48
616.762	54821.44
617.118	54818.28
617.475	54861.21
617.831	54914.32
618.187	54825.96
618.543	54921.55
618.899	55096.69
619.255	55038.84
619.611	54999.97
619.967	55049
620.323	55117.7
620.678	54998.61
621.034	54949.35
621.39	54907.31
621.746	54953.64
622.101	55129.91
622.457	54914.54
622.812	55022.11
623.168	55030.25
623.523	55067.76
623.879	55088.78
624.234	54905.73
624.589	55050.59
624.945	55013.98
625.3	55085.39
625.655	55024.15
626.01	55062.79
626.365	55048.1
626.72	55040.87
627.075	55032.51
627.43	54984.37
627.785	54849.69
628.14	54963.58
628.495	54949.8
628.85	54898.05
629.205	54826.19
629.559	54950.48
629.914	54898.95
630.269	54881.55
630.623	54710.03
630.978	54603.82
631.332	54783.02
631.687	54826.19
632.041	54683.36
632.396	54647.89
632.75	54585.74
633.104	54620.54
633.459	54494.89
633.813	54475.69
634.167	54375.58
634.521	54380.77
634.875	54424.16
635.229	54342.36
635.583	54158.86
635.937	54357.05
636.291	54199.76
636.645	54213.55
636.999	54166.09
637.352	54181.68
637.706	53978.98
638.06	54110.27
638.413	54041.8
638.767	53974.46
639.121	53963.16
639.474	53809.04
639.828	53795.48
640.181	53816.72
640.534	53870.5
640.888	53667.57
641.241	53585.99
641.594	53580.12
641.947	53696.5
642.301	53513.68
642.654	53536.5
643.007	53416.05
643.36	53460.57
643.713	53341.48
644.066	53454.92
644.419	53187.13
644.771	52972.67
645.124	52627.15
645.477	52593.7
645.83	52442.52
646.182	52375.63
646.535	52282.3
646.888	52360.71
647.24	52191.45
647.593	52363.65
647.945	52294.5
648.298	52176.54
648.65	52093.38
649.002	51910.1
649.355	51983.32
649.707	51899.93
650.059	51949.65
650.411	52375.63
650.763	52401.39
651.115	52681.61
651.467	52489.07
651.819	52495.17
652.171	52475.29
652.523	52340.15
652.875	52297.44
653.227	52259.7
653.578	52353.26
653.93	52292.92
654.282	52236.65
654.633	52045.02
654.985	52205.24
655.337	52116.88
655.688	52134.28
656.039	52151.68
656.391	51937.45
656.742	51972.02
657.094	51989.2
657.445	52153.94
657.796	51928.63
658.147	51840.73
658.498	51793.5
658.849	51793.5
659.2	51841.18
659.551	51738.36
659.902	51786.27
660.253	51716.66
660.604	51741.07
660.955	51527.06
661.306	51669.88
661.656	51511.7
662.007	51565.93
662.358	51625.59
662.708	51470.57
663.059	51455.2
663.409	51285.94
663.76	51564.8
664.11	51449.33
664.461	51482.32
664.811	51466.73
665.161	51306.5
665.511	51357.12
665.862	51310.35
666.212	51421.53
666.562	51348.54
666.912	51226.96
667.262	51201.2
667.612	51212.5
667.962	51242.1
668.312	51072.84
668.662	51278.26
669.011	51174.3
669.361	51012.5
669.711	51123.91
670.06	51047.08
670.41	50933.18
670.76	50820.19
671.109	51006.62
671.459	50842.56
671.808	50873.97
672.157	51002.11
672.507	50675.56
672.856	50698.16
673.205	50793.52
673.554	50826.06
673.904	50655
674.253	50819.74
674.602	50672.17
674.951	50231.96
675.3	50075.35
675.649	50499.52
675.998	50400.31
676.346	50476.02
676.695	50568.44
677.044	50193.09
677.393	50377.04
677.741	50438.5
678.09	50242.8
678.438	50142.24
678.787	50205.29
679.135	50274.89
679.484	49990.38
679.832	50078.06
680.181	49875.36
680.529	49962.81
680.877	49877.16
681.225	49870.61
681.573	49965.3
681.922	49633.78
682.27	49459.55
682.618	49639.66
682.966	49384.75
683.314	49604.85
683.661	49325.77
684.009	49140.46
684.357	49029.73
684.705	49029.73
685.053	49070.63
685.4	49062.72
685.748	48768.72
686.095	48865.66
686.443	48687.36
686.79	48587.93
687.138	48682.84
687.485	48570.98
687.832	48403.98
688.18	48450.99
688.527	48098.23
688.874	48279.92
689.221	48215.29
689.568	47951.79
689.915	47888.06
690.262	47915.18
690.609	47685.36
690.956	47551.35
691.303	47598.8
691.65	47287.85
691.997	47337.12
692.344	47132.6
692.69	47002.21
693.037	46970.8
693.383	46670.02
693.73	46930.35
694.077	46503.24
694.423	46546.4
694.769	46358.61
695.116	46229.8
695.462	46272.51
695.808	46029.35
696.155	46030.26
696.501	45912.52
696.847	45925.63
697.193	45570.16
697.539	45481.12
697.885	45325.19
698.231	45249.94
698.577	45105.09
698.923	45079.32
699.269	44936.28
699.614	44659
699.96	44746.9
700.306	44771.08
700.651	44653.35
700.997	44280.02
701.342	44194.37
701.688	44129.97
702.033	44059.01
702.379	44036.19
702.724	43908.28
703.069	43899.69
703.415	43385.58
703.76	43462.87
704.105	43418.58
704.45	43336.77
704.795	43041.41
705.14	43004.12
705.485	42941.75
705.83	42789.44
706.175	42819.95
706.52	42646.39
706.865	42483.69
707.209	42458.83
707.554	42172.05
707.899	42353.75
708.243	42077.59
708.588	42012.29
708.932	41845.06
709.277	41656.14
709.621	41768.68
709.966	41462.24
710.31	41479.19
710.654	41235.58
710.998	41194.45
711.342	41203.49
711.687	41114
712.031	40965.53
712.375	40841.92
712.719	40872.88
713.063	40652.32
713.407	40863.61
713.75	40648.93
714.094	40561.25
714.438	40455.94
714.782	40391.08
715.125	40113.35
715.469	40072.22
715.812	39999.46
716.156	39712.46
716.499	39773.02
716.843	39875.62
717.186	39481.73
717.53	39780.03
717.873	39745.45
718.216	39599.47
718.559	39409.19
718.902	39162.19
719.246	39205.13
719.589	39041.74
719.932	39029.31
720.275	39175.07
720.617	38919.03
720.96	38930.33
721.303	38780.05
721.646	38743.44
721.989	38477.91
722.331	38482.66
722.674	38356.34
723.016	38300.29
723.359	38265.27
723.701	38296.68
724.044	38146.17
724.386	37831.6
724.729	38103.46
725.071	37898.27
725.413	37989.34
725.755	37727.88
726.097	37533.98
726.439	37459.86
726.782	37530.82
727.124	37514.78
727.465	37254.44
727.807	37250.6
728.149	37093.77
728.491	37112.08
728.833	37139.64
729.175	37096.03
729.516	36948.46
729.858	36927.67
730.199	36707.79
730.541	36741.92
730.882	36557.51
731.224	36708.92
731.565	36488.81
731.906	36398.2
732.248	36512.54
732.589	36262.61
732.93	36053.57
733.271	36206.34
733.612	36187.81
733.953	36113.01
734.294	35910.75
734.635	35681.38
734.976	36028.04
735.317	35649.51
735.658	35708.04
735.999	35711.43
736.339	35511.44
736.68	35586.24
737.021	35414.49
737.361	35309.18
737.702	35497.2
738.042	35259.92
738.383	35304.66
738.723	35341.05
739.063	35046.14
739.404	35191
739.744	35035.97
740.084	34858.35
740.424	34863.77
740.764	34822.64
741.104	34890.89
741.444	34657.68
741.784	34646.6
742.124	34660.84
742.464	34548.98
742.804	34558.02
743.143	34350.11
743.483	34386.95
743.823	34114.41
744.162	34124.81
744.502	34109.67
744.841	33991.03
745.181	33996.68
745.52	33904.93
745.86	33948.32
746.199	33720.3
746.538	33620.64
746.877	33688.66
747.216	33592.62
747.556	33485.73
747.895	33514.88
748.234	33333.19
748.573	33379.74
748.911	33188.11
749.25	33251.16
749.589	33173.2
749.928	33022.01
750.267	33016.36
750.605	32907.67
750.944	32771.62
751.283	32749.93
751.621	32714.68
751.96	32546.09
752.298	32549.48
752.636	32556.49
