Data from foil_FLMS001491_031.txt Node
Date: Tue Feb 07 11:26:14 GMT 2017
User: dcchb
Spectrometer: FLMS00149
Trigger mode: 0
Integration Time (sec): 2.000000E-2
Scans to average: 10
Electric dark correction enabled: true
Nonlinearity correction enabled: false
Boxcar width: 0
XAxis mode: Wavelengths
Number of Pixels in Spectrum: 2048
>>>>>Begin Spectral Data<<<<<
341.393	-2.15
341.776	-2.15
342.16	-2.15
342.543	-62.03
342.927	-52.54
343.31	-75.59
343.693	-89.38
344.077	-64.52
344.46	-54.35
344.843	-63.61
345.226	-55.25
345.61	-8.47
345.993	-36.5
346.376	2.37
346.759	23.39
347.142	31.3
347.525	45.31
347.908	52.99
348.291	73.78
348.674	107.45
349.057	111.07
349.44	118.08
349.823	147
350.206	186.1
350.588	269.71
350.971	272.42
351.354	293.44
351.737	315.13
352.119	326.21
352.502	339.31
352.884	337.28
353.267	363.95
353.65	383.15
354.032	395.36
354.414	373.44
354.797	406.2
355.179	437.39
355.562	417.28
355.944	416.37
356.326	413.44
356.709	433.1
357.091	418.41
357.473	444.62
357.855	427.22
358.238	462.7
358.62	470.61
359.002	407.11
359.384	450.04
359.766	443.72
360.148	446.43
360.53	449.82
360.912	457.73
361.294	447.11
361.676	469.03
362.057	443.49
362.439	447.33
362.821	452.08
363.203	483.72
363.584	449.82
363.966	472.42
364.348	461.8
364.729	463.83
365.111	457.05
365.493	466.32
365.874	457.95
366.256	467.9
366.637	444.85
367.019	455.02
367.4	470.38
367.781	470.16
368.163	482.59
368.544	454.34
368.925	484.85
369.306	485.98
369.688	489.37
370.069	496.6
370.45	508.35
370.831	511.06
371.212	520.1
371.593	486.88
371.974	535.01
372.355	510.38
372.736	543.15
373.117	505.86
373.498	523.04
373.879	508.57
374.26	512.19
374.641	501.79
375.021	507.44
375.402	534.11
375.783	556.71
376.163	565.97
376.544	561.45
376.925	551.28
377.305	558.06
377.686	581.11
378.066	571.62
378.447	578.18
378.827	587.44
379.208	607.55
379.588	609.36
379.968	603.26
380.349	633.77
380.729	617.27
381.109	636.71
381.489	616.82
381.87	636.48
382.25	636.71
382.63	635.12
383.01	650.94
383.39	652.53
383.77	673.32
384.15	675.58
384.53	689.13
384.91	679.19
385.29	680.32
385.67	716.7
386.049	725.74
386.429	735.46
386.809	745.63
387.189	735.46
387.568	739.75
387.948	749.92
388.328	734.56
388.707	766.19
389.087	779.08
389.466	792.86
389.846	804.84
390.225	808.45
390.605	833.99
390.984	846.42
391.363	831.73
391.743	843.93
392.122	861.33
392.501	872.18
392.881	892.74
393.26	896.36
393.639	920.54
394.018	910.82
394.397	934.78
394.776	936.59
395.155	930.26
395.534	931.39
395.913	958.51
396.292	972.06
396.671	992.63
397.05	986.53
397.429	984.72
397.808	1013.87
398.186	1005.96
398.565	1050.48
398.944	1015.68
399.323	1051.84
399.701	1042.57
400.08	1070.37
400.458	1090.25
400.837	1087.32
401.215	1115.56
401.594	1095.45
401.972	1149.91
402.351	1146.3
402.729	1160.76
403.107	1160.08
403.486	1171.16
403.864	1201.66
404.242	1210.25
404.62	1212.06
404.999	1265.84
405.377	1263.36
405.755	1262
406.133	1285.05
406.511	1345.61
406.889	1316.01
407.267	1328.44
407.645	1350.81
408.023	1345.39
408.401	1391.26
408.779	1397.59
409.156	1400.75
409.534	1419.74
409.912	1476.01
410.29	1508.1
410.667	1516.01
411.045	1557.36
411.422	1560.07
411.8	1559.39
412.178	1600.75
412.555	1638.04
412.933	1647.75
413.31	1677.36
413.687	1704.25
414.065	1709.22
414.442	1743.57
414.819	1758.26
415.197	1774.76
415.574	1793.06
415.951	1823.12
416.328	1850.01
416.705	1862.66
417.082	1847.97
417.46	1901.31
417.837	1916.45
418.214	1945.15
418.591	1914.86
418.967	1978.82
419.344	2014.52
419.721	1988.76
420.098	2003.22
420.475	2004.58
420.852	2101.07
421.228	2087.06
421.605	2120.51
421.982	2177
422.358	2152.37
422.735	2172.94
423.111	2182.43
423.488	2233.27
423.864	2230.34
424.241	2256.1
424.617	2293.61
424.994	2328.19
425.37	2326.83
425.746	2356.89
426.123	2397.34
426.499	2395.98
426.875	2444.79
427.251	2510.78
427.627	2563.89
428.003	2526.83
428.379	2612.93
428.756	2623.77
429.132	2676.88
429.507	2717.1
429.883	2739.7
430.259	2768.85
430.635	2793.94
431.011	2833.94
431.387	2856.99
431.763	2948.28
432.138	2941.96
432.514	3007.49
432.89	3000.94
433.265	3086.36
433.641	3172.23
434.016	3165.23
434.392	3197.77
434.767	3231.67
435.143	3296.98
435.518	3318.44
435.894	3334.04
436.269	3394.6
436.644	3461.26
437.02	3431.21
437.395	3465.33
437.77	3541.04
438.145	3595.72
438.52	3610.19
438.895	3662.84
439.271	3647.7
439.646	3736.06
440.021	3741.26
440.395	3749.62
440.77	3770.86
441.145	3828.03
441.52	3907.13
441.895	3879.11
442.27	3929.28
442.645	3936.96
443.019	4007.92
443.394	3969.95
443.769	4045.66
444.143	4013.79
444.518	4143.28
444.892	4084.98
445.267	4155.94
445.641	4196.84
446.016	4197.74
446.39	4180.34
446.764	4247.91
447.139	4253.33
447.513	4340.79
447.887	4327.91
448.262	4334.69
448.636	4406.55
449.01	4449.71
449.384	4499.43
449.758	4514.57
450.132	4587.79
450.506	4651.74
450.88	4657.62
451.254	4635.47
451.628	4733.1
452.002	4779.42
452.376	4844.28
452.75	4861.23
453.123	4901.23
453.497	4966.99
453.871	4978.74
454.244	5166.76
454.618	5170.6
454.992	5201.78
455.365	5236.59
455.739	5386.19
456.112	5430.93
456.486	5425.51
456.859	5525.17
457.232	5598.38
457.606	5628.21
457.979	5678.61
458.352	5807.19
458.725	5885.61
459.099	5906.62
459.472	6044.93
459.845	6102.1
460.218	6112.27
460.591	6206.05
460.964	6234.3
461.337	6396.55
461.71	6528.08
462.083	6596.55
462.456	6607.62
462.829	6640.16
463.201	6797.9
463.574	6764
463.947	6853.27
464.32	7084.67
464.692	7083.77
465.065	7103.43
465.438	7262.52
465.81	7392.24
466.183	7429.3
466.555	7613.47
466.928	7653.47
467.3	7668.84
467.672	7827.7
468.045	7965.1
468.417	7993.12
468.789	8126.68
469.161	8186.34
469.534	8321.25
469.906	8561.92
470.278	8532.54
470.65	8669.72
471.022	8843.27
471.394	8983.15
471.766	9038.07
472.138	9150.83
472.51	9408
472.882	9513.31
473.253	9633.98
473.625	9744.26
473.997	9903.36
474.369	10070.81
474.74	10116.68
475.112	10355.09
475.484	10484.36
475.855	10671.47
476.227	10822.2
476.598	11127.73
476.97	11193.72
477.341	11445.91
477.713	11584.89
478.084	11612.91
478.455	12042.28
478.827	12128.61
479.198	12443.4
479.569	12450.41
479.94	12753.68
480.311	12975.37
480.682	13273.44
481.053	13556.14
481.424	13684.72
481.795	13854.66
482.166	14042.68
482.537	14213.3
482.908	14489.68
483.279	14708.65
483.65	14946.16
484.021	15249.66
484.391	15459.37
484.762	15549.31
485.133	15709.76
485.503	15872.69
485.874	16318.1
486.244	16509.28
486.615	16864.53
486.985	16944.3
487.356	17308.36
487.726	17336.61
488.097	17900.66
488.467	17723.04
488.837	18144.72
489.207	18393.53
489.578	18724.82
489.948	18872.84
490.318	19065.6
490.688	19239.16
491.058	19416.1
491.428	19803.21
491.798	20025.58
492.168	20364.1
492.538	20311.44
492.908	20633.02
493.278	20934.25
493.648	21022.16
494.017	21420.57
494.387	21480.23
494.757	21681.58
495.126	21813.1
495.496	21997.73
495.866	22109.59
496.235	22336.7
496.605	22549.35
496.974	22729.46
497.344	22846.74
497.713	23014.42
498.082	23157.02
498.452	23462.55
498.821	23481.53
499.19	23710.68
499.559	23914.96
499.928	24080.84
500.298	24267.72
500.667	24446.25
501.036	24535.06
501.405	24689.86
501.774	24796.07
502.143	25066.8
502.512	25184.99
502.88	25413.68
503.249	25438.77
503.618	25756.72
503.987	25770.73
504.356	26126.21
504.724	26198.07
505.093	26339.53
505.462	26476.93
505.83	26702.69
506.199	26888.45
506.567	27158.04
506.936	27052.74
507.304	27484.14
507.672	27433.06
508.041	27741.76
508.409	28090.45
508.777	28083.22
509.145	28338.35
509.514	28328.41
509.882	28809.3
510.25	28855.17
510.618	29094.72
510.986	29127.71
511.354	29389.17
511.722	29789.16
512.09	29898.08
512.458	29789.16
512.826	30169.49
513.193	30423.95
513.561	30521.34
513.929	30762.47
514.297	31053.08
514.664	31338.05
515.032	31470.7
515.4	31667.08
515.767	31867.98
516.135	32079.5
516.502	32092.15
516.869	32669.76
517.237	32772.58
517.604	32685.58
517.972	33136.64
518.339	33342.74
518.706	33429.97
519.073	33670.87
519.44	33912.67
519.808	34231.76
520.175	34449.6
520.542	34851.17
520.909	35066.99
521.276	35031.28
521.643	35420.2
522.009	35676.46
522.376	35842.79
522.743	36082.33
523.11	36533.39
523.477	36826.49
523.843	37014.51
524.21	37440.94
524.577	37704.21
524.943	37925.9
525.31	38009.74
525.676	38536.5
526.043	38657.63
526.409	38905.08
526.776	39392.98
527.142	39406.99
527.508	39683.14
527.874	40024.37
528.241	40263.91
528.607	40493.74
528.973	40830.68
529.339	40851.47
529.705	41256.43
530.071	41527.38
530.437	41699.58
530.803	41820.48
531.169	42189.29
531.535	42087.82
531.901	42277.65
532.267	42557.19
532.632	42880.79
532.998	43040.56
533.364	43326.21
533.73	43542.24
534.095	43723.71
534.461	43920.31
534.826	44074.89
535.192	44247.99
535.557	44642.78
535.923	44640.3
536.288	44676.45
536.653	44993.96
537.019	44785.83
537.384	45217.91
537.749	45490.67
538.114	45489.76
538.479	45656.54
538.845	45797.78
539.21	45923.65
539.575	46175.62
539.94	46174.94
540.305	46472.56
540.67	46589.85
541.034	46704.42
541.399	46910.74
541.764	46933.34
542.129	47258.76
542.494	47329.26
542.858	47468.02
543.223	47538.3
543.587	47734.68
543.952	47819.87
544.316	47912.07
544.681	48030.94
545.045	48181.44
545.41	48399.74
545.774	48547.54
546.138	48538.72
546.503	48833.86
546.867	48743.01
547.231	49267.97
547.595	49229.78
547.959	49331.47
548.324	49386.16
548.688	49660.5
549.052	49672.71
549.416	49759.48
549.779	49906.6
550.143	49862.98
550.507	50251.45
550.871	50452.57
551.235	50447.83
551.599	50792.45
551.962	50683.75
552.326	50914.03
552.689	51185.43
553.053	51076.74
553.417	51163.06
553.78	51662.94
554.143	51539.32
554.507	51665.42
554.87	51669.94
555.234	52090.72
555.597	51822.93
555.96	52054.34
556.323	52311.73
556.686	52322.35
557.05	52632.85
557.413	52787.88
557.776	52809.35
558.139	53053.18
558.502	53130.69
558.865	53206.4
559.228	53443.23
559.59	53515.99
559.953	53617.46
560.316	53983.55
560.679	53944.23
561.041	54140.84
561.404	54266.71
561.767	54420.6
562.129	54437.33
562.492	54760.03
562.854	54732.46
563.217	54765.23
563.579	54917.77
563.941	55113.47
564.304	55216.29
564.666	55472.55
565.028	55506
565.39	55633.68
565.753	55763.39
566.115	55860.79
566.477	55908.02
566.839	56056.72
567.201	56215.13
567.563	56331.06
567.925	56447.67
568.287	56517.72
568.648	56622.58
569.01	56795
569.372	56896.92
569.734	56832.52
570.095	57042.23
570.457	57145.05
570.819	57151.6
571.18	57239.51
571.542	57359.96
571.903	57387.53
572.265	57473.86
572.626	57609.22
572.987	57682.89
573.349	57823.9
573.71	57987.51
574.071	57949.32
574.432	57992.26
574.794	58153.16
575.155	58144.57
575.516	58005.82
575.877	58198.81
576.238	58334.17
576.599	58355.19
576.96	58391.12
577.32	58424.34
577.681	58516.31
578.042	58519.25
578.403	58551.79
578.763	58540.04
579.124	58645.12
579.485	58712.02
579.845	58798.57
580.206	58755.4
580.566	58785.69
580.927	58809.64
581.287	58970.09
581.648	58836.98
582.008	58963.31
582.368	58957.88
582.728	58948.85
583.089	58973.93
583.449	58982.97
583.809	59016.87
584.169	59082.63
584.529	59019.58
584.889	59174.83
585.249	59065.9
585.609	58955.17
585.969	59056.41
586.329	59044.44
586.688	59089.41
587.048	59119.69
587.408	59084.89
587.768	59072.46
588.127	59073.36
588.487	59069.75
588.846	59228.61
589.206	59003.31
589.565	59069.97
589.925	59219.35
590.284	59143.87
590.643	59154.94
591.003	59174.38
591.362	59308.61
591.721	59270.64
592.08	59240.36
592.44	59270.87
592.799	59284.2
593.158	59181.83
593.517	59158.11
593.876	59148.39
594.235	59106.58
594.593	59163.3
594.952	59269.97
595.311	59221.38
595.67	59232.68
596.029	59440.58
596.387	59377.31
596.746	59485.78
597.104	59317.42
597.463	59323.98
597.822	59443.75
598.18	59361.72
598.538	59345.9
598.897	59536.85
599.255	59353.81
599.613	59651.88
599.972	59491.43
600.33	59611.43
600.688	59450.3
601.046	59469.06
601.404	59603.29
601.762	59561.26
602.12	59707.24
602.478	59637.64
602.836	59690.29
603.194	59560.13
603.552	59609.62
603.91	59580.24
604.268	59693.46
604.625	59692.55
604.983	59676.06
605.341	59639.22
605.698	59770.74
606.056	59812.33
606.413	59774.59
606.771	59811.87
607.128	59917.86
607.485	59797.41
607.843	59841.03
608.2	59972.77
608.557	60049.61
608.914	59973
609.272	60095.71
609.629	60149.72
609.986	60220
610.343	60105.2
610.7	60289.83
611.057	60222.48
611.414	60156.72
611.771	60213.9
612.127	60321.69
612.484	60297.06
612.841	60373.21
613.198	60275.14
613.554	60276.04
613.911	60452.08
614.267	60389.71
614.624	60429.71
614.98	60460.67
615.337	60602.59
615.693	60551.06
616.05	60488.24
616.406	60610.04
616.762	60580.22
617.118	60541.8
617.475	60591.74
617.831	60608.01
618.187	60627.67
618.543	60577.96
618.899	60758.52
619.255	60700.89
619.611	60687.33
619.967	60737.73
620.323	60815.46
620.678	60739.53
621.034	60645.3
621.39	60631.06
621.746	60590.84
622.101	60895.91
622.457	60707.22
622.812	60718.52
623.168	60797.61
623.523	60801.9
623.879	60910.15
624.234	60717.84
624.589	60808.68
624.945	60840.77
625.3	60881.45
625.655	60862.47
626.01	60897.95
626.365	60859.76
626.72	60718.06
627.075	60736.6
627.43	60737.05
627.785	60708.12
628.14	60726.43
628.495	60748.12
628.85	60717.84
629.205	60631.74
629.559	60746.09
629.914	60591.29
630.269	60625.64
630.623	60663.6
630.978	60535.24
631.332	60686.65
631.687	60681.91
632.041	60607.11
632.396	60610.5
632.75	60561.01
633.104	60541.8
633.459	60424.29
633.813	60437.62
634.167	60453.66
634.521	60405.08
634.875	60419.32
635.229	60351.29
635.583	60200.11
635.937	60204.86
636.291	60189.94
636.645	60201.69
636.999	60094.58
637.352	60163.28
637.706	59991.76
638.06	60094.13
638.413	60032.66
638.767	59985.88
639.121	60060.91
639.474	59915.15
639.828	59890.97
640.181	60017.74
640.534	60029.5
640.888	59903.4
641.241	59806
641.594	59842.16
641.947	59927.58
642.301	59773.23
642.654	59829.27
643.007	59717.64
643.36	59746.11
643.713	59730.29
644.066	59827.24
644.419	59561.71
644.771	59373.02
645.124	59021.84
645.477	58950.2
645.83	58772.8
646.182	58804.44
646.535	58775.97
646.888	58913.14
647.24	58750.21
647.593	59037.66
647.945	58978.22
648.298	58664.33
648.65	58647.84
649.002	58620.27
649.355	58660.04
649.707	58547.5
650.059	58612.13
650.411	58852.12
650.763	58884.67
651.115	59112.68
651.467	59109.97
651.819	59063.64
652.171	59036.3
652.523	58975.06
652.875	58988.84
653.227	58878.11
653.578	59050.76
653.93	58860.49
654.282	58772.58
654.633	58744.11
654.985	58758.79
655.337	58768.74
655.688	58802.63
656.039	58869.53
656.391	58623.88
656.742	58658.91
657.094	58663.66
657.445	58728.51
657.796	58624.11
658.147	58648.51
658.498	58563.09
658.849	58655.97
659.2	58571.45
659.551	58574.84
659.902	58604.22
660.253	58491.91
660.604	58599.48
660.955	58443.77
661.306	58537.1
661.656	58479.48
662.007	58473.38
662.358	58475.19
662.708	58447.39
663.059	58410.55
663.409	58277.68
663.76	58414.4
664.11	58423.66
664.461	58519.7
664.811	58393.83
665.161	58370.33
665.511	58261.63
665.862	58304.79
666.212	58313.16
666.562	58243.33
666.912	58225.7
667.262	58197
667.612	58180.05
667.962	58215.53
668.312	58174.18
668.662	58301.4
669.011	58239.03
669.361	58195.42
669.711	58141.64
670.06	58129.66
670.41	58099.83
670.76	58118.36
671.109	58182.54
671.459	58138.25
671.808	57990
672.157	58034.97
672.507	57913.39
672.856	57886.95
673.205	58004.46
673.554	58107.51
673.904	58003.33
674.253	58071.58
674.602	58030.68
674.951	57701.65
675.3	57499.62
675.649	57910.23
675.998	57819.38
676.346	57816.22
676.695	57905.48
677.044	57627.07
677.393	57765.6
677.741	57832.26
678.09	57636.34
678.438	57583.91
678.787	57601.31
679.135	57702.1
679.484	57533.06
679.832	57594.76
680.181	57328.55
680.529	57419.17
680.877	57376.01
681.225	57328.55
681.573	57454.2
681.922	57270.7
682.27	57158.38
682.618	57245.84
682.966	57187.08
683.314	57258.95
683.661	56989.12
684.009	56893.31
684.357	56926.3
684.705	56889.24
685.053	56922.01
685.4	56884.49
685.748	56671.39
686.095	56719.07
686.443	56658.51
686.79	56605.4
687.138	56683.59
687.485	56598.62
687.832	56514.56
688.18	56549.13
688.527	56378.74
688.874	56466.88
689.221	56313.43
689.568	56296.03
689.915	56138.52
690.262	56156.38
690.609	56140.11
690.956	55964.07
691.303	55976.49
691.65	55846.78
691.997	55761.36
692.344	55565.66
692.69	55655.37
693.037	55662.15
693.383	55336.06
693.73	55369.96
694.077	55212.67
694.423	55127.25
694.769	55173.58
695.116	55171.32
695.462	55029.17
695.808	54991.89
696.155	54919.57
696.501	54691.78
696.847	54724.32
697.193	54547.38
697.539	54625.34
697.885	54398.46
698.231	54415.41
698.577	54405.91
698.923	54280.27
699.269	54154.62
699.614	53944.68
699.96	53859.49
700.306	53878.24
700.651	53767.51
700.997	53774.52
701.342	53721.86
701.688	53673.5
702.033	53572.94
702.379	53659.49
702.724	53505.37
703.069	53444.13
703.415	53151.71
703.76	53173.86
704.105	53186.74
704.45	53167.53
704.795	52811.61
705.14	52838.95
705.485	52773.87
705.83	52604.83
706.175	52734.77
706.52	52520.99
706.865	52322.35
707.209	52317.61
707.554	52319.19
707.899	52321.22
708.243	52076.03
708.588	52036.71
708.932	51902.03
709.277	51949.93
709.621	51965.3
709.966	51623.16
710.31	51687.79
710.654	51518.31
710.998	51556.95
711.342	51433.56
711.687	51343.62
712.031	51179.33
712.375	51070.18
712.719	51114.02
713.063	51015.27
713.407	51104.08
713.75	50976.17
714.094	50904.76
714.438	50772.56
714.782	50853.47
715.125	50539.12
715.469	50503.87
715.812	50460.03
716.156	50244.22
716.499	50220.49
716.843	50307.49
717.186	49892.13
717.53	50285.34
717.873	50122.64
718.216	50169.19
718.559	49864.34
718.902	49687.62
719.246	49728.75
719.589	49592.71
719.932	49502.09
720.275	49498.92
720.617	49411.7
720.96	49403.11
721.303	49404.01
721.646	49378.93
721.989	49182.32
722.331	49262.77
722.674	49006.28
723.016	49013.29
723.359	48938.26
723.701	48934.19
724.044	48708.44
724.386	48591.15
724.729	48801.09
725.071	48639.06
725.413	48581.89
725.755	48475.22
726.097	48218.73
726.439	48079.07
726.782	48208.79
727.124	48262.35
727.465	47898.74
727.807	47939.42
728.149	47918.18
728.491	47672.98
728.833	47742.59
729.175	47515.47
729.516	47484.74
729.858	47352.77
730.199	47483.38
730.541	47353.44
730.882	47361.58
731.224	47439.54
731.565	47190.51
731.906	47312.77
732.248	47080.68
732.589	47021.02
732.93	46805.89
733.271	46974.7
733.612	46967.01
733.953	47012.89
734.294	46771.99
734.635	46712.78
734.976	46765.44
735.317	46443.64
735.658	46567.25
735.999	46485.9
736.339	46264.89
736.68	46357.76
737.021	46159.58
737.361	45986.93
737.702	46189.63
738.042	45886.59
738.383	46006.36
738.723	45908.06
739.063	45790.77
739.404	45743.54
739.744	45672.58
740.084	45608.86
740.424	45631.68
740.764	45468.97
741.104	45502.42
741.444	45424.91
741.784	45356.43
742.124	45235.31
742.464	45166.61
742.804	45068.53
743.143	45077.35
743.483	45052.71
743.823	44865.15
744.162	44874.64
744.502	44818.82
744.841	44473.97
745.181	44692.72
745.52	44596
745.86	44655.66
746.199	44420.19
746.538	44217.71
746.877	44276.69
747.216	44281.89
747.556	44118.05
747.895	43952.63
748.234	43960.31
748.573	43961.22
748.911	43822.92
749.25	43797.83
749.589	43659.53
749.928	43690.49
750.267	43771.62
750.605	43458.63
750.944	43324.17
751.283	43321.01
751.621	43409.82
751.96	43178.86
752.298	43095.25
