Data from foil_FLMS001491_090.txt Node
Date: Tue Feb 07 11:36:57 GMT 2017
User: dcchb
Spectrometer: FLMS00149
Trigger mode: 0
Integration Time (sec): 2.000000E-2
Scans to average: 10
Electric dark correction enabled: true
Nonlinearity correction enabled: false
Boxcar width: 0
XAxis mode: Wavelengths
Number of Pixels in Spectrum: 2048
>>>>>Begin Spectral Data<<<<<
341.393	-35.63
341.776	-35.63
342.16	-35.63
342.543	-53.04
342.927	-63.43
343.31	-66.37
343.693	-44.22
344.077	-60.94
344.46	-59.14
344.843	-76.99
345.226	-33.37
345.61	-49.19
345.993	-20.27
346.376	5.95
346.759	26.51
347.142	33.97
347.525	36.68
347.908	33.97
348.291	83.01
348.674	93.63
349.057	96.79
349.44	108.77
349.823	135.66
350.206	191.93
350.588	288.2
350.971	307.63
351.354	313.73
351.737	311.02
352.119	348.31
352.502	357.8
352.884	368.87
353.267	410.23
353.65	397.35
354.032	409.1
354.414	413.85
354.797	407.29
355.179	435.99
355.562	435.31
355.944	431.7
356.326	445.48
356.709	464.01
357.091	485.93
357.473	480.06
357.855	474.18
358.238	471.47
358.62	469.89
359.002	470.57
359.384	486.16
359.766	475.31
360.148	459.49
360.53	486.84
360.912	470.34
361.294	481.41
361.676	470.57
362.057	467.63
362.439	480.96
362.821	510.79
363.203	491.36
363.584	491.58
363.966	487.97
364.348	476.44
364.729	511.7
365.111	510.11
365.493	509.44
365.874	501.07
366.256	520.06
366.637	507.18
367.019	515.54
367.4	512.6
367.781	500.17
368.163	521.64
368.544	533.62
368.925	479.38
369.306	537.91
369.688	533.62
370.069	527.06
370.45	547.85
370.831	554.18
371.212	552.37
371.593	538.59
371.974	549.89
372.355	546.27
372.736	565.48
373.117	579.26
373.498	570
373.879	560.51
374.26	572.94
374.641	530.23
375.021	572.71
375.402	583.11
375.783	647.51
376.163	636.66
376.544	624.91
376.925	606.83
377.305	618.81
377.686	632.37
378.066	646.83
378.447	657
378.827	645.48
379.208	672.37
379.588	665.36
379.968	659.71
380.349	665.59
380.729	689.09
381.109	694.06
381.489	695.65
381.87	715.76
382.25	692.03
382.63	740.39
383.01	717.34
383.39	741.75
383.77	738.81
384.15	746.94
384.53	755.98
384.91	742.42
385.29	790.56
385.67	775.42
386.049	793.5
386.429	801.63
386.809	830.11
387.189	831.24
387.568	855.87
387.948	845.92
388.328	862.19
388.707	888.18
389.087	869.88
389.466	886.37
389.846	909.65
390.225	908.52
390.605	927.73
390.984	899.48
391.363	938.13
391.743	952.81
392.122	970.67
392.501	985.58
392.881	1019.48
393.26	988.97
393.639	1016.77
394.018	1019.7
394.397	1033.26
394.776	1056.54
395.155	1044.56
395.534	1047.05
395.913	1061.29
396.292	1092.02
396.671	1110.78
397.05	1118.46
397.429	1139.48
397.808	1135.18
398.186	1142.87
398.565	1139.25
398.944	1154.16
399.323	1158.68
399.701	1187.61
400.08	1221.51
400.458	1217.44
400.837	1236.2
401.215	1252.24
401.594	1249.53
401.972	1258.34
402.351	1279.81
402.729	1288.17
403.107	1315.29
403.486	1351.45
403.864	1332.69
404.242	1340.37
404.62	1378.11
404.999	1395.29
405.377	1389.64
405.755	1450.43
406.133	1436.42
406.511	1432.8
406.889	1448.39
407.267	1481.16
407.645	1520.93
408.023	1558.45
408.401	1543.53
408.779	1567.94
409.156	1599.8
409.534	1587.83
409.912	1616.3
410.29	1690.87
410.667	1675.51
411.045	1707.82
411.422	1727.48
411.8	1772.45
412.178	1774.71
412.555	1781.04
412.933	1821.49
413.31	1863.75
413.687	1863.07
414.065	1926.8
414.442	1888.38
414.819	1930.64
415.197	1959.12
415.574	1972
415.951	2023.52
416.328	2007.02
416.705	2042.05
417.082	2073.69
417.46	2087.47
417.837	2106.68
418.214	2131.54
418.591	2143.07
418.967	2149.62
419.344	2185.55
419.721	2212.89
420.098	2231.2
420.475	2263.97
420.852	2285.89
421.228	2289.5
421.605	2324.53
421.982	2362.27
422.358	2384.64
422.735	2401.59
423.111	2407.92
423.488	2461.7
423.864	2461.02
424.241	2517.29
424.617	2544.64
424.994	2558.2
425.37	2549.16
425.746	2565.43
426.123	2615.14
426.499	2644.52
426.875	2660.79
427.251	2729.94
427.627	2764.97
428.003	2782.6
428.379	2807.45
428.756	2871.63
429.132	2893.78
429.507	2972.2
429.883	2952.31
430.259	3006.55
430.635	3054.23
431.011	3042.48
431.387	3142.59
431.763	3193.43
432.138	3216.48
432.514	3256.03
432.89	3268.01
433.265	3373.54
433.641	3394.56
434.016	3414.67
434.392	3482.46
434.767	3545.74
435.143	3525.4
435.518	3541.22
435.894	3619.18
436.269	3605.17
436.644	3694.66
437.02	3734.21
437.395	3724.72
437.77	3812.17
438.145	3876.35
438.52	3915.22
438.895	3931.94
439.271	3949.12
439.646	3999.06
440.021	4070.47
440.395	4090.36
440.77	4026.18
441.145	4089.45
441.52	4157.93
441.895	4176.46
442.27	4167.87
442.645	4197.02
443.019	4287.64
443.394	4254.87
443.769	4332.16
444.143	4324.25
444.518	4403.8
444.892	4343.69
445.267	4419.62
445.641	4463
446.016	4520.63
446.39	4513.62
446.764	4580.97
447.139	4540.52
447.513	4610.57
447.887	4607.63
448.262	4652.83
448.636	4665.03
449.01	4749.32
449.384	4786.39
449.758	4783
450.132	4857.12
450.506	4837.68
450.88	4890.11
451.254	4933.27
451.628	4996.32
452.002	5077.9
452.376	5063.89
452.75	5167.62
453.123	5206.94
453.497	5257.33
453.871	5288.52
454.244	5418.01
454.618	5469.76
454.992	5475.18
455.365	5543.88
455.739	5687.38
456.112	5683.99
456.486	5773.25
456.859	5764.66
457.232	5891.22
457.606	5939.12
457.979	5961.04
458.352	6104.09
458.725	6215.27
459.099	6232.22
459.472	6380.24
459.845	6369.17
460.218	6447.58
460.591	6491.2
460.964	6523.74
461.337	6670.4
461.71	6795.37
462.083	6871.98
462.456	6877.63
462.829	6904.75
463.201	7047.57
463.574	7071.75
463.947	7153.55
464.32	7336.83
464.692	7386.32
465.065	7454.34
465.438	7563.94
465.81	7688.91
466.183	7619.98
466.555	7925.74
466.928	7958.28
467.3	7940.2
467.672	8093.42
468.045	8262.23
468.417	8256.35
468.789	8339.06
469.161	8493.41
469.534	8643.91
469.906	8789.9
470.278	8859.72
470.65	8877.35
471.022	9051.13
471.394	9265.14
471.766	9397.11
472.138	9447.73
472.51	9678.91
472.882	9744
473.253	9918.68
473.625	9994.16
473.997	10254.94
474.369	10266.24
474.74	10431.21
475.112	10637.98
475.484	10739.9
475.855	10974.7
476.227	11041.81
476.598	11345.54
476.97	11517.73
477.341	11676.83
477.713	11949.36
478.084	11921.34
478.455	12347.54
478.827	12393.64
479.198	12775.78
479.569	12754.54
479.94	13100.74
480.311	13157.46
480.682	13512.71
481.053	13749.09
481.424	13955.41
481.795	14199.7
482.166	14379.58
482.537	14492.34
482.908	14803.3
483.279	14936.85
483.65	15269.73
484.021	15590.85
484.391	15655.48
484.762	15865.87
485.133	15992.64
485.503	16213.88
485.874	16610.26
486.244	16805.05
486.615	17039.62
486.985	17271.48
487.356	17506.73
487.726	17689.77
488.097	17978.58
488.467	18030.56
488.837	18489.3
489.207	18653.37
489.578	18943.98
489.948	19092.45
490.318	19387.58
490.688	19460.35
491.058	19769.72
491.428	19952.09
491.798	20170.39
492.168	20610.38
492.538	20654.89
492.908	20873.65
493.278	21183.69
493.648	21163.13
494.017	21498.26
494.387	21651.7
494.757	21787.52
495.126	21995.88
495.496	22166.95
495.866	22273.16
496.235	22538.01
496.605	22842.41
496.974	22874.95
497.344	23098.22
497.713	23252.79
498.082	23356.07
498.452	23632.22
498.821	23695.94
499.19	23924.64
499.559	24095.26
499.928	24349.26
500.298	24377.28
500.667	24624.06
501.036	24552.19
501.405	24735.92
501.774	24860.21
502.143	25204.83
502.512	25262.46
502.88	25435.11
503.249	25546.97
503.618	25796
503.987	25791.26
504.356	26087.29
504.724	26283.45
505.093	26358.93
505.462	26514.85
505.83	26706.26
506.199	26985.8
506.567	27230.32
506.936	27219.02
507.304	27507.14
507.672	27595.5
508.041	27803.86
508.409	27963.86
508.777	28237.52
509.145	28506.89
509.514	28520.22
509.882	28729.03
510.25	28943.04
510.618	29257.15
510.986	29258.96
511.354	29553.64
511.722	29715.22
512.09	29964.03
512.458	30029.34
512.826	30293.29
513.193	30464.35
513.561	30614.41
513.929	30920.61
514.297	31154.51
514.664	31512.01
515.032	31565.57
515.4	31711.55
515.767	32010.08
516.135	32138.89
516.502	32041.49
516.869	32618.2
517.237	32835.59
517.604	32789.72
517.972	33338.63
518.339	33444.61
518.706	33566.42
519.073	33665.85
519.44	33925.96
519.808	34397.58
520.175	34395.55
520.542	34721.19
520.909	34975.42
521.276	35071.24
521.643	35483.21
522.009	35836.87
522.376	35977.88
522.743	36334.03
523.11	36542.39
523.477	37006.78
523.843	37177.4
524.21	37572.19
524.577	37755.46
524.943	37879.53
525.31	38213.08
525.676	38543.46
526.043	38818.48
526.409	39049.21
526.776	39542.76
527.142	39627.5
527.508	39685.81
527.874	40154.95
528.241	40183.19
528.607	40355.85
528.973	40913.57
529.339	40919.22
529.705	41380.68
530.071	41798.29
530.437	41809.59
530.803	42008.23
531.169	42285.96
531.535	42170.94
531.901	42466.75
532.267	42650.47
532.632	42932.95
532.998	43116.9
533.364	43447.06
533.73	43685.93
534.095	43949.88
534.461	44058.12
534.826	44200.94
535.192	44367.27
535.557	44692.91
535.923	44595.73
536.288	45032.78
536.653	45263.74
537.019	45173.35
537.384	45342.83
537.749	45625.31
538.114	45728.81
538.479	45814.01
538.845	46095.81
539.21	46083.83
539.575	46343.94
539.94	46464.16
540.305	46900.31
540.67	46732.85
541.034	46943.7
541.399	47202.67
541.764	47222.78
542.129	47314.53
542.494	47455.09
542.858	47698.48
543.223	47766.72
543.587	48084.46
543.952	47999.03
544.316	48283.32
544.681	48160.61
545.045	48387.95
545.41	48671.79
545.774	48885.56
546.138	48872.46
546.503	49029.52
546.867	49076.75
547.231	49391.54
547.595	49460.24
547.959	49561.71
548.324	49644.19
548.688	49833.56
549.052	49953.11
549.416	50068.36
549.779	50122.14
550.143	50357.84
550.507	50642.58
550.871	50717.61
551.235	50820.2
551.599	51097.26
551.962	51092.51
552.326	51094.77
552.689	51402.79
553.053	51351.71
553.417	51508.55
553.78	51962.55
554.143	51783.57
554.507	51946.05
554.87	52169.09
555.234	52546.26
555.597	52295.64
555.96	52498.58
556.323	52721.4
556.686	52758.46
557.05	53047.72
557.413	53033.03
557.776	53219.69
558.139	53351.21
558.502	53504.43
558.865	53529.28
559.228	53848.15
559.59	53921.82
559.953	54032.77
560.316	54370.84
560.679	54320
561.041	54483.84
561.404	54611.74
561.767	54882.47
562.129	54797.05
562.492	55112.29
562.854	55102.35
563.217	55232.29
563.579	55332.18
563.941	55586.41
564.304	55682.45
564.666	55880.64
565.028	55849.9
565.39	56027.3
565.753	56203.56
566.115	56280.85
566.477	56330.79
566.839	56416.21
567.201	56705.7
567.563	56767.17
567.925	56954.96
568.287	56964.67
568.648	57006.48
569.01	57152.01
569.372	57284.44
569.734	57223.2
570.095	57472.01
570.457	57533.7
570.819	57640.36
571.18	57721.49
571.542	57861.37
571.903	57949.28
572.265	57991.31
572.626	58062.05
572.987	58046.45
573.349	58232.21
573.71	58312.89
574.071	58346.79
574.432	58518.98
574.794	58652.31
575.155	58604.63
575.516	58594.01
575.877	58730.73
576.238	58777.28
576.599	58842.59
576.96	58826.55
577.32	58881.91
577.681	58986.32
578.042	59085.97
578.403	59060.44
578.763	59151.51
579.124	59153.77
579.485	59310.15
579.845	59312.18
580.206	59260.89
580.566	59276.7
580.927	59296.59
581.287	59415.91
581.648	59299.3
582.008	59511.5
582.368	59447.32
582.728	59453.42
583.089	59519.64
583.449	59471.05
583.809	59563.02
584.169	59559.18
584.529	59495
584.889	59671.72
585.249	59466.3
585.609	59461.11
585.969	59648.22
586.329	59448.9
586.688	59566.19
587.048	59561.44
587.408	59530.03
587.768	59550.37
588.127	59585.85
588.487	59549.24
588.846	59751.95
589.206	59539.3
589.565	59553.76
589.925	59744.71
590.284	59678.73
590.643	59713.3
591.003	59701.1
591.362	59761.89
591.721	59666.52
592.08	59716.69
592.44	59787.88
592.799	59859.51
593.158	59772.74
593.517	59777.03
593.876	59795.11
594.235	59769.12
594.593	59789.01
594.952	59856.12
595.311	59742.91
595.67	59858.38
596.029	60007.53
596.387	59887.54
596.746	59977.25
597.104	59838.95
597.463	59868.78
597.822	59993.97
598.18	59862.68
598.538	59864.26
598.897	60020.87
599.255	59840.31
599.613	60178.6
599.972	59956.23
600.33	60032.62
600.688	59997.14
601.046	60109.68
601.404	60155.33
601.762	60039.4
602.12	60186.51
602.478	60188.54
602.836	60206.85
603.194	60017.93
603.552	60162.78
603.91	60116.91
604.268	60258.37
604.625	60313.51
604.983	60288.2
605.341	60239.16
605.698	60370.01
606.056	60405.04
606.413	60370.91
606.771	60462.89
607.128	60453.85
607.485	60365.26
607.843	60381.31
608.2	60480.51
608.557	60505.82
608.914	60453.4
609.272	60627.86
609.629	60625.6
609.986	60667.85
610.343	60610.23
610.7	60781.07
611.057	60783.11
611.414	60718.93
611.771	60745.14
612.127	60859.94
612.484	60797.34
612.841	60911.92
613.198	60838.47
613.554	60820.62
613.911	60985.81
614.267	60925.25
614.624	60939.26
614.98	60992.37
615.337	61091.12
615.693	61024.68
616.05	60991.91
616.406	61153.72
616.762	61045.47
617.118	61065.58
617.475	61146.03
617.831	61202.3
618.187	61242.75
618.543	61233.26
618.899	61351.23
619.255	61264.67
619.611	61155.3
619.967	61290.66
620.323	61300.38
620.678	61230.55
621.034	61151.23
621.39	61219.48
621.746	61189.2
622.101	61448.4
622.457	61210.89
622.812	61313.49
623.168	61322.3
623.523	61317.78
623.879	61408.63
624.234	61265.58
624.589	61303.77
624.945	61301.51
625.3	61318.23
625.655	61367.95
626.01	61383.32
626.365	61372.92
626.72	61354.62
627.075	61387.61
627.43	61268.74
627.785	61205.24
628.14	61311.45
628.495	61316.65
628.85	61260.61
629.205	61213.38
629.559	61336.99
629.914	61177.45
630.269	61233.71
630.623	61059.71
630.978	61053.38
631.332	61179.25
631.687	61211.34
632.041	61076.66
632.396	61096.32
632.75	61034.4
633.104	61049.09
633.459	60972.93
633.813	61007.28
634.167	60899.26
634.521	60924.34
634.875	60971.8
635.229	60943.78
635.583	60825.36
635.937	60794.63
636.291	60769.55
636.645	60822.65
636.999	60838.24
637.352	60835.08
637.706	60567.52
638.06	60739.26
638.413	60635.54
638.767	60636.89
639.121	60646.84
639.474	60476.9
639.828	60473.73
640.181	60548.76
640.534	60511.7
640.888	60449.1
641.241	60307.64
641.594	60360.52
641.947	60415.88
642.301	60250.46
642.654	60284.36
643.007	60302.89
643.36	60252.5
643.713	60257.47
644.066	60335.89
644.419	60078.94
644.771	59730.7
645.124	59348.57
645.477	59275.57
645.83	59277.16
646.182	59361.45
646.535	59394.89
646.888	59581.55
647.24	59436.7
647.593	59633.3
647.945	59570.93
648.298	59453.87
648.65	59467.66
649.002	59271.96
649.355	59236.25
649.707	59083.04
650.059	59115.13
650.411	59367.78
650.763	59467.43
651.115	59759.18
651.467	59675.11
651.819	59666.75
652.171	59610.25
652.523	59476.7
652.875	59488.9
653.227	59458.62
653.578	59561.67
653.93	59524.61
654.282	59377.94
654.633	59338.85
654.985	59445.97
655.337	59441.45
655.688	59351.96
656.039	59353.54
656.391	59159.42
656.742	59217.72
657.094	59257.5
657.445	59356.7
657.796	59234.67
658.147	59183.15
658.498	59186.54
658.849	59246.42
659.2	59164.16
659.551	59053.43
659.902	59227.67
660.253	59179.98
660.604	59164.39
660.955	59014.34
661.306	59120.32
661.656	58981.12
662.007	59084.84
662.358	58969.37
662.708	58930.05
663.059	58904.06
663.409	58782.71
663.76	58996.71
664.11	59015.47
664.461	59047.56
664.811	58952.87
665.161	58910.39
665.511	58790.16
665.862	58788.81
666.212	58908.13
666.562	58853.21
666.912	58861.35
667.262	58764.85
667.612	58827.22
667.962	58720.33
668.312	58758.07
668.662	58873.55
669.011	58808.47
669.361	58726.89
669.711	58642.14
670.06	58693.22
670.41	58614.12
670.76	58568.93
671.109	58735.7
671.459	58550.62
671.808	58595.82
672.157	58608.25
672.507	58478.08
672.856	58471.98
673.205	58481.47
673.554	58593.33
673.904	58450.51
674.253	58605.76
674.602	58473.79
674.951	58184.3
675.3	57989.73
675.649	58385.88
675.998	58436.95
676.346	58439.44
676.695	58469.95
677.044	58281.02
677.393	58332.55
677.741	58322.6
678.09	58316.5
678.438	58166.22
678.787	58213.23
679.135	58294.36
679.484	58009.17
679.832	58157.64
680.181	57952.22
680.529	58060.46
680.877	58000.58
681.225	57909.06
681.573	58030.41
681.922	57865.67
682.27	57765.11
682.618	57811.88
682.966	57718.33
683.314	57685.56
683.661	57560.14
684.009	57475.17
684.357	57538.44
684.705	57388.39
685.053	57455.51
685.4	57405.57
685.748	57280.15
686.095	57300.26
686.443	57209.87
686.79	57189.08
687.138	57178
687.485	57111.79
687.832	57080.6
688.18	57056.42
688.527	56935.3
688.874	56940.72
689.221	56829.99
689.568	56727.84
689.915	56641.97
690.262	56703.89
690.609	56613.72
690.956	56557.23
691.303	56486.72
691.65	56431.13
691.997	56410.11
692.344	56281.98
692.69	56138.48
693.037	56153.62
693.383	55982.55
693.73	56111.82
694.077	55924.48
694.423	55774.65
694.769	55756.12
695.116	55614.88
695.462	55642.9
695.808	55575.56
696.155	55624.14
696.501	55395
696.847	55458.05
697.193	55209.92
697.539	55285.4
697.885	55009.25
698.231	54965.63
698.577	54998.17
698.923	54855.8
699.269	54812.64
699.614	54707.56
699.96	54502.14
700.306	54581.01
700.651	54428.7
700.997	54328.36
701.342	54291.07
701.688	54268.93
702.033	54152.32
702.379	54160.45
702.724	54004.53
703.069	53989.39
703.415	53725.89
703.76	53739.45
704.105	53678.43
704.45	53665.55
704.795	53417.65
705.14	53376.07
705.485	53286.35
705.83	53334.49
706.175	53368.38
706.52	53196.19
706.865	53052.91
707.209	53062.63
707.554	52882.52
707.899	52906.93
708.243	52836.65
708.588	52694.05
708.932	52478.92
709.277	52422.87
709.621	52466.71
709.966	52181.3
710.31	52322.31
710.654	52199.15
710.998	52104.69
711.342	52154.86
711.687	51926.39
712.031	51836.22
712.375	51697.24
712.719	51759.16
713.063	51640.29
713.407	51644.36
713.75	51617.7
714.094	51617.02
714.438	51446.85
714.782	51414.09
715.125	51135.9
715.469	51282.79
715.812	51154.88
716.156	50973.65
716.499	50944.27
716.843	51011.38
717.186	50842.12
717.53	50936.36
717.873	51058.39
718.216	50725.06
718.559	50628.12
718.902	50328.92
719.246	50428.8
719.589	50317.39
719.932	50152.65
720.275	50233.78
720.617	50042.37
720.96	50015.48
721.303	49979.32
721.646	49949.72
721.989	49615.49
722.331	49872.88
722.674	49718.31
723.016	49643.51
723.359	49540.24
723.701	49572.1
724.044	49386.34
724.386	49253.24
724.729	49478.09
725.071	49250.53
725.413	49171.21
725.755	49103.86
726.097	48988.16
726.439	48822.74
726.782	48796.3
727.124	49062.51
727.465	48811.89
727.807	48735.74
728.149	48634.95
728.491	48454.16
728.833	48467.5
729.175	48287.16
729.516	48222.53
729.858	48181.18
730.199	48247.84
730.541	48058.47
730.882	48052.14
731.224	48222.31
731.565	47809.43
731.906	47875.87
732.248	47804.46
732.589	47716.56
732.93	47396.11
733.271	47628.65
733.612	47431.82
733.953	47489.44
734.294	47326.06
734.635	47217.13
734.976	47242.67
735.317	47128.32
735.658	47039.29
735.999	46800.42
736.339	46872.28
736.68	47102.33
737.021	46759.75
737.361	46619.18
737.702	46839.97
738.042	46647.88
738.383	46576.7
738.723	46653.53
739.063	46463.48
739.404	46361.34
739.744	46234.11
740.084	46090.84
740.424	46043.38
740.764	46145.75
741.104	46237.05
741.444	45978.3
741.784	45943.04
742.124	45836.61
742.464	45697.85
742.804	45684.07
743.143	45685.42
743.483	45687.23
743.823	45568.36
744.162	45423.28
744.502	45573.56
744.841	45249.95
745.181	45220.35
745.52	45226.68
745.86	45198.43
746.199	44998.44
746.538	44734.26
746.877	44974.48
747.216	44925.89
747.556	44803.64
747.895	44582.18
748.234	44359.81
748.573	44419.92
748.911	44359.13
749.25	44236.42
749.589	44123.66
749.928	44121.17
750.267	44145.8
750.605	44022.19
750.944	43849.99
751.283	43717.34
751.621	43883.66
751.96	43600.05
