Data from foil_FLMS001491_074.txt Node
Date: Tue Feb 07 11:36:42 GMT 2017
User: dcchb
Spectrometer: FLMS00149
Trigger mode: 0
Integration Time (sec): 2.000000E-2
Scans to average: 10
Electric dark correction enabled: true
Nonlinearity correction enabled: false
Boxcar width: 0
XAxis mode: Wavelengths
Number of Pixels in Spectrum: 2048
>>>>>Begin Spectral Data<<<<<
341.393	-9.11
341.776	-9.11
342.16	-9.11
342.543	-71.48
342.927	-75.32
343.31	-64.7
343.693	-68.54
344.077	-50.46
344.46	-69.45
344.843	-45.72
345.226	-50.46
345.61	-35.1
345.993	-12.95
346.376	-3.91
346.759	20.27
347.142	15.07
347.525	56.43
347.908	39.02
348.291	61.4
348.674	86.03
349.057	123.09
349.44	123.99
349.823	143.65
350.206	163.77
350.588	247.38
350.971	256.65
351.354	265.46
351.737	286.7
352.119	301.16
352.502	299.13
352.884	331.45
353.267	329.64
353.65	371.9
354.032	355.63
354.414	359.92
354.797	368.73
355.179	398.79
355.562	389.52
355.944	373.48
356.326	395.63
356.709	406.47
357.091	396.98
357.473	406.25
357.855	415.96
358.238	426.36
358.62	408.51
359.002	412.57
359.384	408.96
359.766	408.05
360.148	442.86
360.53	416.87
360.912	404.21
361.294	411.22
361.676	429.3
362.057	426.58
362.439	405.57
362.821	410.31
363.203	384.55
363.584	425.91
363.966	428.17
364.348	419.13
364.729	423.87
365.111	423.2
365.493	424.33
365.874	425.45
366.256	414.83
366.637	446.47
367.019	404.44
367.4	442.63
367.781	443.53
368.163	429.75
368.544	439.69
368.925	427.26
369.306	443.08
369.688	427.04
370.069	450.31
370.45	434.49
370.831	451.67
371.212	443.31
371.593	450.54
371.974	447.83
372.355	453.02
372.736	465.68
373.117	451.67
373.498	447.38
373.879	459.35
374.26	466.13
374.641	437.66
375.021	459.13
375.402	495.96
375.783	507.26
376.163	515.4
376.544	520.14
376.925	495.06
377.305	498.45
377.686	495.96
378.066	502.52
378.447	520.59
378.827	530.08
379.208	538.9
379.588	523.53
379.968	518.56
380.349	546.13
380.729	528.96
381.109	538.9
381.489	568.73
381.87	510.88
382.25	553.14
382.63	560.37
383.01	570.54
383.39	582.74
383.77	593.36
384.15	588.84
384.53	611.21
384.91	585.45
385.29	612.34
385.67	606.24
386.049	608.95
386.429	613.02
386.809	619.12
387.189	616.18
387.568	639.69
387.948	632.46
388.328	673.58
388.707	667.93
389.087	648.95
389.466	671.55
389.846	681.49
390.225	713.13
390.605	676.75
390.984	701.15
391.363	703.64
391.743	721.04
392.122	711.78
392.501	749.97
392.881	744.77
393.26	771.21
393.639	738.44
394.018	767.82
394.397	766.46
394.776	777.54
395.155	787.03
395.534	783.64
395.913	799
396.292	803.75
396.671	828.83
397.05	810.53
397.429	834.48
397.808	821.38
398.186	842.85
398.565	837.42
398.944	830.42
399.323	855.73
399.701	877.19
400.08	874.03
400.458	876.52
400.837	878.32
401.215	892.79
401.594	930.3
401.972	913.58
402.351	942.73
402.729	934.82
403.107	970.07
403.486	953.35
403.864	993.35
404.242	958.77
404.62	987.93
404.999	1000.58
405.377	1027.92
405.755	993.8
406.133	1031.09
406.511	1043.29
406.889	1055.49
407.267	1070.64
407.645	1054.14
408.023	1100.47
408.401	1117.41
408.779	1100.47
409.156	1127.36
409.534	1129.62
409.912	1128.49
410.29	1141.14
410.667	1199.67
411.045	1213
411.422	1223.4
411.8	1232.67
412.178	1246.68
412.555	1298.43
412.933	1276.05
413.31	1289.39
413.687	1306.56
414.065	1335.04
414.442	1320.8
414.819	1374.36
415.197	1393.11
415.574	1368.71
415.951	1431.3
416.328	1441.47
416.705	1438.76
417.082	1433.79
417.46	1457.29
417.837	1448.03
418.214	1477.86
418.591	1487.12
418.967	1516.27
419.344	1513.56
419.721	1546.1
420.098	1554.24
420.475	1596.5
420.852	1593.56
421.228	1608.93
421.605	1590.62
421.982	1624.29
422.358	1650.28
422.735	1670.17
423.111	1679.43
423.488	1722.6
423.864	1744.52
424.241	1751.3
424.617	1733.67
424.994	1748.58
425.37	1781.35
425.746	1795.59
426.123	1804.4
426.499	1824.74
426.875	1853.89
427.251	1907.68
427.627	1947.45
428.003	1964.4
428.379	1968.24
428.756	1982.48
429.132	2021.12
429.507	2036.03
429.883	2063.15
430.259	2087.56
430.635	2088.24
431.011	2124.62
431.387	2185.63
431.763	2192.41
432.138	2182.24
432.514	2241.68
432.89	2241.45
433.265	2307.21
433.641	2328.68
434.016	2380.88
434.392	2429.92
434.767	2458.17
435.143	2410.71
435.518	2452.97
435.894	2509.47
436.269	2512.63
436.644	2549.01
437.02	2587.66
437.395	2601.67
437.77	2646.64
438.145	2644.61
438.52	2661.1
438.895	2690.25
439.271	2705.85
439.646	2768.22
440.021	2813.64
440.395	2814.54
440.77	2798.95
441.145	2796.92
441.52	2849.35
441.895	2873.3
442.27	2937.48
442.645	2913.53
443.019	2913.07
443.394	2941.77
443.769	2970.25
444.143	2976.8
444.518	3051.37
444.892	3052.73
445.267	3037.14
445.641	3108.55
446.016	3088.66
446.39	3119.85
446.764	3138.15
447.139	3147.64
447.513	3158.49
447.887	3234.19
448.262	3240.07
448.636	3223.12
449.01	3306.51
449.384	3308.77
449.758	3328.2
450.132	3378.15
450.506	3390.12
450.88	3385.6
451.254	3399.16
451.628	3452.27
452.002	3503.79
452.376	3515.77
452.75	3581.98
453.123	3641.19
453.497	3666.05
453.871	3645.71
454.244	3756.44
454.618	3765.25
454.992	3829.21
455.365	3826.04
455.739	3939.03
456.112	3951.69
456.486	3978.81
456.859	3985.81
457.232	4117.34
457.606	4129.54
457.979	4160.95
458.352	4224.68
458.725	4257.9
459.099	4339.7
459.472	4383.32
459.845	4439.81
460.218	4522.52
460.591	4513.26
460.964	4533.14
461.337	4602.29
461.71	4725.91
462.083	4766.81
462.456	4789.41
462.829	4818.56
463.201	4868.5
463.574	4935.84
463.947	4968.16
464.32	5083.19
464.692	5101.72
465.065	5143.07
465.438	5205.44
465.81	5245.22
466.183	5293.12
466.555	5470.75
466.928	5535.15
467.3	5499.22
467.672	5569.05
468.045	5745.09
468.417	5770.85
468.789	5802.49
469.161	5840
469.534	5921.36
469.906	6048.81
470.278	6113.21
470.65	6169.26
471.022	6296.26
471.394	6444.96
471.766	6465.75
472.138	6560.66
472.51	6677.27
472.882	6758.17
473.253	6824.61
473.625	6914.32
473.997	7065.73
474.369	7085.39
474.74	7172.62
475.112	7348.21
475.484	7489.45
475.855	7626.17
476.227	7643.8
476.598	7890.34
476.97	7926.73
477.341	8165.59
477.713	8248.75
478.084	8317
478.455	8504.34
478.827	8610.1
479.198	8846.48
479.569	8815.06
479.94	9093.93
480.311	9172.12
480.682	9390.87
481.053	9528.72
481.424	9656.62
481.795	9771.65
482.166	9952.44
482.537	10087.8
482.908	10243.05
483.279	10368.47
483.65	10542.93
484.021	10812.07
484.391	10936.59
484.762	10965.06
485.133	11149.92
485.503	11321.44
485.874	11447.31
486.244	11625.16
486.615	11753.07
486.985	11920.29
487.356	12183.34
487.726	12255.65
488.097	12494.29
488.467	12508.75
488.837	12856.09
489.207	12908.52
489.578	13078.91
489.948	13175.85
490.318	13427.15
490.688	13445
491.058	13709.85
491.428	13854.71
491.798	14017.19
492.168	14204.3
492.538	14373.34
492.908	14568.13
493.278	14627.12
493.648	14674.57
494.017	15009.25
494.387	15004.05
494.757	15171.96
495.126	15343.03
495.496	15401.11
495.866	15501.89
496.235	15593.19
496.605	15679.52
496.974	15883.58
497.344	16149.34
497.713	16187.75
498.082	16301.65
498.452	16463
498.821	16512.94
499.19	16584.13
499.559	16727.63
499.928	16889.43
500.298	16879.49
500.667	17131
501.036	17108.18
501.405	17335.29
501.774	17357.44
502.143	17485.57
502.512	17606.7
502.88	17807.6
503.249	17866.35
503.618	18026.8
503.987	18127.81
504.356	18119.9
504.724	18255.72
505.093	18397.41
505.462	18411.42
505.83	18491.87
506.199	18814.35
506.567	18964.85
506.936	19008.02
507.304	19275.81
507.672	19265.64
508.041	19410.94
508.409	19453.2
508.777	19668.34
509.145	19831.72
509.514	19828.79
509.882	19967.77
510.25	20073.53
510.618	20138.83
510.986	20372.73
511.354	20489.56
511.722	20676.22
512.09	20913.96
512.458	20869.44
512.826	21091.58
513.193	21149.88
513.561	21245.92
513.929	21383.55
514.297	21746.02
514.664	21785.8
515.032	21894.49
515.4	22125
515.767	22218.78
516.135	22271.21
516.502	22331.77
516.869	22753.23
517.237	22805.66
517.604	22763.17
517.972	23086.1
518.339	23253.1
518.706	23313.21
519.073	23435.7
519.44	23732.41
519.808	23865.97
520.175	23870.71
520.542	24194.32
520.909	24256.47
521.276	24427.31
521.643	24685.38
522.009	24764.02
522.376	24906.85
522.743	25077.46
523.11	25448.53
523.477	25653.27
523.843	25722.64
524.21	25975.07
524.577	26175.29
524.943	26308.62
525.31	26568.5
525.676	26813.01
526.043	26908.83
526.409	27060.46
526.776	27354.24
527.142	27490.05
527.508	27565.53
527.874	27729.37
528.241	27947.44
528.607	28059.76
528.973	28306.98
529.339	28416.58
529.705	28696.35
530.071	28873.29
530.437	28923.91
530.803	29189.44
531.169	29376.11
531.535	29248.2
531.901	29589.89
532.267	29530.45
532.632	29830.11
532.998	29925.7
533.364	30168.63
533.73	30245.46
534.095	30483.65
534.461	30593.7
534.826	30813.81
535.192	30790.08
535.557	31023.52
535.923	31058.1
536.288	31180.58
536.653	31397.3
537.019	31289.5
537.384	31592.32
537.749	31691.98
538.114	31905.53
538.479	31848.81
538.845	31993.66
539.21	31955.47
539.575	32176.94
539.94	32277.05
540.305	32515.01
540.67	32462.58
541.034	32722.68
541.399	32712.29
541.764	32914.32
542.129	33083.13
542.494	33238.15
542.858	33163.13
543.223	33307.98
543.587	33556.56
543.952	33445.15
544.316	33708.87
544.681	33640.17
545.045	33891.92
545.41	34052.37
545.774	34149.09
546.138	34226.83
546.503	34395.18
546.867	34277.22
547.231	34777.55
547.595	34640.37
547.959	34771.44
548.324	34756.98
548.688	34985.22
549.052	35087.37
549.416	35161.26
549.779	35235.39
550.143	35387.7
550.507	35633.57
550.871	35689.16
551.235	35703.17
551.599	36153.33
551.962	36097.96
552.326	36299.99
552.689	36424.28
553.053	36250.5
553.417	36504.73
553.78	36982.01
554.143	36796.25
554.507	36965.51
554.87	37121.89
555.234	37398.49
555.597	37161.21
555.96	37449.11
556.323	37843.23
556.686	37916.67
557.05	38131.36
557.413	38136.55
557.776	38334.97
558.139	38576.32
558.502	38634.39
558.865	38615.41
559.228	38809.3
559.59	39126.58
559.953	39426.46
560.316	39539.91
560.679	39516.4
561.041	39818.32
561.404	39922.04
561.767	40242.49
562.129	40282.03
562.492	40708.24
562.854	40638.63
563.217	40612.42
563.579	40839.08
563.941	41149.13
564.304	41375.56
564.666	41700.3
565.028	41517.71
565.39	41805.38
565.753	42099.39
566.115	42206.96
566.477	42328.08
566.839	42431.58
567.201	42612.37
567.563	42831.8
567.925	43053.94
568.287	43156.53
568.648	43120.38
569.01	43407.15
569.372	43713.81
569.734	43500.03
570.095	43747.93
570.457	43975.95
570.819	44111.54
571.18	43930.98
571.542	44276.05
571.903	44410.74
572.265	44577.51
572.626	44662.48
572.987	44715.82
573.349	44919.88
573.71	44930.73
574.071	45086.65
574.432	45174.56
574.794	45405.29
575.155	45469.02
575.516	45402.35
575.877	45815.22
576.238	45811.61
576.599	45751.27
576.96	45946.52
577.32	45977.93
577.681	46107.64
578.042	46108.55
578.403	46231.48
578.763	46011.83
579.124	46227.41
579.485	46408.65
579.845	46526.62
580.206	46335.21
580.566	46506.73
580.927	46606.61
581.287	46641.64
581.648	46558.03
582.008	46728.87
582.368	46614.97
582.728	46703.33
583.089	46826.27
583.449	46569.55
583.809	46744.91
584.169	46850.22
584.529	46697.91
584.889	47015.42
585.249	46767.51
585.609	46719.38
585.969	46790.34
586.329	46713.73
586.688	46885.48
587.048	46795.99
587.408	46829.88
587.768	46815.42
588.127	46836.44
588.487	46723.22
588.846	47136.77
589.206	46725.48
589.565	46803.44
589.925	47015.42
590.284	46810
590.643	46943.1
591.003	47004.57
591.362	47224.68
591.721	46880.5
592.08	47056.32
592.44	47082.53
592.799	47074.17
593.158	46963.21
593.517	46929.54
593.876	47049.09
594.235	46995.76
594.593	47029.88
594.952	47152.81
595.311	46993.95
595.67	47139.93
596.029	47295.63
596.387	47260.61
596.746	47287.73
597.104	47019.94
597.463	47114.85
597.822	47214.28
598.18	47069.43
598.538	47159.82
598.897	47460.83
599.255	47116.66
599.613	47725
599.972	47358.01
600.33	47558.23
600.688	47353.03
601.046	47450.89
601.404	47562.75
601.762	47386.48
602.12	47616.76
602.478	47576.98
602.836	47584.44
603.194	47450.89
603.552	47537.44
603.91	47535.4
604.268	47672.8
604.625	47630.32
604.983	47750.09
605.341	47538.34
605.698	47790.99
606.056	47841.61
606.413	47801.84
606.771	47893.59
607.128	47960.93
607.485	47859.24
607.843	47838.45
608.2	48141.49
608.557	48226.46
608.914	47979.01
609.272	48206.12
609.629	48207.48
609.986	48380.58
610.343	48173.8
610.7	48489.95
611.057	48317.75
611.414	48253.8
611.771	48409.28
612.127	48568.6
612.484	48370.86
612.841	48522.04
613.198	48370.86
613.554	48430.52
613.911	48807.46
614.267	48725.88
614.624	48566.34
614.98	48571.76
615.337	48903.5
615.693	48757.07
616.05	48850.4
616.406	48928.59
616.762	48818.08
617.118	48877.29
617.475	48855.59
617.831	48940.79
618.187	48925.42
618.543	48903.05
618.899	49205.87
619.255	49133.1
619.611	49064.18
619.967	49062.14
620.323	49158.86
620.678	49007.68
621.034	49034.8
621.39	48903.5
621.746	48982.37
622.101	49287.9
622.457	48921.81
622.812	49012.65
623.168	49044.97
623.523	49064.85
623.879	49253.55
624.234	48937.17
624.589	49096.49
624.945	49170.39
625.3	49095.36
625.655	49103.05
626.01	49011.75
626.365	49053.1
626.72	49048.36
627.075	49050.17
627.43	48978.3
627.785	48909.83
628.14	49091.07
628.495	49145.3
628.85	48896.04
629.205	48746.67
629.559	48962.71
629.914	48758.87
630.269	48821.02
630.623	48731.3
630.978	48543.96
631.332	48788.03
631.687	48796.84
632.041	48777.18
632.396	48724.07
632.75	48573.57
633.104	48630.06
633.459	48419.67
633.813	48484.98
634.167	48276.4
634.521	48313.24
634.875	48406.79
635.229	48339.68
635.583	48098.33
635.937	48097.42
636.291	48116.86
636.645	48030.98
636.999	47882.96
637.352	47822.85
637.706	47768.39
638.06	47927.48
638.413	47669.64
638.767	47735.4
639.121	47863.98
639.474	47513.71
639.828	47472.58
640.181	47542.41
640.534	47622.63
640.888	47421.28
641.241	47260.83
641.594	47181.06
641.947	47290.66
642.301	47178.12
642.654	47230.78
643.007	47222.19
643.36	47206.15
643.713	47104
644.066	47107.39
644.419	46833.5
644.771	46436.45
645.124	45979.51
645.477	45852.74
645.83	45696.13
646.182	45661.55
646.535	45545.85
646.888	45777.93
647.24	45523.7
647.593	45723.25
647.945	45630.59
648.298	45574.78
648.65	45487.77
649.002	45252.52
649.355	45263.82
649.707	45164.39
650.059	45215.01
650.411	45595.57
650.763	45838.95
651.115	46080.07
651.467	46077.59
651.819	45930.02
652.171	45871.49
652.523	45715.79
652.875	45857.48
653.227	45530.94
653.578	45891.6
653.93	45860.64
654.282	45702.23
654.633	45560.77
654.985	45655.23
655.337	45612.97
655.688	45528.68
656.039	45708.11
656.391	45306.31
656.742	45410.03
657.094	45377.27
657.445	45420.43
657.796	45362.35
658.147	45098.4
658.498	45089.14
658.849	45313.54
659.2	45209.36
659.551	45180.44
659.902	45051.63
660.253	45144.28
660.604	45075.58
660.955	44891.63
661.306	44957.39
661.656	44777.96
662.007	44862.03
662.358	44703.39
662.708	44761.46
663.059	44805.76
663.409	44529.83
663.76	44842.59
664.11	44775.02
664.461	44802.14
664.811	44636.5
665.161	44634.91
665.511	44436.5
665.862	44667.23
666.212	44694.35
666.562	44664.97
666.912	44558.53
667.262	44462.94
667.612	44520.11
667.962	44667.68
668.312	44400.12
668.662	44651.86
669.011	44293.23
669.361	44480.34
669.711	44276.05
670.06	44301.14
670.41	44153.12
670.76	44254.36
671.109	44283.51
671.459	44204.19
671.808	44037.19
672.157	44196.96
672.507	43766.01
672.856	43800.81
673.205	43861.83
673.554	44041.71
673.904	43933.46
674.253	44060.47
674.602	43891.43
674.951	43284.22
675.3	43110.89
675.649	43700.25
675.998	43546.36
676.346	43612.57
676.695	43748.61
677.044	43411.44
677.393	43507.71
677.741	43511.78
678.09	43321.73
678.438	43287.83
678.787	43324.89
679.135	43319.92
679.484	43005.13
679.832	43151.56
680.181	42863.66
680.529	43048.74
680.877	42984.79
681.225	42991.34
681.573	43241.96
681.922	42848.29
682.27	42622.76
682.618	42737.11
682.966	42547.96
683.314	42561.07
683.661	42561.97
684.009	42366.73
684.357	42365.82
684.705	42269.78
685.053	42336.44
685.4	42034.53
685.748	42119.27
686.095	42042.89
686.443	41823.24
686.79	41606.07
687.138	41762.22
687.485	41720.64
687.832	41557.48
688.18	41571.49
688.527	41217.83
688.874	41280.88
689.221	41212.18
689.568	41126.08
689.915	40876.37
690.262	40852.19
690.609	40798.63
690.956	40714.57
691.303	40637.28
691.65	40403.39
691.997	40434.12
692.344	40119.78
692.69	40189.61
693.037	40237.52
693.383	39883.17
693.73	39901.03
694.077	39785.78
694.423	39703.52
694.769	39639.11
695.116	39439.34
695.462	39381.72
695.808	39245.9
696.155	39302.62
696.501	38913.26
696.847	38962.52
697.193	38683.66
697.539	38962.97
697.885	38600.27
698.231	38522.53
698.577	38529.54
698.923	38277.12
699.269	38292.48
699.614	37991.02
699.96	37777.02
700.306	38024.24
700.651	37805.04
700.997	37564.82
701.342	37693.18
701.688	37535.89
702.033	37393.97
702.379	37419.74
702.724	37208.67
703.069	37326.41
703.415	36793.54
703.76	36821.79
704.105	36836.7
704.45	36732.52
704.795	36447.11
705.14	36576.59
705.485	36421.34
705.83	36413.21
706.175	36288.69
706.52	36089.38
706.865	35962.83
707.209	35994.24
707.554	35869.04
707.899	36013.22
708.243	35589.73
708.588	35523.29
708.932	35347.93
709.277	35422.5
709.621	35474.25
709.966	35050.31
710.31	35186.35
710.654	35002.17
710.998	34994.04
711.342	34994.72
711.687	34941.16
712.031	34700.03
712.375	34464.56
712.719	34666.81
713.063	34549.76
713.407	34651.22
713.75	34456.42
714.094	34368.52
714.438	34171.01
714.782	34204.91
715.125	33881.3
715.469	34109.54
715.812	33844.01
716.156	33764.92
716.499	33855.76
716.843	33775.31
717.186	33582.1
717.53	33635.43
717.873	33726.27
718.216	33615.09
718.559	33391.82
718.902	33263.24
719.246	33295.78
719.589	33151.37
719.932	33081.55
720.275	33009.68
720.617	33014.43
720.96	32894.43
721.303	32891.49
721.646	32812.17
721.989	32633.42
722.331	32699.41
722.674	32672.06
723.016	32774.66
723.359	32515.01
723.701	32561.11
724.044	32333.77
724.386	32075.92
724.729	32372.19
725.071	32113.66
725.413	32134.9
725.755	32177.16
726.097	31907.79
726.439	31738.53
726.782	31769.72
727.124	31948.02
727.465	31833.67
727.807	31673.22
728.149	31712.99
728.491	31423.28
728.833	31578.53
729.175	31353.46
729.516	31382.38
729.858	31193.69
730.199	31315.72
730.541	31155.49
730.882	31200.46
731.224	31250.86
731.565	30955.27
731.906	31002.28
732.248	30895.84
732.589	30868.27
732.93	30800.25
733.271	30710.76
733.612	30790.31
733.953	30852
734.294	30669.18
734.635	30547.37
734.976	30561.16
735.317	30571.1
735.658	30419.47
735.999	30461.95
736.339	30250.66
736.68	30343.31
737.021	30266.93
737.361	30142.19
737.702	30319.81
738.042	30123.43
738.383	29978.35
738.723	30003.89
739.063	29953.49
739.404	29991.68
739.744	29932.48
740.084	29767.96
740.424	29778.58
740.764	29615.65
741.104	29744.91
741.444	29546.95
741.784	29439.61
742.124	29536.55
742.464	29395.09
742.804	29274.64
743.143	29243.45
743.483	29331.36
743.823	29153.51
744.162	28954.42
744.502	29228.77
744.841	28957.81
745.181	29148.09
745.52	28958.04
745.86	28975.21
746.199	28718.72
746.538	28826.29
746.877	28818.38
747.216	28693.41
747.556	28614.09
747.895	28516.92
748.234	28500.87
748.573	28481.89
748.911	28421.55
749.25	28326.19
749.589	28115.35
749.928	28138.4
750.267	28186.31
750.605	27961.91
750.944	28075.58
751.283	27994.67
751.621	27983.15
751.96	27874.9
752.298	27870.38
752.636	27709.71
752.975	27588.36
