Data from foil_FLMS001491_058.txt Node
Date: Tue Feb 07 11:27:12 GMT 2017
User: dcchb
Spectrometer: FLMS00149
Trigger mode: 0
Integration Time (sec): 2.000000E-2
Scans to average: 10
Electric dark correction enabled: true
Nonlinearity correction enabled: false
Boxcar width: 0
XAxis mode: Wavelengths
Number of Pixels in Spectrum: 2048
>>>>>Begin Spectral Data<<<<<
341.393	-25.92
341.776	-25.92
342.16	-25.92
342.543	-56.88
342.927	-59.81
343.31	-89.42
343.693	-78.12
344.077	-67.95
344.46	-63.2
344.843	-34.05
345.226	-48.74
345.61	-36.99
345.993	-12.13
346.376	-0.83
346.759	14.76
347.142	31.93
347.525	46.62
347.908	61.09
348.291	78.49
348.674	78.49
349.057	120.07
349.44	133.17
349.823	143.57
350.206	169.78
350.588	240.74
350.971	260.18
351.354	260.85
351.737	279.84
352.119	304.7
352.502	301.98
352.884	310.12
353.267	329.33
353.65	336.56
354.032	359.84
354.414	364.58
354.797	380.17
355.179	365.94
355.562	392.15
355.944	384.24
356.326	383.11
356.709	413.62
357.091	402.55
357.473	403.9
357.855	419.04
358.238	403.22
358.62	399.16
359.002	403.68
359.384	407.29
359.766	389.89
360.148	397.12
360.53	418.82
360.912	395.54
361.294	399.16
361.676	424.24
362.057	421.53
362.439	403.68
362.821	416.33
363.203	400.74
363.584	413.39
363.966	409.55
364.348	411.36
364.729	430.34
365.111	425.14
365.493	410.68
365.874	433.05
366.256	401.87
366.637	421.53
367.019	403.45
367.4	407.74
367.781	435.31
368.163	430.12
368.544	439.16
368.925	422.88
369.306	451.81
369.688	431.47
370.069	444.8
370.45	428.31
370.831	415.88
371.212	446.39
371.593	416.33
371.974	442.32
372.355	431.7
372.736	435.54
373.117	443.67
373.498	478.48
373.879	460.85
374.26	442.54
374.641	426.95
375.021	447.97
375.402	479.38
375.783	486.84
376.163	527.74
376.544	491.36
376.925	486.16
377.305	472.6
377.686	513.05
378.066	495.88
378.447	501.53
378.827	505.82
379.208	501.98
379.588	524.12
379.968	487.06
380.349	520.96
380.729	529.1
381.109	531.36
381.489	532.49
381.87	561.64
382.25	562.77
382.63	590.56
383.01	567.29
383.39	591.47
383.77	572.94
384.15	589.21
384.53	580.17
384.91	614.07
385.29	612.71
385.67	598.47
386.049	640.05
386.429	613.61
386.809	645.03
387.189	619.72
387.568	647.96
387.948	650
388.328	687.28
388.707	657.23
389.087	654.52
389.466	704.68
389.846	689.54
390.225	705.14
390.605	708.98
390.984	721.18
391.363	711.69
391.743	700.84
392.122	739.94
392.501	756.89
392.881	771.58
393.26	758.92
393.639	734.51
394.018	769.09
394.397	774.06
394.776	785.13
395.155	823.55
395.534	796.43
395.913	836.66
396.292	813.61
396.671	846.38
397.05	859.94
397.429	876.43
397.808	885.25
398.186	887.5
398.565	884.12
398.944	879.82
399.323	887.28
399.701	892.48
400.08	909.43
400.458	901.97
400.837	920.27
401.215	945.36
401.594	946.94
401.972	978.8
402.351	954.85
402.729	986.03
403.107	998.01
403.486	1002.76
403.864	1008.63
404.242	1006.15
404.62	1018.8
404.999	1084.11
405.377	1088.63
405.755	1069.87
406.133	1086.14
406.511	1108.29
406.889	1133.15
407.267	1131.34
407.645	1149.19
408.023	1165.01
408.401	1195.75
408.779	1199.81
409.156	1229.64
409.534	1193.03
409.912	1240.94
410.29	1281.17
410.667	1294.95
411.045	1316.42
411.422	1337.66
411.8	1313.48
412.178	1373.14
412.555	1397.1
412.933	1385.12
413.31	1433.71
413.687	1431.22
414.065	1448.62
414.442	1480.94
414.819	1486.36
415.197	1491.56
415.574	1531.33
415.951	1559.58
416.328	1604.32
416.705	1582.18
417.082	1596.86
417.46	1588.28
417.837	1623.08
418.214	1665.11
418.591	1677.77
418.967	1712.34
419.344	1701.72
419.721	1736.52
420.098	1711.66
420.475	1739.91
420.852	1793.24
421.228	1786.92
421.605	1830.08
421.982	1824.43
422.358	1865.56
422.735	1878.21
423.111	1897.42
423.488	1951.21
423.864	1931.55
424.241	1968.38
424.617	2013.8
424.994	2016.51
425.37	2077.53
425.746	2064.88
426.123	2077.08
426.499	2117.53
426.875	2139.68
427.251	2165.66
427.627	2230.52
428.003	2218.77
428.379	2257.86
428.756	2297.19
429.132	2335.6
429.507	2345.09
429.883	2401.59
430.259	2442.04
430.635	2449.27
431.011	2472.1
431.387	2511.87
431.763	2576.95
432.138	2613.79
432.514	2679.77
432.89	2660.57
433.265	2719.55
433.641	2777.17
434.016	2761.13
434.392	2824.4
434.767	2917.73
435.143	2874.8
435.518	2929.26
435.894	2969.03
436.269	3018.75
436.644	3035.92
437.02	3093.55
437.395	3101.68
437.77	3173.77
438.145	3213.09
438.52	3241.79
438.895	3261.23
439.271	3327.44
439.646	3369.7
440.021	3425.74
440.395	3422.58
440.77	3410.38
441.145	3498.28
441.52	3525.4
441.895	3533.76
442.27	3567.21
442.645	3542.12
443.019	3656.02
443.394	3642.23
443.769	3728.33
444.143	3717.26
444.518	3845.17
444.892	3782.57
445.267	3814.43
445.641	3875.45
446.016	3902.79
446.39	3923.36
446.764	3995.45
447.139	4028.21
447.513	4056.91
447.887	4098.95
448.262	4072.28
448.636	4100.08
449.01	4204.25
449.384	4255.1
449.758	4277.7
450.132	4347.07
450.506	4325.15
450.88	4394.98
451.254	4384.36
451.628	4520.63
452.002	4528.77
452.376	4538.48
452.75	4606.5
453.123	4692.83
453.497	4732.6
453.871	4771.92
454.244	4877.68
454.618	4933.27
454.992	4981.86
455.365	4990
455.739	5095.76
456.112	5158.81
456.486	5208.3
456.859	5237.67
457.232	5313.38
457.606	5284.23
457.979	5390.21
458.352	5476.54
458.725	5546.59
459.099	5629.98
459.472	5668.85
459.845	5769.64
460.218	5821.39
460.591	5801.95
460.964	5885.11
461.337	6018.9
461.71	6135.73
462.083	6223.64
462.456	6191.09
462.829	6249.85
463.201	6368.94
463.574	6393.35
463.947	6493.23
464.32	6667.24
464.692	6688.26
465.065	6689.61
465.438	6895.26
465.81	6958.08
466.183	7000.79
466.555	7131.18
466.928	7187.9
467.3	7257.96
467.672	7340.22
468.045	7522.81
468.417	7570.27
468.789	7554.9
469.161	7738.85
469.534	7805.97
469.906	8046.19
470.278	8076.24
470.65	8144.49
471.022	8330.93
471.394	8501.32
471.766	8556.91
472.138	8682.55
472.51	8804.81
472.882	8978.14
473.253	9057.23
473.625	9208.19
473.997	9455.64
474.369	9505.13
474.74	9580.84
475.112	9718.46
475.484	9921.17
475.855	10080.03
476.227	10177.43
476.598	10472.11
476.97	10464.88
477.341	10786.23
477.713	10908.48
478.084	11108.93
478.455	11391.18
478.827	11373.78
479.198	11707.79
479.569	11816.03
479.94	12125.63
480.311	12294.89
480.682	12559.97
481.053	12789.79
481.424	13018.94
481.795	13123.12
482.166	13349.55
482.537	13549.09
482.908	13798.8
483.279	13885.58
483.65	14169.42
484.021	14476.3
484.391	14672.91
484.762	14795.61
485.133	14964.87
485.503	15157.64
485.874	15499.1
486.244	15631.75
486.615	15952.42
486.985	16205.97
487.356	16442.12
487.726	16684.38
488.097	16913.3
488.467	17017.93
488.837	17426.96
489.207	17519.38
489.578	17936.32
489.948	18082.76
490.318	18283.21
490.688	18310.1
491.058	18681.61
491.428	18937.43
491.798	19102.62
492.168	19435.49
492.538	19516.39
492.908	19802.26
493.278	19970.62
493.648	20084.29
494.017	20418.74
494.387	20600.88
494.757	20650.15
495.126	20934.66
495.496	21124.49
495.866	21223.24
496.235	21501.88
496.605	21732.83
496.974	21865.71
497.344	22064.12
497.713	22217.79
498.082	22317.68
498.452	22588.86
498.821	22695.97
499.19	22742.52
499.559	23020.71
499.928	23371.43
500.298	23349.97
500.667	23609.85
501.036	23593.57
501.405	23931.19
501.774	24007.35
502.143	24079.89
502.512	24300.22
502.88	24518.3
503.249	24623.83
503.618	24770.72
503.987	24880.77
504.356	25208.45
504.724	25192.63
505.093	25423.81
505.462	25513.98
505.83	25654.99
506.199	26127.29
506.567	26220.4
506.936	26346.5
507.304	26548.07
507.672	26704.68
508.041	26903.09
508.409	27046.59
508.777	27379.92
509.145	27518.67
509.514	27600.7
509.882	27829.17
510.25	27853.35
510.618	28202.94
510.986	28277.07
511.354	28432.54
511.722	28628.47
512.09	28902.36
512.458	29071.17
512.826	29354.1
513.193	29462.12
513.561	29776.91
513.929	29999.73
514.297	30104.82
514.664	30370.8
515.032	30522.21
515.4	30785.7
515.767	30818.47
516.135	31105.02
516.502	30867.96
516.869	31553.14
517.237	31699.58
517.604	31615.06
517.972	32024.54
518.339	32357.86
518.706	32520.57
519.073	32561.47
519.44	32880.34
519.808	33199.42
520.175	33294.79
520.542	33690.03
520.909	33896.35
521.276	33896.35
521.643	34280.53
522.009	34475.77
522.376	34631.93
522.743	35002.54
523.11	35221.74
523.477	35589.42
523.843	35802.75
524.21	36151.21
524.577	36489.05
524.943	36580.58
525.31	36796.17
525.676	37049.49
526.043	37421.91
526.409	37587.1
526.776	38050.37
527.142	38109.35
527.508	38352.96
527.874	38505.27
528.241	38797.47
528.607	38892.38
528.973	39261.41
529.339	39261.86
529.705	39809.42
530.071	40083.99
530.437	40165.57
530.803	40530.3
531.169	40578.66
531.535	40692.56
531.901	40665.44
532.267	41074.92
532.632	41246.67
532.998	41462.94
533.364	41723.72
533.73	41727.79
534.095	42099.53
534.461	41998.51
534.826	42350.82
535.192	42532.74
535.557	42935.66
535.923	42894.54
536.288	43054.98
536.653	43206.39
537.019	43278.93
537.384	43466.27
537.749	43659.49
538.114	43745.36
538.479	43871.69
538.845	43896.32
539.21	43976.09
539.575	44173.82
539.94	44315.29
540.305	44573.81
540.67	44473.93
541.034	44678.9
541.399	44970.41
541.764	45106.46
542.129	45222.16
542.494	45327.24
542.858	45387.13
543.223	45516.84
543.587	45824.63
543.952	45734.91
544.316	45998.64
544.681	45799.09
545.045	46178.07
545.41	46420.54
545.774	46479.98
546.138	46430.04
546.503	46627.09
546.867	46684.94
547.231	47010.59
547.595	47044.03
547.959	47246.29
548.324	47187.76
548.688	47256.68
549.052	47530.8
549.416	47579.61
549.779	47536.67
550.143	47675.65
550.507	47994.06
550.871	48147.96
551.235	48076.55
551.599	48289.65
551.962	48413.94
552.326	48508.63
552.689	48733.93
553.053	48649.86
553.417	48722.18
553.78	49127.59
554.143	49120.81
554.507	49338.89
554.87	49465.21
555.234	49921.24
555.597	49760.8
555.96	49860.45
556.323	49983.84
556.686	50077.62
557.05	50355.58
557.413	50451.63
557.776	50560.32
558.139	50765.97
558.502	50880.09
558.865	50976.13
559.228	51208.67
559.59	51315.78
559.953	51268.55
560.316	51552.61
560.679	51498.83
561.041	51833.74
561.404	51837.13
561.767	52106.27
562.129	52109.89
562.492	52396.21
562.854	52396.88
563.217	52395.53
563.579	52604.11
563.941	52747.84
564.304	52955.74
564.666	53198.22
565.028	53186.24
565.39	53179.24
565.753	53349.63
566.115	53457.65
566.477	53522.73
566.839	53666
567.201	53821.71
567.563	53935.83
567.925	54121.13
568.287	54157.29
568.648	54210.62
569.01	54346.89
569.372	54537.62
569.734	54521.57
570.095	54703.27
570.457	54830.72
570.819	54875.01
571.18	54826.65
571.542	54936.03
571.903	55049.7
572.265	55052.41
572.626	55182.57
572.987	55256.47
573.349	55346.19
573.71	55492.4
574.071	55513.87
574.432	55602.22
574.794	55703.01
575.155	55694.65
575.516	55718.38
575.877	55852.16
576.238	55905.27
576.599	55981.42
576.96	55959.05
577.32	55984.36
577.681	56148.2
578.042	56166.96
578.403	56097.35
578.763	56209.21
579.124	56247.18
579.485	56304.13
579.845	56354.07
580.206	56307.52
580.566	56319.72
580.927	56365.37
581.287	56451.47
581.648	56389.77
582.008	56529.88
582.368	56466.16
582.728	56576.66
583.089	56457.8
583.449	56411.24
583.809	56474.07
584.169	56478.59
584.529	56421.19
584.889	56544.8
585.249	56439.26
585.609	56415.76
585.969	56551.8
586.329	56517
586.688	56477.68
587.048	56457.57
587.408	56426.84
587.768	56458.93
588.127	56474.29
588.487	56486.49
588.846	56667.51
589.206	56496.44
589.565	56538.25
589.925	56627.28
590.284	56576.89
590.643	56623.89
591.003	56632.93
591.362	56649.2
591.721	56605.59
592.08	56591.58
592.44	56621.41
592.799	56676.32
593.158	56576.21
593.517	56604.68
593.876	56599.49
594.235	56600.62
594.593	56603.78
594.952	56694.4
595.311	56617.11
595.67	56618.92
596.029	56826.6
596.387	56777.79
596.746	56810.1
597.104	56656.21
597.463	56641.52
597.822	56839.71
598.18	56709.99
598.538	56668.19
598.897	56794.74
599.255	56577.11
599.613	56964.22
599.972	56843.1
600.33	56915.41
600.688	56748.18
601.046	56883.55
601.404	56910.21
601.762	56884
602.12	57011.45
602.478	56978.46
602.836	57083.32
603.194	56879.7
603.552	56923.09
603.91	56891
604.268	57020.72
604.625	56953.15
604.983	57091
605.341	56938.01
605.698	57121.96
606.056	57111.34
606.413	57143.43
606.771	57160.83
607.128	57166.03
607.485	56987.5
607.843	57109.98
608.2	57177.1
608.557	57240.6
608.914	57098
609.272	57287.83
609.629	57295.97
609.986	57439.92
610.343	57298.9
610.7	57475.17
611.057	57376.87
611.414	57473.14
611.771	57339.81
612.127	57463.87
612.484	57451.44
612.841	57542.74
613.198	57558.78
613.554	57577.54
613.911	57649.18
614.267	57550.87
614.624	57564.66
614.98	57636.07
615.337	57772.56
615.693	57682.4
616.05	57613.7
616.406	57782.96
616.762	57669.74
617.118	57706.58
617.475	57672.9
617.831	57716.75
618.187	57797.19
618.543	57812.11
618.899	57955.38
619.255	57841.04
619.611	57746.12
619.967	57842.84
620.323	57790.19
620.678	57774.37
621.034	57723.3
621.39	57731.89
621.746	57700.47
622.101	57946.8
622.457	57741.15
622.812	57824.54
623.168	57870.41
623.523	57819.34
623.879	57852.33
624.234	57688.05
624.589	57719.68
624.945	57780.02
625.3	57732.11
625.655	57660.02
626.01	57689.18
626.365	57704.32
626.72	57731.89
627.075	57680.36
627.43	57682.62
627.785	57621.15
628.14	57729.85
628.495	57624.54
628.85	57635.39
629.205	57591.32
629.559	57724.43
629.914	57516.52
630.269	57465
630.623	57420.26
630.978	57379.8
631.332	57465.23
631.687	57512.46
632.041	57346.59
632.396	57421.16
632.75	57215.74
633.104	57317.66
633.459	57121.28
633.813	57188.62
634.167	57175.29
634.521	57109.08
634.875	57205.12
635.229	57064.78
635.583	56941.85
635.937	56957.44
636.291	56929.87
636.645	56938.46
636.999	56853.49
637.352	56927.84
637.706	56723.55
638.06	56744.12
638.413	56686.04
638.767	56694.85
639.121	56670.9
639.474	56583.44
639.828	56545.7
640.181	56549.32
640.534	56571.46
640.888	56400.85
641.241	56326.5
641.594	56305.03
641.947	56448.3
642.301	56269.78
642.654	56271.81
643.007	56267.74
643.36	56206.05
643.713	56137.35
644.066	56227.97
644.419	56013.74
644.771	55891.03
645.124	55604.71
645.477	55579.85
645.83	55404.72
646.182	55241.1
646.535	55172.63
646.888	55215.79
647.24	54975.8
647.593	55114.1
647.945	54986.65
648.298	54826.43
648.65	54904.16
649.002	54762.92
649.355	54896.03
649.707	54797.73
650.059	54944.39
650.411	55141.45
650.763	55215.12
651.115	55571.04
651.467	55342.57
651.819	55317.03
652.171	55234.1
652.523	55185.96
652.875	55161.11
653.227	54969.02
653.578	55313.42
653.93	55137.38
654.282	54983.03
654.633	54916.14
654.985	54896.25
655.337	54890.6
655.688	54886.76
656.039	54988.68
656.391	54738.29
656.742	54790.04
657.094	54832.53
657.445	54903.71
657.796	54762.25
658.147	54702.81
658.498	54686.77
658.849	54754.56
659.2	54671.63
659.551	54535.36
659.902	54661.01
660.253	54518.19
660.604	54532.87
660.955	54418.3
661.306	54578.97
661.656	54403.39
662.007	54382.82
662.358	54376.49
662.708	54445.87
663.059	54351.41
663.409	54185.76
663.76	54237.06
664.11	54265.31
664.461	54225.54
664.811	54238.42
665.161	54200.68
665.511	54174.24
665.862	54161.36
666.212	54177.18
666.562	54215.14
666.912	54176.73
667.262	54104.41
667.612	54100.79
667.962	54120.46
668.312	54089.27
668.662	54253.56
669.011	54095.15
669.361	53903.96
669.711	53942.83
670.06	53910.97
670.41	53805.66
670.76	53691.99
671.109	53889.73
671.459	53817.41
671.808	53751.65
672.157	53802.05
672.507	53546.69
672.856	53571.09
673.205	53612.9
673.554	53662.16
673.904	53421.49
674.253	53736.74
674.602	53605.89
674.951	53078.45
675.3	52982.18
675.649	53376.52
675.998	53271.21
676.346	53386.24
676.695	53399.8
677.044	53171.55
677.393	53151.89
677.741	53231.44
678.09	53110.31
678.438	53115.51
678.787	53187.82
679.135	53073.48
679.484	52876.42
679.832	53061.27
680.181	52818.57
680.529	52903.31
680.877	52725.24
681.225	52655.64
681.573	52880.04
681.922	52634.17
682.27	52519.59
682.618	52551.01
682.966	52387.62
683.314	52482.98
683.661	52478.01
684.009	52156.44
684.357	52212.71
684.705	52096.55
685.053	52075.76
685.4	52139.94
685.748	51899.5
686.095	51911.7
686.443	51654.98
686.79	51624.25
687.138	51670.58
687.485	51552.61
687.832	51582.44
688.18	51490.92
688.527	51337.7
688.874	51265.39
689.221	51110.37
689.568	51085.51
689.915	50979.52
690.262	50984.49
690.609	50897.04
690.956	50749.47
691.303	50788.11
691.65	50571.17
691.997	50524.39
692.344	50261.35
692.69	50285.08
693.037	50153.33
693.383	49965.76
693.73	50005.54
694.077	49773.23
694.423	49786.33
694.769	49721.02
695.116	49499.56
695.462	49432.22
695.808	49297.08
696.155	49340.47
696.501	49113.13
696.847	49102.96
697.193	48862.97
697.539	48952.23
697.885	48601.5
698.231	48392.47
698.577	48395.63
698.923	48305.47
699.269	48083.78
699.614	47984.8
699.96	47988.64
700.306	47944.57
700.651	47765.59
700.997	47595.2
701.342	47660.96
701.688	47503.45
702.033	47300.97
702.379	47388.43
702.724	47303.46
703.069	47337.81
703.415	46856.69
703.76	46859.4
704.105	46788.9
704.45	46697.37
704.795	46500.77
705.14	46370.83
705.485	46252.19
705.83	46145.3
706.175	46302.36
706.52	45992.08
706.865	45878.64
707.209	45910.28
707.554	45830.73
707.899	45764.29
708.243	45528.37
708.588	45508.7
708.932	45176.06
709.277	45010.41
709.621	45281.59
709.966	45030.3
710.31	45048.15
710.654	44799.57
710.998	44894.48
711.342	44762.06
711.687	44519.8
712.031	44285.69
712.375	44248.17
712.719	44231.68
713.063	43977.67
713.407	44095.86
713.75	43858.13
714.094	43786.72
714.438	43640.05
714.782	43643.44
715.125	43546.5
715.469	43407.29
715.812	43180.86
716.156	43029.67
716.499	43032.39
716.843	43113.06
717.186	42710.13
717.53	42948.77
717.873	42907.64
718.216	42771.15
718.559	42692.51
718.902	42389.01
719.246	42503.81
719.589	42229.02
719.932	42115.57
720.275	42018.17
720.617	42034.45
720.96	41910.83
721.303	42032.64
721.646	41954
721.989	41714.91
722.331	41694.34
722.674	41619.09
723.016	41738.18
723.359	41654.34
723.701	41661.57
724.044	41354.69
724.386	41045.32
724.729	41172.32
725.071	41071.53
725.413	41003.96
725.755	40929.16
726.097	40581.15
726.439	40419.12
726.782	40520.81
727.124	40674.03
727.465	40618.21
727.807	40373.92
728.149	40326.47
728.491	40135.96
728.833	40230.88
729.175	40084.44
729.516	40123.99
729.858	39979.81
730.199	39996.31
730.541	39874.5
730.882	39846.48
731.224	39825.46
731.565	39356.1
731.906	39459.15
732.248	39437.45
732.589	39374.18
732.93	39193.84
733.271	39176.44
733.612	39209.44
733.953	39045.82
734.294	38839.95
734.635	38693.06
734.976	38771.25
735.317	38583.91
735.658	38660.75
735.999	38524.26
736.339	38586.4
736.68	38558.83
737.021	38331.94
737.361	38303.47
737.702	38364.71
738.042	38217.82
738.383	38145.96
738.723	38076.36
739.063	37972.41
739.404	38032.97
739.744	37738.51
740.084	37815.12
740.424	37796.14
740.764	37730.38
741.104	37694.22
741.444	37445.64
741.784	37229.6
742.124	37386.43
742.464	37092.65
742.804	37323.61
743.143	37198.41
743.483	37192.99
743.823	36997.29
744.162	36783.06
744.502	36904.64
744.841	36730.4
745.181	36827.35
745.52	36687.24
745.86	36571.54
746.199	36545.55
746.538	36446.12
746.877	36555.95
747.216	36491.09
747.556	36473.24
747.895	36294.26
748.234	36313.24
748.573	36137.2
748.911	36149.85
749.25	36062.85
749.589	35855.4
749.928	35927.26
750.267	35907.83
750.605	35683.65
750.944	35530.89
751.283	35365.92
751.621	35635.74
751.96	35294.96
752.298	35367.95
752.636	35318.01
