Data from foil_FLMS001491_026.txt Node
Date: Tue Feb 07 11:25:41 GMT 2017
User: dcchb
Spectrometer: FLMS00149
Trigger mode: 0
Integration Time (sec): 2.000000E-2
Scans to average: 10
Electric dark correction enabled: true
Nonlinearity correction enabled: false
Boxcar width: 0
XAxis mode: Wavelengths
Number of Pixels in Spectrum: 2048
>>>>>Begin Spectral Data<<<<<
341.393	19.94
341.776	19.94
342.16	19.94
342.543	-49.89
342.927	-54.18
343.31	-90.56
343.693	-85.14
344.077	-65.7
344.46	-54.86
344.843	-52.37
345.226	-51.24
345.61	-34.74
345.993	-34.07
346.376	-9.66
346.759	26.95
347.142	34.86
347.525	48.19
347.908	66.04
348.291	76.66
348.674	103.56
349.057	122.09
349.44	151.46
349.823	140.84
350.206	174.29
350.588	263.78
350.971	284.34
351.354	293.16
351.737	311.69
352.119	327.96
352.502	339.48
352.884	345.13
353.267	345.81
353.65	351.91
354.032	363.44
354.414	372.48
354.797	387.62
355.179	399.14
355.562	408.63
355.944	416.99
356.326	427.16
356.709	438.01
357.091	422.19
357.473	436.88
357.855	455.19
358.238	438.46
358.62	452.93
359.002	419.93
359.384	456.99
359.766	454.96
360.148	436.43
360.53	435.3
360.912	433.49
361.294	436.88
361.676	446.6
362.057	432.59
362.439	447.95
362.821	447.73
363.203	459.93
363.584	459.93
363.966	435.53
364.348	440.5
364.729	462.64
365.111	446.37
365.493	453.38
365.874	436.66
366.256	443.21
366.637	456.32
367.019	438.46
367.4	449.08
367.781	471.68
368.163	480.04
368.544	476.88
368.925	459.48
369.306	455.64
369.688	454.06
370.069	497.44
370.45	485.69
370.831	484.56
371.212	488.63
371.593	486.82
371.974	486.82
372.355	491.12
372.736	504.68
373.117	512.36
373.498	513.26
373.879	511.23
374.26	490.44
374.641	480.72
375.021	474.17
375.402	519.14
375.783	525.01
376.163	571.11
376.544	562.08
376.925	582.19
377.305	569.76
377.686	545.35
378.066	540.16
378.447	576.99
378.827	560.49
379.208	561.4
379.588	597.1
379.968	572.7
380.349	602.3
380.729	612.92
381.109	588.06
381.489	621.06
381.87	645.24
382.25	606.14
382.63	654.5
383.01	638.91
383.39	633.49
383.77	669.87
384.15	656.08
384.53	673.03
384.91	665.12
385.29	698.34
385.67	690.89
386.049	693.15
386.429	712.13
386.809	710.77
387.189	700.15
387.568	727.95
387.948	723.2
388.328	728.4
388.707	765.23
389.087	751.9
389.466	759.13
389.846	778.79
390.225	794.61
390.605	808.4
390.984	789.41
391.363	814.27
391.743	852.46
392.122	841.84
392.501	851.33
392.881	856.53
393.26	846.14
393.639	883.65
394.018	880.94
394.397	887.94
394.776	905.34
395.155	896.08
395.534	920.26
395.913	945.34
396.292	952.8
396.671	963.65
397.05	973.59
397.429	982.63
397.808	967.04
398.186	982.4
398.565	998.45
398.944	972.91
399.323	1021.95
399.701	1006.58
400.08	1024.66
400.458	1065.57
400.837	1062.4
401.215	1046.58
401.594	1057.2
401.972	1077.99
402.351	1111.21
402.729	1133.13
403.107	1141.5
403.486	1138.11
403.864	1156.64
404.242	1157.54
404.62	1166.58
404.999	1180.36
405.377	1219.46
405.755	1240.93
406.133	1233.02
406.511	1257.42
406.889	1254.03
407.267	1299.23
407.645	1281.83
408.023	1306.46
408.401	1346.01
408.779	1355.95
409.156	1390.75
409.534	1369.96
409.912	1394.82
410.29	1435.05
410.667	1443.41
411.045	1460.13
411.422	1473.01
411.8	1482.96
412.178	1535.61
412.555	1531.77
412.933	1592.56
413.31	1581.03
413.687	1597.98
414.065	1597.3
414.442	1644.76
414.819	1672.1
415.197	1690.18
415.574	1732.44
415.951	1686.57
416.328	1747.13
416.705	1758.65
417.082	1777.86
417.46	1769.5
417.837	1771.99
418.214	1804.53
418.591	1866.9
418.967	1827.35
419.344	1875.71
419.721	1905.77
420.098	1887.01
420.475	1916.62
420.852	1963.17
421.228	1968.82
421.605	2000
421.982	1967.46
422.358	2020.79
422.735	2056.27
423.111	2041.36
423.488	2121.58
423.864	2113.22
424.241	2140.79
424.617	2152.54
424.994	2175.14
425.37	2191.86
425.746	2193.9
426.123	2262.14
426.499	2231.64
426.875	2305.08
427.251	2324.97
427.627	2395.93
428.003	2352.76
428.379	2417.39
428.756	2427.11
429.132	2509.14
429.507	2510.5
429.883	2552.31
430.259	2604.73
430.635	2586.43
431.011	2627.78
431.387	2652.64
431.763	2720.66
432.138	2733.32
432.514	2776.71
432.89	2815.35
433.265	2901
433.641	2884.73
434.016	2880.88
434.392	2968.57
434.767	3046.53
435.143	3012.63
435.518	3065.96
435.894	3107.77
436.269	3161.56
436.644	3213.53
437.02	3207.88
437.395	3223.25
437.77	3282.91
438.145	3315.45
438.52	3329.23
438.895	3374.21
439.271	3410.36
439.646	3432.96
440.021	3465.95
440.395	3510.47
440.77	3442.23
441.145	3470.25
441.52	3569
441.895	3538.27
442.27	3668.89
442.645	3568.78
443.019	3662.11
443.394	3671.37
443.769	3678.15
444.143	3690.81
444.518	3752.27
444.892	3749.56
445.267	3818.71
445.641	3795.21
446.016	3864.36
446.39	3870.46
446.764	3909.11
447.139	3870.46
447.513	3924.7
447.887	3935.32
448.262	3982.55
448.636	4001.76
449.01	4091.25
449.384	4127.86
449.758	4157.69
450.132	4187.52
450.506	4229.55
450.88	4211.47
451.254	4237.46
451.628	4249.44
452.002	4340.96
452.376	4349.32
452.75	4444.01
453.123	4432.71
453.497	4505.02
453.871	4585.47
454.244	4672.25
454.618	4687.39
454.992	4766.71
455.365	4782.76
455.739	4896.42
456.112	4909.08
456.486	4970.1
456.859	5003.77
457.232	5091.67
457.606	5095.06
457.979	5157.66
458.352	5263.87
458.725	5272.91
459.099	5346.13
459.472	5459.35
459.845	5517.43
460.218	5562.85
460.591	5566.01
460.964	5602.17
461.337	5794.03
461.71	5786.12
462.083	5920.58
462.456	5959.9
462.829	5970.52
463.201	6014.14
463.574	6140.46
463.947	6171.65
464.32	6299.78
464.692	6351.08
465.065	6371.41
465.438	6516.27
465.81	6558.98
466.183	6669.71
466.555	6757.62
466.928	6811.63
467.3	6855.24
467.672	6910.61
468.045	7155.35
468.417	7198.96
468.789	7205.97
469.161	7306.53
469.534	7434.44
469.906	7621.33
470.278	7614.32
470.65	7699.52
471.022	7904.26
471.394	8023.57
471.766	8073.06
472.138	8142.89
472.51	8395.09
472.882	8471.02
473.253	8552.37
473.625	8694.29
473.997	8861.97
474.369	8931.57
474.74	8999.37
475.112	9144.45
475.484	9273.03
475.855	9499.02
476.227	9539.24
476.598	9812.23
476.97	9949.63
477.341	10152.11
477.713	10278.43
478.084	10290.63
478.455	10706.89
478.827	10708.02
479.198	10966.32
479.569	10962.93
479.94	11405.41
480.311	11431.39
480.682	11703.48
481.053	11949.57
481.424	12094.43
481.795	12254.42
482.166	12436.57
482.537	12577.58
482.908	12811.7
483.279	13006.04
483.65	13187.96
484.021	13460.04
484.391	13593.37
484.762	13837.21
485.133	13901.39
485.503	14036.52
485.874	14434.93
486.244	14492.33
486.615	14918.08
486.985	14943.39
487.356	15240.11
487.726	15312.65
488.097	15630.61
488.467	15710.15
488.837	15950.37
489.207	16225.84
489.578	16412.05
489.948	16598.26
490.318	16882.32
490.688	16908.76
491.058	17239.15
491.428	17392.37
491.798	17565.7
492.168	17905.12
492.538	18039.81
492.908	18157.77
493.278	18425.79
493.648	18482.28
494.017	18690.19
494.387	18942.84
494.757	18957.3
495.126	19190.29
495.496	19404.74
495.866	19424.4
496.235	19709.37
496.605	19775.58
496.974	19969.02
497.344	20145.29
497.713	20218.96
498.082	20419.41
498.452	20543.25
498.821	20764.03
499.19	20826.4
499.559	21081.99
499.928	21235.2
500.298	21386.61
500.667	21513.16
501.036	21447.4
501.405	21726.72
501.774	21812.14
502.143	21943.21
502.512	22060.72
502.88	22267.27
503.249	22333.48
503.618	22579.12
503.987	22641.27
504.356	22833.35
504.724	23014.59
505.093	23177.53
505.462	23309.27
505.83	23342.04
506.199	23583.17
506.567	23811.41
506.936	23808.92
507.304	24199.19
507.672	24327.78
508.041	24468.11
508.409	24534.55
508.777	24822.23
509.145	25043.47
509.514	25040.75
509.882	25170.47
510.25	25412.5
510.618	25634.41
510.986	25602.32
511.354	25948.75
511.722	26046.6
512.09	26314.84
512.458	26316.43
512.826	26683.65
513.193	26629.86
513.561	26922.51
513.929	27147.37
514.297	27343.52
514.664	27635.26
515.032	27689.05
515.4	27840.91
515.767	28019.21
516.135	28311.18
516.502	28174.91
516.869	28719.98
517.237	28776.47
517.604	28797.72
517.972	29260.76
518.339	29442.45
518.706	29454.65
519.073	29578.49
519.44	29761.99
519.808	30260.28
520.175	30278.58
520.542	30693.49
520.909	30810.09
521.276	31037.66
521.643	31147.94
522.009	31487.36
522.376	31684.42
522.743	31977.29
523.11	32278.98
523.477	32551.97
523.843	32760.78
524.21	33160.77
524.577	33446.18
524.943	33577.03
525.31	33826.51
525.676	33995.77
526.043	34225.6
526.409	34410.9
526.776	34748.52
527.142	34859.93
527.508	35075.97
527.874	35369.52
528.241	35606.58
528.607	35686.58
528.973	36001.37
529.339	36089.05
529.705	36582.6
530.071	36824.85
530.437	36940.78
530.803	37031.63
531.169	37330.6
531.535	37416.47
531.901	37574.66
532.267	37626.41
532.632	38012.16
532.998	38224.36
533.364	38464.81
533.73	38572.83
534.095	38815.08
534.461	38991.35
534.826	39156.54
535.192	39275.86
535.557	39716.98
535.923	39681.95
536.288	39720.82
536.653	39960.81
537.019	39958.55
537.384	40170.75
537.749	40440.12
538.114	40655.03
538.479	40685.54
538.845	40866.78
539.21	40834.91
539.575	41120.78
539.94	41176.37
540.305	41558.29
540.67	41587.44
541.034	41903.59
541.399	41940.42
541.764	42141.32
542.129	42253.18
542.494	42467.41
542.858	42519.16
543.223	42622.66
543.587	42960.73
543.952	42910.57
544.316	43151.92
544.681	43024.01
545.045	43354.17
545.41	43559.14
545.774	43655.41
546.138	43745.12
546.503	43859.92
546.867	43932.69
547.231	44208.84
547.595	44239.57
547.959	44509.39
548.324	44690.86
548.688	44747.35
549.052	45059.89
549.416	45050.17
549.779	45115.25
550.143	45294.68
550.507	45763.6
550.871	45763.15
551.235	45768.8
551.599	46174.21
551.962	46173.08
552.326	46169.01
552.689	46536.01
553.053	46359.52
553.417	46613.75
553.78	47245.14
554.143	46985.26
554.507	47192.04
554.87	47328.08
555.234	47739.59
555.597	47592.7
555.96	47766.26
556.323	48019.58
556.686	48084.22
557.05	48315.85
557.413	48392.23
557.776	48610.53
558.139	48850.3
558.502	48920.8
558.865	49214.58
559.228	49421.36
559.59	49484.41
559.953	49680.78
560.316	50005.07
560.679	50026.76
561.041	50196.25
561.404	50323.03
561.767	50561.66
562.129	50476.02
562.492	50895.89
562.854	51004.37
563.217	51041.65
563.579	51118.26
563.941	51427.4
564.304	51592.82
564.666	51733.84
565.028	51891.35
565.39	52006.37
565.753	52152.81
566.115	52299.7
566.477	52375.18
566.839	52384.22
567.201	52632.34
567.563	52713.02
567.925	52959.57
568.287	52999.79
568.648	53042.96
569.01	53232.56
569.372	53378.09
569.734	53322.5
570.095	53554.13
570.457	53698.98
570.819	53778.98
571.18	53816.04
571.542	54017.85
571.903	54055.36
572.265	54162.25
572.626	54249.7
572.987	54315.92
573.349	54460.32
573.71	54502.35
574.071	54588
574.432	54706.64
574.794	54949.8
575.155	54888.78
575.516	54858.28
575.877	54999.97
576.238	54948.44
576.599	54991.83
576.96	55041.1
577.32	55025.28
577.681	55229.79
578.042	55333.74
578.403	55337.58
578.763	55397.24
579.124	55449.45
579.485	55571.02
579.845	55692.6
580.206	55578.93
580.566	55598.37
580.927	55616.67
581.287	55735.54
581.648	55625.94
582.008	55742.09
582.368	55682.43
582.728	55704.58
583.089	55751.36
583.449	55760.4
583.809	55844.69
584.169	55892.15
584.529	55799.27
584.889	55984.8
585.249	55767.4
585.609	55707.97
585.969	55922.2
586.329	55779.15
586.688	55858.02
587.048	55929.66
587.408	55785.71
587.768	55825.93
588.127	55791.13
588.487	55769.89
588.846	55931.02
589.206	55719.72
589.565	55725.37
589.925	55961.07
590.284	55844.92
590.643	55950.45
591.003	55947.06
591.362	56014.4
591.721	55965.82
592.08	55994.97
592.44	56101.86
592.799	55985.25
593.158	55978.92
593.517	55934.63
593.876	56038.36
594.235	56067.96
594.593	55999.71
594.952	56091.24
595.311	55965.59
595.67	56058.02
596.029	56156.77
596.387	56112.71
596.746	56131.46
597.104	56084.23
597.463	56110.67
597.822	56316.32
598.18	56126.26
598.538	56074.29
598.897	56340.5
599.255	56114.51
599.613	56482.87
599.972	56219.37
600.33	56380.04
600.688	56283.55
601.046	56377.78
601.404	56467.05
601.762	56387.73
602.12	56426.82
602.478	56485.12
602.836	56520.38
603.194	56347.95
603.552	56420.95
603.91	56399.7
604.268	56526.48
604.625	56411.23
604.983	56484.9
605.341	56462.3
605.698	56672.69
606.056	56698.9
606.413	56594.73
606.771	56766.47
607.128	56664.56
607.485	56596.31
607.843	56532.58
608.2	56716.31
608.557	56787.04
608.914	56779.58
609.272	56830.2
609.629	56860.03
609.986	56997.43
610.343	56893.7
610.7	57105.45
611.057	56952.68
611.414	56965.11
611.771	57065.45
612.127	57145.45
612.484	57067.93
612.841	57171.89
613.198	57099.35
613.554	57068.84
613.911	57301.15
614.267	57191.55
614.624	57226.12
614.98	57290.98
615.337	57375.27
615.693	57288.95
616.05	57290.3
616.406	57375.95
616.762	57318.78
617.118	57335.72
617.475	57332.33
617.831	57407.59
618.187	57350.41
618.543	57465.44
618.899	57572.1
619.255	57569.39
619.611	57424.54
619.967	57485.55
620.323	57539.79
620.678	57484.65
621.034	57387.25
621.39	57428.83
621.746	57360.58
622.101	57734.81
622.457	57498.43
622.812	57514.93
623.168	57654.59
623.523	57565.77
623.879	57681.25
624.234	57501.82
624.589	57634.93
624.945	57663.63
625.3	57746.79
625.655	57650.07
626.01	57639.22
626.365	57683.96
626.72	57629.95
627.075	57618.43
627.43	57588.6
627.785	57468.83
628.14	57572.33
628.495	57629.5
628.85	57601.71
629.205	57454.82
629.559	57569.62
629.914	57430.64
630.269	57401.26
630.623	57356.74
630.978	57359
631.332	57506.12
631.687	57439.22
632.041	57344.76
632.396	57336.18
632.75	57242.17
633.104	57350.64
633.459	57186.35
633.813	57126.92
634.167	57087.59
634.521	57154.71
634.875	57112.91
635.229	57135.05
635.583	56954.04
635.937	56936.19
636.291	56843.31
636.645	56893.25
636.999	56875.17
637.352	56923.31
637.706	56708.62
638.06	56868.62
638.413	56778.45
638.767	56794.04
639.121	56774.83
639.474	56597.89
639.828	56632.69
640.181	56732.8
640.534	56685.8
640.888	56666.82
641.241	56580.72
641.594	56576.42
641.947	56599.02
642.301	56448.52
642.654	56533.03
643.007	56396.09
643.36	56294.4
643.713	56332.81
644.066	56452.81
644.419	56157.68
644.771	55963.1
645.124	55582.1
645.477	55463
645.83	55364.02
646.182	55257.81
646.535	55286.96
646.888	55528.09
647.24	55400.63
647.593	55651.7
647.945	55517.92
648.298	55502.78
648.65	55365.38
649.002	55272.73
649.355	55201.09
649.707	55006.29
650.059	55019.17
650.411	55446.51
650.763	55429.33
651.115	55733.96
651.467	55692.83
651.819	55671.81
652.171	55580.97
652.523	55521.08
652.875	55516.34
653.227	55349.79
653.578	55596.33
653.93	55515.43
654.282	55515.88
654.633	55330.35
654.985	55371.93
655.337	55323.57
655.688	55343.23
656.039	55402.67
656.391	55133.97
656.742	55217.14
657.094	55268.66
657.445	55346.4
657.796	55188.44
658.147	55211.49
658.498	55151.83
658.849	55157.93
659.2	55017.59
659.551	54982.57
659.902	55067.54
660.253	55033.41
660.604	54981.44
660.955	54864.6
661.306	54947.76
661.656	54818.28
662.007	54831.61
662.358	54937.82
662.708	54872.74
663.059	54780.54
663.409	54672.07
663.76	54830.93
664.11	54826.19
664.461	54867.54
664.811	54817.6
665.161	54799.29
665.511	54710.93
665.862	54681.56
666.212	54777.37
666.562	54767.43
666.912	54720.65
667.262	54652.63
667.612	54590.49
667.962	54729.69
668.312	54627.32
668.662	54730.14
669.011	54580.77
669.361	54572.41
669.711	54360.89
670.06	54520.88
670.41	54493.09
670.76	54393.43
671.109	54529.02
671.459	54391.39
671.808	54349.59
672.157	54509.81
672.507	54351.62
672.856	54261.68
673.205	54207.9
673.554	54365.86
673.904	54248.12
674.253	54364.05
674.602	54251.74
674.951	53860.56
675.3	53664.63
675.649	54123.15
675.998	54159.31
676.346	54169.71
676.695	54215.13
677.044	53936.27
677.393	54068.47
677.741	54136.49
678.09	54023.49
678.438	53871.41
678.787	53968.13
679.135	53957.28
679.484	53801.35
679.832	53962.93
680.181	53668.02
680.529	53757.29
680.877	53746.67
681.225	53612.21
681.573	53746.67
681.922	53553.9
682.27	53419.67
682.618	53397.52
682.966	53464.87
683.314	53473.45
683.661	53393.23
684.009	53239.79
684.357	53153.46
684.705	53055.38
685.053	53082.73
685.4	53037.98
685.748	52930.42
686.095	52781.27
686.443	52772.45
686.79	52816.29
687.138	52723.42
687.485	52762.51
687.832	52645.23
688.18	52532.91
688.527	52373.82
688.874	52462.41
689.221	52498.56
689.568	52213.82
689.915	52130.44
690.262	52192.13
690.609	52078.46
690.956	51970.44
691.303	51999.14
691.65	51908.07
691.997	51763.44
692.344	51507.85
692.69	51460.4
693.037	51579.27
693.383	51228.99
693.73	51437.57
694.077	51183.34
694.423	51266.51
694.769	51092.72
695.116	51030.35
695.462	51008.43
695.808	50853.86
696.155	50944.03
696.501	50610.7
696.847	50486.64
697.193	50309.02
697.539	50527.54
697.885	50116.03
698.231	50060.21
698.577	50090.26
698.923	50025.63
699.269	49808.69
699.614	49720.56
699.96	49567.79
700.306	49547.68
700.651	49399.44
700.997	49364.41
701.342	49217.75
701.688	49154.24
702.033	49161.02
702.379	49018.65
702.724	48830.86
703.069	48849.62
703.415	48567.37
703.76	48397.65
704.105	48491.66
704.45	48410.08
704.795	48136.87
705.14	48124.21
705.485	48032.47
705.83	47860.94
706.175	48076.08
706.52	47853.49
706.865	47709.08
707.209	47558.35
707.554	47534.4
707.899	47607.84
708.243	47198.36
708.588	47158.36
708.932	46874.53
709.277	46850.35
709.621	46940.52
709.966	46689
710.31	46837.7
710.654	46415.33
710.998	46518.16
711.342	46454.88
711.687	46286.98
712.031	46192.06
712.375	45989.13
712.719	46111.61
713.063	46033.65
713.407	46145.28
713.75	45937.38
714.094	45882.01
714.438	45563.83
714.782	45633.21
715.125	45566.99
715.469	45460.78
715.812	45022.6
716.156	44944.19
716.499	44901.93
716.843	45054.47
717.186	44716.85
717.53	44966.11
717.873	45093.79
718.216	44865.54
718.559	44690.18
718.902	44474.59
719.246	44447.48
719.589	44397.53
719.932	44130.87
720.275	44213.36
720.617	44081.16
720.96	43971.78
721.303	44070.76
721.646	44008.39
721.989	43790.54
722.331	43788.96
722.674	43648.85
723.016	43656.99
723.359	43552.58
723.701	43679.59
724.044	43338.58
724.386	43266.26
724.729	43474.85
725.071	43306.26
725.413	43279.14
725.755	43102.43
726.097	42878.03
726.439	42772.04
726.782	42757.58
727.124	42894.75
727.465	42633.96
727.807	42569.56
728.149	42349.45
728.491	42468.77
728.833	42437.36
729.175	42165.5
729.516	42217.48
729.858	42192.85
730.199	42108.78
730.541	41945.17
730.882	41878.96
731.224	42042.11
731.565	41739.52
731.906	41961.44
732.248	41779.52
732.589	41640.09
732.93	41424.96
733.271	41478.51
733.612	41473.32
733.953	41634.44
734.294	41453.2
734.635	41256.6
734.976	41276.71
735.317	41108.81
735.658	41106.32
735.999	40982.48
736.339	40734.8
736.68	41041.92
737.021	40979.54
737.361	40876.04
737.702	40873.11
738.042	40649.38
738.383	40607.35
738.723	40700.91
739.063	40391.08
739.404	40369.16
739.744	40399.67
740.084	40059.79
740.424	40228.83
740.764	40125.33
741.104	40292.1
741.444	39885.11
741.784	39787.26
742.124	39879.69
742.464	39738.67
742.804	39725.34
743.143	39572.8
743.483	39705
743.823	39527.15
744.162	39448.96
744.502	39389.3
744.841	39261.4
745.181	39458
745.52	39103.66
745.86	39162.42
746.199	39075.87
746.538	38893.95
746.877	39054.17
747.216	39080.61
747.556	38834.06
747.895	38730.34
748.234	38550.68
748.573	38599.95
748.911	38645.37
749.25	38651.02
749.589	38378.26
749.928	38422.32
750.267	38408.76
750.605	38154.31
750.944	38068.66
751.283	37907.76
751.621	37953.18
751.96	37653.3
752.298	37743.02
