Data from foil_FLMS001491_089.txt Node
Date: Tue Feb 07 11:36:56 GMT 2017
User: dcchb
Spectrometer: FLMS00149
Trigger mode: 0
Integration Time (sec): 2.000000E-2
Scans to average: 10
Electric dark correction enabled: true
Nonlinearity correction enabled: false
Boxcar width: 0
XAxis mode: Wavelengths
Number of Pixels in Spectrum: 2048
>>>>>Begin Spectral Data<<<<<
341.393	-24.79
341.776	-24.79
342.16	-24.79
342.543	-55.75
342.927	-61.17
343.31	-83.99
343.693	-79.25
344.077	-55.52
344.46	-68.18
344.843	-47.84
345.226	-33.15
345.61	-24.56
345.993	-12.13
346.376	8.43
346.759	11.37
347.142	51.37
347.525	36.91
347.908	45.49
348.291	79.16
348.674	75.32
349.057	96.57
349.44	131.37
349.823	150.58
350.206	175.43
350.588	281.65
350.971	325.71
351.354	317.12
351.737	351.02
352.119	363.45
352.502	372.72
352.884	381.08
353.267	365.48
353.65	407.52
354.032	417.46
354.414	419.49
354.797	417.23
355.179	409.33
355.562	431.02
355.944	446.16
356.326	432.83
356.709	472.15
357.091	450.68
357.473	491.36
357.855	464.92
358.238	461.75
358.62	469.89
359.002	478.93
359.384	477.12
359.766	487.52
360.148	487.52
360.53	485.26
360.912	490.45
361.294	483.45
361.676	492.94
362.057	516.22
362.439	496.55
362.821	501.98
363.203	497.46
363.584	480.51
363.966	473.5
364.348	493.62
364.729	495.88
365.111	509.89
365.493	496.33
365.874	491.13
366.256	491.81
366.637	539.49
367.019	532.71
367.4	496.78
367.781	492.26
368.163	512.15
368.544	520.28
368.925	528.87
369.306	538.14
369.688	529.32
370.069	546.04
370.45	541.98
370.831	551.92
371.212	562.32
371.593	555.76
371.974	561.19
372.355	562.32
372.736	563.45
373.117	561.41
373.498	570.23
373.879	567.74
374.26	562.99
374.641	548.3
375.021	563.45
375.402	593.5
375.783	619.72
376.163	664.23
376.544	643.9
376.925	640.05
377.305	648.64
377.686	632.14
378.066	659.94
378.447	645.93
378.827	633.95
379.208	654.06
379.588	672.14
379.968	680.5
380.349	686.83
380.729	669.43
381.109	692.03
381.489	704.91
381.87	727.51
382.25	680.05
382.63	725.25
383.01	739.71
383.39	730.22
383.77	734.74
384.15	770.22
384.53	757.11
384.91	779.94
385.29	788.3
385.67	807.06
386.049	814.06
386.429	817.22
386.809	822.65
387.189	827.62
387.568	842.53
387.948	841.18
388.328	859.26
388.707	885.7
389.087	877.34
389.466	897
389.846	875.08
390.225	891.57
390.605	931.35
390.984	908.52
391.363	962.76
391.743	972.7
392.122	957.33
392.501	994.17
392.881	968.86
393.26	997.56
393.639	1044.56
394.018	1022.19
394.397	1049.31
394.776	1055.86
395.155	1058.35
395.534	1068.07
395.913	1092.47
396.292	1105.58
396.671	1123.66
397.05	1125.69
397.429	1118.69
397.808	1108.52
398.186	1135.18
398.565	1131.11
398.944	1166.14
399.323	1180.15
399.701	1203.88
400.08	1226.48
400.458	1228.51
400.837	1226.93
401.215	1243.2
401.594	1225.8
401.972	1259.92
402.351	1288.17
402.729	1292.47
403.107	1324.33
403.486	1352.8
403.864	1349.87
404.242	1353.71
404.62	1365.23
404.999	1372.69
405.377	1408.17
405.755	1409.3
406.133	1462.86
406.511	1463.08
406.889	1450.2
407.267	1503.08
407.645	1500.82
408.023	1539.01
408.401	1561.84
408.779	1571.55
409.156	1629.41
409.534	1628.5
409.912	1633.47
410.29	1681.83
410.667	1707.82
411.045	1733.58
411.422	1756.63
411.8	1738.33
412.178	1791.66
412.555	1780.81
412.933	1836.18
413.31	1856.07
413.687	1871.89
414.065	1899
414.442	1919.79
414.819	1950.98
415.197	1944.2
415.574	2030.75
415.951	2040.47
416.328	2016.51
416.705	2047.93
417.082	2061.71
417.46	2083.18
417.837	2091.09
418.214	2119.79
418.591	2166.34
418.967	2131.77
419.344	2187.36
419.721	2196.4
420.098	2226.68
420.475	2264.64
420.852	2259.67
421.228	2308.03
421.605	2336.05
421.982	2335.15
422.358	2392.78
422.735	2415.83
423.111	2412.21
423.488	2446.11
423.864	2473.45
424.241	2504.41
424.617	2527.01
424.994	2546.9
425.37	2595.26
425.746	2588.7
426.123	2640.68
426.499	2645.2
426.875	2672.99
427.251	2757.51
427.627	2786.21
428.003	2843.16
428.379	2847
428.756	2866.44
429.132	2909.82
429.507	2936.49
429.883	3004.74
430.259	3048.13
430.635	3061.46
431.011	3077.73
431.387	3134.68
431.763	3171.96
432.138	3212.87
432.514	3284.96
432.89	3284.05
433.265	3376.03
433.641	3413.77
434.016	3389.59
434.392	3462.8
434.767	3515.23
435.143	3523.37
435.518	3609.24
435.894	3586.42
436.269	3637.72
436.644	3698.96
437.02	3766.07
437.395	3768.79
437.77	3801.1
438.145	3839.52
438.52	3889.23
438.895	3941.89
439.271	3940.98
439.646	4016.01
440.021	4096.46
440.395	4077.25
440.77	4069.79
441.145	4094.43
441.52	4198.83
441.895	4140.07
442.27	4202.67
442.645	4224.59
443.019	4302.56
443.394	4253.97
443.769	4293.29
444.143	4297.13
444.518	4392.27
444.892	4373.06
445.267	4418.26
445.641	4423.01
446.016	4490.35
446.39	4523.12
446.764	4526.28
447.139	4499.61
447.513	4604.47
447.887	4618.03
448.262	4637.24
448.636	4663.68
449.01	4726.27
449.384	4778.02
449.758	4759.72
450.132	4841.3
450.506	4875.65
450.88	4913.84
451.254	4929.43
451.628	4975.08
452.002	5002.42
452.376	5109.54
452.75	5091.01
453.123	5186.15
453.497	5220.72
453.871	5284.45
454.244	5413.49
454.618	5437.67
454.992	5507.95
455.365	5542.3
455.739	5693.48
456.112	5693.93
456.486	5755.17
456.859	5764.89
457.232	5860.93
457.606	5914.72
457.979	5963.53
458.352	6074.26
458.725	6194.26
459.099	6201.04
459.472	6356.51
459.845	6415.27
460.218	6420.24
460.591	6529.39
460.964	6542.95
461.337	6676.28
461.71	6748.82
462.083	6894.8
462.456	6905.65
462.829	6939.1
463.201	7018.87
463.574	7048.47
463.947	7156.49
464.32	7298.64
464.692	7404.62
465.065	7415.47
465.438	7477.61
465.81	7640.1
466.183	7733.88
466.555	7856.59
466.928	7921.44
467.3	7976.13
467.672	8028.56
468.045	8272.4
468.417	8279.63
468.789	8363.01
469.161	8509.9
469.534	8598.49
469.906	8793.74
470.278	8836.67
470.65	8965.94
471.022	9106.27
471.394	9285.48
471.766	9371.12
472.138	9433.49
472.51	9715.07
472.882	9857.44
473.253	9875.07
473.625	10035.06
473.997	10218.56
474.369	10254.49
474.74	10393.24
475.112	10583.07
475.484	10799.33
475.855	10914.36
476.227	10995.26
476.598	11335.14
476.97	11424.4
477.341	11698.52
477.713	11927.67
478.084	11925.18
478.455	12292.63
478.827	12403.81
479.198	12761.99
479.569	12813.74
479.94	13085.15
480.311	13187.52
480.682	13486.5
481.053	13767.39
481.424	13997.89
481.795	14104.56
482.166	14328.73
482.537	14567.15
482.908	14854.6
483.279	14926.01
483.65	15321.93
484.021	15532.32
484.391	15785.87
484.762	15898.18
485.133	16026.54
485.503	16203.03
485.874	16546.08
486.244	16747.2
486.615	17066.51
486.985	17209.79
487.356	17526.16
487.726	17732.49
488.097	17970.9
488.467	17990.78
488.837	18469.42
489.207	18706.25
489.578	18953.7
489.948	19128.38
490.318	19407.02
490.688	19436.62
491.058	19794.58
491.428	19924.74
491.798	20167.22
492.168	20589.13
492.538	20642.01
492.908	20856.02
493.278	21013.08
493.648	21160.64
494.017	21501.2
494.387	21642.67
494.757	21805.82
495.126	22081.98
495.496	22134.86
495.866	22233.84
496.235	22624.56
496.605	22712.69
496.974	22942.52
497.344	23174.6
497.713	23241.27
498.082	23382.05
498.452	23701.37
498.821	23715.38
499.19	23780.24
499.559	24059.78
499.928	24264.07
500.298	24356.94
500.667	24576.6
501.036	24651.17
501.405	24790.83
501.774	24881
502.143	25079.86
502.512	25197.6
502.88	25525.5
503.249	25523.02
503.618	25758.94
503.987	25887.75
504.356	26145.6
504.724	26350.79
505.093	26341.98
505.462	26504.23
505.83	26694.28
506.199	26907.61
506.567	27314.83
506.936	27183.08
507.304	27574.49
507.672	27513.47
508.041	27934.7
508.409	28030.07
508.777	28185.32
509.145	28509.83
509.514	28484.29
509.882	28662.59
510.25	28819.88
510.618	29101.68
510.986	29300.09
511.354	29588.67
511.722	29698.27
512.09	29925.39
512.458	29928.55
512.826	30276.11
513.193	30463.45
513.561	30630.9
513.929	30814.63
514.297	31195.41
514.664	31388.85
515.032	31481.05
515.4	31808.73
515.767	31876.97
516.135	32128.04
516.502	31962.62
516.869	32620.91
517.237	32779.55
517.604	32729.61
517.972	33238.07
518.339	33431.51
518.706	33405.75
519.073	33665.85
519.44	34003.7
519.808	34209.79
520.175	34301.32
520.542	34836.22
520.909	35014.07
521.276	35006.83
521.643	35508.74
522.009	35776.53
522.376	36003.87
522.743	36184.88
523.11	36640.69
523.477	36922.94
523.843	37033.22
524.21	37514.79
524.577	37680.21
524.943	37978.28
525.31	38203.59
525.676	38595.21
526.043	38720.18
526.409	38905.49
526.776	39227.97
527.142	39429.32
527.508	39745.92
527.874	40030.2
528.241	40262.97
528.607	40401.72
528.973	40806.46
529.339	40916.96
529.705	41410.06
530.071	41726.88
530.437	41801.46
530.803	42205.51
531.169	42358.73
531.535	42281.22
531.901	42430.59
532.267	42552.62
532.632	43045.49
532.998	43250.91
533.364	43380.62
533.73	43581.07
534.095	44022.64
534.461	44043.66
534.826	44355.06
535.192	44396.64
535.557	44728.61
535.923	44617.2
536.288	44963.18
536.653	45155.49
537.019	45149.84
537.384	45415.37
537.749	45609.72
538.114	45679.1
538.479	45771.07
538.845	46091.06
539.21	46076.15
539.575	46396.36
539.94	46405.63
540.305	46762.68
540.67	46644.27
541.034	46948.89
541.399	47096.69
541.764	47301.88
542.129	47466.17
542.494	47521.98
542.858	47646.05
543.223	47774.41
543.587	47942.54
543.952	48022.31
544.316	48209.65
544.681	48268.86
545.045	48492.58
545.41	48735.74
545.774	48903.64
546.138	48839.01
546.503	48973.7
546.867	49004.43
547.231	49425.44
547.595	49377.53
547.959	49598.77
548.324	49759.67
548.688	49721.48
549.052	49932.77
549.416	49987.91
549.779	50038.53
550.143	50248.47
550.507	50569.59
550.871	50699.08
551.235	50630.6
551.599	51096.35
551.962	51133.87
552.326	51207.31
552.689	51467.19
553.053	51329.12
553.417	51490.24
553.78	51944.24
554.143	51782.44
554.507	51975.88
554.87	52045.26
555.234	52429.2
555.597	52264.69
555.96	52551.01
556.323	52638.46
556.686	52664.45
557.05	53011.56
557.413	53117.77
557.776	53298.33
558.139	53410.42
558.502	53491.55
558.865	53558.21
559.228	53794.59
559.59	53875.94
559.953	54015.83
560.316	54298.3
560.679	54298.98
561.041	54503.95
561.404	54625.98
561.767	54830.95
562.129	54795.01
562.492	55090.37
562.854	55164.5
563.217	55250.14
563.579	55429.12
563.941	55534.43
564.304	55666.4
564.666	55827.08
565.028	55792.5
565.39	56076.11
565.753	56164.7
566.115	56302.55
566.477	56423.9
566.839	56470.9
567.201	56753.38
567.563	56716.09
567.925	56906.82
568.287	56856.65
568.648	56963.09
569.01	57124.44
569.372	57303.42
569.734	57216.19
570.095	57495.06
570.457	57591.55
570.819	57648.27
571.18	57672.23
571.542	57849.17
571.903	57884.88
572.265	57916.74
572.626	58078.32
572.987	58119.22
573.349	58172.33
573.71	58365.99
574.071	58339.1
574.432	58478.76
574.794	58638.75
575.155	58614.35
575.516	58544.75
575.877	58772.08
576.238	58751.29
576.599	58847.11
576.96	58857.96
577.32	58860.67
577.681	58974.34
578.042	59067.44
578.403	59059.08
578.763	59122.13
579.124	59192.64
579.485	59265.4
579.845	59262.02
580.206	59284.39
580.566	59266.76
580.927	59272.86
581.287	59408.45
581.648	59276.48
582.008	59524.16
582.368	59419.53
582.728	59396.7
583.089	59421.79
583.449	59482.35
583.809	59451.61
584.169	59594.44
584.529	59494.1
584.889	59633.76
585.249	59462.01
585.609	59482.57
585.969	59590.14
586.329	59522.57
586.688	59697.03
587.048	59537.04
587.408	59617.26
587.768	59557.15
588.127	59577.26
588.487	59520.31
588.846	59746.3
589.206	59527.77
589.565	59611.84
589.925	59734.09
590.284	59596.02
590.643	59639.63
591.003	59704.49
591.362	59759.4
591.721	59686.41
592.08	59736.35
592.44	59800.08
592.799	59774.77
593.158	59744.04
593.517	59734.77
593.876	59773.19
594.235	59721.44
594.593	59786.75
594.952	59866.29
595.311	59779.97
595.67	59839.18
596.029	59980.87
596.387	60015.44
596.746	59974.76
597.104	59814.77
597.463	59868.1
597.822	59976.8
598.18	59861.55
598.538	59849.12
598.897	60022.22
599.255	59814.32
599.613	60167.3
599.972	60025.38
600.33	60085.72
600.688	59937.7
601.046	60038.27
601.404	60125.27
601.762	60117.59
602.12	60207.75
602.478	60229
602.836	60148.55
603.194	60045.72
603.552	60143.12
603.91	60087.3
604.268	60349.67
604.625	60225.83
604.983	60306.51
605.341	60144.48
605.698	60339.5
606.056	60368.88
606.413	60411.14
606.771	60440.29
607.128	60516.67
607.485	60351.48
607.843	60332.5
608.2	60444.81
608.557	60515.99
608.914	60453.85
609.272	60607.97
609.629	60589.66
609.986	60614.07
610.343	60606.61
610.7	60753.05
611.057	60711.47
611.414	60675.54
611.771	60772.94
612.127	60771.13
612.484	60812.03
612.841	60892.93
613.198	60867.17
613.554	60818.13
613.911	61030.78
614.267	60971.57
614.624	60944
614.98	60932.25
615.337	61078.69
615.693	61082.98
616.05	61072.82
616.406	61169.08
616.762	61043.66
617.118	61080.95
617.475	61077.79
617.831	61132.7
618.187	61190.33
618.543	61213.15
618.899	61353.26
619.255	61242.08
619.611	61145.13
619.967	61273.04
620.323	61310.1
620.678	61244.79
621.034	61210.89
621.39	61208.18
621.746	61170.44
622.101	61378.8
622.457	61225.81
622.812	61280.27
623.168	61321.4
623.523	61297.67
623.879	61372.47
624.234	61338.12
624.589	61305.13
624.945	61358.91
625.3	61401.39
625.655	61327.27
626.01	61367.5
626.365	61393.03
626.72	61321.85
627.075	61320.27
627.43	61314.39
627.785	61255.18
628.14	61345.12
628.495	61266.03
628.85	61269.65
629.205	61144.9
629.559	61331.11
629.914	61215.86
630.269	61185.35
630.623	61081.4
630.978	61052.02
631.332	61229.65
631.687	61186.71
632.041	61065.13
632.396	61090.22
632.75	61000.05
633.104	61055.64
633.459	60955.76
633.813	61005.47
634.167	60891.8
634.521	60854.52
634.875	60907.62
635.229	60917.34
635.583	60830.34
635.937	60770.45
636.291	60761.41
636.645	60830.56
636.999	60717.57
637.352	60768.19
637.706	60589.21
638.06	60720.96
638.413	60598.03
638.767	60572.72
639.121	60659.27
639.474	60496.11
639.828	60488.88
640.181	60529.78
640.534	60533.62
640.888	60459.95
641.241	60332.72
641.594	60368.65
641.947	60427.63
642.301	60295.43
642.654	60306.06
643.007	60299.73
643.36	60293.85
643.713	60223.35
644.066	60307.19
644.419	60012.28
644.771	59777.93
645.124	59391.5
645.477	59307.89
645.83	59277.83
646.182	59302.24
646.535	59455.46
646.888	59576.58
647.24	59493.87
647.593	59624.49
647.945	59624.49
648.298	59524.38
648.65	59415.46
649.002	59178.18
649.355	59228.8
649.707	59134.11
650.059	59079.87
650.411	59377.72
650.763	59367.1
651.115	59763.7
651.467	59683.47
651.819	59635.79
652.171	59532.52
652.523	59580.65
652.875	59507.66
653.227	59388.57
653.578	59553.08
653.93	59478.96
654.282	59388.11
654.633	59319.64
654.985	59388.79
655.337	59416.81
655.688	59398.73
656.039	59408.9
656.391	59144.5
656.742	59217.27
657.094	59310.6
657.445	59397.6
657.796	59254.78
658.147	59155.8
658.498	59136.82
658.849	59224.28
659.2	59157.16
659.551	59122.81
659.902	59188.34
660.253	59114.67
660.604	59159.42
660.955	58967.33
661.306	59042.59
661.656	59009.37
662.007	59043.49
662.358	58956.03
662.708	58947
663.059	58896.83
663.409	58808.92
663.76	58956.94
664.11	58980.89
664.461	59017.95
664.811	58989.03
665.161	58922.82
665.511	58811.63
665.862	58865.64
666.212	58875.81
666.562	58899.54
666.912	58828.35
667.262	58774.12
667.612	58704.29
667.962	58771.86
668.312	58697.74
668.662	58839.65
669.011	58818.64
669.361	58751.52
669.711	58720.56
670.06	58642.37
670.41	58571.64
670.76	58585.87
671.109	58690.28
671.459	58648.02
671.808	58584.29
672.157	58642.82
672.507	58459.1
672.856	58498.65
673.205	58502.26
673.554	58609.15
673.904	58497.52
674.253	58623.39
674.602	58484.63
674.951	58136.85
675.3	58013.91
675.649	58482.6
675.998	58390.4
676.346	58426.33
676.695	58462.94
677.044	58274.7
677.393	58356.73
677.741	58335.26
678.09	58269.72
678.438	58146.34
678.787	58267.01
679.135	58253
679.484	58059.79
679.832	58184.3
680.181	57887.81
680.529	58068.37
680.877	57967.81
681.225	57909.51
681.573	58104.53
681.922	57913.12
682.27	57810.75
682.618	57794.71
682.966	57676.52
683.314	57724.88
683.661	57593.58
684.009	57506.13
684.357	57465.9
684.705	57425.45
685.053	57469.75
685.4	57477.2
685.748	57298.45
686.095	57287.38
686.443	57119.92
686.79	57209.41
687.138	57248.51
687.485	57155.63
687.832	57013.71
688.18	57068.4
688.527	56934.62
688.874	56976.2
689.221	56858.24
689.568	56747.96
689.915	56663.67
690.262	56676.77
690.609	56607.17
690.956	56512.93
691.303	56413.5
691.65	56341.64
691.997	56418.47
692.344	56266.61
692.69	56172.38
693.037	56163.57
693.383	55942.1
693.73	56051.25
694.077	55930.58
694.423	55917.24
694.769	55745.05
695.116	55606.74
695.462	55617.59
695.808	55512.51
696.155	55597.25
696.501	55393.87
696.847	55432.29
697.193	55180.09
697.539	55234.1
697.885	55009.92
698.231	54931.28
698.577	54981.9
698.923	54843.6
699.269	54739.65
699.614	54665.3
699.96	54578.07
700.306	54440.45
700.651	54475.02
700.997	54249.04
701.342	54200.68
701.688	54162.04
702.033	54150.51
702.379	54111.42
702.724	53952.78
703.069	54038.42
703.415	53744.42
703.76	53710.75
704.105	53647.93
704.45	53650.41
704.795	53448.16
705.14	53402.28
705.485	53359.8
705.83	53251.33
706.175	53311.66
706.52	53209.97
706.865	53138.11
707.209	53023.08
707.554	52854.5
707.899	52908.96
708.243	52734.05
708.588	52758.91
708.932	52420.61
709.277	52396.21
709.621	52548.29
709.966	52259.71
710.31	52280.28
710.654	52064.24
710.998	52117.12
711.342	52066.72
711.687	51996.44
712.031	51872.15
712.375	51613.18
712.719	51673.97
713.063	51669.67
713.407	51691.14
713.75	51607.98
714.094	51650.01
714.438	51398.72
714.782	51443.46
715.125	51171.38
715.469	51271.94
715.812	51061.55
716.156	51019.07
716.499	51000.99
716.843	51022.23
717.186	50757.61
717.53	50886.87
717.873	50974.78
718.216	50774.33
718.559	50517.84
718.902	50409.37
719.246	50336.83
719.589	50244.63
719.932	50174.8
720.275	50170.73
720.617	50156.04
720.96	50013.44
721.303	49913.33
721.646	49922.6
721.989	49714.92
722.331	49900.68
722.674	49708.59
723.016	49646.9
723.359	49459.11
723.701	49631.31
724.044	49342.28
724.386	49230.87
724.729	49359.9
725.071	49310.64
725.413	49102.96
725.755	49082.17
726.097	48900.25
726.439	48737.77
726.782	48746.81
727.124	48994.26
727.465	48752.24
727.807	48614.61
728.149	48561.05
728.491	48516.31
728.833	48606.02
729.175	48356.09
729.516	48115.64
729.858	48166.04
730.199	48196.54
730.541	48072.25
730.882	47989.32
731.224	48186.83
731.565	47823.9
731.906	47799.49
732.248	47822.77
732.589	47674.75
732.93	47536.45
733.271	47388.88
733.612	47411.25
733.953	47572.15
734.294	47322.22
734.635	47140.53
734.976	47249.9
735.317	47117.25
735.658	47059.85
735.999	46970.14
736.339	46922.23
736.68	47025.5
737.021	46751.61
737.361	46546.87
737.702	46737.82
738.042	46653.76
738.383	46570.15
738.723	46586.19
739.063	46437.95
739.404	46379.87
739.744	46192.53
740.084	46145.3
740.424	46274.11
740.764	46163.83
741.104	46160.66
741.444	46063.94
741.784	45873.44
742.124	45940.56
742.464	45733.56
742.804	45746.89
743.143	45698.08
743.483	45665.31
743.823	45561.13
744.162	45487.24
744.502	45520.91
744.841	45176.51
745.181	45397.52
745.52	45188.71
745.86	45136.28
746.199	44980.36
746.538	44812.68
746.877	44986.91
747.216	44745.56
747.556	44660.37
747.895	44607.71
748.234	44353.48
748.573	44453.59
748.911	44471.67
749.25	44271.67
749.589	44056.31
749.928	44000.72
750.267	44225.8
750.605	43954.85
750.944	43967.28
751.283	43604.8
751.621	43883.89
751.96	43686.83
