Data from foil_FLMS001491_088.txt Node
Date: Tue Feb 07 11:36:56 GMT 2017
User: dcchb
Spectrometer: FLMS00149
Trigger mode: 0
Integration Time (sec): 2.000000E-2
Scans to average: 10
Electric dark correction enabled: true
Nonlinearity correction enabled: false
Boxcar width: 0
XAxis mode: Wavelengths
Number of Pixels in Spectrum: 2048
>>>>>Begin Spectral Data<<<<<
341.393	-18.62
341.776	-18.62
342.16	-18.62
342.543	-48.9
342.927	-68.56
343.31	-53.64
343.693	-58.39
344.077	-81.21
344.46	-70.14
344.843	-41.21
345.226	-36.24
345.61	-51.61
345.993	-19.75
346.376	-5.73
346.759	6.02
347.142	34.49
347.525	26.13
347.908	75.17
348.291	80.82
348.674	84.66
349.057	110.65
349.44	104.32
349.823	153.13
350.206	190.42
350.588	294.82
350.971	304.77
351.354	335.05
351.737	343.18
352.119	330.98
352.502	369.4
352.884	386.35
353.267	408.72
353.65	404.88
354.032	393.8
354.414	428.83
354.797	424.31
355.179	407.59
355.562	426.34
355.944	427.93
356.326	444.42
356.709	444.65
357.091	461.37
357.473	466.34
357.855	467.02
358.238	476.29
358.62	462.28
359.002	487.59
359.384	490.3
359.766	481.48
360.148	470.19
360.53	493.24
360.912	483.74
361.294	464.08
361.676	500.92
362.057	497.53
362.439	502.5
362.821	502.5
363.203	487.36
363.584	481.26
363.966	493.46
364.348	498.21
364.729	479
365.111	473.12
365.493	515.83
365.874	519.22
366.256	479.45
366.637	530.3
367.019	512.22
367.4	498.43
367.781	501.37
368.163	528.26
368.544	530.97
368.925	492.56
369.306	525.33
369.688	537.3
370.069	526.23
370.45	562.61
370.831	535.27
371.212	555.38
371.593	542.73
371.974	566
372.355	539.34
372.736	560.13
373.117	584.53
373.498	547.02
373.879	571.43
374.26	534.82
374.641	545.66
375.021	560.13
375.402	590.63
375.783	630.18
376.163	638.77
376.544	629.96
376.925	635.6
377.305	632.67
377.686	611.42
378.066	613.46
378.447	652.1
378.827	681.48
379.208	676.06
379.588	680.58
379.968	659.56
380.349	683.97
380.729	676.96
381.109	691.87
381.489	698.88
381.87	707.47
382.25	709.28
382.63	724.64
383.01	707.02
383.39	730.52
383.77	752.89
384.15	752.21
384.53	760.8
384.91	757.18
385.29	770.29
385.67	794.02
386.049	835.83
386.429	801.48
386.809	815.49
387.189	804.19
387.568	836.5
387.948	843.96
388.328	868.14
388.707	863.62
389.087	881.02
389.466	884.41
389.846	900
390.225	907.91
390.605	934.13
390.984	935.71
391.363	947.46
391.743	975.48
392.122	995.6
392.501	997.18
392.881	991.75
393.26	994.24
393.639	1027.91
394.018	999.66
394.397	1031.07
394.776	1054.12
395.155	1077.4
395.534	1085.31
395.913	1090.51
396.292	1082.6
396.671	1109.49
397.05	1124.18
397.429	1129.6
397.808	1153.56
398.186	1136.16
398.565	1147.91
398.944	1168.02
399.323	1191.07
399.701	1198.08
400.08	1215.7
400.458	1231.97
400.837	1238.53
401.215	1249.37
401.594	1245.31
401.972	1282.37
402.351	1274.91
402.729	1295.25
403.107	1320.33
403.486	1307.23
403.864	1345.64
404.242	1341.8
404.62	1357.17
404.999	1406.43
405.377	1413.66
405.755	1411.18
406.133	1440.78
406.511	1448.92
406.889	1472.87
407.267	1498.86
407.645	1524.39
408.023	1548.12
408.401	1546.99
408.779	1570.04
409.156	1616.6
409.534	1611.17
409.912	1614.34
410.29	1652.98
410.667	1700.66
411.045	1713.77
411.422	1731.17
411.8	1753.09
412.178	1770.72
412.555	1812.75
412.933	1852.52
413.31	1837.61
413.687	1874.89
414.065	1883.26
414.442	1907.89
414.819	1950.82
415.197	1968.68
415.574	2024.27
415.951	1984.27
416.328	1986.3
416.705	2046.42
417.082	2047.55
417.46	2078.96
417.837	2126.64
418.214	2137.49
418.591	2168.45
418.967	2171.38
419.344	2183.13
419.721	2233.3
420.098	2218.39
420.475	2248.22
420.852	2253.42
421.228	2288.89
421.605	2291.15
421.982	2356.92
422.358	2369.8
422.735	2402.11
423.111	2412.28
423.488	2457.48
423.864	2499.28
424.241	2502.67
424.617	2541.54
424.994	2525.27
425.37	2557.81
425.746	2591.26
426.123	2624.03
426.499	2649.56
426.875	2701.99
427.251	2724.14
427.627	2839.39
428.003	2804.81
428.379	2796.9
428.756	2836.22
429.132	2898.37
429.507	2923.91
429.883	2960.52
430.259	3017.46
430.635	3027.41
431.011	3063.34
431.387	3189.89
431.763	3198.25
432.138	3230.34
432.514	3272.82
432.89	3304.91
433.265	3323.22
433.641	3398.92
434.016	3418.81
434.392	3452.03
434.767	3552.59
435.143	3478.47
435.518	3612.48
435.894	3626.26
436.269	3684.79
436.644	3708.97
437.02	3765.01
437.395	3756.43
437.77	3792.58
438.145	3819.7
438.52	3885.46
438.895	3916.87
439.271	3909.42
439.646	4064.44
440.021	4042.52
440.395	4049.07
440.77	4035.06
441.145	4037.1
441.52	4155.29
441.895	4165
442.27	4211.56
442.645	4206.58
443.019	4287.94
443.394	4266.7
443.769	4288.84
444.143	4318.67
444.518	4395.28
444.892	4369.97
445.267	4433.92
445.641	4451.78
446.016	4457.88
446.39	4537.88
446.764	4530.42
447.139	4511.21
447.513	4641.6
447.887	4593.47
448.262	4617.87
448.636	4639.12
449.01	4717.76
449.384	4769.28
449.758	4773.8
450.132	4881.59
450.506	4875.95
450.88	4919.11
451.254	4907.13
451.628	5019.22
452.002	5055.83
452.376	5085.21
452.75	5160.91
453.123	5211.53
453.497	5247.91
453.871	5313
454.244	5414.91
454.618	5477.96
454.992	5575.14
455.365	5520
455.739	5654
456.112	5720.89
456.486	5802.47
456.859	5805.86
457.232	5913.66
457.606	5883.38
457.979	5958.4
458.352	6139.41
458.725	6167.21
459.099	6202.24
459.472	6317.49
459.845	6364.27
460.218	6491.5
460.591	6493.98
460.964	6511.38
461.337	6684.94
461.71	6784.14
462.083	6872.95
462.456	6908.43
462.829	6904.37
463.201	6990.69
463.574	7074.08
463.947	7178.94
464.32	7350.68
464.692	7400.17
465.065	7437.23
465.438	7577.57
465.81	7673.61
466.183	7797.68
466.555	7894.85
466.928	7895.07
467.3	7919.26
467.672	8073.15
468.045	8293.26
468.417	8203.77
468.789	8299.81
469.161	8465.68
469.534	8575.28
469.906	8817.54
470.278	8842.39
470.65	8904.99
471.022	9112.67
471.394	9236.28
471.766	9398.54
472.138	9373.23
472.51	9649.38
472.882	9798.98
473.253	9914.23
473.625	10071.29
473.997	10236.71
474.369	10285.75
474.74	10412.07
475.112	10641.22
475.484	10781.33
475.855	10898.16
476.227	11001.89
476.598	11410.24
476.97	11423.8
477.341	11708.08
477.713	11926.16
478.084	11896.55
478.455	12260.84
478.827	12348.07
479.198	12741.5
479.569	12744.89
479.94	13059.68
480.311	13268.72
480.682	13433.01
481.053	13790.51
481.424	14036.83
481.795	14112.54
482.166	14372.87
482.537	14534.45
482.908	14833.2
483.279	14878.39
483.65	15275.9
484.021	15640.63
484.391	15662.1
484.762	15808.77
485.133	16104.58
485.503	16227.74
485.874	16604.68
486.244	16758.57
486.615	17034.72
486.985	17259.12
487.356	17531.66
487.726	17747.02
488.097	18155.82
488.467	18074.47
488.837	18507.45
489.207	18738.18
489.578	18960.77
489.948	19097.72
490.318	19383.36
490.688	19483.47
491.058	19737.7
491.428	20012.04
491.798	20246.61
492.168	20516.44
492.538	20711.91
492.908	20906.71
493.278	21066.48
493.648	21217.44
494.017	21382.18
494.387	21584.66
494.757	21845.22
495.126	22109.39
495.496	22071.65
495.866	22292.44
496.235	22558.19
496.605	22797.28
496.974	22873.44
497.344	23058.74
497.713	23159.31
498.082	23349.13
498.452	23652.17
498.821	23611.05
499.19	23771.72
499.559	24148.66
499.928	24185.95
500.298	24399.95
500.667	24615.77
501.036	24547.07
501.405	24948.64
501.774	24802.43
502.143	25157.45
502.512	25243.09
502.88	25430.88
503.249	25581.84
503.618	25742.52
503.987	26048.04
504.356	26036.07
504.724	26320.58
505.093	26410.52
505.462	26427.69
505.83	26807.57
506.199	26930.73
506.567	27114.91
506.936	27235.36
507.304	27536.59
507.672	27629.92
508.041	27772.52
508.409	28060.42
508.777	28346.74
509.145	28462.67
509.514	28646.62
509.882	28803.45
510.25	28848.87
510.618	29151.24
510.986	29247.06
511.354	29509.42
511.722	29829.41
512.09	29988.28
512.458	29902.63
512.826	30330.64
513.193	30394.82
513.561	30568.15
513.929	30860.57
514.297	31249.94
514.664	31432.76
515.032	31637.05
515.4	31685.41
515.767	31844.95
516.135	32148.22
516.502	32021.45
516.869	32640.19
517.237	32839.5
517.604	32877.02
517.972	33202.21
518.339	33342.32
518.706	33483.78
519.073	33745.02
519.44	33960.15
519.808	34357.88
520.175	34287.6
520.542	34672.68
520.909	34977.75
521.276	35034.02
521.643	35601.69
522.009	35861.12
522.376	35994.68
522.743	36109.93
523.11	36607.09
523.477	36889.34
523.843	37154.87
524.21	37416.11
524.577	37838.02
524.943	38010.22
525.31	38087.05
525.676	38543.76
526.043	38652.91
526.409	38830.98
526.776	39304.19
527.142	39415.6
527.508	39689.49
527.874	40103.49
528.241	40304.39
528.607	40524.05
528.973	40953.41
529.339	41010.81
529.705	41347.53
530.071	41735.32
530.437	41834.75
530.803	42085.14
531.169	42213.49
531.535	42273.15
531.901	42487.61
532.267	42649.42
532.632	42992.91
532.998	43050.53
533.364	43532.33
533.73	43523.29
534.095	44011.19
534.461	43969.61
534.826	44234.68
535.192	44200.79
535.557	44642.36
535.923	44711.06
536.288	44885.97
536.653	45023.36
537.019	45052.29
537.384	45394.65
537.749	45538.38
538.114	45848.43
538.479	45825.38
538.845	46066.27
539.21	45987.18
539.575	46301.75
539.94	46518.92
540.305	46751.68
540.67	46846.14
541.034	46951.45
541.399	47128.62
541.764	47161.16
542.129	47414.26
542.494	47451.32
542.858	47622.84
543.223	47652.9
543.587	47967.92
543.952	48067.58
544.316	48164.3
544.681	48210.85
545.045	48463.5
545.41	48828.46
545.774	48905.75
546.138	48917.05
546.503	49097.16
546.867	49070.94
547.231	49518.84
547.595	49311.84
547.959	49529.01
548.324	49632.96
548.688	49842.22
549.052	49938.26
549.416	50001.54
549.779	50152.95
550.143	50254.19
550.507	50601.3
550.871	50716.32
551.235	50723.33
551.599	51084
551.962	51043.32
552.326	51121.73
552.689	51449.41
553.053	51361.5
553.417	51538.9
553.78	51900.02
554.143	51782.51
554.507	51928.04
554.87	52069.05
555.234	52437.86
555.597	52251.42
555.96	52502.94
556.323	52651.64
556.686	52785.42
557.05	53069.25
557.413	53054.79
557.776	53195.35
558.139	53407.1
558.502	53466.31
558.865	53587.66
559.228	53814.77
559.59	53849.12
559.953	54082.56
560.316	54404.36
560.679	54300.86
561.041	54539.72
561.404	54709.66
561.767	54908.53
562.129	54787.63
562.492	55148.52
562.854	55130.44
563.217	55223.55
563.579	55396.88
563.941	55507.38
564.304	55671.9
564.666	55822.18
565.028	55868.05
565.39	55990.53
565.753	56210.19
566.115	56208.61
566.477	56374.03
566.839	56452.44
567.201	56689.27
567.563	56757.97
567.925	56914.8
568.287	56901.92
568.648	56944.41
569.01	57155.93
569.372	57274.34
569.734	57222.37
570.095	57428.91
570.457	57547.55
570.819	57622.13
571.18	57723.6
571.542	57841.56
571.903	57868
572.265	57985.06
572.626	58055.11
572.987	58117.94
573.349	58187.99
573.71	58271.83
574.071	58336.01
574.432	58439.51
574.794	58664.81
575.155	58610.35
575.516	58518.6
575.877	58702.78
576.238	58773.96
576.599	58850.8
576.96	58855.77
577.32	58892.15
577.681	58959.04
578.042	59116.78
578.403	59056.89
578.763	59022.09
579.124	59157
579.485	59267.51
579.845	59262.76
580.206	59254.4
580.566	59299.15
580.927	59317.9
581.287	59398.35
581.648	59315.87
582.008	59496.66
582.368	59457.79
582.728	59455.98
583.089	59451.69
583.449	59434.06
583.809	59496.88
584.169	59585.92
584.529	59470.67
584.889	59667.05
585.249	59462.31
585.609	59475.87
585.969	59602.87
586.329	59550.44
586.688	59600.61
587.048	59584.56
587.408	59587.73
587.768	59564.9
588.127	59652.13
588.487	59550.21
588.846	59717.89
589.206	59543.21
589.565	59554.73
589.925	59742.53
590.284	59678.8
590.643	59672.7
591.003	59738.01
591.362	59726.71
591.721	59667.05
592.08	59686.71
592.44	59808.29
592.799	59759.7
593.158	59703.66
593.517	59753.37
593.876	59826.36
594.235	59735.52
594.593	59748.63
594.952	59829.75
595.311	59725.8
595.67	59800.6
596.029	59970.77
596.387	59926.7
596.746	59948.62
597.104	59862.07
597.463	59855.74
597.822	59943.2
598.18	59882.86
598.538	59835.4
598.897	60053.7
599.255	59896.87
599.613	60125.79
599.972	59987.94
600.33	60048.51
600.688	59932.58
601.046	60050.31
601.404	60110.43
601.762	60080.14
602.12	60207.6
602.478	60207.15
602.836	60156.07
603.194	60029.07
603.552	60118.79
603.91	60029.75
604.268	60257.77
604.625	60186.81
604.983	60278.56
605.341	60230.87
605.698	60331.21
606.056	60385.45
606.413	60402.62
606.771	60510.87
607.128	60437.87
607.485	60336.86
607.843	60339.12
608.2	60465.22
608.557	60485.1
608.914	60417.54
609.272	60564.42
609.629	60590.86
609.986	60639.9
610.343	60569.4
610.7	60793.12
611.057	60716.28
611.414	60662.73
611.771	60730.97
612.127	60776.4
612.484	60816.85
612.841	60868.37
613.198	60833.57
613.554	60787.02
613.911	60976.39
614.267	60921.48
614.624	60898.2
614.98	60970.29
615.337	61136.84
615.693	61010.97
616.05	60995.83
616.406	61202.15
616.762	61071.3
617.118	61078.08
617.475	61150.62
617.831	61188.59
618.187	61209.83
618.543	61183.84
618.899	61373.44
619.255	61197.85
619.611	61187.01
619.967	61302.03
620.323	61319.66
620.678	61201.7
621.034	61166.22
621.39	61191.75
621.746	61161.92
622.101	61381.8
622.457	61198.08
622.812	61283.73
623.168	61346.55
623.523	61344.29
623.879	61409.83
624.234	61274.24
624.589	61328.92
624.945	61332.77
625.3	61345.87
625.655	61321.69
626.01	61365.99
626.365	61362.82
626.72	61365.31
627.075	61332.99
627.43	61288.02
627.785	61276.27
628.14	61316.72
628.495	61300.9
628.85	61292.77
629.205	61229.72
629.559	61286.67
629.914	61182.71
630.269	61225.65
630.623	61063.62
630.978	61044.86
631.332	61185.2
631.687	61180.45
632.041	61075.6
632.396	61046.22
632.75	61081.7
633.104	61079.89
633.459	60892.55
633.813	60981.36
634.167	60958.31
634.521	60948.82
634.875	60949.05
635.229	60946.56
635.583	60814.36
635.937	60765.1
636.291	60741.82
636.645	60826.79
636.999	60693.91
637.352	60796.51
637.706	60537.98
638.06	60635.38
638.413	60577.31
638.767	60595.61
639.121	60599.45
639.474	60536.18
639.828	60491.21
640.181	60512.22
640.534	60482.39
640.888	60456.63
641.241	60326.24
641.594	60374.15
641.947	60405.78
642.301	60277.65
642.654	60279.91
643.007	60271.55
643.36	60279.46
643.713	60272.91
644.066	60307.71
644.419	60040.37
644.771	59691.45
645.124	59379.37
645.477	59294.85
645.83	59232.26
646.182	59364.91
646.535	59373.72
646.888	59551.8
647.24	59463.44
647.593	59575.52
647.945	59597.22
648.298	59450.33
648.65	59382.76
649.002	59281.52
649.355	59240.39
649.707	59040.17
650.059	59016.22
650.411	59355.19
650.763	59484.68
651.115	59769.42
651.467	59738.01
651.819	59698.01
652.171	59576.43
652.523	59521.97
652.875	59475.64
653.227	59435.19
653.578	59610.33
653.93	59471.57
654.282	59407.17
654.633	59385.25
654.985	59418.69
655.337	59387.28
655.688	59375.98
656.039	59350.45
656.391	59140.51
656.742	59206.95
657.094	59257.11
657.445	59387.05
657.796	59227.96
658.147	59221.18
658.498	59107.06
658.849	59238.58
659.2	59164.24
659.551	59051.24
659.902	59170.56
660.253	59132.6
660.604	59187.74
660.955	59040.17
661.306	59082.2
661.656	59030.45
662.007	59024.58
662.358	59000.17
662.708	58984.35
663.059	58856.9
663.409	58789.78
663.76	58986.61
664.11	58946.84
664.461	58969.89
664.811	59022.54
665.161	58873.4
665.511	58788.88
665.862	58825.04
666.212	58883.79
666.562	58913.62
666.912	58846.5
667.262	58814.64
667.612	58774.87
667.962	58804.92
668.312	58703.68
668.662	58815.09
669.011	58782.1
669.361	58714.08
669.711	58727.41
670.06	58645.6
670.41	58629.11
670.76	58520.18
671.109	58735.55
671.459	58653.06
671.808	58577.13
672.157	58577.36
672.507	58428.66
672.856	58477.93
673.205	58501.88
673.554	58610.13
673.904	58499.85
674.253	58588.43
674.602	58495.1
674.951	58177.14
675.3	57976.92
675.649	58501.2
675.998	58357.7
676.346	58405.84
676.695	58430.02
677.044	58278.83
677.393	58282
677.741	58341.66
678.09	58239.06
678.438	58149.8
678.787	58236.8
679.135	58333.97
679.484	57962.46
679.832	58143.25
680.181	57948.22
680.529	58023.25
680.877	57929.01
681.225	57920.2
681.573	58019.63
681.922	57874.55
682.27	57840.2
682.618	57760.88
682.966	57671.39
683.314	57706.42
683.661	57630.04
684.009	57526.31
684.357	57465.52
684.705	57402.7
685.053	57469.82
685.4	57411.74
685.748	57336.94
686.095	57271.63
686.443	57169.71
686.79	57125.42
687.138	57211.97
687.485	57162.93
687.832	57042.48
688.18	57068.25
688.527	56940.11
688.874	56971.75
689.221	56927.91
689.568	56694.02
689.915	56696.5
690.262	56656.5
690.609	56606.34
690.956	56433.46
691.303	56449.5
691.65	56374.7
691.997	56414.03
692.344	56222.39
692.69	56089.97
693.037	56187.14
693.383	55968.61
693.73	56063.53
694.077	55820.37
694.423	55859.92
694.769	55746.47
695.116	55612.69
695.462	55589.87
695.808	55591.45
696.155	55619.02
696.501	55347.61
696.847	55418.57
697.193	55167.28
697.539	55245.24
697.885	55011.8
698.231	54959.6
698.577	54902.2
698.923	54920.28
699.269	54760.06
699.614	54645.03
699.96	54493.85
700.306	54543.34
700.651	54429.9
700.997	54282.78
701.342	54247.08
701.688	54146.74
702.033	54200.52
702.379	54051.38
702.724	54056.8
703.069	54098.83
703.415	53667.88
703.76	53765.96
704.105	53672.4
704.45	53552.86
704.795	53420.88
705.14	53378.85
705.485	53346.08
705.83	53316.48
706.175	53316.71
706.52	53179.99
706.865	53025.41
707.209	52990.84
707.554	52854.57
707.899	52925.98
708.243	52697.51
708.588	52824.06
708.932	52463.17
709.277	52449.16
709.621	52535.71
709.966	52265.89
710.31	52281.7
710.654	52053.91
710.998	52135.49
711.342	52060.92
711.687	51993.12
712.031	51802.85
712.375	51806.46
712.719	51750.42
713.063	51661.83
713.407	51746.13
713.75	51576.41
714.094	51553.36
714.438	51410.31
714.782	51359.69
715.125	51188.85
715.469	51298.23
715.812	51098.01
716.156	50934.17
716.499	50853.04
716.843	51018.69
717.186	50720.16
717.53	50865.02
717.873	50808.97
718.216	50680.84
718.559	50553.16
718.902	50179.84
719.246	50367.86
719.589	50274.53
719.932	50171.03
720.275	50197.24
720.617	50116.34
720.96	50019.84
721.303	50006.06
721.646	49950.47
721.989	49754.77
722.331	49777.14
722.674	49711.6
723.016	49686.52
723.359	49512.51
723.701	49563.36
724.044	49476.35
724.386	49165.18
724.729	49352.74
725.071	49363.14
725.413	49076.82
725.755	49075.01
726.097	48854.45
726.439	48749.14
726.782	48898.52
727.124	49024.61
727.465	48835.69
727.807	48668.01
728.149	48556.6
728.491	48480
728.833	48576.49
729.175	48338.76
729.516	48296.05
729.858	48271.64
730.199	48160.91
730.541	48076.62
730.882	48032.1
731.224	48259.66
731.565	47802.73
731.906	47845.44
732.248	47853.35
732.589	47580.13
732.93	47482.96
733.271	47449.97
733.612	47326.58
733.953	47596.63
734.294	47223.98
734.635	47261.95
734.976	47272.8
735.317	47059.69
735.658	47099.24
735.999	47079.13
736.339	46808.63
736.68	47098.56
737.021	46669.2
737.361	46670.33
737.702	46769.76
738.042	46570.44
738.383	46545.81
738.723	46576.77
739.063	46374.97
739.404	46341.07
739.744	46264.24
740.084	46017.69
740.424	46136.33
740.764	46087.74
741.104	46101.53
741.444	45792.16
741.784	45896.34
742.124	45895.43
742.464	45843.68
742.804	45697.24
743.143	45560.53
743.483	45713.06
743.823	45546.74
744.162	45510.58
744.502	45549.23
744.841	45317.37
745.181	45318.95
745.52	45171.16
745.86	45122.34
746.199	44863.59
746.538	44833.99
746.877	44970.26
747.216	44876.48
747.556	44602.58
747.895	44631.28
748.234	44347.22
748.573	44338.18
748.911	44308.81
749.25	44246.44
749.589	44019.77
749.928	44087.57
750.267	44161.92
750.605	44054.12
750.944	43877.41
751.283	43846.67
751.621	43841.02
751.96	43674.25
752.298	43629.95
