Data from foil_FLMS001491_063.txt Node
Date: Tue Feb 07 11:36:26 GMT 2017
User: dcchb
Spectrometer: FLMS00149
Trigger mode: 0
Integration Time (sec): 2.000000E-2
Scans to average: 10
Electric dark correction enabled: true
Nonlinearity correction enabled: false
Boxcar width: 0
XAxis mode: Wavelengths
Number of Pixels in Spectrum: 2048
>>>>>Begin Spectral Data<<<<<
341.393	-15.2
341.776	-15.2
342.16	-15.2
342.543	-58.81
342.927	-77.12
343.31	-63.11
343.693	-59.72
344.077	-46.16
344.46	-52.71
344.843	-67.85
345.226	-40.96
345.61	-27.4
345.993	-17.01
346.376	-0.28
346.759	5.82
347.142	21.19
347.525	46.72
347.908	42.88
348.291	78.13
348.674	83.11
349.057	97.34
349.44	111.8
349.823	162.43
350.206	198.81
350.588	281.52
350.971	275.19
351.354	305.47
351.737	311.57
352.119	309.31
352.502	336.66
352.884	367.62
353.267	381.18
353.65	400.38
354.032	364.91
354.414	387.28
354.797	397.45
355.179	407.16
355.562	410.33
355.944	421.85
356.326	415.53
356.709	443.1
357.091	407.16
357.473	424.34
357.855	426.15
358.238	470.89
358.62	437.9
359.002	438.8
359.384	456.43
359.766	455.3
360.148	432.02
360.53	431.57
360.912	421.85
361.294	453.94
361.676	449.88
362.057	465.69
362.439	467.05
362.821	453.72
363.203	439.71
363.584	468.18
363.966	444.9
364.348	455.75
364.729	434.73
365.111	433.83
365.493	483.55
365.874	452.81
366.256	460.04
366.637	452.59
367.019	465.24
367.4	464.79
367.781	463.43
368.163	481.74
368.544	461.63
368.925	472.93
369.306	492.81
369.688	498.91
370.069	484.9
370.45	491.91
370.831	474.73
371.212	465.92
371.593	477.67
371.974	487.61
372.355	502.98
372.736	530.55
373.117	507.27
373.498	489.42
373.879	520.61
374.26	476.99
374.641	493.26
375.021	502.08
375.402	504.79
375.783	559.02
376.163	562.87
376.544	590.21
376.925	527.61
377.305	561.96
377.686	555.41
378.066	562.19
378.447	584.33
378.827	571
379.208	558.57
379.588	590.44
379.968	587.5
380.349	579.36
380.729	580.49
381.109	615.75
381.489	598.8
381.87	610.77
382.25	622.53
382.63	616.2
383.01	639.02
383.39	625.24
383.77	623.66
384.15	625.46
384.53	657.55
384.91	650.55
385.29	661.62
385.67	681.73
386.049	691.22
386.429	682.41
386.809	713.6
387.189	700.49
387.568	686.71
387.948	698.23
388.328	737.55
388.707	730.55
389.087	751.79
389.466	772.35
389.846	792.47
390.225	755.4
390.605	779.36
390.984	784.56
391.363	789.53
391.743	812.8
392.122	821.62
392.501	833.59
392.881	842.41
393.26	843.31
393.639	879.24
394.018	874.95
394.397	875.17
394.776	867.04
395.155	904.33
395.534	893.03
395.913	888.96
396.292	933.03
396.671	949.3
397.05	923.99
397.429	950.88
397.808	972.35
398.186	961.95
398.565	960.6
398.944	960.82
399.323	981.16
399.701	1003.31
400.08	1007.15
400.458	1031.55
400.837	1026.36
401.215	1032.68
401.594	1057.32
401.972	1031.1
402.351	1060.48
402.729	1088.28
403.107	1087.15
403.486	1109.74
403.864	1125.79
404.242	1138.9
404.62	1128.05
404.999	1174.15
405.377	1170.08
405.755	1193.58
406.133	1200.14
406.511	1206.01
406.889	1221.61
407.267	1233.36
407.645	1281.27
408.023	1299.34
408.401	1302.06
408.779	1297.08
409.156	1328.5
409.534	1321.49
409.912	1359.23
410.29	1439.91
410.667	1386.12
411.045	1407.36
411.422	1430.19
411.8	1457.76
412.178	1455.05
412.555	1505.44
412.933	1531.65
413.31	1529.62
413.687	1554.48
414.065	1546.8
414.442	1562.39
414.819	1603.52
415.197	1619.11
415.574	1667.24
415.951	1662.72
416.328	1643.06
416.705	1693.23
417.082	1723.97
417.46	1757.64
417.837	1730.75
418.214	1778.43
418.591	1824.08
418.967	1794.02
419.344	1831.76
419.721	1845.32
420.098	1827.24
420.475	1870.18
420.852	1881.02
421.228	1910.4
421.605	1928.71
421.982	1958.31
422.358	1963.28
422.735	2012.09
423.111	1986.78
423.488	2043.05
423.864	2048.48
424.241	2077.85
424.617	2123.96
424.994	2122.37
425.37	2139.1
425.746	2173.45
426.123	2192.2
426.499	2198.3
426.875	2241.92
427.251	2235.14
427.627	2337.74
428.003	2331.41
428.379	2356.94
428.756	2362.14
429.132	2441.24
429.507	2462.48
429.883	2524.17
430.259	2535.24
430.635	2538.41
431.011	2597.39
431.387	2655.01
431.763	2670.61
432.138	2708.57
432.514	2740.66
432.89	2758.97
433.265	2828.34
433.641	2783.15
434.016	2894.33
434.392	2944.5
434.767	2975.01
435.143	2944.05
435.518	3002.12
435.894	3036.25
436.269	3072.63
436.644	3110.37
437.02	3116.02
437.395	3136.36
437.77	3241.44
438.145	3236.47
438.52	3267.43
438.895	3326.18
439.271	3345.62
439.646	3427.42
440.021	3413.64
440.395	3444.6
440.77	3437.14
441.145	3479.17
441.52	3567.53
441.895	3530.02
442.27	3562.79
442.645	3555.33
443.019	3655.89
443.394	3633.07
443.769	3689.34
444.143	3624.71
444.518	3774.31
444.892	3744.93
445.267	3764.36
445.641	3800.3
446.016	3809.79
446.39	3880.97
446.764	3861.31
447.139	3860.18
447.513	3939.27
447.887	3951.7
448.262	3929.78
448.636	3992.83
449.01	4066.28
449.384	4126.16
449.758	4135.2
450.132	4176.1
450.506	4191.25
450.88	4181.75
451.254	4225.82
451.628	4257.91
452.002	4349.66
452.376	4399.15
452.75	4436.44
453.123	4478.7
453.497	4508.07
453.871	4552.14
454.244	4642.08
454.618	4682.98
454.992	4733.6
455.365	4819.7
455.739	4877.78
456.112	4921.62
456.486	4924.79
456.859	4983.32
457.232	5087.27
457.606	5094.5
457.979	5185.57
458.352	5286.81
458.725	5320.71
459.099	5379.92
459.472	5494.71
459.845	5527.03
460.218	5551.44
460.591	5653.13
460.964	5668.72
461.337	5820.36
461.71	5854.03
462.083	5979.67
462.456	5989.39
462.829	5968.37
463.201	6152.1
463.574	6160.91
463.947	6211.53
464.32	6385.54
464.692	6416.5
465.065	6463.5
465.438	6548.92
465.81	6640.22
466.183	6742.37
466.555	6881.57
466.928	6952.08
467.3	6894
467.672	7024.62
468.045	7185.74
468.417	7262.13
468.789	7291.5
469.161	7395.46
469.534	7501.89
469.906	7705.96
470.278	7768.1
470.65	7827.31
471.022	7966.97
471.394	8113.63
471.766	8250.57
472.138	8276.56
472.51	8486.05
472.882	8588.19
473.253	8712.48
473.625	8820.5
473.997	9035.86
474.369	9091
474.74	9194.96
475.112	9340.04
475.484	9509.3
475.855	9664.32
476.227	9712.91
476.598	10078.32
476.97	10089.17
477.341	10320.35
477.713	10440.35
478.084	10561.7
478.455	10841.24
478.827	10860.9
479.198	11257.5
479.569	11281.45
479.94	11602.35
480.311	11747.66
480.682	11932.96
481.053	12191.04
481.424	12412.27
481.795	12439.62
482.166	12663.11
482.537	12895.42
482.908	13162.54
483.279	13232.82
483.65	13529.53
484.021	13782.18
484.391	13885.91
484.762	13995.28
485.133	14184.2
485.503	14420.58
485.874	14705.32
486.244	14839.78
486.615	15113.22
486.985	15341.01
487.356	15596.82
487.726	15705.97
488.097	16105.73
488.467	16072.29
488.837	16442.45
489.207	16538.27
489.578	16895.77
489.948	17018.93
490.318	17274.97
490.688	17228.19
491.058	17645.13
491.428	17770.32
491.798	18007.83
492.168	18433.58
492.538	18399.69
492.908	18598.32
493.278	18984.76
493.648	18902.72
494.017	19236.73
494.387	19346.78
494.757	19468.36
495.126	19698.86
495.496	19813.89
495.866	19945.63
496.235	20206.19
496.605	20312.86
496.974	20421.1
497.344	20659.06
497.713	20728.21
498.082	20903.8
498.452	21141.31
498.821	21227.86
499.19	21371.58
499.559	21576.55
499.928	21737
500.298	21871.46
500.667	22021.96
501.036	22019.25
501.405	22328.85
501.774	22343.08
502.143	22594.6
502.512	22739.46
502.88	22787.59
503.249	22885.67
503.618	23128.37
503.987	23260.12
504.356	23423.96
504.724	23560.23
505.093	23672.77
505.462	23919.99
505.83	23837.73
506.199	24219.65
506.567	24415.35
506.936	24393.88
507.304	24719.07
507.672	24893.07
508.041	24960.64
508.409	25098.72
508.777	25258.94
509.145	25558.14
509.514	25548.42
509.882	25766.05
510.25	25819.6
510.618	26093.27
510.986	26242.42
511.354	26405.8
511.722	26651.45
512.09	26928.5
512.458	26910.65
512.826	27143.64
513.193	27420.92
513.561	27394.03
513.929	27718.76
514.297	27986.33
514.664	28119.66
515.032	28294.79
515.4	28425.18
515.767	28519.19
516.135	28769.58
516.502	28642.13
516.869	29310.36
517.237	29388.32
517.604	29344.48
517.972	29685.26
518.339	29881.64
518.706	29979.27
519.073	30157.57
519.44	30387.62
519.808	30837.32
520.175	30808.85
520.542	31225.11
520.909	31358.89
521.276	31328.39
521.643	31836.39
522.009	32098.53
522.376	32127.23
522.743	32335.82
523.11	32663.04
523.477	33032.07
523.843	33186.64
524.21	33592.73
524.577	33698.72
524.943	34004.02
525.31	34073.4
525.676	34386.16
526.043	34691.01
526.409	34861.85
526.776	35162.86
527.142	35207.38
527.508	35550.65
527.874	35732.79
528.241	36023.63
528.607	36039.45
528.973	36422.71
529.339	36566.67
529.705	36758.75
530.071	37221.56
530.437	37222.02
530.803	37574.32
531.169	37635.79
531.535	37721.21
531.901	37916.23
532.267	38057.93
532.632	38379.73
532.998	38506.05
533.364	38746.5
533.73	38740.85
534.095	39094.28
534.461	39122.53
534.826	39422.64
535.192	39584.44
535.557	39924.09
535.923	39971.55
536.288	40115.72
536.653	40299.9
537.019	40286.79
537.384	40519.1
537.749	40597.75
538.114	40796.61
538.479	40824.41
538.845	41004.97
539.21	40996.38
539.575	41256.26
539.94	41341.23
540.305	41646.98
540.67	41506.42
541.034	41809.24
541.399	41958.61
541.764	42015.34
542.129	42242.9
542.494	42338.94
542.858	42552.95
543.223	42627.52
543.587	42919.94
543.952	42886.5
544.316	42913.62
544.681	43070
545.045	43389.54
545.41	43487.16
545.774	43544.34
546.138	43600.38
546.503	43675.18
546.867	43825.91
547.231	44102.96
547.595	44278.55
547.959	44433.8
548.324	44274.49
548.688	44475.61
549.052	44746.79
549.416	44933.45
549.779	44922.83
550.143	45144.97
550.507	45537.28
550.871	45531.4
551.235	45480.56
551.599	45864.05
551.962	45890.04
552.326	46045.51
552.689	46323.47
553.053	46256.58
553.417	46413.41
553.78	46847.53
554.143	46696.57
554.507	46815.66
554.87	47024.47
555.234	47402.31
555.597	47239.15
555.96	47368.87
556.323	47738.8
556.686	47834.84
557.05	48088.17
557.413	48128.62
557.776	48243.65
558.139	48471.21
558.502	48548.5
558.865	48660.81
559.228	48930.18
559.59	49003.17
559.953	49274.13
560.316	49619.2
560.679	49532.2
561.041	49884.51
561.404	49889.48
561.767	50164.05
562.129	50107.55
562.492	50485.17
562.854	50513.87
563.217	50607.88
563.579	50707.08
563.941	50974.65
564.304	51141.65
564.666	51232.72
565.028	51309.33
565.39	51504.13
565.753	51727.4
566.115	51910.89
566.477	51988.41
566.839	52189.53
567.201	52219.59
567.563	52316.99
567.925	52635.17
568.287	52540.93
568.648	52625.45
569.01	52845.11
569.372	52998.55
569.734	52907.7
570.095	53227.47
570.457	53306.34
570.819	53356.96
571.18	53315.83
571.542	53554.02
571.903	53589.95
572.265	53767.34
572.626	53806.66
572.987	53934.34
573.349	53970.28
573.71	54160.78
574.071	54121.23
574.432	54238.07
574.794	54402.58
575.155	54394.67
575.516	54338.18
575.877	54456.59
576.238	54631.05
576.599	54644.83
576.96	54670.14
577.32	54690.48
577.681	54828.33
578.042	54964.6
578.403	54921.21
578.763	54944.71
579.124	55021.77
579.485	55186.06
579.845	55182.67
580.206	55130.47
580.566	55205.05
580.927	55262.9
581.287	55288.21
581.648	55251.82
582.008	55339.05
582.368	55296.57
582.728	55402.55
583.089	55279.62
583.449	55276.68
583.809	55303.35
584.169	55407.53
584.529	55421.76
584.889	55586.28
585.249	55404.59
585.609	55292.73
585.969	55591.25
586.329	55424.93
586.688	55440.29
587.048	55414.98
587.408	55444.14
587.768	55370.24
588.127	55395.55
588.487	55386.74
588.846	55602.55
589.206	55413.4
589.565	55452.5
589.925	55561.87
590.284	55487.75
590.643	55551.03
591.003	55634.19
591.362	55702.66
591.721	55630.12
592.08	55645.71
592.44	55750.57
592.799	55680.97
593.158	55689.78
593.517	55653.17
593.876	55607.75
594.235	55601.87
594.593	55598.03
594.952	55659.27
595.311	55556
595.67	55687.29
596.029	55791.24
596.387	55825.59
596.746	55831.02
597.104	55658.59
597.463	55709.21
597.822	55868.98
598.18	55728.2
598.538	55674.19
598.897	55899.26
599.255	55692.94
599.613	55990.56
599.972	55946.04
600.33	56013.16
600.688	55875.54
601.046	55998.02
601.404	56012.48
601.762	55988.3
602.12	56109.65
602.478	56042.09
602.836	56069.2
603.194	55869.21
603.552	55978.13
603.91	55944.46
604.268	56097.9
604.625	56013.16
604.983	56197.34
605.341	55949.21
605.698	56235.53
606.056	56284.34
606.413	56144.46
606.771	56270.78
607.128	56299.71
607.485	56235.08
607.843	56234.85
608.2	56336.09
608.557	56530.43
608.914	56380.61
609.272	56561.17
609.629	56597.78
609.986	56632.35
610.343	56486.59
610.7	56707.38
611.057	56651.79
611.414	56662.41
611.771	56746.25
612.127	56729.53
612.484	56716.19
612.841	56773.59
613.198	56740.82
613.554	56713.25
613.911	56869.86
614.267	56819.01
614.624	56880.93
614.98	56911.22
615.337	57034.83
615.693	56918.22
616.05	56913.25
616.406	57096.75
616.762	56980.59
617.118	57041.38
617.475	56967.26
617.831	57094.26
618.187	57095.62
618.543	57094.94
618.899	57305.78
619.255	57143.98
619.611	57134.03
619.967	57206.35
620.323	57264.65
620.678	57109.4
621.034	57115.05
621.39	57204.77
621.746	57087.03
622.101	57336.06
622.457	57123.64
622.812	57187.14
623.168	57266.69
623.523	57180.81
623.879	57300.13
624.234	57132.68
624.589	57165.22
624.945	57210.19
625.3	57290.64
625.655	57206.57
626.01	57311.66
626.365	57245.9
626.72	57250.64
627.075	57210.87
627.43	57127.93
627.785	57128.61
628.14	57242.51
628.495	57197.08
628.85	57156.18
629.205	57088.16
629.559	57213.35
629.914	57079.35
630.269	57026.69
630.623	56957.54
630.978	56872.12
631.332	56989.63
631.687	56978.56
632.041	56902.4
632.396	56896.98
632.75	56782.86
633.104	56868.5
633.459	56766.81
633.813	56771.33
634.167	56743.54
634.521	56748.28
634.875	56739.47
635.229	56746.25
635.583	56559.13
635.937	56555.07
636.291	56568.63
636.645	56576.76
636.999	56555.29
637.352	56526.59
637.706	56340.38
638.06	56480.49
638.413	56371.12
638.767	56340.61
639.121	56401.85
639.474	56256.09
639.828	56179.94
640.181	56230.1
640.534	56162.31
640.888	56170.9
641.241	56058.36
641.594	56143.55
641.947	56117.79
642.301	56073.27
642.654	56124.57
643.007	55995.08
643.36	56018.81
643.713	56005.93
644.066	55988.75
644.419	55661.08
644.771	55427.64
645.124	55064.48
645.477	55041.89
645.83	55008.21
646.182	55025.16
646.535	55029.91
646.888	55100.19
647.24	54939.52
647.593	55081.89
647.945	55012.06
648.298	54825.62
648.65	54784.72
649.002	54746.3
649.355	54850.03
649.707	54718.05
650.059	54765.28
650.411	54993.53
650.763	55040.3
651.115	55344.48
651.467	55306.06
651.819	55223.12
652.171	55197.59
652.523	55127.53
652.875	55161.66
653.227	54969.12
653.578	55204.14
653.93	55106.52
654.282	54987.88
654.633	54974.32
654.985	54945.39
655.337	55001.21
655.688	54946.07
656.039	55019.29
656.391	54749.69
656.742	54729.13
657.094	54809.12
657.445	54824.26
657.796	54725.96
658.147	54756.92
658.498	54680.31
658.849	54732.06
659.2	54653.87
659.551	54657.94
659.902	54731.39
660.253	54685.29
660.604	54633.76
660.955	54479.41
661.306	54606.42
661.656	54532.97
662.007	54596.02
662.358	54472.64
662.708	54489.36
663.059	54448.23
663.409	54345.18
663.76	54441.45
664.11	54470.38
664.461	54386.54
664.811	54415.91
665.161	54446.65
665.511	54276.26
665.862	54304.05
666.212	54376.82
666.562	54369.14
666.912	54264.51
667.262	54286.88
667.612	54176.6
667.962	54257.95
668.312	54124.62
668.662	54249.82
669.011	54185.64
669.361	54189.93
669.711	54106.77
670.06	54039.88
670.41	54056.38
670.76	53971.63
671.109	54045.75
671.459	53961.24
671.808	53942.25
672.157	53979.09
672.507	53843.95
672.856	53844.4
673.205	53817.96
673.554	53947
673.904	53844.4
674.253	53940.67
674.602	53796.5
674.951	53347.47
675.3	53249.84
675.649	53697.51
675.998	53667.91
676.346	53706.78
676.695	53761.47
677.044	53482.38
677.393	53570.96
677.741	53629.27
678.09	53448.03
678.438	53408.93
678.787	53578.87
679.135	53537.97
679.484	53384.08
679.832	53443.51
680.181	53204.87
680.529	53373.91
680.877	53220.69
681.225	53094.37
681.573	53367.81
681.922	53075.61
682.27	53093.46
682.618	53088.27
682.966	52933.24
683.314	53094.82
683.661	52807.37
684.009	52727.82
684.357	52675.62
684.705	52637.66
685.053	52676.52
685.4	52601.95
685.748	52455.29
686.095	52470.43
686.443	52351.56
686.79	52300.72
687.138	52281.73
687.485	52269.3
687.832	52078.8
688.18	52182.53
688.527	51956.32
688.874	51946.6
689.221	51901.86
689.568	51806.26
689.915	51639.94
690.262	51640.62
690.609	51638.59
690.956	51474.97
691.303	51350.46
691.65	51331.48
691.997	51266.39
692.344	51016.46
692.69	51019.62
693.037	51022.1
693.383	50724.49
693.73	50871.15
694.077	50531.72
694.423	50683.13
694.769	50445.17
695.116	50373.08
695.462	50426.41
695.808	50133.77
696.155	50306.42
696.501	50054.67
696.847	49941.91
697.193	49683.83
697.539	49931.74
697.885	49628.24
698.231	49562.26
698.577	49508.92
698.923	49466.89
699.269	49260.12
699.614	49117.3
699.96	48998.2
700.306	49030.74
700.651	48816.29
700.997	48564.77
701.342	48649.96
701.688	48531.77
702.033	48466.01
702.379	48480.48
702.724	48263.31
703.069	48309.86
703.415	47943.77
703.76	47816.54
704.105	47817.44
704.45	47732.93
704.795	47471.69
705.14	47419.94
705.485	47371.13
705.83	47206.16
706.175	47239.83
706.52	47113.96
706.865	47040.97
707.209	46911.25
707.554	46727.08
707.899	46811.37
708.243	46700.86
708.588	46707.19
708.932	46338.61
709.277	46344.04
709.621	46198.05
709.966	46114.21
710.31	46080.31
710.654	45771.4
710.998	45884.39
711.342	45737.05
711.687	45741.57
712.031	45492.53
712.375	45451.63
712.719	45356.49
713.063	45345.19
713.407	45375.47
713.75	45143.16
714.094	45205.31
714.438	44865.2
714.782	44991.98
715.125	44770.07
715.469	44855.04
715.812	44578.21
716.156	44249.85
716.499	44360.13
716.843	44414.59
717.186	44119.46
717.53	44274.03
717.873	44396.06
718.216	44037.88
718.559	43810.32
718.902	43580.72
719.246	43837.66
719.589	43580.94
719.932	43628.17
720.275	43554.28
720.617	43414.62
720.96	43391.8
721.303	43488.29
721.646	43399.48
721.989	43082.43
722.331	43150
722.674	43010.56
723.016	43099.83
723.359	42905.48
723.701	42908.87
724.044	42613.74
724.386	42457.36
724.729	42568.32
725.071	42375.33
725.413	42470.92
725.755	42513.63
726.097	42203.81
726.439	41971.5
726.782	42026.18
727.124	42249.68
727.465	42005.39
727.807	42068.67
728.149	41881.55
728.491	41773.53
728.833	41887.88
729.175	41551.85
729.516	41572.18
729.858	41437.95
730.199	41414
730.541	41326.31
730.882	41329.7
731.224	41489.25
731.565	41103.5
731.906	41147.79
732.248	41135.59
732.589	40814.24
732.93	40800.9
733.271	40842.03
733.612	40688.14
733.953	40899.89
734.294	40506.9
734.635	40461.7
734.976	40557.3
735.317	40385.1
735.658	40283.18
735.999	40246.34
736.339	40132
736.68	40280.01
737.021	40117.76
737.361	39894.49
737.702	40214.25
738.042	39862.17
738.383	39909.4
738.723	39901.27
739.063	39704.44
739.404	39832.12
739.744	39578.11
740.084	39459.47
740.424	39592.12
740.764	39361.62
741.104	39519.13
741.444	39225.35
741.784	39190.78
742.124	39332.92
742.464	39121.85
742.804	38990.56
743.143	39062.65
743.483	38819.04
743.823	38730.9
744.162	38662.66
744.502	38704.46
744.841	38552.6
745.181	38641.64
745.52	38514.64
745.86	38480.97
746.199	38246.17
746.538	38264.47
746.877	38383.79
747.216	38262.21
747.556	38095.89
747.895	38131.14
748.234	37924.14
748.573	37958.95
748.911	37886.4
749.25	37783.58
749.589	37446.87
749.928	37622.68
750.267	37539.07
750.605	37388.11
750.944	37399.41
751.283	37259.53
751.621	37279.19
751.96	37038.97
752.298	37039.87
752.636	37100.44
