Data from foil_FLMS001491_100.txt Node
Date: Tue Feb 07 11:37:34 GMT 2017
User: dcchb
Spectrometer: FLMS00149
Trigger mode: 0
Integration Time (sec): 2.000000E-2
Scans to average: 10
Electric dark correction enabled: true
Nonlinearity correction enabled: false
Boxcar width: 0
XAxis mode: Wavelengths
Number of Pixels in Spectrum: 2048
>>>>>Begin Spectral Data<<<<<
341.393	-10.71
341.776	-10.71
342.16	-10.71
342.543	-64.49
342.927	-52.06
343.31	-47.54
343.693	-70.59
344.077	-53.87
344.46	-66.52
344.843	-65.62
345.226	-29.24
345.61	-17.49
345.993	-34.66
346.376	-6.19
346.759	11.89
347.142	33.13
347.525	39.01
347.908	58.9
348.291	77.88
348.674	78.11
349.057	92.79
349.44	133.47
349.823	130.31
350.206	177.09
350.588	244.65
350.971	255.95
351.354	264.32
351.737	271.09
352.119	284.2
352.502	333.69
352.884	308.83
353.267	335.5
353.65	333.01
354.032	347.48
354.414	374.14
354.797	370.75
355.179	391.54
355.562	387.48
355.944	397.87
356.326	383.41
356.709	395.61
357.091	408.04
357.473	406.46
357.855	403.75
358.238	400.81
358.62	422.5
359.002	408.72
359.384	398.77
359.766	406.91
360.148	417.98
360.53	412.11
360.912	413.92
361.294	422.95
361.676	431.54
362.057	411.2
362.439	409.85
362.821	427.02
363.203	410.3
363.584	428.38
363.966	413.01
364.348	379.79
364.729	421.37
365.111	440.36
365.493	421.15
365.874	431.32
366.256	403.29
366.637	437.19
367.019	418.44
367.4	434.93
367.781	441.03
368.163	416.18
368.544	423.86
368.925	445.55
369.306	437.87
369.688	409.17
370.069	436.29
370.45	429.06
370.831	442.16
371.212	454.82
371.593	443.97
371.974	455.27
372.355	465.21
372.736	467.7
373.117	466.34
373.498	477.19
373.879	476.29
374.26	475.61
374.641	454.82
375.021	469.06
375.402	462.28
375.783	486
376.163	519.68
376.544	522.16
376.925	502.95
377.305	498.66
377.686	484.2
378.066	497.53
378.447	506.57
378.827	495.72
379.208	525.33
379.588	518.55
379.968	515.83
380.349	541.14
380.729	541.6
381.109	559
381.489	555.38
381.87	574.82
382.25	547.02
382.63	580.24
383.01	561.26
383.39	581.82
383.77	576.17
384.15	586.79
384.53	574.59
384.91	602.84
385.29	594.25
385.67	637.19
386.049	614.36
386.429	631.09
386.809	643.51
387.189	629.05
387.568	663.4
387.948	646.68
388.328	693.68
388.707	673.57
389.087	685.32
389.466	687.35
389.846	705.89
390.225	707.24
390.605	713.57
390.984	738.65
391.363	723.74
391.743	721.93
392.122	736.85
392.501	759.22
392.881	767.58
393.26	777.97
393.639	800.35
394.018	799.89
394.397	808.03
394.776	785.88
395.155	807.8
395.534	788.6
395.913	836.05
396.292	844.86
396.671	859.33
397.05	843.73
397.429	857.75
397.808	856.62
398.186	875.37
398.565	876.28
398.944	883.73
399.323	904.75
399.701	895.71
400.08	888.93
400.458	918.54
400.837	940
401.215	968.7
401.594	948.36
401.972	951.53
402.351	981.13
402.729	969.38
403.107	1001.24
403.486	975.71
403.864	1022.94
404.242	1016.61
404.62	1031.07
404.999	1033.56
405.377	1079.43
405.755	1049.38
406.133	1082.15
406.511	1110.17
406.889	1105.65
407.267	1148.13
407.645	1166.21
408.023	1168.02
408.401	1190.39
408.779	1185.87
409.156	1235.36
409.534	1238.3
409.912	1236.27
410.29	1269.03
410.667	1288.02
411.045	1320.11
411.422	1341.57
411.8	1345.19
412.178	1359.88
412.555	1373.66
412.933	1387.9
413.31	1401.46
413.687	1433.32
414.065	1459.76
414.442	1451.63
414.819	1477.16
415.197	1495.02
415.574	1535.02
415.951	1535.47
416.328	1511.06
416.705	1549.25
417.082	1550.61
417.46	1592.42
417.837	1624.05
418.214	1647.33
418.591	1669.02
418.967	1643.04
419.344	1674
419.721	1689.81
420.098	1707.89
420.475	1721.23
420.852	1729.36
421.228	1768.91
421.605	1783.6
421.982	1804.84
422.358	1821.11
422.735	1867.21
423.111	1856.36
423.488	1906.98
423.864	1900.43
424.241	1920.99
424.617	1950.6
424.994	1957.83
425.37	1980.43
425.746	1996.92
426.123	2034.21
426.499	2011.84
426.875	2073.99
427.251	2085.96
427.627	2123.48
428.003	2142.46
428.379	2186.07
428.756	2214.09
429.132	2263.81
429.507	2259.97
429.883	2298.84
430.259	2347.2
430.635	2367.31
431.011	2386.97
431.387	2412.28
431.763	2480.98
432.138	2483.47
432.514	2540.19
432.89	2537.25
433.265	2591.71
433.641	2617.7
434.016	2672.84
434.392	2700.18
434.767	2753.29
435.143	2754.19
435.518	2766.85
435.894	2835.77
436.269	2872.16
436.644	2902.44
437.02	2920.06
437.395	2910.57
437.77	2965.26
438.145	3033.51
438.52	3046.16
438.895	3070.12
439.271	3090.68
439.646	3191.92
440.021	3178.59
440.395	3213.39
440.77	3194.18
441.145	3248.64
441.52	3293.84
441.895	3279.38
442.27	3380.39
442.645	3297.68
443.019	3376.32
443.394	3392.14
443.769	3419.94
444.143	3380.17
444.518	3444.57
444.892	3425.14
445.267	3503.1
445.641	3524.57
446.016	3569.76
446.39	3608.18
446.764	3593.27
447.139	3619.03
447.513	3683.43
447.887	3700.61
448.262	3641.18
448.636	3708.29
449.01	3786.26
449.384	3795.3
449.758	3865.35
450.132	3884.56
450.506	3899.93
450.88	3939.7
451.254	3954.16
451.628	3999.58
452.002	4062.63
452.376	4105.12
452.75	4127.04
453.123	4143.54
453.497	4198
453.871	4269.41
454.244	4375.17
454.618	4365.9
454.992	4466.46
455.365	4450.19
455.739	4592.34
456.112	4574.71
456.486	4612.9
456.859	4710.53
457.232	4784.87
457.606	4760.69
457.979	4849.51
458.352	4970.18
458.725	5002.72
459.099	5014.92
459.472	5139.44
459.845	5195.71
460.218	5267.35
460.591	5275.48
460.964	5312.09
461.337	5465.76
461.71	5478.64
462.083	5630.73
462.456	5628.24
462.829	5650.84
463.201	5731.06
463.574	5841.8
463.947	5882.47
464.32	6002.47
464.692	6017.16
465.065	6006.99
465.438	6188.45
465.81	6239.98
466.183	6297.6
466.555	6531.04
466.928	6520.42
467.3	6520.2
467.672	6655.56
468.045	6806.29
468.417	6764.48
468.789	6876.34
469.161	6967.42
469.534	7063.46
469.906	7277.46
470.278	7271.81
470.65	7343.9
471.022	7492.37
471.394	7683.1
471.766	7731.69
472.138	7840.61
472.51	7918.35
472.882	8076.77
473.253	8180.49
473.625	8321.5
473.997	8519.69
474.369	8542.29
474.74	8666.13
475.112	8803.3
475.484	9002.62
475.855	9086.68
476.227	9152.22
476.598	9457.29
476.97	9548.59
477.341	9729.38
477.713	9954.91
478.084	9886.66
478.455	10283.94
478.827	10271.74
479.198	10669.92
479.569	10665.62
479.94	10898.84
480.311	10999.4
480.682	11171.6
481.053	11550.8
481.424	11631.02
481.795	11809.1
482.166	12012.93
482.537	12158.24
482.908	12379.7
483.279	12543.77
483.65	12758.9
484.021	12978.11
484.391	13235.05
484.762	13351.2
485.133	13456.06
485.503	13630.52
485.874	13905.31
486.244	13926.1
486.615	14333.32
486.985	14458.07
487.356	14763.14
487.726	14822.12
488.097	15167.43
488.467	15215.56
488.837	15563.8
489.207	15729.22
489.578	15978.7
489.948	16051.47
490.318	16314.51
490.688	16357.45
491.058	16743.43
491.428	16937.77
491.798	17149.07
492.168	17315.84
492.538	17439
492.908	17641.49
493.278	17859.33
493.648	17947.24
494.017	18161.47
494.387	18361.69
494.757	18399.66
495.126	18693.89
495.496	18677.16
495.866	18904.28
496.235	19137.49
496.605	19242.57
496.974	19443.25
497.344	19591.49
497.713	19694.31
498.082	19865.38
498.452	20130.69
498.821	20123.45
499.19	20214.75
499.559	20433.95
499.928	20681.41
500.298	20721.18
500.667	20980.83
501.036	20959.82
501.405	21235.97
501.774	21206.14
502.143	21454.72
502.512	21516.19
502.88	21721.6
503.249	21818.32
503.618	21887.48
503.987	22036.85
504.356	22292.66
504.724	22418.08
505.093	22536.72
505.462	22615.37
505.83	22862.59
506.199	22985.75
506.567	23106.88
506.936	23232.75
507.304	23526.75
507.672	23649.24
508.041	23638.62
508.409	23922.9
508.777	24068.66
509.145	24291.48
509.514	24310.91
509.882	24621.19
510.25	24631.81
510.618	24803.1
510.986	25019.82
511.354	25144.56
511.722	25211.91
512.09	25580.26
512.458	25583.88
512.826	25839.01
513.193	26043.3
513.561	26094.37
513.929	26306.57
514.297	26603.51
514.664	26829.94
515.032	26795.82
515.4	27056.6
515.767	27199.43
516.135	27468.35
516.502	27269.25
516.869	27677.61
517.237	27782.69
517.604	27958.95
517.972	28311.49
518.339	28446.85
518.706	28557.13
519.073	28717.58
519.44	28962.32
519.808	29171.58
520.175	29195.31
520.542	29604.79
520.909	29856.31
521.276	29830.09
521.643	30217.88
522.009	30441.15
522.376	30682.95
522.743	30767.02
523.11	31166.1
523.477	31454.91
523.843	31491.52
524.21	31929.25
524.577	32131.05
524.943	32322
525.31	32427.99
525.676	32712.5
526.043	33010.12
526.409	33253.73
526.776	33570.11
527.142	33522.65
527.508	33783.43
527.874	34113.37
528.241	34368.96
528.607	34362.4
528.973	34650.53
529.339	34745.22
529.705	35281.25
530.071	35455.03
530.437	35495.71
530.803	35843.72
531.169	35911.06
531.535	35961.68
531.901	36095.01
532.267	36293.2
532.632	36427.66
532.998	36525.06
533.364	36862.67
533.73	37098.6
534.095	37353.96
534.461	37366.84
534.826	37660.39
535.192	37710.34
535.557	38080.5
535.923	37980.61
536.288	38257.89
536.653	38388.74
537.019	38390.77
537.384	38683.64
537.749	38838.44
538.114	38795.05
538.479	39010.41
538.845	39116.63
539.21	39146.68
539.575	39394.81
539.94	39454.02
540.305	39808.13
540.67	39612.21
541.034	39915.25
541.399	40018.52
541.764	40152.08
542.129	40270.27
542.494	40289.48
542.858	40482.69
543.223	40552.52
543.587	40813.98
543.952	40690.82
544.316	41000.87
544.681	40951.38
545.045	41244.03
545.41	41390.69
545.774	41647.86
546.138	41668.42
546.503	41712.49
546.867	41769.21
547.231	42117.9
547.595	42298.01
547.959	42301.63
548.324	42452.13
548.688	42493.04
549.052	42701.17
549.416	42702.52
549.779	42755.4
550.143	43065
550.507	43295.05
550.871	43433.35
551.235	43475.38
551.599	43688.71
551.962	43693.23
552.326	43948.36
552.689	44227.23
553.053	44082.15
553.417	44142.48
553.78	44615.47
554.143	44460.89
554.507	44806.19
554.87	44881.45
555.234	45215.45
555.597	45038.28
555.96	45250.93
556.323	45398.95
556.686	45525.95
557.05	45885.49
557.413	46022.43
557.776	46046.61
558.139	46256.1
558.502	46356.89
558.865	46548.52
559.228	46769.08
559.59	46915.07
559.953	47054.72
560.316	47462.17
560.679	47521.38
561.041	47567.03
561.404	47967.02
561.767	48130.4
562.129	48017.41
562.492	48528.36
562.854	48375.59
563.217	48434.35
563.579	48613.78
563.941	48894.9
564.304	49085.86
564.666	49230.03
565.028	49301.9
565.39	49344.15
565.753	49678.38
566.115	49709.57
566.477	49812.62
566.839	49961.09
567.201	50126.28
567.563	50223
567.925	50480.62
568.287	50538.25
568.648	50613.27
569.01	50783.21
569.372	50995.41
569.734	50850.56
570.095	51131.23
570.457	51343.42
570.819	51340.03
571.18	51431.78
571.542	51568.95
571.903	51745.22
572.265	51773.92
572.626	51851.21
572.987	51886.91
573.349	51983.63
573.71	52060.24
574.071	52179.11
574.432	52246.23
574.794	52501.59
575.155	52526.22
575.516	52498.65
575.877	52581.13
576.238	52561.25
576.599	52696.83
576.96	52680.56
577.32	52698.64
577.681	52851.63
578.042	53001.69
578.403	52891.86
578.763	52979.09
579.124	53060.89
579.485	53159.42
579.845	53245.52
580.206	53121.46
580.566	53226.54
580.927	53177.27
581.287	53352.41
581.648	53265.41
582.008	53304.28
582.368	53289.59
582.728	53344.5
583.089	53263.83
583.449	53306.08
583.809	53418.4
584.169	53453.88
584.529	53266.31
584.889	53527.77
585.249	53425.63
585.609	53400.09
585.969	53475.12
586.329	53299.76
586.688	53520.54
587.048	53417.04
587.408	53372.3
587.768	53446.19
588.127	53448.23
588.487	53340.89
588.846	53520.99
589.206	53345.18
589.565	53458.17
589.925	53545.85
590.284	53451.84
590.643	53431.05
591.003	53480.09
591.362	53511.73
591.721	53544.72
592.08	53580.88
592.44	53547.21
592.799	53627.66
593.158	53545.63
593.517	53513.31
593.876	53483.71
594.235	53490.03
594.593	53542.91
594.952	53565.06
595.311	53426.31
595.67	53596.7
596.029	53685.96
596.387	53726.41
596.746	53725.96
597.104	53640.76
597.463	53647.77
597.822	53811.16
598.18	53610.03
598.538	53658.39
598.897	53825.39
599.255	53565.06
599.613	53920.76
599.972	53689.13
600.33	53707.43
600.688	53685.74
601.046	53751.95
601.404	53875.79
601.762	53846.64
602.12	53999.63
602.478	53911.27
602.836	53971.15
603.194	53813.87
603.552	53951.27
603.91	53845.28
604.268	54047.99
604.625	53941.77
604.983	54049.34
605.341	54043.47
605.698	54084.82
606.056	54125.27
606.413	54113.29
606.771	54222.22
607.128	54289.56
607.485	54054.09
607.843	54127.76
608.2	54279.39
608.557	54325.49
608.914	54207.98
609.272	54362.33
609.629	54472.83
609.986	54495.43
610.343	54388.09
610.7	54556.22
611.057	54508.99
611.414	54497.01
611.771	54461.31
612.127	54666.73
612.484	54523
612.841	54656.56
613.198	54538.37
613.554	54534.07
613.911	54753.05
614.267	54669.21
614.624	54738.14
614.98	54780.85
615.337	54894.97
615.693	54822.65
616.05	54735.2
616.406	54944.01
616.762	54835.99
617.118	54827.85
617.475	54844.35
617.831	54945.14
618.187	54953.72
618.543	54886.16
618.899	55124.12
619.255	55033.72
619.611	54951.46
619.967	55049.54
620.323	55056.09
620.678	54989.43
621.034	54918.47
621.39	54895.2
621.746	54899.71
622.101	55122.53
622.457	54959.37
622.812	54994.63
623.168	55065.13
623.523	55055.87
623.879	55107.39
624.234	54911.47
624.589	55048.86
624.945	55027.85
625.3	55009.99
625.655	54983.78
626.01	55093.61
626.365	55021.29
626.72	55016.55
627.075	55004.8
627.43	55003.67
627.785	54865.59
628.14	54948.53
628.495	54857
628.85	54915.76
629.205	54784.69
629.559	54896.55
629.914	54729.78
630.269	54851.13
630.623	54800.51
630.978	54620.63
631.332	54821.07
631.687	54732.49
632.041	54557.35
632.396	54653.85
632.75	54521.19
633.104	54586.73
633.459	54479.16
633.813	54620.4
634.167	54466.05
634.521	54408.43
634.875	54385.83
635.229	54367.07
635.583	54235.1
635.937	54274.65
636.291	54190.13
636.645	54159.62
636.999	54061.32
637.352	54180.19
637.706	54036.01
638.06	54083.69
638.413	54051.83
638.767	53968.21
639.121	53974.54
639.474	53787.88
639.828	53825.62
640.181	53887.99
640.534	53768.44
640.888	53719.86
641.241	53567.32
641.594	53566.42
641.947	53695
642.301	53499.53
642.654	53517.83
643.007	53491.62
643.36	53455.68
643.713	53530.94
644.066	53497.27
644.419	53138.18
644.771	53067.22
645.124	52716.04
645.477	52561.25
645.83	52397.18
646.182	52270.86
646.535	52274.02
646.888	52282.83
647.24	52109.51
647.593	52445.54
647.945	52265.66
648.298	52091.88
648.65	51947.25
649.002	51880.59
649.355	52001.03
649.707	51907.02
650.059	51948.61
650.411	52328.48
650.763	52369.39
651.115	52708.36
651.467	52506.33
651.819	52514.69
652.171	52416.62
652.523	52407.8
652.875	52347.92
653.227	52208.26
653.578	52399.89
653.93	52278.99
654.282	52166.23
654.633	52139.79
654.985	52116.29
655.337	52116.51
655.688	52234.7
656.039	52219.33
656.391	51753.58
656.742	51869.96
657.094	51964.42
657.445	52064.31
657.796	51913.58
658.147	51786.58
658.498	51845.11
658.849	51903.86
659.2	51740.48
659.551	51661.38
659.902	51787.03
660.253	51756.07
660.604	51753.36
660.955	51593.81
661.306	51744.54
661.656	51707.93
662.007	51543.19
662.358	51484.21
662.708	51553.59
663.059	51413.93
663.409	51342.07
663.76	51621.83
664.11	51514.72
664.461	51497.09
664.811	51376.42
665.161	51396.08
665.511	51335.51
665.862	51364.44
666.212	51372.8
666.562	51252.35
666.912	51257.55
667.262	51149.76
667.612	51078.8
667.962	51225.69
668.312	51071.11
668.662	51262.3
669.011	51118.57
669.361	51151.56
669.711	51091.23
670.06	50934.4
670.41	50943.66
670.76	50884.23
671.109	50992.92
671.459	50829.99
671.808	50855.3
672.157	50963.32
672.507	50613.95
672.856	50718.13
673.205	50703.21
673.554	50715.42
673.904	50652.59
674.253	50901.85
674.602	50707.28
674.951	50143.23
675.3	49929.22
675.649	50458.25
675.998	50448.98
676.346	50495.54
676.695	50591.81
677.044	50295.32
677.393	50325.37
677.741	50408.99
678.09	50214.41
678.438	50182.78
678.787	50219.61
679.135	50187.97
679.484	50126.73
679.832	50100.74
680.181	49856.91
680.529	49938.49
680.877	49815.1
681.225	49797.48
681.573	49957.25
681.922	49724.71
682.27	49541.44
682.618	49556.35
682.966	49416.24
683.314	49451.95
683.661	49446.75
684.009	49212.41
684.357	49097.38
684.705	49062.81
685.053	48996.59
685.4	49043.6
685.748	48797.05
686.095	48737.16
686.443	48607.68
686.79	48558.64
687.138	48610.84
687.485	48680.44
687.832	48387.8
688.18	48474.12
688.527	48200
688.874	48164.52
689.221	48127.46
689.568	47968.15
689.915	47873.01
690.262	47870.07
690.609	47743.29
690.956	47626.01
691.303	47582.84
691.65	47290.2
691.997	47388.5
692.344	47151.22
692.69	47051.79
693.037	47145.12
693.383	46625.36
693.73	46789.42
694.077	46528.86
694.423	46492.7
694.769	46438.02
695.116	46292.71
695.462	46123.22
695.808	46100.85
696.155	46019.27
696.501	45814.08
696.847	45767.98
697.193	45558.27
697.539	45639.17
697.885	45303.13
698.231	45222.68
698.577	45114.66
698.923	45086.19
699.269	44928
699.614	44673.09
699.96	44707.67
700.306	44683.49
700.651	44441.23
700.997	44239.2
701.342	44201.24
701.688	44044.41
702.033	44029.94
702.379	43969.38
702.724	43776.84
703.069	43945.43
703.415	43466.57
703.76	43391.99
704.105	43409.62
704.45	43360.13
704.795	43194.49
705.14	42913.36
705.485	42898.22
705.83	42749.53
706.175	42889.63
706.52	42597.44
706.865	42506.59
707.209	42421.62
707.554	42250.1
707.899	42256.66
708.243	42065.93
708.588	42124.91
708.932	41765.82
709.277	41606.28
709.621	41719.72
709.966	41377.58
710.31	41421.42
710.654	41316.57
710.998	41250.81
711.342	41207.87
711.687	41093.07
712.031	40860.76
712.375	40680.2
712.719	40836.58
713.063	40847.43
713.407	40799.75
713.75	40611.28
714.094	40586.87
714.438	40370.38
714.782	40386.65
715.125	40043.16
715.469	40293.32
715.812	39870.73
716.156	39750.96
716.499	39687.69
716.843	39855.36
717.186	39549.61
717.53	39685.43
717.873	39605.43
718.216	39462.15
718.559	39427.58
718.902	39171.31
719.246	39280.24
719.589	39142.16
719.932	39004.54
720.275	38979.23
720.617	38921.38
720.96	38715.28
721.303	38855.84
721.646	38665.57
721.989	38300.15
722.331	38540.6
722.674	38353.48
723.016	38312.58
723.359	38233.94
723.701	38212.24
724.044	38080.04
724.386	37941.29
724.729	38023.77
725.071	37908.75
725.413	37900.16
725.755	37711.01
726.097	37597.12
726.439	37470.12
726.782	37551.02
727.124	37547.85
727.465	37354.19
727.807	37253.4
728.149	37241.42
728.491	37126.4
728.833	37176.56
729.175	37089.34
729.516	37007.76
729.858	36837.36
730.199	36828.78
730.541	36650.7
730.882	36603.25
731.224	36803.47
731.565	36503.36
731.906	36424.72
732.248	36412.74
732.589	36325.06
732.93	36055.24
733.271	35930.95
733.612	36134.11
733.953	36214.1
734.294	35968.91
734.635	35822.93
734.976	35928.46
735.317	35645.98
735.658	35704.51
735.999	35713.55
736.339	35559.88
736.68	35636.94
737.021	35429.94
737.361	35368.48
737.702	35529.38
738.042	35320.79
738.383	35212.77
738.723	35231.31
739.063	35059.56
739.404	35102.95
739.744	35030.86
740.084	34791.77
740.424	34949.5
740.764	34790.64
741.104	34788.15
741.444	34697.76
741.784	34550.65
742.124	34636.29
742.464	34645.56
742.804	34448.28
743.143	34345.45
743.483	34391.33
743.823	34168.51
744.162	34235.4
744.502	34133.26
744.841	33961.51
745.181	34041.73
745.52	33815.52
745.86	33836.31
746.199	33809.2
746.538	33635.87
746.877	33628.18
747.216	33566.49
747.556	33429.54
747.895	33350
748.234	33414.18
748.573	33291.92
748.911	33189.33
749.25	33234.52
749.589	33011.25
749.928	33054.87
750.267	32998.82
750.605	32834.31
750.944	32867.3
751.283	32716.12
751.621	32799.05
751.96	32533.07
752.298	32470.25
752.636	32376.01
752.975	32279.52
