Data from foil_FLMS001491_083.txt Node
Date: Tue Feb 07 11:36:55 GMT 2017
User: dcchb
Spectrometer: FLMS00149
Trigger mode: 0
Integration Time (sec): 2.000000E-2
Scans to average: 10
Electric dark correction enabled: true
Nonlinearity correction enabled: false
Boxcar width: 0
XAxis mode: Wavelengths
Number of Pixels in Spectrum: 2048
>>>>>Begin Spectral Data<<<<<
341.393	-15.9
341.776	-15.9
342.16	-15.9
342.543	-77.82
342.927	-75.79
343.31	-81.66
343.693	-64.72
344.077	-73.3
344.46	-61.55
344.843	-67.2
345.226	-52.74
345.61	-31.95
345.993	-12.51
346.376	6.69
346.759	29.07
347.142	29.52
347.525	49.41
347.908	54.83
348.291	79.46
348.674	105.45
349.057	91.21
349.44	125.79
349.823	145.45
350.206	181.15
350.588	272.22
350.971	306.12
351.354	322.62
351.737	347.02
352.119	342.73
352.502	375.95
352.884	378.21
353.267	382.73
353.65	406.23
354.032	391.32
354.414	435.84
354.797	422.05
355.179	425.44
355.562	412.33
355.944	466.34
356.326	461.15
356.709	438.32
357.091	466.57
357.473	451.88
357.855	469.51
358.238	475.38
358.62	461.6
359.002	465.21
359.384	485.78
359.766	485.55
360.148	479.45
360.53	494.14
360.912	495.04
361.294	483.29
361.676	471.77
362.057	490.98
362.439	489.17
362.821	481.71
363.203	471.09
363.584	506.57
363.966	502.73
364.348	488.26
364.729	514.03
365.111	494.37
365.493	492.56
365.874	502.05
366.256	482.39
366.637	484.42
367.019	509.73
367.4	519.22
367.781	509.05
368.163	511.77
368.544	530.97
368.925	532.33
369.306	538.43
369.688	502.05
370.069	525.1
370.45	542.5
370.831	552.44
371.212	552.44
371.593	563.74
371.974	561.71
372.355	571.65
372.736	563.29
373.117	555.83
373.498	583.4
373.879	553.12
374.26	564.42
374.641	531.43
375.021	550.64
375.402	601.26
375.783	611.42
376.163	666.56
376.544	645.77
376.925	635.6
377.305	648.03
377.686	661.82
378.066	655.94
378.447	641.93
378.827	669.95
379.208	659.78
379.588	667.92
379.968	674.02
380.349	673.8
380.729	692.78
381.109	672.21
381.489	695.72
381.87	682.16
382.25	725.77
382.63	720.12
383.01	728.26
383.39	710.86
383.77	726.68
384.15	763.51
384.53	744.75
384.91	765.09
385.29	779.1
385.67	802.38
386.049	808.48
386.429	806.45
386.809	814.81
387.189	832.21
387.568	856.84
387.948	836.05
388.328	851.64
388.707	860.68
389.087	879.21
389.466	885.99
389.846	880.8
390.225	900.23
390.605	878.99
390.984	909.5
391.363	949.27
391.743	933.45
392.122	979.78
392.501	962.38
392.881	1000.79
393.26	1025.2
393.639	1013.22
394.018	1018.19
394.397	1051.41
394.776	1046.22
395.155	1046.22
395.534	1052.99
395.913	1070.17
396.292	1117.85
396.671	1148.59
397.05	1109.94
397.429	1150.62
397.808	1127.8
398.186	1138.42
398.565	1148.81
398.944	1144.74
399.323	1192.65
399.701	1210.73
400.08	1188.58
400.458	1197.17
400.837	1229.04
401.215	1253.44
401.594	1249.6
401.972	1305.64
402.351	1269.49
402.729	1304.51
403.107	1331.18
403.486	1330.73
403.864	1353.55
404.242	1300.45
404.62	1364.85
404.999	1374.34
405.377	1406.21
405.755	1415.92
406.133	1453.21
406.511	1444.62
406.889	1469.03
407.267	1502.25
407.645	1490.72
408.023	1535.02
408.401	1539.54
408.779	1584.28
409.156	1641
409.534	1630.15
409.912	1647.1
410.29	1648.23
410.667	1684.84
411.045	1720.1
411.422	1705.63
411.8	1750.83
412.178	1789.25
412.555	1794.44
412.933	1826.31
413.31	1865.85
413.687	1875.8
414.065	1885.29
414.442	1913.54
414.819	1923.25
415.197	1920.32
415.574	1962.8
415.951	2023.59
416.328	2011.84
416.705	2019.75
417.082	2026.75
417.46	2081.22
417.837	2135.9
418.214	2100.42
418.591	2123.48
418.967	2145.62
419.344	2223.13
419.721	2221.1
420.098	2207.99
420.475	2275.34
420.852	2280.99
421.228	2266.75
421.605	2333.87
421.982	2332.28
422.358	2394.43
422.735	2412.96
423.111	2394.65
423.488	2430.13
423.864	2467.87
424.241	2471.49
424.617	2527.31
424.994	2542.45
425.37	2518.95
425.746	2580.19
426.123	2631.03
426.499	2621.99
426.875	2636.68
427.251	2730.69
427.627	2812.5
428.003	2786.06
428.379	2838.48
428.756	2859.5
429.132	2912.83
429.507	2918.03
429.883	2991.48
430.259	3027.63
430.635	3046.61
431.011	3073.51
431.387	3164.35
431.763	3166.16
432.138	3228.3
432.514	3226.72
432.89	3254.29
433.265	3323.44
433.641	3382.65
434.016	3420.62
434.392	3446.38
434.767	3501.07
435.143	3507.85
435.518	3543.32
435.894	3587.62
436.269	3663.55
436.644	3701.06
437.02	3721.17
437.395	3742.19
437.77	3799.36
438.145	3851.34
438.52	3868.51
438.895	3946.93
439.271	3935.18
439.646	4006.14
440.021	4066.7
440.395	4079.36
440.77	3996.87
441.145	4094.5
441.52	4148.96
441.895	4159.13
442.27	4205.23
442.645	4188.96
443.019	4273.48
443.394	4217.88
443.769	4333.36
444.143	4262.4
444.518	4382.62
444.892	4415.39
445.267	4454.49
445.641	4432.12
446.016	4475.73
446.39	4506.24
446.764	4540.36
447.139	4534.03
447.513	4591.88
447.887	4592.34
448.262	4598.44
448.636	4655.84
449.01	4732.45
449.384	4758.21
449.758	4802.73
450.132	4807.7
450.506	4828.49
450.88	4908.26
451.254	4894.93
451.628	4960.46
452.002	5047.01
452.376	5028.03
452.75	5153.23
453.123	5130.18
453.497	5241.13
453.871	5311.41
454.244	5409.49
454.618	5429.83
454.992	5464.63
455.365	5462.14
455.739	5650.39
456.112	5683.16
456.486	5722.7
456.859	5772.42
457.232	5931.28
457.606	5915.69
457.979	5988.23
458.352	6102.35
458.725	6179.19
459.099	6230.26
459.472	6371.5
459.845	6422.12
460.218	6407.66
460.591	6487.88
460.964	6533.98
461.337	6677.48
461.71	6767.19
462.083	6875.89
462.456	6816.23
462.829	6922.67
463.201	7009.67
463.574	7075.89
463.947	7128.54
464.32	7311.36
464.692	7340.29
465.065	7377.57
465.438	7489.21
465.81	7622.99
466.183	7745.25
466.555	7838.81
466.928	7903.66
467.3	7855.08
467.672	8058.01
468.045	8266.82
468.417	8265.01
468.789	8336.87
469.161	8472.46
469.534	8643.08
469.906	8776.41
470.278	8825.45
470.65	8935.05
471.022	9059.34
471.394	9187.7
471.766	9352.89
472.138	9378.65
472.51	9642.6
472.882	9740
473.253	9876.49
473.625	9987
473.997	10209.36
474.369	10298.85
474.74	10393.31
475.112	10549.02
475.484	10736.13
475.855	10943.58
476.227	11073.07
476.598	11356.68
476.97	11381.08
477.341	11749.89
477.713	11831.47
478.084	11903.78
478.455	12255.19
478.827	12402.08
479.198	12709.41
479.569	12734.95
479.94	13108.27
480.311	13184.2
480.682	13514.59
481.053	13691.31
481.424	13964.75
481.795	14139.88
482.166	14330.39
482.537	14550.95
482.908	14849.47
483.279	14951.39
483.65	15243.81
484.021	15610.35
484.391	15669.56
484.762	15873.17
485.133	15948.65
485.503	16262.54
485.874	16635.41
486.244	16690.55
486.615	17096.64
486.985	17241.95
487.356	17474.71
487.726	17634.71
488.097	18059.1
488.467	18026.11
488.837	18417.28
489.207	18592.19
489.578	18918.97
489.948	19132.07
490.318	19397.15
490.688	19429.23
491.058	19704.48
491.428	19982.44
491.798	20170.91
492.168	20619.94
492.538	20560.5
492.908	20842.76
493.278	21088.17
493.648	21154.39
494.017	21464.21
494.387	21548.73
494.757	21724.54
495.126	22017.19
495.496	22056.06
495.866	22316.62
496.235	22490.85
496.605	22648.13
496.974	22845.87
497.344	23079.53
497.713	23231.39
498.082	23310.94
498.452	23548
498.821	23682.23
499.19	23837.93
499.559	24051.03
499.928	24262.55
500.298	24319.73
500.667	24633.17
501.036	24579.16
501.405	24817.12
501.774	24735.31
502.143	24949.09
502.512	25226.14
502.88	25441.05
503.249	25527.83
503.618	25782.74
503.987	25843.08
504.356	26097.99
504.724	26242.16
505.093	26290.52
505.462	26436.73
505.83	26683.06
506.199	26963.5
506.567	27192.42
506.936	27191.06
507.304	27514.9
507.672	27623.37
508.041	27750.82
508.409	27848
508.777	28248.89
509.145	28433.52
509.514	28394.2
509.882	28675.09
510.25	28875.99
510.618	29137.45
510.986	29201.86
511.354	29443.21
511.722	29735.18
512.09	29879.81
512.458	29919.13
512.826	30156.41
513.193	30388.04
513.561	30461.49
513.929	30908.48
514.297	31047.01
514.664	31488.13
515.032	31399.09
515.4	31678.4
515.767	31854.9
516.135	32159.97
516.502	31945.52
516.869	32651.49
517.237	32773.29
517.604	32710.02
517.972	33196.56
518.339	33448.3
518.706	33414.63
519.073	33613.04
519.44	33868.63
519.808	34344.32
520.175	34316.53
520.542	34767.59
520.909	34879.68
521.276	35081.48
521.643	35422.49
522.009	35667.9
522.376	35953.55
522.743	36210.04
523.11	36601.89
523.477	36890.02
523.843	37047.08
524.21	37346.73
524.577	37638.47
524.943	37970.89
525.31	38135.64
525.676	38597.77
526.043	38778.78
526.409	38881.6
526.776	39303.51
527.142	39319.56
527.508	39801.13
527.874	40010.39
528.241	40192.3
528.607	40364.73
528.973	40773.08
529.339	40952.96
529.705	41384.36
530.071	41592.27
530.437	41781.87
530.803	41978.02
531.169	42247.39
531.535	42174.4
531.901	42340.72
532.267	42609.19
532.632	42877.21
532.998	42974.38
533.364	43388.6
533.73	43477.64
534.095	43842.83
534.461	43918.31
534.826	44172.77
535.192	44421.35
535.557	44661.79
535.923	44650.72
536.288	44826.08
536.653	45071.5
537.019	45007.09
537.384	45260.87
537.749	45584.93
538.114	45559.4
538.479	45669
538.845	46140.62
539.21	46016.33
539.575	46359.83
539.94	46340.84
540.305	46727.27
540.67	46549.43
541.034	46900.15
541.399	47036.42
541.764	47064.89
542.129	47370.87
542.494	47390.53
542.858	47669.4
543.223	47611.09
543.587	47919.79
543.952	47934.93
544.316	48056.96
544.681	48238.19
545.045	48340.34
545.41	48534.01
545.774	48790.27
546.138	48700.33
546.503	49048.34
546.867	49078.85
547.231	49284.27
547.595	49458.05
547.959	49495.79
548.324	49561.32
548.688	49683.58
549.052	49881.99
549.416	49956.79
549.779	50125.15
550.143	50279.27
550.507	50418.48
550.871	50680.62
551.235	50742.54
551.599	50986.37
551.962	51003.32
552.326	51134.39
552.689	51266.82
553.053	51207.83
553.417	51326.48
553.78	51852.56
554.143	51689.86
554.507	51927.36
554.87	52038.32
555.234	52362.15
555.597	52213.68
555.96	52435.6
556.323	52615.25
556.686	52697.51
557.05	52935.47
557.413	53053.21
557.776	53172.08
558.139	53362.35
558.502	53434.89
558.865	53520.99
559.228	53731.16
559.59	53927.08
559.953	54038.95
560.316	54295.21
560.679	54307.64
561.041	54358.71
561.404	54624.24
561.767	54802.32
562.129	54717.12
562.492	55084.57
562.854	55146.26
563.217	55144.23
563.579	55252.25
563.941	55442.75
564.304	55625.8
564.666	55718.68
565.028	55813.36
565.39	55978.33
565.753	56102.62
566.115	56264.2
566.477	56293.58
566.839	56396.4
567.201	56621.03
567.563	56663.96
567.925	56856.05
568.287	56870.96
568.648	56922.94
569.01	57075.93
569.372	57257.84
569.734	57234.57
570.095	57405.64
570.457	57598.4
570.819	57581.45
571.18	57606.76
571.542	57770.83
571.903	57830.03
572.265	57933.31
572.626	58009.01
572.987	58086.75
573.349	58136.01
573.71	58290.81
574.071	58338.72
574.432	58383.92
574.794	58630.92
575.155	58560.18
575.516	58480.19
575.877	58680.63
576.238	58731.7
576.599	58777.8
576.96	58763.12
577.32	58856.9
577.681	58938.03
578.042	59016.67
578.403	59027.52
578.763	59033.39
579.124	59102.77
579.485	59211.47
579.845	59235.19
580.206	59245.82
580.566	59275.87
580.927	59314.74
581.287	59404.45
581.648	59285.14
582.008	59461.85
582.368	59367.39
582.728	59413.95
583.089	59359.94
583.449	59390.67
583.809	59461.63
584.169	59533.72
584.529	59468.18
584.889	59585.24
585.249	59436.32
585.609	59347.96
585.969	59538.01
586.329	59390.9
586.688	59613.94
587.048	59502.98
587.408	59533.94
587.768	59520.16
588.127	59537.33
588.487	59475.87
588.846	59642.41
589.206	59556.99
589.565	59518.35
589.925	59628.63
590.284	59553.83
590.643	59552.47
591.003	59626.82
591.362	59695.52
591.721	59707.72
592.08	59641.28
592.44	59714.96
592.799	59704.11
593.158	59658.46
593.517	59682.64
593.876	59784.56
594.235	59662.98
594.593	59718.12
594.952	59738.91
595.311	59697.33
595.67	59784.56
596.029	59868.4
596.387	59906.14
596.746	59916.08
597.104	59768.29
597.463	59909.53
597.822	59962.18
598.18	59861.17
598.538	59842.41
598.897	59988.17
599.255	59783.65
599.613	60153.81
599.972	59966.02
600.33	60049.64
600.688	59969.64
601.046	60050.54
601.404	60049.41
601.762	60057.77
602.12	60206.92
602.478	60203.98
602.836	60160.37
603.194	60075.85
603.552	60077.66
603.91	60096.87
604.268	60253.02
604.625	60202.85
604.983	60279.01
605.341	60144.77
605.698	60297.76
606.056	60320.59
606.413	60287.6
606.771	60383.86
607.128	60430.42
607.485	60250.31
607.843	60252.57
608.2	60411.89
608.557	60472.9
608.914	60396.75
609.272	60499.12
609.629	60567.59
609.986	60624.08
610.343	60551.32
610.7	60685.55
611.057	60682.39
611.414	60641.03
611.771	60688.49
612.127	60804.42
612.484	60766.45
612.841	60855.49
613.198	60777.07
613.554	60741.14
613.911	60911.53
614.267	60943.62
614.624	60849.84
614.98	60937.75
615.337	60982.27
615.693	60952.89
616.05	60970.29
616.406	61112.43
616.762	61073.79
617.118	61064.75
617.475	61082.15
617.831	61093.68
618.187	61172.09
618.543	61154.24
618.899	61245.08
619.255	61214.12
619.611	61146.33
619.967	61214.35
620.323	61248.02
620.678	61221.36
621.034	61169.83
621.39	61191.3
621.746	61138.87
622.101	61390.84
622.457	61144.97
622.812	61242.37
623.168	61235.82
623.523	61216.16
623.879	61334.12
624.234	61200.34
624.589	61278.76
624.945	61256.38
625.3	61262.71
625.655	61297.96
626.01	61328.92
626.365	61309.49
626.72	61260
627.075	61231.98
627.43	61264.75
627.785	61165.54
628.14	61274.01
628.495	61241.92
628.85	61215.93
629.205	61135.93
629.559	61262.03
629.914	61141.58
630.269	61170.74
630.623	61060.23
630.978	61012.32
631.332	61113.79
631.687	61141.13
632.041	61039.21
632.396	61041.47
632.75	60968.93
633.104	61069.72
633.459	60946.11
633.813	60917.64
634.167	60883.29
634.521	60893
634.875	60927.58
635.229	60897.98
635.583	60764.19
635.937	60736.62
636.291	60759.9
636.645	60769.39
636.999	60626.57
637.352	60678.55
637.706	60519.45
638.06	60639.9
638.413	60570.07
638.767	60554.48
639.121	60602.39
639.474	60441.94
639.828	60463.41
640.181	60488.04
640.534	60421.15
640.888	60359.01
641.241	60303.64
641.594	60362.17
641.947	60375.28
642.301	60195.39
642.654	60269.29
643.007	60262.74
643.36	60228.61
643.713	60186.36
644.066	60260.03
644.419	59963.08
644.771	59732.58
645.124	59313.84
645.477	59188.19
645.83	59197.91
646.182	59298.92
646.535	59350.22
646.888	59575.07
647.24	59384.12
647.593	59524.68
647.945	59535.75
648.298	59405.58
648.65	59335.08
649.002	59220.28
649.355	59186.61
649.707	59001.53
650.059	59010.34
650.411	59309.09
650.763	59408.3
651.115	59652.58
651.467	59651.23
651.819	59702.53
652.171	59490.78
652.523	59471.12
652.875	59510.67
653.227	59304.12
653.578	59573.72
653.93	59425.47
654.282	59363.33
654.633	59288.3
654.985	59380.5
655.337	59319.26
655.688	59343.67
656.039	59328.07
656.391	59126.04
656.742	59194.52
657.094	59263.89
657.445	59308.41
657.796	59225.02
658.147	59153.84
658.498	59118.59
658.849	59213.5
659.2	59110.45
659.551	59047.63
659.902	59202.65
660.253	59075.42
660.604	59098.47
660.955	58981.19
661.306	59025.03
661.656	58985.03
662.007	58979.38
662.358	58910
662.708	58895.99
663.059	58919.04
663.409	58683.12
663.76	58881.3
664.11	58909.55
664.461	58969.89
664.811	58982.55
665.161	58736
665.511	58741.42
665.862	58750.46
666.212	58832.04
666.562	58797.01
666.912	58804.47
667.262	58728.54
667.612	58752.95
667.962	58750.46
668.312	58655.1
668.662	58818.93
669.011	58739.61
669.361	58745.72
669.711	58666.62
670.06	58656
670.41	58569.45
670.76	58534.87
671.109	58655.77
671.459	58629.33
671.808	58518.38
672.157	58532.61
672.507	58442.9
672.856	58413.07
673.205	58446.29
673.554	58583.69
673.904	58454.88
674.253	58529.22
674.602	58459.4
674.951	58061.44
675.3	57914.32
675.649	58307.99
675.998	58327.87
676.346	58346.63
676.695	58442.45
677.044	58216.69
677.393	58275.67
677.741	58327.2
678.09	58244.49
678.438	58173.75
678.787	58198.16
679.135	58217.59
679.484	58031.38
679.832	58142.12
680.181	57873.65
680.529	57983.7
680.877	57948.45
681.225	57833.42
681.573	58023.7
681.922	57841.56
682.27	57789.36
682.618	57677.04
682.966	57668
683.314	57667.33
683.661	57556.37
684.009	57439.76
684.357	57304.62
684.705	57426.88
685.053	57422.36
685.4	57388.91
685.748	57252.65
686.095	57207.9
686.443	57207.45
686.79	57096.72
687.138	57210.39
687.485	57131.29
687.832	57054.46
688.18	57013.56
688.527	56862.6
688.874	56929.72
689.221	56892.43
689.568	56717.52
689.915	56627.13
690.262	56544.64
690.609	56547.81
690.956	56460.13
691.303	56479.11
691.65	56367.02
691.997	56348.72
692.344	56176.52
692.69	56075.28
693.037	56115.5
693.383	55934.26
693.73	55974.04
694.077	55782.86
694.423	55774.49
694.769	55687.04
695.116	55547.38
695.462	55593.93
695.808	55546.03
696.155	55520.26
696.501	55336.99
696.847	55398.91
697.193	55170.67
697.539	55197.56
697.885	54967.96
698.231	54843.67
698.577	54952.59
698.923	54917.12
699.269	54727.29
699.614	54593.73
699.96	54450.46
700.306	54476.22
700.651	54398.71
700.997	54306.51
701.342	54178.15
701.688	54197.13
702.033	54166.63
702.379	54109.9
702.724	53900.19
703.069	54031.49
703.415	53595.57
703.76	53715.34
704.105	53519.86
704.45	53574.55
704.795	53370.72
705.14	53365.74
705.485	53318.29
705.83	53317.84
706.175	53309.47
706.52	53239.65
706.865	52982.93
707.209	52983.15
707.554	52835.59
707.899	52824.29
708.243	52647.12
708.588	52766.89
708.932	52387.69
709.277	52382.04
709.621	52363.28
709.966	52264.98
710.31	52310.63
710.654	52034.03
710.998	52112.67
711.342	52020.02
711.687	51893.47
712.031	51755.39
712.375	51556.53
712.719	51699.57
713.063	51596.07
713.407	51634.94
713.75	51578.67
714.094	51488.5
714.438	51328.96
714.782	51306.81
715.125	51137.78
715.469	51247.61
715.812	51041.74
716.156	50967.39
716.499	50898.24
716.843	50920.61
717.186	50664.12
717.53	50853.72
717.873	50900.95
718.216	50662.99
718.559	50485.14
718.902	50312.94
719.246	50370.79
719.589	50173.96
719.932	50039.28
720.275	50113.17
720.617	49944.82
720.96	49971.48
721.303	49968.77
721.646	49889
721.989	49602.45
722.331	49709.34
722.674	49618.27
723.016	49522
723.359	49495.56
723.701	49640.42
724.044	49308.68
724.386	49167.66
724.729	49305.51
725.071	49190.49
725.413	49035.46
725.755	49074.33
726.097	48859.65
726.439	48825.52
726.782	48814
727.124	48884.51
727.465	48631.86
727.807	48475.25
728.149	48513.22
728.491	48506.89
728.833	48455.14
729.175	48281.58
729.516	48127.92
729.858	48156.62
730.199	48083.85
730.541	48055.83
730.882	47923.85
731.224	48112.77
731.565	47795.95
731.906	47725.21
732.248	47768.38
732.589	47628.95
732.93	47477.08
733.271	47331.55
733.612	47346.69
733.953	47383.08
734.294	47181.27
734.635	47115.74
734.976	47307.15
735.317	46951.9
735.658	47041.39
735.999	46900.83
736.339	46674.39
736.68	47014.72
737.021	46609.76
737.361	46405.47
737.702	46758.46
738.042	46546.04
738.383	46537.67
738.723	46548.52
739.063	46281.86
739.404	46368.41
739.744	46191.92
740.084	45989.67
740.424	45928.43
740.764	46021.76
741.104	46039.38
741.444	45891.36
741.784	45828.31
742.124	45806.39
742.464	45815.89
742.804	45694.08
743.143	45510.13
743.483	45618.38
743.823	45430.81
744.162	45479.62
744.502	45499.06
744.841	45121.21
745.181	45307.42
745.52	45128.45
745.86	45078.5
746.199	44887.32
746.538	44724.61
746.877	44820.88
747.216	44771.39
747.556	44610.72
747.895	44519.42
748.234	44322.37
748.573	44258.86
748.911	44457.73
749.25	44214.57
749.589	43994.69
749.928	44049.15
750.267	44008.48
750.605	43861.36
750.944	43697.52
751.283	43707.24
751.621	43775.49
751.96	43476.51
