Data from foil_FLMS001491_066.txt Node
Date: Tue Feb 07 11:36:27 GMT 2017
User: dcchb
Spectrometer: FLMS00149
Trigger mode: 0
Integration Time (sec): 2.000000E-2
Scans to average: 10
Electric dark correction enabled: true
Nonlinearity correction enabled: false
Boxcar width: 0
XAxis mode: Wavelengths
Number of Pixels in Spectrum: 2048
>>>>>Begin Spectral Data<<<<<
341.393	-12.81
341.776	-12.81
342.16	-12.81
342.543	-83.77
342.927	-59.81
343.31	-82.87
343.693	-85.12
344.077	-63.66
344.46	-53.49
344.843	-59.59
345.226	-39.48
345.61	-24.56
345.993	-15.52
346.376	5.04
346.759	22.44
347.142	26.51
347.525	35.32
347.908	67.87
348.291	71.48
348.674	81.88
349.057	113.74
349.44	104.7
349.823	147.86
350.206	146.96
350.588	285.03
350.971	259.72
351.354	300.63
351.737	312.15
352.119	337.01
352.502	347.63
352.884	355.09
353.267	353.96
353.65	378.37
354.032	382.21
354.414	405.03
354.797	377.46
355.179	395.77
355.562	404.35
355.944	425.14
356.326	416.78
356.709	414.97
357.091	424.24
357.473	424.47
357.855	448.42
358.238	426.05
358.62	458.36
359.002	446.39
359.384	441.64
359.766	449.1
360.148	439.16
360.53	447.29
360.912	440.96
361.294	440.51
361.676	447.52
362.057	446.84
362.439	453.17
362.821	441.87
363.203	427.86
363.584	446.84
363.966	452.49
364.348	436.67
364.729	450.23
365.111	444.8
365.493	455.43
365.874	461.75
366.256	476.22
366.637	430.12
367.019	438.7
367.4	468.76
367.781	472.37
368.163	471.02
368.544	466.73
368.925	457.91
369.306	494.29
369.688	469.44
370.069	474.63
370.45	468.98
370.831	476.22
371.212	487.29
371.593	494.75
371.974	489.32
372.355	481.41
372.736	501.3
373.117	479.61
373.498	506.5
373.879	503.56
374.26	488.65
374.641	475.99
375.021	525.03
375.402	522.77
375.783	533.39
376.163	556.44
376.544	566.84
376.925	541.98
377.305	542.66
377.686	542.43
378.066	532.71
378.447	555.31
378.827	549.43
379.208	555.76
379.588	554.86
379.968	591.92
380.349	590.56
380.729	610.9
381.109	596.67
381.489	593.5
381.87	595.31
382.25	639.83
382.63	634.86
383.01	638.25
383.39	618.81
383.77	638.7
384.15	640.28
384.53	664.91
384.91	656.32
385.29	651.13
385.67	650
386.049	691.35
386.429	698.81
386.809	699.04
387.189	695.65
387.568	705.36
387.948	717.57
388.328	740.62
388.707	731.58
389.087	744.23
389.466	759.37
389.846	737.68
390.225	763.89
390.605	762.54
390.984	790.11
391.363	760.05
391.743	790.56
392.122	806.83
392.501	823.55
392.881	864.91
393.26	851.8
393.639	841.86
394.018	855.42
394.397	861.52
394.776	855.64
395.155	875.98
395.534	873.27
395.913	907.17
396.292	908.75
396.671	925.24
397.05	931.8
397.429	925.92
397.808	947.84
398.186	943.77
398.565	974.96
398.944	926.37
399.323	994.17
399.701	982.19
400.08	999.59
400.458	999.59
400.837	998.01
401.215	1021.51
401.594	1048.63
401.972	1057.22
402.351	1071
402.729	1070.78
403.107	1111.45
403.486	1107.39
403.864	1111.68
404.242	1129.31
404.62	1124.56
404.999	1152.81
405.377	1182.41
405.755	1164.11
406.133	1204.78
406.511	1203.65
406.889	1225.35
407.267	1265.57
407.645	1248.4
408.023	1293.37
408.401	1309.64
408.779	1285.23
409.156	1359.36
409.534	1329.3
409.912	1366.81
410.29	1391.45
410.667	1375.85
411.045	1403.65
411.422	1444.78
411.8	1449.98
412.178	1496.98
412.555	1493.36
412.933	1514.83
413.31	1550.99
413.687	1572.46
414.065	1558
414.442	1587.6
414.819	1622.4
415.197	1617.2
415.574	1661.5
415.951	1671.67
416.328	1662.4
416.705	1725.67
417.082	1718.44
417.46	1700.14
417.837	1739.23
418.214	1763.64
418.591	1777.43
418.967	1785.11
419.344	1825.56
419.721	1845.22
420.098	1829.85
420.475	1877.08
420.852	1877.99
421.228	1926.8
421.605	1906.01
421.982	1909.4
422.358	1992.33
422.735	2000.24
423.111	2002.28
423.488	1997.08
423.864	2074.14
424.241	2097.87
424.617	2090.64
424.994	2089.73
425.37	2127.02
425.746	2169.96
426.123	2164.31
426.499	2202.72
426.875	2209.96
427.251	2284.76
427.627	2303.96
428.003	2328.37
428.379	2361.82
428.756	2395.26
429.132	2432.55
429.507	2437.07
429.883	2498.31
430.259	2524.3
430.635	2530.4
431.011	2571.75
431.387	2625.09
431.763	2666.22
432.138	2696.04
432.514	2740.34
432.89	2717.51
433.265	2798.19
433.641	2855.14
434.016	2846.55
434.392	2872.09
434.767	2953.67
435.143	2930.16
435.518	3004.29
435.894	3040.22
436.269	3096.26
436.644	3131.74
437.02	3174.45
437.395	3169.25
437.77	3221.68
438.145	3259.42
438.52	3290.15
438.895	3311.62
439.271	3322.92
439.646	3422.58
440.021	3416.03
440.395	3430.71
440.77	3424.39
441.145	3467.1
441.52	3551.39
441.895	3491.73
442.27	3557.04
442.645	3574.67
443.019	3616.92
443.394	3625.06
443.769	3634.33
444.143	3622.57
444.518	3749.58
444.892	3736.7
445.267	3757.94
445.641	3820.08
446.016	3804.04
446.39	3837.03
446.764	3870.25
447.139	3887.2
447.513	3964.26
447.887	3954.99
448.262	3929.23
448.636	4013.07
449.01	4040.87
449.384	4072.05
449.758	4110.02
450.132	4173.29
450.506	4192.73
450.88	4211.94
451.254	4228.89
451.628	4299.62
452.002	4312.05
452.376	4368.77
452.75	4396.79
453.123	4480.4
453.497	4559.95
453.871	4552.49
454.244	4661.42
454.618	4714.75
454.992	4735.09
455.365	4700.74
455.739	4896.21
456.112	4934.18
456.486	4919.49
456.859	5005.36
457.232	5126.94
457.606	5138.24
457.979	5214.4
458.352	5270.67
458.725	5348.86
459.099	5386.14
459.472	5518.8
459.845	5519.02
460.218	5576.87
460.591	5560.6
460.964	5645.35
461.337	5806.92
461.71	5903.87
462.083	5937.54
462.456	5945.68
462.829	6009.86
463.201	6140.7
463.574	6191.32
463.947	6237.19
464.32	6342.5
464.692	6383.86
465.065	6514.7
465.438	6538.66
465.81	6664.08
466.183	6727.58
466.555	6868.82
466.928	6902.71
467.3	6914.01
467.672	7025.2
468.045	7252.76
468.417	7284.17
468.789	7333.66
469.161	7378.41
469.534	7566.65
469.906	7584.5
470.278	7779.75
470.65	7822.46
471.022	7996.7
471.394	8195.11
471.766	8233.53
472.138	8318.27
472.51	8476.23
472.882	8618.38
473.253	8719.62
473.625	8781.99
473.997	9033.73
474.369	9022.43
474.74	9203.9
475.112	9335.64
475.484	9499.03
475.855	9699.02
476.227	9765.24
476.598	10050.65
476.97	10077.55
477.341	10318.22
477.713	10472.34
478.084	10494.03
478.455	10821.26
478.827	10866.9
479.198	11253.79
479.569	11235.26
479.94	11592.99
480.311	11644.06
480.682	11989.13
481.053	12244.27
481.424	12447.43
481.795	12466.18
482.166	12701.43
482.537	12878.15
482.908	13164.02
483.279	13237.46
483.65	13507.06
484.021	13758.8
484.391	13834.28
484.762	13982.98
485.133	14172.81
485.503	14325.12
485.874	14697.76
486.244	14879.23
486.615	15152.89
486.985	15293.45
487.356	15571.41
487.726	15733.67
488.097	16029.48
488.467	16109.03
488.837	16496.59
489.207	16610.03
489.578	16915.33
489.948	17090.24
490.318	17303.57
490.688	17281.65
491.058	17626.5
491.428	17858.36
491.798	17920.05
492.168	18338.8
492.538	18527.04
492.908	18670.99
493.278	18921.38
493.648	18866.24
494.017	19190.98
494.387	19370.63
494.757	19478.43
495.126	19759.78
495.496	19709.83
495.866	19932.88
496.235	20128.81
496.605	20306.88
496.974	20409.7
497.344	20669.81
497.713	20814.21
498.082	20922.46
498.452	21094.21
498.821	21215.78
499.19	21393.86
499.559	21525.38
499.928	21634.76
500.298	21856.45
500.667	22078.59
501.036	22042.88
501.405	22296.21
501.774	22342.53
502.143	22474.96
502.512	22675.41
502.88	22855.51
503.249	22944.55
503.618	23142.96
503.987	23309.29
504.356	23402.85
504.724	23611.88
505.093	23669.73
505.462	23786.79
505.83	23918.54
506.199	24177.06
506.567	24502.7
506.936	24464.96
507.304	24683.04
507.672	24909.47
508.041	25006.64
508.409	25146.53
508.777	25348.33
509.145	25498.38
509.514	25533.18
509.882	25855.89
510.25	25796.23
510.618	26034.87
510.986	26190.79
511.354	26460.62
511.722	26676.43
512.09	26947.84
512.458	26970.89
512.826	27154.16
513.193	27282.97
513.561	27448.39
513.929	27726.35
514.297	27956.4
514.664	28211.98
515.032	28244.07
515.4	28407.46
515.767	28632.31
516.135	28849.48
516.502	28770.39
516.869	29195.46
517.237	29411.05
517.604	29350.26
517.972	29786.63
518.339	29972.84
518.706	30085.83
519.073	30316.79
519.44	30392.72
519.808	30826.83
520.175	30857.34
520.542	31316.54
520.909	31485.57
521.276	31353.37
521.643	31813.02
522.009	31935.73
522.376	32148.15
522.743	32306.11
523.11	32635.14
523.477	33011.41
523.843	33272.19
524.21	33529.58
524.577	33820.88
524.943	33898.61
525.31	34042.57
525.676	34239.4
526.043	34554.87
526.409	34795.77
526.776	35301.74
527.142	35350.33
527.508	35605.69
527.874	35827.83
528.241	35981.27
528.607	36141.27
528.973	36453.8
529.339	36376.06
529.705	36819.89
530.071	37018.53
530.437	37288.58
530.803	37471.4
531.169	37768.12
531.535	37689.7
531.901	37953.42
532.267	38183.7
532.632	38202.68
532.998	38467.08
533.364	38754.98
533.73	38833.17
534.095	39226.84
534.461	39254.63
534.826	39486.49
535.192	39581.63
535.557	39851.9
535.923	39883.99
536.288	40095.97
536.653	40349.07
537.019	40217.54
537.384	40627.25
537.749	40642.62
538.114	40624.99
538.479	40815.95
538.845	40929.16
539.21	40979.33
539.575	41140.68
539.94	41213.9
540.305	41626.55
540.67	41640.78
541.034	41885.97
541.399	42048
541.764	42043.48
542.129	42312.86
542.494	42268.34
542.858	42464.94
543.223	42650.47
543.587	42957.13
543.952	42817.93
544.316	42981.31
544.681	43127.75
545.045	43329.33
545.41	43432.15
545.774	43623.33
546.138	43554.63
546.503	43845.7
546.867	43856.77
547.231	44124.79
547.595	44114.16
547.959	44288.85
548.324	44474.16
548.688	44538.11
549.052	44677.09
549.416	44959.79
549.779	44996.18
550.143	45113.91
550.507	45366.56
550.871	45527.91
551.235	45488.82
551.599	45762.26
551.962	45967
552.326	46132.42
552.689	46322.47
553.053	46267.78
553.417	46431.39
553.78	46927.2
554.143	46709.35
554.507	46783.7
554.87	47052.39
555.234	47378.26
555.597	47235.66
555.96	47410.58
556.323	47623.45
556.686	47724.24
557.05	47966.49
557.413	48110.9
557.776	48276.77
558.139	48569.64
558.502	48645.35
558.865	48734.61
559.228	49084.43
559.59	49041.49
559.953	49153.58
560.316	49530.29
560.679	49573.91
561.041	49895.71
561.404	49922.37
561.767	50213.67
562.129	50087.12
562.492	50511.28
562.854	50558.06
563.217	50507.9
563.579	50676.03
563.941	50901.78
564.304	51120.99
564.666	51263.58
565.028	51263.58
565.39	51542.67
565.753	51693.17
566.115	51809.78
566.477	51903.79
566.839	52022.43
567.201	52276.44
567.563	52257.68
567.925	52545.36
568.287	52535.64
568.648	52619.48
569.01	52854.5
569.372	53072.57
569.734	53086.58
570.095	53286.35
570.457	53332.68
570.819	53403.19
571.18	53442.06
571.542	53611.32
571.903	53625.78
572.265	53722.95
572.626	53822.16
572.987	53885.21
573.349	54023.28
573.71	54133.79
574.071	54160
574.432	54242.03
574.794	54519.32
575.155	54457.4
575.516	54423.27
575.877	54528.58
576.238	54503.95
576.599	54658.07
576.96	54707.11
577.32	54707.56
577.681	54875.46
578.042	54987.55
578.403	54908.01
578.763	54863.26
579.124	55035.01
579.485	55117.72
579.845	55148
580.206	55234.78
580.566	55094.67
580.927	55191.61
581.287	55257.83
581.648	55148.45
582.008	55355.23
582.368	55308.67
582.728	55337.6
583.089	55254.44
583.449	55319.97
583.809	55347.77
584.169	55412.62
584.529	55356.36
584.889	55530.59
585.249	55402.46
585.609	55405.39
585.969	55519.97
586.329	55439.06
586.688	55475.45
587.048	55501.66
587.408	55397.71
587.768	55451.95
588.127	55431.61
588.487	55387.77
588.846	55539.4
589.206	55364.72
589.565	55396.81
589.925	55541.44
590.284	55505.5
590.643	55598.61
591.003	55636.8
591.362	55719.06
591.721	55581.43
592.08	55566.29
592.44	55748.21
592.799	55631.6
593.158	55670.02
593.517	55646.52
593.876	55613.52
594.235	55597.48
594.593	55578.95
594.952	55723.8
595.311	55526.29
595.67	55652.17
596.029	55825.72
596.387	55774.2
596.746	55784.82
597.104	55676.57
597.463	55711.83
597.822	55821.43
598.18	55644.26
598.538	55761.77
598.897	55922.89
599.255	55676.8
599.613	56123.11
599.972	55884.02
600.33	56002.67
600.688	55887.64
601.046	55989.11
601.404	56056.22
601.762	55939.62
602.12	56052.38
602.478	56101.19
602.836	56030.91
603.194	55966.06
603.552	55981.65
603.91	56004.02
604.268	56167.18
604.625	56060.52
604.983	56129.44
605.341	56022.33
605.698	56185.03
606.056	56195.66
606.413	56169.89
606.771	56253.51
607.128	56310.68
607.485	56225.03
607.843	56303.45
608.2	56399.27
608.557	56424.12
608.914	56399.04
609.272	56486.72
609.629	56541.63
609.986	56650.56
610.343	56490.79
610.7	56741.4
611.057	56584.12
611.414	56598.81
611.771	56629.09
612.127	56815.07
612.484	56705.02
612.841	56770.1
613.198	56733.95
613.554	56758.8
613.911	56839.25
614.267	56922.87
614.624	56853.72
614.98	56902.98
615.337	56952.47
615.693	56916.99
616.05	56995.41
616.406	57079.25
616.762	56970.78
617.118	57032.7
617.475	57044.67
617.831	57140.26
618.187	57133.71
618.543	57134.61
618.899	57225.91
619.255	57194.72
619.611	57104.56
619.967	57296.42
620.323	57274.72
620.678	57137.78
621.034	57038.12
621.39	57140.94
621.746	57063.2
622.101	57366.92
622.457	57106.59
622.812	57173.03
623.168	57246.02
623.523	57238.11
623.879	57265.91
624.234	57161.51
624.589	57252.58
624.945	57288.51
625.3	57310.2
625.655	57206.48
626.01	57263.65
626.365	57281.5
626.72	57136.65
627.075	57203.76
627.43	57203.99
627.785	57118.79
628.14	57134.16
628.495	57206.25
628.85	57159.25
629.205	57078.57
629.559	57263.88
629.914	57104.11
630.269	57031.57
630.623	57026.14
630.978	56929.2
631.332	57042.86
631.687	57015.07
632.041	56932.58
632.396	56906.37
632.75	56811.01
633.104	56897.33
633.459	56772.14
633.813	56773.04
634.167	56723.1
634.521	56773.27
634.875	56761.06
635.229	56731.23
635.583	56577.11
635.937	56621.18
636.291	56517.68
636.645	56607.85
636.999	56483.33
637.352	56567.62
637.706	56420.51
638.06	56459.38
638.413	56371.24
638.767	56311.58
639.121	56378.93
639.474	56246.73
639.828	56281.53
640.181	56271.36
640.534	56229.1
640.888	56159.72
641.241	56024.59
641.594	56087.41
641.947	56117.92
642.301	56060.07
642.654	56126.05
643.007	56122.21
643.36	55978.49
643.713	55965.6
644.066	56056.45
644.419	55710.47
644.771	55377.37
645.124	55074.78
645.477	55015.57
645.83	55070.49
646.182	55021.9
646.535	54951.62
646.888	55131.05
647.24	54971.28
647.593	55101.45
647.945	54974.22
648.298	54818.29
648.65	54737.61
649.002	54698.07
649.355	54815.8
649.707	54769.7
650.059	54735.35
650.411	55018.28
650.763	54997.95
651.115	55328.33
651.467	55278.39
651.819	55264.61
652.171	55161.78
652.523	55105.06
652.875	55210.6
653.227	54988
653.578	55184.38
653.93	55117.94
654.282	54985.74
654.633	54875.69
654.985	55050.15
655.337	54954.56
655.688	54891.51
656.039	55005.63
656.391	54718.86
656.742	54714.79
657.094	54748.91
657.445	54846.31
657.796	54767.44
658.147	54738.29
658.498	54723.83
658.849	54708.91
659.2	54750.27
659.551	54589.14
659.902	54683.83
660.253	54595.7
660.604	54658.07
660.955	54437.51
661.306	54631.85
661.656	54503.27
662.007	54544.85
662.358	54519.54
662.708	54465.76
663.059	54428.7
663.409	54289.94
663.76	54517.51
664.11	54398.64
664.461	54397.96
664.811	54419.66
665.161	54342.82
665.511	54353.44
665.862	54380.11
666.212	54400.22
666.562	54405.87
666.912	54371.52
667.262	54242.03
667.612	54284.74
667.962	54210.85
668.312	54100.79
668.662	54287.23
669.011	54140.79
669.361	54145.09
669.711	54204.3
670.06	54010.4
670.41	54080.23
670.76	53998.42
671.109	54080.68
671.459	54096.28
671.808	53903.29
672.157	53960.91
672.507	53895.15
672.856	53821.03
673.205	53796.62
673.554	54007.69
673.904	53826.23
674.253	54033.68
674.602	53814.02
674.951	53380.59
675.3	53286.58
675.649	53793.01
675.998	53703.07
676.346	53632.11
676.695	53796.85
677.044	53469.17
677.393	53705.33
677.741	53625.78
678.09	53601.37
678.438	53428.72
678.787	53552.11
679.135	53555.72
679.484	53251.55
679.832	53455.61
680.181	53278.9
680.529	53282.51
680.877	53182.85
681.225	53126.58
681.573	53305.79
681.922	53069.41
682.27	53056.75
682.618	53051.56
682.966	52985.12
683.314	53044.1
683.661	52789.19
684.009	52784.22
684.357	52718.23
684.705	52688.4
685.053	52689.08
685.4	52579.93
685.748	52468.75
686.095	52394.4
686.443	52332.48
686.79	52248.87
687.138	52279.15
687.485	52217.45
687.832	52102.66
688.18	52165.03
688.527	51923.23
688.874	52040.51
689.221	51901.53
689.568	51771.59
689.915	51646.62
690.262	51608.21
690.609	51544.48
690.956	51526.63
691.303	51469.9
691.65	51283.24
691.997	51162.79
692.344	51066.98
692.69	51062.23
693.037	51059.75
693.383	50667.89
693.73	50982.01
694.077	50720.54
694.423	50664.5
694.769	50461.34
695.116	50281.69
695.462	50310.61
695.808	50234.68
696.155	50183.38
696.501	50005.08
696.847	50015.7
697.193	49817.52
697.539	49963.05
697.885	49668.14
698.231	49423.4
698.577	49569.84
698.923	49451.2
699.269	49363.07
699.614	49106.8
699.96	49042.85
700.306	48917.88
700.651	48862.74
700.997	48723.99
701.342	48674.05
701.688	48443.54
702.033	48452.58
702.379	48521.96
702.724	48210.55
703.069	48272.47
703.415	47851.02
703.76	47861.41
704.105	47792.03
704.45	47730.34
704.795	47617.8
705.14	47361.76
705.485	47430.01
705.83	47280.86
706.175	47401.08
706.52	47163.35
706.865	47007.2
707.209	46966.97
707.554	46777.6
707.899	46802.23
708.243	46550.49
708.588	46586.87
708.932	46363.15
709.277	46336.93
709.621	46371.73
709.966	46041.8
710.31	46118.18
710.654	45882.71
710.998	45883.16
711.342	45929.71
711.687	45660.56
712.031	45577.4
712.375	45363.62
712.719	45411.08
713.063	45352.55
713.407	45333.12
713.75	45135.83
714.094	45084.76
714.438	44797.54
714.782	45024.42
715.125	44722.06
715.469	44852.22
715.812	44568.39
716.156	44342.63
716.499	44434.61
716.843	44552.57
717.186	44259.02
717.53	44354.38
717.873	44331.79
718.216	44148.74
718.559	43892.48
718.902	43727.06
719.246	43809.54
719.589	43791.46
719.932	43616.1
720.275	43608.19
720.617	43497.23
720.96	43416.33
721.303	43412.49
721.646	43391.92
721.989	43064.48
722.331	43092.27
722.674	43029.9
723.016	43160.74
723.359	42983.12
723.701	42910.58
724.044	42570.48
724.386	42470.59
724.729	42644.6
725.071	42542.23
725.413	42530.48
725.755	42457.03
726.097	42099.98
726.439	41902.92
726.782	42063.6
727.124	42154.89
727.465	41926.2
727.807	42024.73
728.149	41834.22
728.491	41883.04
728.833	41736.6
729.175	41683.27
729.516	41543.39
729.858	41421.81
730.199	41544.06
730.541	41330.28
730.882	41287.57
731.224	41423.39
731.565	41077.63
731.906	40985.43
732.248	41218.87
732.589	40929.16
732.93	40732.11
733.271	40768.49
733.612	40700.92
733.953	40719.9
734.294	40583.86
734.635	40568.5
734.976	40674.71
735.317	40308.84
735.658	40399.46
735.999	40303.19
736.339	40147.26
736.68	40276.75
737.021	40121.05
737.361	40006.7
737.702	40123.99
738.042	39893.26
738.383	39764.22
738.723	40044.44
739.063	39642.19
739.404	39796.54
739.744	39588.18
740.084	39599.93
740.424	39427.28
740.764	39406.04
741.104	39660.27
741.444	39222.32
741.784	39160.62
742.124	39181.19
742.464	39042.43
742.804	39113.17
743.143	38860.29
743.483	38911.82
743.823	38643.12
744.162	38729.45
744.502	38667.75
744.841	38404.26
745.181	38668.21
745.52	38309.35
745.86	38550.92
746.199	38338.27
746.538	38211.95
746.877	38236.81
747.216	38202.46
747.556	38096.24
747.895	38096.92
748.234	37931.95
748.573	37985.51
748.911	37802.01
749.25	37711.4
749.589	37648.57
749.928	37633.66
750.267	37586.2
750.605	37511.17
750.944	37410.84
751.283	37234.57
751.621	37289.94
751.96	37065.08
752.298	37103.73
752.636	37040
