Data from foil_FLMS001491_068.txt Node
Date: Tue Feb 07 11:36:27 GMT 2017
User: dcchb
Spectrometer: FLMS00149
Trigger mode: 0
Integration Time (sec): 2.000000E-2
Scans to average: 10
Electric dark correction enabled: true
Nonlinearity correction enabled: false
Boxcar width: 0
XAxis mode: Wavelengths
Number of Pixels in Spectrum: 2048
>>>>>Begin Spectral Data<<<<<
341.393	-15.54
341.776	-15.54
342.16	-15.54
342.543	-73.39
342.927	-64.12
343.31	-66.38
343.693	-60.96
344.077	-77
344.46	-68.64
344.843	-66.83
345.226	-31.81
345.61	-24.8
345.993	-6.95
346.376	-3.79
346.759	12.03
347.142	26.72
347.525	39.83
347.908	49.55
348.291	82.31
348.674	92.94
349.057	103.78
349.44	136.55
349.823	155.53
350.206	141.52
350.588	286.83
350.971	261.52
351.354	309.88
351.737	309.65
352.119	324.12
352.502	339.93
352.884	376.77
353.267	374.96
353.65	361.4
354.032	372.7
354.414	390.1
354.797	397.56
355.179	390.55
355.562	413.6
355.944	419.48
356.326	416.99
356.709	412.02
357.091	406.83
357.473	423.32
357.855	450.89
358.238	424
358.62	452.02
359.002	451.57
359.384	435.3
359.766	442.53
360.148	425.36
360.53	477.33
360.912	436.2
361.294	468.29
361.676	453.38
362.057	437.11
362.439	423.77
362.821	457.9
363.203	454.06
363.584	451.57
363.966	458.58
364.348	458.35
364.729	466.48
365.111	476.43
365.493	455.86
365.874	451.34
366.256	480.72
366.637	468.97
367.019	465.58
367.4	460.16
367.781	465.35
368.163	444.56
368.544	485.69
368.925	468.07
369.306	494.73
369.688	482.53
370.069	476.2
370.45	467.61
370.831	496.31
371.212	492.47
371.593	475.07
371.974	487.73
372.355	497.22
372.736	509.87
373.117	517.33
373.498	501.29
373.879	500.83
374.26	501.29
374.641	458.8
375.021	488.86
375.402	518.46
375.783	536.54
376.163	555.3
376.544	574.96
376.925	551.45
377.305	559.36
377.686	553.49
378.066	576.09
378.447	569.31
378.827	553.04
379.208	582.64
379.588	585.13
379.968	590.32
380.349	571.57
380.729	580.38
381.109	596.88
381.489	607.95
381.87	619.93
382.25	613.15
382.63	626.48
383.01	634.84
383.39	641.85
383.77	663.32
384.15	642.53
384.53	643.88
384.91	646.59
385.29	659.7
385.67	699.93
386.049	690.66
386.429	671.68
386.809	700.38
387.189	689.08
387.568	725.46
387.948	731.56
388.328	736.31
388.707	730.43
389.087	733.6
389.466	771.11
389.846	729.08
390.225	771.56
390.605	765.46
390.984	782.18
391.363	807.49
391.743	815.85
392.122	812.24
392.501	823.31
392.881	823.54
393.26	873.93
393.639	857.66
394.018	859.92
394.397	854.27
394.776	866.47
395.155	876.19
395.534	915.29
395.913	901.95
396.292	927.72
396.671	940.14
397.05	925.91
397.429	932.46
397.808	939.92
398.186	945.34
398.565	971.56
398.944	983.53
399.323	959.13
399.701	984.89
400.08	987.6
400.458	990.31
400.837	999.58
401.215	1034.83
401.594	1058.11
401.972	1046.13
402.351	1053.59
402.729	1078.9
403.107	1076.19
403.486	1113.93
403.864	1131.1
404.242	1146.69
404.62	1151.44
404.999	1182.62
405.377	1141.95
405.755	1178.33
406.133	1211.32
406.511	1192.12
406.889	1191.44
407.267	1235.28
407.645	1256.07
408.023	1255.62
408.401	1264.88
408.779	1292
409.156	1319.34
409.534	1350.08
409.912	1357.53
410.29	1381.04
410.667	1401.6
411.045	1429.4
411.422	1456.74
411.8	1411.09
412.178	1468.94
412.555	1497.64
412.933	1524.31
413.31	1520.69
413.687	1567.92
414.065	1569.28
414.442	1566.57
414.819	1629.17
415.197	1613.35
415.574	1609.28
415.951	1662.39
416.328	1682.05
416.705	1689.96
417.082	1731.54
417.46	1717.3
417.837	1772.67
418.214	1771.54
418.591	1777.64
418.967	1792.78
419.344	1820.35
419.721	1871.19
420.098	1868.26
420.475	1881.14
420.852	1885.2
421.228	1906.45
421.605	1944.86
421.982	1942.6
422.358	1981.02
422.735	2005.43
423.111	2017.18
423.488	2020.79
423.864	2068.25
424.241	2099.89
424.617	2126.33
424.994	2116.61
425.37	2156.61
425.746	2136.27
426.123	2214.46
426.499	2172.65
426.875	2226.89
427.251	2271.64
427.627	2332.42
428.003	2327.45
428.379	2362.71
428.756	2362.03
429.132	2410.16
429.507	2461.01
429.883	2495.13
430.259	2519.99
430.635	2504.62
431.011	2579.2
431.387	2637.95
431.763	2683.6
432.138	2678.18
432.514	2725.63
432.89	2704.17
433.265	2797.95
433.641	2848.34
434.016	2857.16
434.392	2823.94
434.767	2937.38
435.143	2903.93
435.518	2983.03
435.894	3027.32
436.269	3068
436.644	3141.67
437.02	3183.25
437.395	3157.71
437.77	3198.62
438.145	3274.09
438.52	3292.85
438.895	3296.69
439.271	3331.27
439.646	3395.45
440.021	3409.91
440.395	3390.93
440.77	3418.5
441.145	3477.03
441.52	3533.75
441.895	3528.55
442.27	3588.21
442.645	3566.52
443.019	3658.04
443.394	3643.8
443.769	3682.9
444.143	3673.41
444.518	3729.9
444.892	3709.56
445.267	3755.21
445.641	3793.86
446.016	3814.87
446.39	3843.35
446.764	3844.7
447.139	3869.11
447.513	3901.42
447.887	3953.17
448.262	3966.96
448.636	3997.47
449.01	4058.93
449.384	4094.86
449.758	4131.7
450.132	4163.11
450.506	4218.93
450.88	4248.98
451.254	4222.32
451.628	4275.88
452.002	4354.74
452.376	4387.96
452.75	4422.54
453.123	4424.57
453.497	4525.81
453.871	4565.81
454.244	4663.66
454.618	4698.46
454.992	4758.35
455.365	4745.47
455.739	4899.36
456.112	4911.79
456.486	4997.44
456.859	5035.4
457.232	5132.35
457.606	5150.88
457.979	5160.82
458.352	5293.93
458.725	5364.89
459.099	5390.65
459.472	5459.57
459.845	5519.69
460.218	5583.86
460.591	5596.75
460.964	5637.42
461.337	5851.2
461.71	5893.46
462.083	5954.48
462.456	5978.88
462.829	6004.19
463.201	6136.17
463.574	6138.43
463.947	6206.45
464.32	6374.13
464.692	6400.79
465.065	6490.51
465.438	6571.86
465.81	6708.13
466.183	6695.93
466.555	6871.29
466.928	6925.07
467.3	6908.35
467.672	7015.01
468.045	7197.61
468.417	7252.75
468.789	7255.46
469.161	7387.43
469.534	7495
469.906	7709.68
470.278	7710.59
470.65	7790.59
471.022	7989.68
471.394	8171.82
471.766	8217.47
472.138	8271.48
472.51	8492.04
472.882	8629.89
473.253	8658.36
473.625	8835.98
473.997	9024.68
474.369	9124.79
474.74	9125.69
475.112	9269.64
475.484	9468.06
475.855	9667.37
476.227	9708.5
476.598	9971.09
476.97	10109.85
477.341	10375.15
477.713	10446.56
478.084	10454.7
478.455	10848.81
478.827	10888.13
479.198	11219.65
479.569	11232.3
479.94	11569.02
480.311	11711.39
480.682	11917.03
481.053	12251.03
481.424	12430.69
481.795	12516.56
482.166	12710.23
482.537	12885.82
482.908	13104.57
483.279	13260.95
483.65	13560.38
484.021	13743.88
484.391	13914.04
484.762	14093.92
485.133	14220.93
485.503	14389.06
485.874	14802.61
486.244	14900.68
486.615	15089.6
486.985	15372.08
487.356	15554.45
487.726	15758.29
488.097	16000.99
488.467	16154.89
488.837	16422
489.207	16558.49
489.578	16885.49
489.948	16966.84
490.318	17275.31
490.688	17282.99
491.058	17580.84
491.428	17838.23
491.798	17960.26
492.168	18387.82
492.538	18432.79
492.908	18700.13
493.278	18881.37
493.648	18932.67
494.017	19216.05
494.387	19268.02
494.757	19485.42
495.126	19685.64
495.496	19771.29
495.866	19931.74
496.235	20202.01
496.605	20285.17
496.974	20479.97
497.344	20692.39
497.713	20771.94
498.082	20855.1
498.452	21214.64
498.821	21224.81
499.19	21282.21
499.559	21483.79
499.928	21764.91
500.298	21792.93
500.667	22055.97
501.036	22061.17
501.405	22260.04
501.774	22332.8
502.143	22505.23
502.512	22631.78
502.88	23031.54
503.249	22890.08
503.618	23166
503.987	23265.89
504.356	23389.72
504.724	23618.19
505.093	23673.78
505.462	23724.86
505.83	23991.97
506.199	24116.26
506.567	24259.31
506.936	24409.13
507.304	24698.39
507.672	24912.85
508.041	24989
508.409	25203.69
508.777	25335.66
509.145	25523
509.514	25569.55
509.882	25732.71
510.25	25946.04
510.618	26152.59
510.986	26129.76
511.354	26577.89
511.722	26678.9
512.09	26945.34
512.458	26871.67
512.826	27207.48
513.193	27328.15
513.561	27512.55
513.929	27773.11
514.297	27973.78
514.664	28067.12
515.032	28177.62
515.4	28450.16
515.767	28468.23
516.135	28816.25
516.502	28730.83
516.869	29181.66
517.237	29424.82
517.604	29265.73
517.972	29726.73
518.339	29958.82
518.706	29947.52
519.073	30267.28
519.44	30436.54
519.808	30773.94
520.175	30796.99
520.542	31196.3
520.909	31363.3
521.276	31396.97
521.643	31686.68
522.009	31886.68
522.376	32024.53
522.743	32361.92
523.11	32699.99
523.477	33096.36
523.843	33219.07
524.21	33584.03
524.577	33777.47
524.943	33888.88
525.31	34085.49
525.676	34426.72
526.043	34459.94
526.409	34769.31
526.776	35066.71
527.142	35261.28
527.508	35451.55
527.874	35699.46
528.241	35969.05
528.607	36037.75
528.973	36343.73
529.339	36408.14
529.705	36811.52
530.071	37069.59
530.437	37313.88
530.803	37508.45
531.169	37784.83
531.535	37618.95
531.901	37810.59
532.267	38120.41
532.632	38355.43
532.998	38456.67
533.364	38743.44
533.73	38786.83
534.095	39160.16
534.461	39213.26
534.826	39386.37
535.192	39496.65
535.557	39914.04
535.923	39847.82
536.288	40086.46
536.653	40365.77
537.019	40168.04
537.384	40438.77
537.749	40752.21
538.114	40699.33
538.479	40764.41
538.845	40978.19
539.21	40943.16
539.575	41321.68
539.94	41275.81
540.305	41607.1
540.67	41559.19
541.034	41906.75
541.399	41937.03
541.764	41995.34
542.129	42164.82
542.494	42246.18
542.858	42411.6
543.223	42496.57
543.587	42888.42
543.952	42857.46
544.316	43026.04
544.681	43126.61
545.045	43350.78
545.41	43465.58
545.774	43578.8
546.138	43639.59
546.503	43715.97
546.867	43681.85
547.231	44270.53
547.595	44231.89
547.959	44300.36
548.324	44452.45
548.688	44492.45
549.052	44617.41
549.416	44875.94
549.779	44929.72
550.143	45051.75
550.507	45456.26
550.871	45453.55
551.235	45563.38
551.599	45927.21
551.962	45880.43
552.326	45892.18
552.689	46294.66
553.053	46224.83
553.417	46398.38
553.78	46884.25
554.143	46591.15
554.507	46908.88
554.87	46912.5
555.234	47402.43
555.597	47290.56
555.96	47464.57
556.323	47728.97
556.686	47769.2
557.05	48065.69
557.413	48055.52
557.776	48339.58
558.139	48486.69
558.502	48555.84
558.865	48740.24
559.228	48908.83
559.59	49108.14
559.953	49044.19
560.316	49599.66
560.679	49630.62
561.041	49843.94
561.404	50049.59
561.767	50247.32
562.129	50087.78
562.492	50515.34
562.854	50403.25
563.217	50569.8
563.579	50766.63
563.941	50935.67
564.304	51017.47
564.666	51243.23
565.028	51284.36
565.39	51540.85
565.753	51715.98
566.115	51798.47
566.477	51917.11
566.839	52042.98
567.201	52255.18
567.563	52381.28
567.925	52577.66
568.287	52555.96
568.648	52634.83
569.01	52858.78
569.372	53023.75
569.734	52968.61
570.095	53216.28
570.457	53364.53
570.819	53364.3
571.18	53335.6
571.542	53631.87
571.903	53543.28
572.265	53774.46
572.626	53780.79
572.987	53878.87
573.349	53940.11
573.71	54096.04
574.071	54150.95
574.432	54269.82
574.794	54490.38
575.155	54416.25
575.516	54361.34
575.877	54516.36
576.238	54589.81
576.599	54662.8
576.96	54703.93
577.32	54726.08
577.681	54831.16
578.042	54956.58
578.403	54875.68
578.763	54899.86
579.124	55054.65
579.485	55174.65
579.845	55205.61
580.206	55121.09
580.566	55105.05
580.927	55248.77
581.287	55284.03
581.648	55214.42
582.008	55385.49
582.368	55239.73
582.728	55271.82
583.089	55258.94
583.449	55242.45
583.809	55312.05
584.169	55451.93
584.529	55344.82
584.889	55593.85
585.249	55381.65
585.609	55326.96
585.969	55517.01
586.329	55443.34
586.688	55488.09
587.048	55531.03
587.408	55343.23
587.768	55446.28
588.127	55376.45
588.487	55365.15
588.846	55578.26
589.206	55420.07
589.565	55363.8
589.925	55528.09
590.284	55453.74
590.643	55534.19
591.003	55588.88
591.362	55679.72
591.721	55603.79
592.08	55550.91
592.44	55698.03
592.799	55651.93
593.158	55655.99
593.517	55612.61
593.876	55693.73
594.235	55514.98
594.593	55571.93
594.952	55618.26
595.311	55610.35
595.67	55641.98
596.029	55799.04
596.387	55715.65
596.746	55794.52
597.104	55697.58
597.463	55675.2
597.822	55815.31
598.18	55732.38
598.538	55718.14
598.897	55881.98
599.255	55719.95
599.613	56126.72
599.972	55916.55
600.33	55957.46
600.688	55892.82
601.046	55937.57
601.404	55983.44
601.762	55980.51
602.12	56074.74
602.478	56068.41
602.836	56076.55
603.194	55957.23
603.552	55920.62
603.91	55908.87
604.268	56172.36
604.625	55939.38
604.983	56140.5
605.341	55952.03
605.698	56120.84
606.056	56255.07
606.413	56222.08
606.771	56329.42
607.128	56328.52
607.485	56202.19
607.843	56231.8
608.2	56379.59
608.557	56529.64
608.914	56339.37
609.272	56508.4
609.629	56526.71
609.986	56598.34
610.343	56483.77
610.7	56680.6
611.057	56622.07
611.414	56592.24
611.771	56620.71
612.127	56733.71
612.484	56742.97
612.841	56838.34
613.198	56707.72
613.554	56682.41
613.911	56829.75
614.267	56872.69
614.624	56816.19
614.98	56864.55
615.337	57094.37
615.693	56992.68
616.05	56894.15
616.406	57012.79
616.762	56958.33
617.118	56971.44
617.475	56985.22
617.831	57088.95
618.187	57068.39
618.543	57123.07
618.899	57213.92
619.255	57118.33
619.611	57074.26
619.967	57211.89
620.323	57184.99
620.678	57078.33
621.034	57110.87
621.39	57078.56
621.746	57140.02
622.101	57376.4
622.457	57091.66
622.812	57162.17
623.168	57247.82
623.523	57186.35
623.879	57307.48
624.234	57115.39
624.589	57187.93
624.945	57248.49
625.3	57285.56
625.655	57263.86
626.01	57213.02
626.365	57269.29
626.72	57241.94
627.075	57202.17
627.43	57123.75
627.785	57119.01
628.14	57189.97
628.495	57178.44
628.85	57118.1
629.205	57007.82
629.559	57206.69
629.914	57021.83
630.269	57092.11
630.623	56927.15
630.978	56859.58
631.332	57027.71
631.687	57010.53
632.041	56884.21
632.396	56880.37
632.75	56846.02
633.104	56885.79
633.459	56764.44
633.813	56763.76
634.167	56723.31
634.521	56727.6
634.875	56806.02
635.229	56628.4
635.583	56527.16
635.937	56598.57
636.291	56569.19
636.645	56610.77
636.999	56464.33
637.352	56508.85
637.706	56424.11
638.06	56428.4
638.413	56381.85
638.767	56251.91
639.121	56402.19
639.474	56253.94
639.828	56292.81
640.181	56213.95
640.534	56222.53
640.888	56112.93
641.241	56014.85
641.594	56148.41
641.947	56173.95
642.301	56059.15
642.654	56046.94
643.007	56069.32
643.36	55978.7
643.713	55930.56
644.066	55992.48
644.419	55693.28
644.771	55338.94
645.124	55143.47
645.477	55051.04
645.83	55001.55
646.182	55025.28
646.535	54970.14
646.888	55120.19
647.24	54911.83
647.593	55036.8
647.945	55011.04
648.298	54752.97
648.65	54735.57
649.002	54679.3
649.355	54810.59
649.707	54666.87
650.059	54704.83
650.411	54969.01
650.763	54994.32
651.115	55382.33
651.467	55229.79
651.819	55207.42
652.171	55108.21
652.523	55137.82
652.875	55047.2
653.227	54928.56
653.578	55183.69
653.93	55068.44
654.282	54984.15
654.633	54899.86
654.985	54968.78
655.337	54926.97
655.688	54912.96
656.039	55006.97
656.391	54826.64
656.742	54831.38
657.094	54754.77
657.445	54874.32
657.796	54710.03
658.147	54602.01
658.498	54612.86
658.849	54706.64
659.2	54695.79
659.551	54555.46
659.902	54738.5
660.253	54567.21
660.604	54710.48
660.955	54496.7
661.306	54620.54
661.656	54468.91
662.007	54504.16
662.358	54473.88
662.708	54446.53
663.059	54491.28
663.409	54170.61
663.76	54462.81
664.11	54389.36
664.461	54346.2
664.811	54376.25
665.161	54341.23
665.511	54307.78
665.862	54222.13
666.212	54432.98
666.562	54447.44
666.912	54322.7
667.262	54198.63
667.612	54176.26
667.962	54237.27
668.312	54056.26
668.662	54281.79
669.011	54204.51
669.361	54071.86
669.711	54065.98
670.06	54055.13
670.41	53983.72
670.76	53891.07
671.109	53976.26
671.459	53989.82
671.808	53854.46
672.157	53991.41
672.507	53782.15
672.856	53731.98
673.205	53823.95
673.554	53884.52
673.904	53828.02
674.253	53897.62
674.602	53712.54
674.951	53258.77
675.3	53266.23
675.649	53748.93
675.998	53667.57
676.346	53723.39
676.695	53687.68
677.044	53519.1
677.393	53537.18
677.741	53567.01
678.09	53558.65
678.438	53439.33
678.787	53578.31
679.135	53501.47
679.484	53341.7
679.832	53420.12
680.181	53269.62
680.529	53349.84
680.877	53262.38
681.225	53184.65
681.573	53322.95
681.922	53117.08
682.27	53051.32
682.618	53115.04
682.966	52897.42
683.314	53045.44
683.661	52910.3
684.009	52700.14
684.357	52700.59
684.705	52665.34
685.053	52618.11
685.4	52618.56
685.748	52384.67
686.095	52431.22
686.443	52339.7
686.79	52184
687.138	52229.42
687.485	52280.04
687.832	52072.13
688.18	52191
688.527	52002.53
688.874	51800.05
689.221	51841.86
689.568	51664.69
689.915	51582.65
690.262	51683.9
690.609	51544.24
690.956	51439.38
691.303	51487.29
691.65	51188.77
691.997	51225.15
692.344	51113.97
692.69	51089.33
693.037	51122.78
693.383	50674.2
693.73	50898.15
694.077	50552.63
694.423	50626.75
694.769	50518.95
695.116	50402.12
695.462	50324.61
695.808	50152.64
696.155	50221.33
696.501	50019.31
696.847	50017.27
697.193	49635.36
697.539	49825.41
697.885	49573.44
698.231	49567.57
698.577	49552.88
698.923	49282.15
699.269	49204.19
699.614	49056.17
699.96	48950.86
700.306	48987.47
700.651	48763.07
700.997	48707.7
701.342	48516.07
701.688	48493.7
702.033	48361.5
702.379	48509.74
702.724	48319.92
703.069	48255.96
703.415	47822.08
703.76	47845.35
704.105	47845.58
704.45	47689.65
704.795	47521.07
705.14	47329.66
705.485	47302.99
705.83	47232.94
706.175	47327.85
706.52	47118.82
706.865	46989.33
707.209	46984.36
707.554	46749.34
707.899	46881.54
708.243	46582.33
708.588	46634.08
708.932	46390.93
709.277	46125.62
709.621	46365.17
709.966	45982.35
710.31	46158.39
710.654	45790.04
710.998	45919.3
711.342	45987.32
711.687	45609.03
712.031	45557.5
712.375	45471.86
712.719	45535.58
713.063	45211.98
713.407	45393.21
713.75	45008.36
714.094	45088.14
714.438	44967.24
714.782	44977.63
715.125	44863.06
715.469	44972.89
715.812	44547.59
716.156	44321.38
716.499	44350.98
716.843	44444.09
717.186	44156.86
717.53	44383.3
717.873	44416.97
718.216	44182.4
718.559	43946.47
718.902	43620.6
719.246	43872.8
719.589	43712.81
719.932	43391.46
720.275	43521.17
720.617	43358.01
720.96	43404.79
721.303	43235.98
721.646	43335.64
721.989	43010
722.331	43147.17
722.674	42881.41
723.016	43069.21
723.359	42901.98
723.701	42896.56
724.044	42738.59
724.386	42400.52
724.729	42580.41
725.071	42446.85
725.413	42494.08
725.755	42369.56
726.097	42262.9
726.439	42073.75
726.782	41971.61
727.124	42146.07
727.465	41882.12
727.807	41802.57
728.149	41819.75
728.491	41710.15
728.833	41779.07
729.175	41417.72
729.516	41579.08
729.858	41339.53
730.199	41451.85
730.541	41492.98
730.882	41207.11
731.224	41448.46
731.565	41167.79
731.906	41070.16
732.248	41084.63
732.589	40804.41
732.93	40680.34
733.271	40717.63
733.612	40835.37
733.953	40914.91
734.294	40497.97
734.635	40417.07
734.976	40635.6
735.317	40381.14
735.658	40277.64
735.999	40226.8
736.339	40150.64
736.68	40276.51
737.021	39987.03
737.361	39934.37
737.702	40087.59
738.042	39894.15
738.383	39872.68
738.723	39918.1
739.063	39712.46
739.404	39719.92
739.744	39691.44
740.084	39470.43
740.424	39517.66
740.764	39415.74
741.104	39540.26
741.444	39252.58
741.784	39069.99
742.124	39428.17
742.464	39060.95
742.804	39024.57
743.143	38877.23
743.483	38845.59
743.823	38752.26
744.162	38728.08
744.502	38593.39
744.841	38386.39
745.181	38596.78
745.52	38385.49
745.86	38408.99
746.199	38252.38
746.538	38140.3
746.877	38231.14
747.216	38321.31
747.556	38164.02
747.895	38071.82
748.234	37981.2
748.573	37739.63
748.911	37874.31
749.25	37743.47
749.589	37537.37
749.928	37637.26
750.267	37576.47
750.605	37465.06
750.944	37326.98
751.283	37230.26
751.621	37344.39
751.96	37100.78
752.298	37001.57
