Data from foil_FLMS001491_015.txt Node
Date: Tue Feb 07 11:25:28 GMT 2017
User: dcchb
Spectrometer: FLMS00149
Trigger mode: 0
Integration Time (sec): 2.000000E-2
Scans to average: 10
Electric dark correction enabled: true
Nonlinearity correction enabled: false
Boxcar width: 0
XAxis mode: Wavelengths
Number of Pixels in Spectrum: 2048
>>>>>Begin Spectral Data<<<<<
341.393	14
341.776	14
342.16	14
342.543	-34.14
342.927	-82.95
343.31	-75.94
343.693	-68.94
344.077	-70.97
344.46	-49.28
344.843	-71.65
345.226	-40.92
345.61	-31.65
345.993	-3.63
346.376	-24.19
346.759	-2.5
347.142	24.84
347.525	58.29
347.908	51.28
348.291	90.38
348.674	89.48
349.057	125.41
349.44	138.29
349.823	140.32
350.206	169.25
350.588	229.58
350.971	263.93
351.354	249.47
351.737	285.4
352.119	316.59
352.502	301.45
352.884	347.32
353.267	325.18
353.65	340.77
354.032	356.36
354.414	354.33
354.797	388.9
355.179	385.06
355.562	387.55
355.944	377.38
356.326	391.16
356.709	385.74
357.091	381.22
357.473	416.47
357.855	402.46
358.238	396.81
358.62	419.64
359.002	392.07
359.384	401.33
359.766	392.74
360.148	418.96
360.53	409.01
360.912	406.08
361.294	411.5
361.676	405.62
362.057	409.24
362.439	423.7
362.821	418.96
363.203	437.04
363.584	408.11
363.966	415.34
364.348	425.29
364.729	426.64
365.111	420.09
365.493	428.45
365.874	407.43
366.256	431.39
366.637	434.32
367.019	416.92
367.4	423.7
367.781	397.04
368.163	422.57
368.544	421.22
368.925	410.6
369.306	459.63
369.688	432.97
370.069	429.35
370.45	445.4
370.831	449.47
371.212	438.39
371.593	460.09
371.974	449.69
372.355	451.73
372.736	445.85
373.117	466.19
373.498	454.21
373.879	450.82
374.26	443.82
374.641	451.73
375.021	444.49
375.402	476.58
375.783	511.38
376.163	530.59
376.544	509.8
376.925	500.76
377.305	506.41
377.686	482.91
378.066	518.62
378.447	518.84
378.827	508.45
379.208	504.83
379.588	510.93
379.968	503.48
380.349	550.48
380.729	545.06
381.109	533.76
381.489	564.49
381.87	535.57
382.25	535.34
382.63	556.81
383.01	570.37
383.39	566.07
383.77	562.23
384.15	582.8
384.53	564.04
384.91	586.19
385.29	591.61
385.67	615.11
386.049	624.6
386.429	637.71
386.809	618.27
387.189	620.08
387.568	651.27
387.948	652.17
388.328	662.34
388.707	685.84
389.087	669.8
389.466	679.97
389.846	678.61
390.225	703.47
390.605	712.28
390.984	706.63
391.363	728.78
391.743	715.67
392.122	737.37
392.501	747.99
392.881	773.3
393.26	763.58
393.639	769.68
394.018	799.29
394.397	788.44
394.776	792.96
395.155	803.81
395.534	797.03
395.913	831.38
396.292	814.65
396.671	833.86
397.05	859.17
397.429	853.97
397.808	845.39
398.186	871.6
398.565	858.72
398.944	861.43
399.323	882.9
399.701	903.24
400.08	885.39
400.458	914.99
400.837	910.24
401.215	956.8
401.594	943.46
401.972	959.73
402.351	973.97
402.729	963.8
403.107	1002.9
403.486	987.3
403.864	1021.2
404.242	1010.35
404.62	1023.91
404.999	1032.73
405.377	1066.62
405.755	1056.91
406.133	1050.81
406.511	1112.72
406.889	1131.26
407.267	1109.56
407.645	1135.1
408.023	1131.71
408.401	1153.18
408.779	1202.89
409.156	1173.29
409.534	1214.19
409.912	1239.95
410.29	1277.24
410.667	1258.94
411.045	1279.27
411.422	1300.74
411.8	1330.12
412.178	1333.51
412.555	1357.24
412.933	1358.37
413.31	1400.63
413.687	1418.25
414.065	1444.24
414.442	1466.84
414.819	1465.94
415.197	1435.88
415.574	1488.08
415.951	1494.18
416.328	1503.9
416.705	1528.53
417.082	1516.56
417.46	1559.04
417.837	1601.98
418.214	1592.49
418.591	1619.6
418.967	1625.03
419.344	1660.28
419.721	1681.07
420.098	1700.28
420.475	1726.27
420.852	1726.27
421.228	1734.63
421.605	1766.27
421.982	1757.91
422.358	1757
422.735	1825.93
423.111	1802.88
423.488	1861.63
423.864	1864.12
424.241	1884.68
424.617	1895.53
424.994	1908.64
425.37	1955.64
425.746	1954.51
426.123	2001.74
426.499	2010.1
426.875	2000.61
427.251	2110.89
427.627	2120.83
428.003	2120.38
428.379	2132.81
428.756	2200.38
429.132	2233.83
429.507	2250.55
429.883	2284.67
430.259	2304.33
430.635	2319.92
431.011	2372.58
431.387	2384.56
431.763	2475.4
432.138	2452.8
432.514	2517.66
432.89	2500.49
433.265	2591.56
433.641	2597.66
434.016	2610.54
434.392	2679.92
434.767	2715.39
435.143	2740.48
435.518	2747.03
435.894	2794.26
436.269	2819.57
436.644	2897.54
437.02	2917.65
437.395	2890.98
437.77	2917.88
438.145	3029.51
438.52	3025.67
438.895	3062.05
439.271	3086.46
439.646	3133.01
440.021	3174.37
440.395	3190.41
440.77	3192.67
441.145	3256.4
441.52	3290.52
441.895	3308.15
442.27	3348.15
442.645	3320.58
443.019	3393.34
443.394	3390.63
443.769	3464.3
444.143	3468.37
444.518	3520.57
444.892	3456.84
445.267	3559.89
445.641	3565.32
446.016	3582.49
446.39	3644.18
446.764	3672.43
447.139	3672.43
447.513	3698.19
447.887	3737.29
448.262	3794.69
448.636	3804.41
449.01	3853.67
449.384	3901.8
449.758	3922.59
450.132	3982.71
450.506	3974.8
450.88	4013.89
451.254	4014.34
451.628	4130.27
452.002	4141.57
452.376	4173.21
452.75	4213.21
453.123	4238.97
453.497	4306.77
453.871	4338.18
454.244	4438.51
454.618	4442.81
454.992	4485.07
455.365	4518.96
455.739	4674.21
456.112	4662.46
456.486	4690.48
456.859	4710.6
457.232	4802.12
457.606	4788.33
457.979	4852.29
458.352	5000.53
458.725	5017.71
459.099	5027.42
459.472	5185.61
459.845	5214.54
460.218	5244.59
460.591	5269
460.964	5287.08
461.337	5400.07
461.71	5522.55
462.083	5552.83
462.456	5522.1
462.829	5629.44
463.201	5718.48
463.574	5729.78
463.947	5733.39
464.32	5913.95
464.692	5998.92
465.065	6031.47
465.438	6074.18
465.81	6186.04
466.183	6222.2
466.555	6365.24
466.928	6419.25
467.3	6425.58
467.672	6548.51
468.045	6689.08
468.417	6715.74
468.789	6779.47
469.161	6818.34
469.534	6986.69
469.906	7103.3
470.278	7084.77
470.65	7231.21
471.022	7376.52
471.394	7486.34
471.766	7531.54
472.138	7645.21
472.51	7820.35
472.882	7934.69
473.253	8026.89
473.625	8144.86
473.997	8256.27
474.369	8375.58
474.74	8367.9
475.112	8533.77
475.484	8678.4
475.855	8901.9
476.227	8955.91
476.598	9209.01
476.97	9254.66
477.341	9474.31
477.713	9653.07
478.084	9661.2
478.455	9891.7
478.827	9987.29
479.198	10284.46
479.569	10284.46
479.94	10574.62
480.311	10715.18
480.682	10922.86
481.053	11207.15
481.424	11330.31
481.795	11427.26
482.166	11639.91
482.537	11802.16
482.908	12016.85
483.279	12180.68
483.65	12384.97
484.021	12668.13
484.391	12726.66
484.762	12897.05
485.133	13017.04
485.503	13242.35
485.874	13564.37
486.244	13586.07
486.615	13854.08
486.985	14144.7
487.356	14291.81
487.726	14457.68
488.097	14730.9
488.467	14775.42
488.837	15047.27
489.207	15249.3
489.578	15451.11
489.948	15656.3
490.318	15851.77
490.688	15943.75
491.058	16098.09
491.428	16351.19
491.798	16539.66
492.168	16877.06
492.538	17001.35
492.908	17227.78
493.278	17472.75
493.648	17386.87
494.017	17637.94
494.387	17856.92
494.757	18077.7
495.126	18231.14
495.496	18215.1
495.866	18479.95
496.235	18614.41
496.605	18819.15
496.974	18856.89
497.344	19132.82
497.713	19157.67
498.082	19349.99
498.452	19547.27
498.821	19644.44
499.19	19835.85
499.559	20022.28
499.928	20029.74
500.298	20173.01
500.667	20459.56
501.036	20463.63
501.405	20618.88
501.774	20793.79
502.143	20903.84
502.512	20986.33
502.88	21134.8
503.249	21255.02
503.618	21372.98
503.987	21556.26
504.356	21713.54
504.724	21804.61
505.093	22016.36
505.462	22060.2
505.83	22233.3
506.199	22422.22
506.567	22801.87
506.936	22687.07
507.304	22946.95
507.672	23174.74
508.041	23254.97
508.409	23406.15
508.777	23645.47
509.145	23764.11
509.514	23830.77
509.882	24040.94
510.25	24109.86
510.618	24204.32
510.986	24331.1
511.354	24644.54
511.722	24872.55
512.09	25077.29
512.458	25124.3
512.826	25330.62
513.193	25482.93
513.561	25621.69
513.929	25757.95
514.297	26000.88
514.664	26286.53
515.032	26249.92
515.4	26555.45
515.767	26808.09
516.135	26924.48
516.502	26764.71
516.869	27286.95
517.237	27317.23
517.604	27400.85
517.972	27764.45
518.339	27965.13
518.706	27963.09
519.073	28258.9
519.44	28418.9
519.808	28790.19
520.175	28762.39
520.542	29027.02
520.909	29316.28
521.276	29324.86
521.643	29723.5
522.009	29952.19
522.376	30184.73
522.743	30316.7
523.11	30624.72
523.477	30994.65
523.843	31138.38
524.21	31437.8
524.577	31587.63
524.943	31760.05
525.31	31903.55
525.676	32191.68
526.043	32433.03
526.409	32674.83
526.776	32886.58
527.142	32999.12
527.508	33299.68
527.874	33558.65
528.241	33691.53
528.607	33825.09
528.973	34088.81
529.339	34077.28
529.705	34532.19
530.071	34877.03
530.437	34829.8
530.803	35124.03
531.169	35268.89
531.535	35291.04
531.901	35478.6
532.267	35691.48
532.632	36008.3
532.998	35936.22
533.364	36285.13
533.73	36343.89
534.095	36685.35
534.461	36846.93
534.826	36980.71
535.192	36972.57
535.557	37286.24
535.923	37315.84
536.288	37521.49
536.653	37752.21
537.019	37782.27
537.384	37891.87
537.749	38069.04
538.114	38231.97
538.479	38225.2
538.845	38516.49
539.21	38445.3
539.575	38746.09
539.94	38769.59
540.305	39098.39
540.67	39037.83
541.034	39305.62
541.399	39411.38
541.764	39285.73
542.129	39728.66
542.494	39671.49
542.858	39887.52
543.223	39867.86
543.587	40170
543.952	40106.05
544.316	40361.86
544.681	40339.94
545.045	40649.99
545.41	40816.99
545.774	40809.53
546.138	40946.03
546.503	41028.96
546.867	41089.3
547.231	41383.98
547.595	41463.75
547.959	41687.25
548.324	41753.24
548.688	41907.58
549.052	42112.55
549.416	42235.26
549.779	42090.63
550.143	42310.51
550.507	42508.25
550.871	42891.51
551.235	42618.3
551.599	42870.05
551.962	43038.85
552.326	43155.24
552.689	43406.08
553.053	43337.15
553.417	43417.38
553.78	44056
554.143	43694.43
554.507	44035.21
554.87	44153.63
555.234	44471.36
555.597	44298.71
555.96	44486.27
556.323	44760.62
556.686	44836.55
557.05	45181.85
557.413	45295.97
557.776	45344.1
558.139	45638.79
558.502	45743.19
558.865	45767.6
559.228	46054.59
559.59	46415.94
559.953	46382.72
560.316	46687.8
560.679	46688.7
561.041	47035.36
561.404	47081.01
561.767	47408.23
562.129	47381.34
562.492	47754.89
562.854	47680.31
563.217	47857.03
563.579	47993.98
563.941	48195.55
564.304	48311.26
564.666	48504.25
565.028	48658.82
565.39	48791.02
565.753	48992.82
566.115	49064.68
566.477	49232.59
566.839	49306.49
567.201	49445.69
567.563	49685.01
567.925	49948.28
568.287	49796.42
568.648	49930.42
569.01	50186.46
569.372	50364.09
569.734	50196.86
570.095	50546.91
570.457	50624.42
570.819	50676.85
571.18	50836.16
571.542	50965.65
571.903	50960.68
572.265	51080.9
572.626	51115.25
572.987	51175.36
573.349	51334.23
573.71	51475.92
574.071	51500.33
574.432	51585.75
574.794	51933.76
575.155	51828
575.516	51780.55
575.877	51960.43
576.238	52049.01
576.599	52093.76
576.96	52030.93
577.32	52076.58
577.681	52243.13
578.042	52296.01
578.403	52298.05
578.763	52280.87
579.124	52350.47
579.485	52546.17
579.845	52576
580.206	52628.21
580.566	52566.97
580.927	52577.36
581.287	52666.17
581.648	52532.16
582.008	52699.39
582.368	52641.77
582.728	52663.23
583.089	52692.16
583.449	52647.87
583.809	52641.09
584.169	52694.42
584.529	52759.05
584.889	52904.58
585.249	52665.04
585.609	52716.79
585.969	52821.65
586.329	52706.17
586.688	52907.52
587.048	52786.85
587.408	52657.36
587.768	52761.31
588.127	52663.01
588.487	52631.14
588.846	52879.27
589.206	52752.72
589.565	52767.19
589.925	52876.56
590.284	52723.35
590.643	52809.67
591.003	52858.93
591.362	52948.65
591.721	52742.78
592.08	52873.4
592.44	52910.46
592.799	52904.13
593.158	52724.7
593.517	52759.73
593.876	52818.94
594.235	52780.29
594.593	52809.67
594.952	52822.33
595.311	52729.67
595.67	52855.09
596.029	52971.02
596.387	52956.11
596.746	52954.75
597.104	52832.04
597.463	52843.57
597.822	52957.46
598.18	52788.88
598.538	52824.59
598.897	53012.15
599.255	52752.05
599.613	53107.97
599.972	53067.29
600.33	52928.76
600.688	52901.42
601.046	53022.09
601.404	53072.49
601.762	53073.84
602.12	53220.51
602.478	53164.69
602.836	53149.77
603.194	52974.19
603.552	53066.16
603.91	53018.03
604.268	53178.47
604.625	53013.73
604.983	53204.01
605.341	53031.59
605.698	53262.54
606.056	53262.31
606.413	53239.49
606.771	53267.06
607.128	53380.73
607.485	53230.9
607.843	53243.56
608.2	53417.11
608.557	53441.07
608.914	53394.97
609.272	53478.58
609.629	53574.17
609.986	53596.09
610.343	53504.79
610.7	53655.3
611.057	53619.14
611.414	53507.05
611.771	53686.71
612.127	53672.92
612.484	53591.57
612.841	53814.62
613.198	53653.49
613.554	53599.48
613.911	53850.1
614.267	53803.54
614.624	53778.23
614.98	53835.63
615.337	53932.35
615.693	53921.51
616.05	53829.98
616.406	53971.22
616.762	53917.89
617.118	53896.2
617.475	53919.47
617.831	54003.76
618.187	53958.57
618.543	53901.39
618.899	54105.91
619.255	53987.04
619.611	53907.27
619.967	54147.94
620.323	54021.84
620.678	53916.08
621.034	53874.05
621.39	53906.82
621.746	53881.51
622.101	54196.75
622.457	53966.93
622.812	54011.9
623.168	54065.23
623.523	53996.08
623.879	54053.71
624.234	53820.27
624.589	54031.79
624.945	53965.57
625.3	53987.27
625.655	53912.47
626.01	53968.06
626.365	53984.33
626.72	53921.51
627.075	53906.59
627.43	53825.24
627.785	53749.31
628.14	53881.73
628.495	53904.11
628.85	53895.29
629.205	53744.11
629.559	53891.45
629.914	53719.93
630.269	53749.31
630.623	53695.3
630.978	53597.9
631.332	53665.02
631.687	53741.4
632.041	53565.36
632.396	53559.48
632.75	53418.92
633.104	53542.08
633.459	53394.06
633.813	53413.72
634.167	53227.96
634.521	53233.16
634.875	53277.91
635.229	53267.96
635.583	53018.93
635.937	53031.59
636.291	52971.7
636.645	53013.51
636.999	52914.3
637.352	52900.06
637.706	52789.78
638.06	52835.66
638.413	52767.19
638.767	52738.71
639.121	52750.24
639.474	52463.01
639.828	52568.77
640.181	52552.73
640.534	52508.89
640.888	52314.09
641.241	52196.81
641.594	52307.31
641.947	52321.55
642.301	52215.34
642.654	52126.07
643.007	52277.93
643.36	52101.44
643.713	52059.86
644.066	52178.5
644.419	51923.37
644.771	51715.69
645.124	51379.88
645.477	51231.41
645.83	50911.42
646.182	50846.33
646.535	50763.17
646.888	50939.44
647.24	50692.21
647.593	51009.04
647.945	50845.88
648.298	50640.91
648.65	50534.7
649.002	50428.94
649.355	50559.79
649.707	50340.36
650.059	50574.7
650.411	50976.5
650.763	50927.91
651.115	51139.21
651.467	51040.9
651.819	50944.86
652.171	50879.33
652.523	50866.9
652.875	50775.37
653.227	50684.53
653.578	51022.37
653.93	50781.93
654.282	50616.28
654.633	50548.49
654.985	50614.93
655.337	50634.81
655.688	50546.23
656.039	50640.91
656.391	50381.94
656.742	50400.92
657.094	50339
657.445	50552.1
657.796	50407.7
658.147	50255.16
658.498	50277.76
658.849	50314.82
659.2	50206.12
659.551	50120.7
659.902	50130.87
660.253	50070.31
660.604	50111.89
660.955	49903.08
661.306	50091.55
661.656	49832.8
662.007	49937.43
662.358	49849.97
662.708	49972.46
663.059	49846.13
663.409	49671.67
663.76	49782.18
664.11	49808.85
664.461	49805.68
664.811	49769.75
665.161	49862.18
665.511	49682.97
665.862	49637.1
666.212	49727.72
666.562	49746.02
666.912	49568.85
667.262	49531.79
667.612	49570.43
667.962	49618.57
668.312	49606.82
668.662	49696.53
669.011	49476.88
669.361	49354.17
669.711	49316.88
670.06	49235.75
670.41	49213.38
670.76	49110.78
671.109	49220.39
671.459	49195.3
671.808	48926.61
672.157	49035.53
672.507	48710.12
672.856	48912.37
673.205	48853.39
673.554	48993.5
673.904	48809.55
674.253	48979.94
674.602	48826.5
674.951	48408.2
675.3	48296.57
675.649	48766.39
675.998	48726.61
676.346	48621.76
676.695	48677.12
677.044	48547.18
677.393	48591.48
677.741	48626.96
678.09	48445.72
678.438	48294.08
678.787	48392.16
679.135	48327.08
679.484	47995.11
679.832	48140.87
680.181	47939.06
680.529	47982.91
680.877	47885.51
681.225	47786.98
681.573	47944.04
681.922	47780.2
682.27	47644.83
682.618	47791.05
682.966	47583.14
683.314	47680.77
683.661	47457.72
684.009	47219.54
684.357	47181.12
684.705	47063.83
685.053	47252.3
685.4	46987.45
685.748	46909.03
686.095	46952.65
686.443	46869.26
686.79	46634.69
687.138	46734.12
687.485	46697.29
687.832	46517.63
688.18	46561.25
688.527	46368.71
688.874	46217.08
689.221	46213.69
689.568	46016.18
689.915	45827.03
690.262	45835.16
690.609	45742.74
690.956	45775.51
691.303	45734.38
691.65	45498
691.997	45481.73
692.344	45099.37
692.69	44982.76
693.037	44971.46
693.383	44738.7
693.73	44723.1
694.077	44482.88
694.423	44540.06
694.769	44392.94
695.116	44288.54
695.462	44159.95
695.808	44060.3
696.155	44084.48
696.501	43740.08
696.847	43814.2
697.193	43525.4
697.539	43726.07
697.885	43244.5
698.231	43316.59
698.577	43155.24
698.923	43073.88
699.269	43016.71
699.614	42639.99
699.96	42575.82
700.306	42567.23
700.651	42458.3
700.997	42206.11
701.342	42318.87
701.688	42146
702.033	41965.89
702.379	41948.26
702.724	41836.4
703.069	41972.89
703.415	41496.07
703.76	41313.7
704.105	41457.65
704.45	41291.1
704.795	41107.83
705.14	40936.08
705.485	40835.52
705.83	40775.64
706.175	40673.94
706.52	40541.29
706.865	40583.33
707.209	40443.44
707.554	40400.51
707.899	40454.52
708.243	40255.42
708.588	40194.86
708.932	39905.38
709.277	39706.74
709.621	39812.72
709.966	39407.54
710.31	39509.23
710.654	39264.94
710.998	39258.16
711.342	39201.67
711.687	39101.56
712.031	39104.49
712.375	38827.44
712.719	38982.24
713.063	38767.1
713.407	38980.43
713.75	38617.95
714.094	38612.53
714.438	38365.53
714.782	38469.71
715.125	38300.9
715.469	38312.88
715.812	38055.71
716.156	37911.08
716.499	37868.59
716.843	37863.62
717.186	37533.01
717.53	37693.46
717.873	37709.05
718.216	37603.74
718.559	37326.91
718.902	37196.3
719.246	37489.17
719.589	37179.35
719.932	36919.02
720.275	37038.79
720.617	36947.71
720.96	36869.52
721.303	36888.73
721.646	36793.37
721.989	36675.63
722.331	36759.92
722.674	36485.81
723.016	36553.15
723.359	36491.91
723.701	36551.34
724.044	36124.01
724.386	36055.31
724.729	36026.16
725.071	36058.7
725.413	35963.11
725.755	35962.43
726.097	35669.33
726.439	35511.82
726.782	35622.1
727.124	35714.3
727.465	35514.08
727.807	35425.04
728.149	35461.2
728.491	35331.03
728.833	35306.85
729.175	35201.32
729.516	35046.52
729.858	35004.94
730.199	35100.53
730.541	34931.72
730.882	34968.33
731.224	34915.9
731.565	34682.46
731.906	34793.42
732.248	34767.66
732.589	34456.93
732.93	34342.81
733.271	34411.06
733.612	34346.2
733.953	34413.09
734.294	34266.43
734.635	34248.58
734.976	34297.62
735.317	34229.82
735.658	33974.01
735.999	33923.84
736.339	33776.27
736.68	33912.99
737.021	33651.98
737.361	33590.29
737.702	33787.35
738.042	33476.85
738.383	33350.3
738.723	33546.67
739.063	33386.23
739.404	33513.45
739.744	33437.52
740.084	33169.96
740.424	33331.76
740.764	33099.91
741.104	33293.8
741.444	33074.37
741.784	33028.04
742.124	33093.13
742.464	33020.59
742.804	32870.76
743.143	32711.89
743.483	32654.72
743.823	32588.96
744.162	32562.52
744.502	32484.56
744.841	32394.16
745.181	32599.58
745.52	32248.63
745.86	32174.73
746.199	32155.98
746.538	32198.91
746.877	32224
747.216	31990.56
747.556	31925.93
747.895	32064
748.234	31829.88
748.573	31718.7
748.911	31683.22
749.25	31593.96
749.589	31414.08
749.928	31368.88
750.267	31431.7
750.605	31524.58
750.944	31379.5
751.283	31356.45
751.621	31344.7
751.96	31182.44
752.298	30983.8
752.636	31167.3
752.975	30933.18
753.313	30818.16
