Data from foil_FLMS001491_048.txt Node
Date: Tue Feb 07 11:26:57 GMT 2017
User: dcchb
Spectrometer: FLMS00149
Trigger mode: 0
Integration Time (sec): 2.000000E-2
Scans to average: 10
Electric dark correction enabled: true
Nonlinearity correction enabled: false
Boxcar width: 0
XAxis mode: Wavelengths
Number of Pixels in Spectrum: 2048
>>>>>Begin Spectral Data<<<<<
341.393	-22.71
341.776	-22.71
342.16	-22.71
342.543	-66.78
342.927	-51.41
343.31	-67.68
343.693	-76.72
344.077	-59.55
344.46	-67.23
344.843	-67.68
345.226	-24.97
345.61	-41.02
345.993	-21.36
346.376	11.64
346.759	17.97
347.142	11.19
347.525	31.3
347.908	50.06
348.291	74.69
348.674	109.94
349.057	119.43
349.44	129.83
349.823	140.9
350.206	175.7
350.588	229.71
350.971	245.08
351.354	282.14
351.737	299.54
352.119	324.4
352.502	321.69
352.884	347.45
353.267	303.61
353.65	334.12
354.032	344.28
354.414	363.95
354.797	361.91
355.179	415.47
355.562	395.36
355.944	388.8
356.326	398.52
356.709	376.15
357.091	413.44
357.473	408.24
357.855	397.16
358.238	391.06
358.62	413.66
359.002	404.85
359.384	426.32
359.766	421.34
360.148	424.06
360.53	419.09
360.912	411.85
361.294	417.05
361.676	408.01
362.057	398.29
362.439	444.62
362.821	405.53
363.203	423.15
363.584	403.27
363.966	432.64
364.348	395.13
364.729	415.02
365.111	426.32
365.493	435.36
365.874	430.84
366.256	418.18
366.637	438.07
367.019	443.72
367.4	423.83
367.781	448.24
368.163	424.73
368.544	432.19
368.925	433.32
369.306	452.76
369.688	451.63
370.069	452.53
370.45	441.01
370.831	443.27
371.212	462.47
371.593	462.25
371.974	444.85
372.355	454.11
372.736	475.35
373.117	450.95
373.498	459.99
373.879	459.99
374.26	469.48
374.641	438.75
375.021	465.86
375.402	497.28
375.783	490.04
376.163	521.23
376.544	533.21
376.925	504.05
377.305	515.13
377.686	532.3
378.066	523.72
378.447	509.03
378.827	533.66
379.208	516.26
379.588	512.42
379.968	509.25
380.349	525.75
380.729	558.74
381.109	534.56
381.489	555.13
381.87	548.57
382.25	593.77
382.63	544.05
383.01	576.14
383.39	596.48
383.77	565.97
384.15	590.38
384.53	563.26
384.91	597.61
385.29	609.59
385.67	609.81
386.049	597.84
386.429	598.52
386.809	633.77
387.189	615.01
387.568	649.14
387.948	643.71
388.328	633.09
388.707	650.27
389.087	658.17
389.466	685.07
389.846	692.3
390.225	696.14
390.605	701.34
390.984	695.69
391.363	699.98
391.743	718.06
392.122	727.33
392.501	728.68
392.881	763.03
393.26	747.89
393.639	764.39
394.018	756.48
394.397	768.91
394.776	785.63
395.155	790.83
395.534	784.05
395.913	786.31
396.292	826.53
396.671	796.25
397.05	830.83
397.429	836.02
397.808	834.22
398.186	848.68
398.565	840.99
398.944	879.86
399.323	857.94
399.701	869.24
400.08	921.9
400.458	898.39
400.837	920.31
401.215	894.1
401.594	956.92
401.972	934.55
402.351	929.81
402.729	960.54
403.107	983.36
403.486	988.34
403.864	985.4
404.242	980.88
404.62	1002.8
404.999	1002.8
405.377	1012.97
405.755	1025.85
406.133	1055.68
406.511	1064.94
406.889	1096.36
407.267	1105.85
407.645	1119.18
408.023	1124.6
408.401	1121.67
408.779	1141.78
409.156	1178.61
409.534	1193.75
409.912	1188.78
410.29	1226.3
410.667	1250.48
411.045	1242.79
411.422	1274.43
411.8	1247.99
412.178	1290.7
412.555	1289.12
412.933	1317.37
413.31	1336.12
413.687	1337.25
414.065	1351.72
414.442	1394.2
414.819	1390.58
415.197	1419.96
415.574	1426.74
415.951	1425.39
416.328	1487.08
416.705	1438.49
417.082	1485.05
417.46	1484.37
417.837	1509.68
418.214	1509
418.591	1552.61
418.967	1536.34
419.344	1570.24
419.721	1607.3
420.098	1614.53
420.475	1641.43
420.852	1645.72
421.228	1658.37
421.605	1649.79
421.982	1717.13
422.358	1684.36
422.735	1703.12
423.111	1706.06
423.488	1777.92
423.864	1770.69
424.241	1819.5
424.617	1806.17
424.994	1825.38
425.37	1834.87
425.746	1835.77
426.123	1870.8
426.499	1887.75
426.875	1918.03
427.251	1974.52
427.627	1990.12
428.003	2008.42
428.379	2054.97
428.756	2060.62
429.132	2084.8
429.507	2101.53
429.883	2138.81
430.259	2166.61
430.635	2193.95
431.011	2190.56
431.387	2249.55
431.763	2305.82
432.138	2299.26
432.514	2357.79
432.89	2351.24
433.265	2424.23
433.641	2475.3
434.016	2508.52
434.392	2509.88
434.767	2537.67
435.143	2568.86
435.518	2560.95
435.894	2568.18
436.269	2645.69
436.644	2679.14
437.02	2687.27
437.395	2680.95
437.77	2788.51
438.145	2786.25
438.52	2806.59
438.895	2837.55
439.271	2841.17
439.646	2908.06
440.021	2925.69
440.395	2942.86
440.77	2904.9
441.145	2953.71
441.52	2996.64
441.895	3031.22
442.27	3047.04
442.645	3098.34
443.019	3122.52
443.394	3140.37
443.769	3166.81
444.143	3133.14
444.518	3208.84
444.892	3174.27
445.267	3231.67
445.641	3268.95
446.016	3302.4
446.39	3310.53
446.764	3343.53
447.139	3320.7
447.513	3371.32
447.887	3425.11
448.262	3411.32
448.636	3437.99
449.01	3534.26
449.384	3560.02
449.758	3532
450.132	3621.26
450.506	3605.44
450.88	3616.06
451.254	3638.21
451.628	3719.79
452.002	3788.04
452.376	3764.53
452.75	3815.15
453.123	3802.95
453.497	3858.77
453.871	3933.34
454.244	4030.29
454.618	4060.12
454.992	4072.1
455.365	4056.05
455.739	4157.29
456.112	4235.48
456.486	4275.71
456.859	4297.85
457.232	4368.81
457.606	4388.02
457.979	4396.61
458.352	4469.6
458.725	4541.01
459.099	4544.85
459.472	4663.49
459.845	4715.7
460.218	4739.42
460.591	4782.36
460.964	4782.59
461.337	4938.97
461.71	5003.37
462.083	5056.7
462.456	5046.08
462.829	5057.61
463.201	5173.08
463.574	5167.21
463.947	5298.73
464.32	5372.63
464.692	5414.43
465.065	5479.06
465.438	5531.04
465.81	5572.85
466.183	5681.32
466.555	5760.19
466.928	5801.54
467.3	5846.96
467.672	5907.08
468.045	6024.81
468.417	6059.61
468.789	6184.58
469.161	6160.63
469.534	6295.99
469.906	6430.45
470.278	6470.45
470.65	6511.35
471.022	6672.25
471.394	6788.64
471.766	6845.36
472.138	6956.31
472.51	7087.84
472.882	7183.43
473.253	7249.87
473.625	7310.2
473.997	7485.57
474.369	7547.49
474.74	7649.86
475.112	7766.01
475.484	7888.27
475.855	8025.44
476.227	8117.19
476.598	8316.28
476.97	8344.98
477.341	8608.25
477.713	8644.63
478.084	8777.51
478.455	8928.69
478.827	9058.86
479.198	9316.7
479.569	9365.52
479.94	9632.18
480.311	9728.67
480.682	9812.06
481.053	10109.45
481.424	10285.04
481.795	10390.12
482.166	10532.72
482.537	10706.72
482.908	10840.96
483.279	11027.17
483.65	11168.86
484.021	11397.1
484.391	11499.25
484.762	11675.06
485.133	11794.38
485.503	11925.22
485.874	12196.4
486.244	12182.17
486.615	12511.65
486.985	12670.51
487.356	12849.27
487.726	13004.06
488.097	13280.22
488.467	13270.72
488.837	13618.96
489.207	13693.09
489.578	13909.58
489.948	14105.28
490.318	14286.74
490.688	14340.3
491.058	14562.44
491.428	14746.62
491.798	14805.6
492.168	15159.94
492.538	15281.52
492.908	15450.33
493.278	15660.49
493.648	15625.01
494.017	15837.89
494.387	16022.06
494.757	16148.39
495.126	16320.81
495.496	16332.56
495.866	16559.68
496.235	16667.92
496.605	16933.45
496.974	16891.87
497.344	17125.09
497.713	17194.24
498.082	17313.33
498.452	17579.76
498.821	17675.81
499.19	17709.93
499.559	17772.75
499.928	18046.64
500.298	18145.85
500.667	18196.7
501.036	18321.44
501.405	18539.74
501.774	18459.06
502.143	18687.53
502.512	18859.5
502.88	19048.88
503.249	19034.64
503.618	19098.14
503.987	19287.97
504.356	19432.14
504.724	19601.86
505.093	19637.34
505.462	19807.95
505.83	19956.88
506.199	20125.23
506.567	20259.69
506.936	20325.91
507.304	20518.9
507.672	20647.93
508.041	20747.14
508.409	20902.16
508.777	21123.4
509.145	21356.61
509.514	21270.51
509.882	21479.77
510.25	21515.25
510.618	21740.56
510.986	21872.31
511.354	22055.35
511.722	22332.86
512.09	22361.33
512.458	22421.67
512.826	22642.23
513.193	22854.43
513.561	22856.01
513.929	23183.23
514.297	23234.3
514.664	23567.85
515.032	23536.22
515.4	23783.22
515.767	23805.81
516.135	24053.94
516.502	23954.06
516.869	24512.24
517.237	24567.6
517.604	24582.29
517.972	24873.58
518.339	25008.95
518.706	25098.44
519.073	25340.92
519.44	25390.86
519.808	25736.84
520.175	25732.09
520.542	26065.42
520.909	26205.53
521.276	26255.02
521.643	26608.45
522.009	26768.45
522.376	26995.11
522.743	27130.02
523.11	27414.31
523.477	27786.5
523.843	27805.48
524.21	28153.5
524.577	28414.96
524.943	28459.25
525.31	28511.45
525.676	29044.55
526.043	29181.27
526.409	29292
526.776	29642.5
527.142	29707.58
527.508	29896.95
527.874	30098.76
528.241	30341.46
528.607	30464.4
528.973	30663.94
529.339	30717.27
529.705	31043.82
530.071	31289.69
530.437	31397.71
530.803	31613.07
531.169	31751.37
531.535	31784.81
531.901	32031.81
532.267	32288.08
532.632	32461.18
532.998	32579.6
533.364	32903.88
533.73	32941.39
534.095	33104.33
534.461	33094.61
534.826	33370.76
535.192	33572.11
535.557	33781.37
535.923	33848.71
536.288	33883.06
536.653	34143.85
537.019	34112.21
537.384	34373.9
537.749	34530.05
538.114	34516.27
538.479	34692.08
538.845	34769.37
539.21	34791.06
539.575	35063.15
539.94	35219.98
540.305	35365.51
540.67	35374.55
541.034	35586.3
541.399	35657.93
541.764	36034.87
542.129	35998.49
542.494	36122.78
542.858	36322.1
543.223	36459.04
543.587	36559.6
543.952	36621.52
544.316	36765.93
544.681	36788.52
545.045	37068.29
545.41	37213.82
545.774	37087.5
546.138	37177.67
546.503	37541.5
546.867	37436.87
547.231	37780.14
547.595	37746.69
547.959	37967.25
548.324	38090.64
548.688	38234.36
549.052	38449.72
549.416	38453.11
549.779	38553
550.143	38806.55
550.507	39040.44
550.871	39182.36
551.235	39203.38
551.599	39437.27
551.962	39498.28
552.326	39506.64
552.689	39953.86
553.053	39893.3
553.417	40063.47
553.78	40410.8
554.143	40336.45
554.507	40383.46
554.87	40594.98
555.234	41002.2
555.597	40845.37
555.96	41171.46
556.323	41447.38
556.686	41365.58
557.05	41774.38
557.413	41827.94
557.776	41973.92
558.139	42285.1
558.502	42298.66
558.865	42519.22
559.228	42765.77
559.59	42919.44
559.953	42840.34
560.316	43338.86
560.679	43447.33
561.041	43723.48
561.404	43916.47
561.767	44119.86
562.129	44047.32
562.492	44547.42
562.854	44626.28
563.217	44779.73
563.579	44789.22
563.941	45034.41
564.304	45252.93
564.666	45605.92
565.028	45463.1
565.39	45832.81
565.753	46034.83
566.115	46161.84
566.477	46464.88
566.839	46435.95
567.201	46676.85
567.563	46755.95
567.925	47033
568.287	47120
568.648	47097.86
569.01	47394.8
569.372	47692.19
569.734	47700.78
570.095	48011.96
570.457	48088.57
570.819	48246.98
571.18	48268.67
571.542	48459.18
571.903	48420.76
572.265	48624.6
572.626	48762.9
572.987	48778.94
573.349	48945.49
573.71	49085.15
574.071	49218.48
574.432	49325.37
574.794	49531.92
575.155	49439.27
575.516	49427.29
575.877	49592.71
576.238	49796.32
576.599	49911.57
576.96	49878.12
577.32	49965.13
577.681	50097.55
578.042	50151.56
578.403	50123.77
578.763	50241.96
579.124	50278.79
579.485	50374.61
579.845	50481.5
580.206	50436.75
580.566	50433.82
580.927	50541.16
581.287	50524.21
581.648	50552.68
582.008	50755.84
582.368	50574.6
582.728	50657.76
583.089	50680.36
583.449	50706.12
583.809	50779.34
584.169	50768.72
584.529	50688.5
584.889	51071.76
585.249	50811.88
585.609	50735.5
585.969	50949.51
586.329	50780.47
586.688	50907.7
587.048	50931.2
587.408	50787.7
587.768	50879.91
588.127	50837.65
588.487	50817.08
588.846	51067.47
589.206	50778.89
589.565	50788.16
589.925	50940.02
590.284	50914.93
590.643	51067.24
591.003	51056.17
591.362	51137.98
591.721	50976.63
592.08	51044.19
592.44	51151.08
592.799	51163.74
593.158	50992.67
593.517	50995.61
593.876	50977.3
594.235	51018.88
594.593	51059.79
594.952	51145.89
595.311	51026.34
595.67	51069.5
596.029	51322.38
596.387	51361.25
596.746	51338.2
597.104	51234.25
597.463	51225.66
597.822	51298.88
598.18	51266.34
598.538	51227.24
598.897	51452.55
599.255	51115.61
599.613	51647.57
599.972	51367.8
600.33	51495.03
600.688	51329.61
601.046	51514.01
601.404	51655.93
601.762	51518.31
602.12	51664.07
602.478	51584.52
602.836	51622.03
603.194	51439.66
603.552	51569.38
603.91	51461.36
604.268	51687.12
604.625	51625.42
604.983	51730.5
605.341	51608.02
605.698	51755.36
606.056	51847.56
606.413	51795.81
606.771	51961.46
607.128	51910.61
607.485	51814.57
607.843	51824.29
608.2	52019.54
608.557	52088.69
608.914	51996.94
609.272	52078.07
609.629	52163.71
609.986	52245.29
610.343	52230.38
610.7	52442.12
611.057	52379.75
611.414	52331.84
611.771	52351.73
612.127	52444.38
612.484	52472.18
612.841	52511.27
613.198	52357.38
613.554	52431.28
613.911	52528.68
614.267	52537.94
614.624	52525.51
614.98	52671.27
615.337	52776.58
615.693	52701.1
616.05	52711.72
616.406	52955.1
616.762	52721.66
617.118	52773.41
617.475	52739.74
617.831	52974.54
618.187	52865.84
618.543	52860.87
618.899	53100.64
619.255	52934.31
619.611	52887.54
619.967	52885.28
620.323	52966.86
620.678	52976.57
621.034	52873.75
621.39	52937.48
621.746	52739.52
622.101	53296.79
622.457	52963.69
622.812	53114.2
623.168	53033.07
623.523	52987.65
623.879	53106.06
624.234	52866.75
624.589	52971.38
624.945	52986.74
625.3	53089.79
625.655	53085.27
626.01	53061.77
626.365	53061.09
626.72	52932.28
627.075	53038.72
627.43	52929.12
627.785	52867.88
628.14	52910.59
628.495	52925.5
628.85	52908.55
629.205	52839.18
629.559	52984.48
629.914	52703.59
630.269	52809.8
630.623	52616.36
630.978	52521.67
631.332	52751.95
631.687	52809.35
632.041	52671.04
632.396	52708.11
632.75	52540.88
633.104	52556.92
633.459	52478.06
633.813	52528.22
634.167	52519.41
634.521	52366.19
634.875	52466.3
635.229	52385.4
635.583	52173.2
635.937	52292.07
636.291	52121.91
636.645	52205.52
636.999	52074
637.352	52174.56
637.706	52041.23
638.06	52052.3
638.413	51884.85
638.767	52000.55
639.121	51981.8
639.474	51766.66
639.828	51675.59
640.181	51804.63
640.534	51826.77
640.888	51705.42
641.241	51541.58
641.594	51587.68
641.947	51667.68
642.301	51537.74
642.654	51609.83
643.007	51495.71
643.36	51497.74
643.713	51400.34
644.066	51550.17
644.419	51132.33
644.771	50888.27
645.124	50353.59
645.477	50298.45
645.83	50276.53
646.182	50217.78
646.535	50144.11
646.888	50407.15
647.24	50275.85
647.593	50549.97
647.945	50338.45
648.298	50215.52
648.65	50159.02
649.002	49990.44
649.355	50061.85
649.707	49889.42
650.059	49918.35
650.411	50267.94
650.763	50459.35
651.115	50797.87
651.467	50609.4
651.819	50593.13
652.171	50532.57
652.523	50415.28
652.875	50373.93
653.227	50218.23
653.578	50449.41
653.93	50421.84
654.282	50158.79
654.633	50184.78
654.985	50224.78
655.337	50160.83
655.688	50158.57
656.039	50213.93
656.391	49898.69
656.742	49997.22
657.094	49936.2
657.445	50091.9
657.796	49859.59
658.147	49881.97
658.498	49803.32
658.849	49867.95
659.2	49782.76
659.551	49728.75
659.902	49844.45
660.253	49728.52
660.604	49684.91
660.955	49655.3
661.306	49760.16
661.656	49750.9
662.007	49667.06
662.358	49629.99
662.708	49561.97
663.059	49563.1
663.409	49416.89
663.76	49665.93
664.11	49527.62
664.461	49577.34
664.811	49639.94
665.161	49532.82
665.511	49492.6
665.862	49392.03
666.212	49503.9
666.562	49511.13
666.912	49262.09
667.262	49321.08
667.612	49243.34
667.962	49317.91
668.312	49284.47
668.662	49371.92
669.011	49170.12
669.361	49179.61
669.711	49092.38
670.06	48938.71
670.41	48924.25
670.76	48846.06
671.109	49072.27
671.459	48945.04
671.808	48993.18
672.157	49065.26
672.507	48693.97
672.856	48724.71
673.205	48739.17
673.554	48940.3
673.904	48795.89
674.253	48900.75
674.602	48882.9
674.951	48264.61
675.3	47982.58
675.649	48570.14
675.998	48512.06
676.346	48620.3
676.695	48732.62
677.044	48377.37
677.393	48556.58
677.741	48516.13
678.09	48406.75
678.438	48314.1
678.787	48391.61
679.135	48429.8
679.484	47997.95
679.832	48381.67
680.181	47954.11
680.529	48164.5
680.877	47926.54
681.225	47891.06
681.573	48111.39
681.922	47803.15
682.27	47700.33
682.618	47757.5
682.966	47639.09
683.314	47769.93
683.661	47611.52
684.009	47354.57
684.357	47297.4
684.705	47249.27
685.053	47352.31
685.4	47165.65
685.748	47029.61
686.095	47006.79
686.443	46675.95
686.79	46766.57
687.138	46775.83
687.485	46706
687.832	46613.58
688.18	46669.17
688.527	46395.5
688.874	46270.53
689.221	46246.13
689.568	46065.12
689.915	45987.83
690.262	45920.49
690.609	45899.25
690.956	45809.3
691.303	45760.94
691.65	45623.32
691.997	45497.22
692.344	45242.77
692.69	45174.74
693.037	45297.45
693.383	45107.85
693.73	45217
694.077	44900.63
694.423	44698.82
694.769	44718.26
695.116	44588.77
695.462	44468.55
695.808	44314.65
696.155	44352.17
696.501	44066.07
696.847	44086.41
697.193	43716.7
697.539	43987.2
697.885	43673.99
698.231	43657.04
698.577	43560.32
698.923	43483.94
699.269	43254.12
699.614	43005.99
699.96	43017.29
700.306	43009.15
700.651	42794.69
700.997	42727.13
701.342	42715.83
701.688	42479.67
702.033	42392.44
702.379	42427.02
702.724	42239.23
703.069	42377.3
703.415	41762.86
703.76	41878.79
704.105	41791.1
704.45	41719.02
704.795	41439.25
705.14	41444.9
705.485	41389.31
705.83	41186.15
706.175	41451.23
706.52	41187.73
706.865	40779.61
707.209	40966.27
707.554	40736.67
707.899	40886.5
708.243	40620.97
708.588	40621.19
708.932	40267.3
709.277	40241.54
709.621	40289.22
709.966	39866.41
710.31	40123.13
710.654	39732.4
710.998	39781.21
711.342	39892.4
711.687	39632.74
712.031	39445.63
712.375	39406.08
712.719	39384.61
713.063	39321.56
713.407	39392.3
713.75	39097.16
714.094	39124.73
714.438	38947.79
714.782	39052.87
715.125	38644.75
715.469	38884.97
715.812	38573.79
716.156	38470.51
716.499	38371.31
716.843	38468.71
717.186	38120.24
717.53	38518.65
717.873	38472.55
718.216	38212.67
718.559	38083.63
718.902	37906.01
719.246	37973.8
719.589	37733.81
719.932	37646.81
720.275	37727.26
720.617	37572.01
720.96	37505.12
721.303	37505.79
721.646	37515.96
721.989	37103.77
722.331	37463.76
722.674	37155.97
723.016	37204.78
723.359	36999.14
723.701	37106.48
724.044	36871.46
724.386	36716.44
724.729	36825.59
725.071	36787.17
725.413	36602.54
725.755	36585.37
726.097	36382.43
726.439	36309.67
726.782	36363
727.124	36483.9
727.465	36223.79
727.807	36161.87
728.149	36200.07
728.491	36074.19
728.833	36170.69
729.175	35978.15
729.516	35911.71
729.858	35830.36
730.199	35828.78
730.541	35780.87
730.882	35686.18
731.224	35738.83
731.565	35349.69
731.906	35406.64
732.248	35500.65
732.589	35220.43
732.93	35153.31
733.271	35230.37
733.612	35182.46
733.953	35145.18
734.294	35067.89
734.635	34956.48
734.976	35079.64
735.317	35021.79
735.658	34883.94
735.999	34916.48
736.339	34726.43
736.68	34832.87
737.021	34597.17
737.361	34485.31
737.702	34764.85
738.042	34457.06
738.383	34366.44
738.723	34466.33
739.063	34249.83
739.404	34441.24
739.744	34212.77
740.084	34147.69
740.424	34296.16
740.764	34013.91
741.104	34061.82
741.444	33929.84
741.784	33793.57
742.124	33788.83
742.464	33644.2
742.804	33686.68
743.143	33661.6
743.483	33565.56
743.823	33398.1
744.162	33429.52
744.502	33481.72
744.841	33254.83
745.181	33332.12
745.52	33067.49
745.86	33310.2
746.199	33057.77
746.538	32980.94
746.877	33071.79
747.216	33043.09
747.556	32854.16
747.895	32827.05
748.234	32775.52
748.573	32585.7
748.911	32505.92
749.25	32453.5
749.589	32450.11
749.928	32373.27
750.267	32400.62
750.605	32171.02
750.944	32225.48
751.283	32033.17
751.621	32017.8
751.96	31989.33
752.298	31890.12
752.636	31942.78
752.975	31848.32
753.313	31739.84
