Data from foil_FLMS001491_017.txt Node
Date: Tue Feb 07 11:25:28 GMT 2017
User: dcchb
Spectrometer: FLMS00149
Trigger mode: 0
Integration Time (sec): 2.000000E-2
Scans to average: 10
Electric dark correction enabled: true
Nonlinearity correction enabled: false
Boxcar width: 0
XAxis mode: Wavelengths
Number of Pixels in Spectrum: 2048
>>>>>Begin Spectral Data<<<<<
341.393	-12.74
341.776	-12.74
342.16	-12.74
342.543	-90.03
342.927	-60.2
343.31	-76.92
343.693	-50.7
344.077	-66.98
344.46	-82.79
344.843	-51.38
345.226	-24.94
345.61	-49.8
345.993	-29.01
346.376	-20.65
346.759	3.76
347.142	45.56
347.525	27.71
347.908	61.61
348.291	93.92
348.674	97.54
349.057	123.08
349.44	129.4
349.823	138.22
350.206	166.92
350.588	222.96
350.971	237.2
351.354	269.06
351.737	281.94
352.119	288.72
352.502	297.31
352.884	321.71
353.267	320.58
353.65	325.78
354.032	338.89
354.414	365.33
354.797	369.4
355.179	374.37
355.562	358.32
355.944	370.98
356.326	375.5
356.709	423.41
357.091	403.75
357.473	416.18
357.855	418.21
358.238	404.88
358.62	399.45
359.002	402.62
359.384	398.1
359.766	410.3
360.148	400.13
360.53	394.48
360.912	388.38
361.294	408.94
361.676	408.27
362.057	403.97
362.439	392.67
362.821	419.34
363.203	400.58
363.584	416.85
363.966	405.55
364.348	418.66
364.729	420.02
365.111	395.39
365.493	407.36
365.874	410.3
366.256	404.65
366.637	373.92
367.019	417.08
367.4	421.37
367.781	396.29
368.163	433.8
368.544	397.42
368.925	439.68
369.306	416.85
369.688	415.05
370.069	410.07
370.45	434.03
370.831	428.38
371.212	421.83
371.593	438.1
371.974	425.89
372.355	443.52
372.736	423.86
373.117	457.76
373.498	452.11
373.879	460.47
374.26	441.71
374.641	437.64
375.021	459.56
375.402	452.33
375.783	488.04
376.163	497.76
376.544	521.03
376.925	486.23
377.305	500.24
377.686	514.93
378.066	493.91
378.447	506.79
378.827	507.47
379.208	531.65
379.588	534.59
379.968	531.88
380.349	533.91
380.729	540.01
381.109	524.87
381.489	542.5
381.87	559.9
382.25	542.73
382.63	554.25
383.01	568.49
383.39	574.36
383.77	570.52
384.15	592.67
384.53	571.88
384.91	611.88
385.29	588.37
385.67	595.83
386.049	631.09
386.429	603.29
386.809	635.6
387.189	634.25
387.568	631.54
387.948	630.18
388.328	649.84
388.707	646.68
389.087	667.47
389.466	668.6
389.846	688.26
390.225	683.29
390.605	697.52
390.984	695.49
391.363	699.11
391.743	732.1
392.122	735.72
392.501	732.78
392.881	743.17
393.26	749.05
393.639	759.9
394.018	777.3
394.397	794.7
394.776	769.16
395.155	787.69
395.534	814.36
395.913	792.89
396.292	827.92
396.671	826.79
397.05	838.99
397.429	840.8
397.808	844.41
398.186	869.04
398.565	863.17
398.944	877.18
399.323	873.11
399.701	901.59
400.08	894.58
400.458	889.84
400.837	931.64
401.215	914.92
401.594	939.78
401.972	948.14
402.351	968.25
402.729	979.32
403.107	988.14
403.486	1001.92
403.864	1002.15
404.242	997.18
404.62	1006.44
404.999	1013.9
405.377	1049.83
405.755	1055.03
406.133	1058.87
406.511	1089.38
406.889	1101.58
407.267	1103.39
407.645	1153.78
408.023	1123.95
408.401	1172.54
408.779	1137.96
409.156	1192.43
409.534	1202.14
409.912	1220.45
410.29	1243.5
410.667	1268.58
411.045	1275.14
411.422	1276.94
411.8	1276.04
412.178	1321.24
412.555	1361.24
412.933	1358.52
413.31	1410.5
413.687	1425.64
414.065	1401.69
414.442	1425.19
414.819	1429.26
415.197	1475.13
415.574	1483.94
415.951	1500.67
416.328	1519.65
416.705	1553.32
417.082	1571.85
417.46	1600.55
417.837	1563.94
418.214	1632.19
418.591	1598.97
418.967	1588.57
419.344	1665.86
419.721	1685.29
420.098	1659.76
420.475	1705.18
420.852	1736.59
421.228	1727.1
421.605	1739.76
421.982	1791.28
422.358	1796.25
422.735	1784.05
423.111	1802.81
423.488	1843.71
423.864	1866.53
424.241	1895.01
424.617	1900.2
424.994	1883.03
425.37	1927.32
425.746	1945.63
426.123	1991.5
426.499	1996.02
426.875	2008.22
427.251	2084.15
427.627	2105.4
428.003	2087.54
428.379	2174.1
428.756	2195.56
429.132	2213.87
429.507	2242.12
429.883	2262.23
430.259	2303.58
430.635	2293.19
431.011	2354.66
431.387	2392.85
431.763	2431.04
432.138	2467.42
432.514	2487.99
432.89	2516.91
433.265	2548.32
433.641	2621.54
434.016	2645.04
434.392	2612.28
434.767	2713.06
435.143	2705.15
435.518	2717.58
435.894	2771.37
436.269	2819.5
436.644	2880.29
437.02	2876.45
437.395	2883.23
437.77	2900.86
438.145	2976.33
438.52	3053.17
438.895	3080.96
439.271	3032.83
439.646	3149.44
440.021	3157.35
440.395	3152.15
440.77	3205.48
441.145	3233.28
441.52	3264.46
441.895	3293.61
442.27	3322.09
442.645	3328.87
443.019	3385.81
443.394	3373.84
443.769	3423.55
444.143	3455.19
444.518	3498.58
444.892	3495.87
445.267	3505.59
445.641	3543.78
446.016	3581.06
446.39	3639.59
446.764	3666.26
447.139	3685.02
447.513	3744
447.887	3729.99
448.262	3755.75
448.636	3784.67
449.01	3846.14
449.384	3847.95
449.758	3911.45
450.132	3946.03
450.506	3957.1
450.88	3980.15
451.254	4017.89
451.628	4068.28
452.002	4112.58
452.376	4113.48
452.75	4206.81
453.123	4288.62
453.497	4322.29
453.871	4343.76
454.244	4408.61
454.618	4443.87
454.992	4494.71
455.365	4536.29
455.739	4637.53
456.112	4641.15
456.486	4671.66
456.859	4713.46
457.232	4823.29
457.606	4807.47
457.979	4875.49
458.352	4977.86
458.725	4993.46
459.099	5012.66
459.472	5112.1
459.845	5164.07
460.218	5221.02
460.591	5261.92
460.964	5284.07
461.337	5393.9
461.71	5476.38
462.083	5541.46
462.456	5567
462.829	5571.75
463.201	5604.74
463.574	5712.53
463.947	5797.05
464.32	5909.82
464.692	5931.28
465.065	5974
465.438	6101
465.81	6176.25
466.183	6234.55
466.555	6366.3
466.928	6393.65
467.3	6443.36
467.672	6512.29
468.045	6648.1
468.417	6697.59
468.789	6729
469.161	6842
469.534	6887.19
469.906	7095.55
470.278	7086.51
470.65	7250.35
471.022	7347.52
471.394	7487.18
471.766	7521.98
472.138	7641.52
472.51	7818.47
472.882	7962.19
473.253	8003.55
473.625	8027.73
473.997	8283.99
474.369	8287.83
474.74	8354.5
475.112	8538.9
475.484	8668.16
475.855	8902.73
476.227	8950.64
476.598	9198.54
476.97	9236.06
477.341	9450.51
477.713	9583.17
478.084	9673.33
478.455	9925.98
478.827	10077.62
479.198	10282.36
479.569	10308.12
479.94	10615.23
480.311	10692.74
480.682	10924.37
481.053	11167.98
481.424	11312.16
481.795	11440.07
482.166	11649.78
482.537	11817.91
482.908	12009.54
483.279	12201.18
483.65	12488.4
484.021	12635.06
484.391	12802.74
484.762	12894.27
485.133	13074.6
485.503	13212.68
485.874	13516.85
486.244	13519.33
486.615	13986.89
486.985	14081.35
487.356	14293.55
487.726	14370.84
488.097	14795.23
488.467	14752.97
488.837	15040.2
489.207	15259.63
489.578	15431.15
489.948	15621.65
490.318	15840.85
490.688	15827.75
491.058	16250.34
491.428	16340.73
491.798	16508.63
492.168	16774.16
492.538	17020.94
492.908	17160.14
493.278	17324.88
493.648	17359.46
494.017	17662.95
494.387	17808.26
494.757	17977.3
495.126	18117.86
495.496	18274.24
495.866	18412.31
496.235	18673.1
496.605	18823.15
496.974	18860.44
497.344	19078.51
497.713	19231.73
498.082	19379.52
498.452	19516.24
498.821	19555.79
499.19	19738.15
499.559	19968.2
499.928	20074.64
500.298	20176.11
500.667	20449.1
501.036	20435.31
501.405	20656.77
501.774	20700.84
502.143	20863.32
502.512	20989.42
502.88	21119.81
503.249	21230.32
503.618	21401.84
503.987	21490.65
504.356	21731.55
504.724	21781.26
505.093	21978.32
505.462	22145.77
505.83	22247.92
506.199	22334.47
506.567	22744.4
506.936	22724.29
507.304	22954.57
507.672	23169.93
508.041	23219.64
508.409	23376.48
508.777	23505.29
509.145	23686.52
509.514	23791.61
509.882	24061.2
510.25	24084.25
510.618	24219.84
510.986	24320.18
511.354	24614.41
511.722	24831.58
512.09	24954.51
512.458	25138.24
512.826	25228.86
513.193	25414.39
513.561	25479.25
513.929	25814.15
514.297	26006.46
514.664	26161.26
515.032	26414.14
515.4	26580.01
515.767	26662.49
516.135	26707.91
516.502	26701.81
516.869	27327.56
517.237	27342.47
517.604	27452.53
517.972	27798.05
518.339	28056.58
518.706	28057.26
519.073	28194.43
519.44	28387.42
519.808	28778.59
520.175	28784.02
520.542	29089.32
520.909	29238.92
521.276	29287.51
521.643	29748.96
522.009	29835.51
522.376	30113.93
522.743	30276.18
523.11	30555.72
523.477	30844.3
523.843	31091.98
524.21	31383.95
524.577	31577.16
524.943	31724.96
525.31	31837.72
525.676	32239.97
526.043	32433.86
526.409	32562.22
526.776	32906.17
527.142	32973.96
527.508	33363.11
527.874	33543.89
528.241	33547.73
528.607	33842.19
528.973	34090.54
529.339	34176.19
529.705	34514.49
530.071	34635.39
530.437	34851.2
530.803	35044.64
531.169	35219.55
531.535	35313.79
531.901	35375.71
532.267	35694.57
532.632	35938.18
532.998	36157.83
533.364	36353.76
533.73	36378.39
534.095	36567.32
534.461	36783.58
534.826	37025.83
535.192	37162.33
535.557	37338.14
535.923	37311.02
536.288	37613.62
536.653	37731.35
537.019	37599.15
537.384	37848.19
537.749	38091.34
538.114	38136.09
538.479	38155.52
538.845	38403.43
539.21	38480.94
539.575	38625.11
539.94	38685.68
540.305	39072.33
540.67	38914.82
541.034	39275.49
541.399	39302.61
541.764	39417.18
542.129	39486.79
542.494	39616.5
542.858	39860.79
543.223	39832.31
543.587	40052.2
543.952	40123.61
544.316	40319.99
544.681	40255.58
545.045	40529.25
545.41	40724.27
545.774	40855.56
546.138	40872.96
546.503	40996.8
546.867	41120.42
547.231	41479.05
547.595	41460.97
547.959	41564.7
548.324	41823.67
548.688	41857.35
549.052	41958.59
549.416	42114.29
549.779	42225.92
550.143	42264.34
550.507	42546.37
550.871	42586.59
551.235	42606.93
551.599	43002.17
551.962	43003.3
552.326	43083.08
552.689	43343.41
553.053	43370.75
553.417	43482.84
553.78	44036.5
554.143	43826.33
554.507	43925.54
554.87	44143.84
555.234	44595.35
555.597	44168.7
555.96	44590.83
556.323	44780.88
556.686	44801
557.05	45132.97
557.413	45233.08
557.776	45379.74
558.139	45691.14
558.502	45712.61
558.865	45733.4
559.228	46112.15
559.59	46215.88
559.953	46264.46
560.316	46628.52
560.679	46861.51
561.041	46927.49
561.404	47095.85
561.767	47351.66
562.129	47249.29
562.492	47649.51
562.854	47673.92
563.217	47848.37
563.579	47950.29
563.941	48160.91
564.304	48311.64
564.666	48512.99
565.028	48524.52
565.39	48729.26
565.753	48887.9
566.115	49152.97
566.477	49218.06
566.839	49269.81
567.201	49432.51
567.563	49514.77
567.925	49811.03
568.287	49940.07
568.648	49980.75
569.01	50220.06
569.372	50356.56
569.734	50227.07
570.095	50486.72
570.457	50693.27
570.819	50729.88
571.18	50744.12
571.542	50941.17
571.903	50933.04
572.265	51004.68
572.626	51128.97
572.987	51299.13
573.349	51380.71
573.71	51433.37
574.071	51489.86
574.432	51559.46
574.794	51867.93
575.155	51830.64
575.516	51762.4
575.877	51934.59
576.238	52066.79
576.599	52078.09
576.96	52042.84
577.32	52043.52
577.681	52248.03
578.042	52336.62
578.403	52216.4
578.763	52336.84
579.124	52382.49
579.485	52426.33
579.845	52464.3
580.206	52525.31
580.566	52452.1
580.927	52475.37
581.287	52650.73
581.648	52509.95
582.008	52703.16
582.368	52622.03
582.728	52687.12
583.089	52599.21
583.449	52604.18
583.809	52646.44
584.169	52590.4
584.529	52569.15
584.889	52891.41
585.249	52656.84
585.609	52621.36
585.969	52818.87
586.329	52729.6
586.688	52826.77
587.048	52743.61
587.408	52646.44
587.768	52757.85
588.127	52569.83
588.487	52582.49
588.846	52904.51
589.206	52667.23
589.565	52714.91
589.925	52798.08
590.284	52729.15
590.643	52752.43
591.003	52833.33
591.362	52935.25
591.721	52782.26
592.08	52799.2
592.44	52791.52
592.799	52864.97
593.158	52779.09
593.517	52716.5
593.876	52791.52
594.235	52803.95
594.593	52796.49
594.952	52849.37
595.311	52692.77
595.67	52787
596.029	52951.07
596.387	52918.07
596.746	52942.93
597.104	52821.8
597.463	52843.72
597.822	52956.04
598.18	52747
598.538	52743.84
598.897	52957.62
599.255	52736.61
599.613	53108.12
599.972	52912.65
600.33	53027.22
600.688	52902.93
601.046	52964.17
601.404	53083.72
601.762	52970.5
602.12	53072.87
602.478	53086.88
602.836	53138.86
603.194	52974.34
603.552	53122.13
603.91	52988.35
604.268	53221.34
604.625	52996.49
604.983	53169.14
605.341	53057.28
605.698	53251.4
606.056	53207.78
606.413	53161.91
606.771	53244.84
607.128	53291.17
607.485	53179.99
607.843	53206.43
608.2	53293.43
608.557	53417.72
608.914	53358.51
609.272	53447.1
609.629	53473.09
609.986	53603.7
610.343	53438.96
610.7	53598.73
611.057	53609.81
611.414	53531.62
611.771	53582.69
612.127	53663.36
612.484	53586.3
612.841	53726.86
613.198	53597.15
613.554	53622.46
613.911	53846.41
614.267	53785.39
614.624	53634.44
614.98	53814.32
615.337	53911.72
615.693	53892.28
616.05	53763.47
616.406	54046.86
616.762	53901.55
617.118	53952.85
617.475	53911.94
617.831	53930.02
618.187	53970.02
618.543	53872.85
618.899	54013.64
619.255	53967.31
619.611	53877.14
619.967	54014.09
620.323	54010.25
620.678	53919.85
621.034	53933.64
621.39	53814.55
621.746	53847.31
622.101	54090.02
622.457	53904.71
622.812	54000.3
623.168	54063.8
623.523	54038.95
623.879	54043.92
624.234	53906.75
624.589	54061.09
624.945	53966.41
625.3	53994.2
625.655	53929.34
626.01	53899.51
626.365	54011.38
626.72	53916.69
627.075	53823.58
627.43	53806.64
627.785	53768.9
628.14	53800.53
628.495	53901.55
628.85	53812.74
629.205	53697.94
629.559	53833.3
629.914	53743.59
630.269	53729.8
630.623	53674.66
630.978	53526.64
631.332	53775.68
631.687	53730.71
632.041	53539.07
632.396	53566.42
632.75	53373.65
633.104	53556.7
633.459	53362.35
633.813	53318.29
634.167	53294.79
634.521	53226.54
634.875	53333.2
635.229	53145.18
635.583	53020.89
635.937	52992.87
636.291	52941.8
636.645	53023.15
636.999	52859.54
637.352	52811.18
637.706	52670.17
638.06	52798.3
638.413	52692.77
638.767	52521.47
639.121	52706.55
639.474	52529.16
639.828	52412.77
640.181	52470.85
640.534	52487.12
640.888	52306.79
641.241	52251.87
641.594	52277.18
641.947	52255.94
642.301	52123.52
642.654	52163.52
643.007	52217.3
643.36	52132.33
643.713	52052.33
644.066	52126.91
644.419	51821.38
644.771	51630.65
645.124	51308.85
645.477	51249.19
645.83	51145.46
646.182	50959.03
646.535	50717.68
646.888	50926.03
647.24	50658.47
647.593	50924
647.945	50797.9
648.298	50668.87
648.65	50605.36
649.002	50340.06
649.355	50487.4
649.707	50468.87
650.059	50569.89
650.411	50930.78
650.763	50885.13
651.115	51207.83
651.467	50974.39
651.819	50984.34
652.171	50843.78
652.523	50840.16
652.875	50918.8
653.227	50752.48
653.578	50849.43
653.93	50807.17
654.282	50553.16
654.633	50558.36
654.985	50564.46
655.337	50612.6
655.688	50598.58
656.039	50647.62
656.391	50356.56
656.742	50401.3
657.094	50265.49
657.445	50510.68
657.796	50285.82
658.147	50225.49
658.498	50265.26
658.849	50217.13
659.2	50288.54
659.551	50008.77
659.902	50129.44
660.253	50054.64
660.604	50132.83
660.955	49969.22
661.306	49945.49
661.656	49852.62
662.007	49934.87
662.358	49885.16
662.708	49856.68
663.059	49869.56
663.409	49602.23
663.76	49830.47
664.11	49800.87
664.461	49765.61
664.811	49841.54
665.161	49727.42
665.511	49573.53
665.862	49642.23
666.212	49627.08
666.562	49640.19
666.912	49603.81
667.262	49487.2
667.612	49607.2
667.962	49571.72
668.312	49484.49
668.662	49692.85
669.011	49431.16
669.361	49355.91
669.711	49254.67
670.06	49293.76
670.41	49046.76
670.76	49122.92
671.109	49197.72
671.459	49165.63
671.808	48997.05
672.157	48950.27
672.507	48737.84
672.856	48905.07
673.205	48871.85
673.554	48983.49
673.904	48841.12
674.253	49010.83
674.602	48919.31
674.951	48380.34
675.3	48174.02
675.649	48811.29
675.998	48608.81
676.346	48576.04
676.695	48760.22
677.044	48432.31
677.393	48588.24
677.741	48625.98
678.09	48400.45
678.438	48247.01
678.787	48395.25
679.135	48310.51
679.484	48035.94
679.832	48212.21
680.181	47854.25
680.529	47935.6
680.877	47823.52
681.225	47705.55
681.573	48069.39
681.922	47617.87
682.27	47622.17
682.618	47629.62
682.966	47509.85
683.314	47585.1
683.661	47564.99
684.009	47295.17
684.357	47210.43
684.705	47117.09
685.053	47078.45
685.4	46971.79
685.748	46880.72
686.095	46884.11
686.443	46738.35
686.79	46766.14
687.138	46638.24
687.485	46570.89
687.832	46408.86
688.18	46561.85
688.527	46233.73
688.874	46241.86
689.221	46147.85
689.568	45977.92
689.915	45897.24
690.262	45883.45
690.609	45822.44
690.956	45615.44
691.303	45628.55
691.65	45349.23
691.997	45394.43
692.344	45006.64
692.69	45008.22
693.037	45044.15
693.383	44692.53
693.73	44894.1
694.077	44346.55
694.423	44465.41
694.769	44203.95
695.116	44229.94
695.462	44141.35
695.808	44052.99
696.155	44187.68
696.501	43811.87
696.847	43942.71
697.193	43390.41
697.539	43569.17
697.885	43377.76
698.231	43184.77
698.577	43232
698.923	43015.73
699.269	42804.67
699.614	42647.38
699.96	42687.15
700.306	42623.2
700.651	42349.08
700.997	42302.98
701.342	42163.1
701.688	42143.21
702.033	42208.3
702.379	42020.05
702.724	41739.38
703.069	41792.71
703.415	41418.94
703.76	41344.14
704.105	41339.85
704.45	41200.19
704.795	41041.1
705.14	40892.85
705.485	40904.15
705.83	40656.93
706.175	40715.23
706.52	40416.93
706.865	40495.12
707.209	40425.29
707.554	40263.26
707.899	40413.09
708.243	40273.21
708.588	40084.74
708.932	39904.85
709.277	39691.3
709.621	39689.04
709.966	39383.51
710.31	39408.82
710.654	39114.59
710.998	39223.74
711.342	39307.58
711.687	39036.63
712.031	38895.16
712.375	38890.42
712.719	38873.47
713.063	38859.46
713.407	38999.57
713.75	38640.26
714.094	38535.85
714.438	38417.89
714.782	38441.16
715.125	38294.95
715.469	38329.08
715.812	38037.11
716.156	37908.97
716.499	37802.09
716.843	37808.41
717.186	37613.62
717.53	37784.46
717.873	37687.51
718.216	37494.97
718.559	37506.95
718.902	37343.11
719.246	37409.78
719.589	37113.06
719.932	36995.1
720.275	37090.47
720.617	36892.05
720.96	36952.84
721.303	36895.22
721.646	36734.77
721.989	36658.84
722.331	36715.56
722.674	36563.02
723.016	36557.82
723.359	36403.03
723.701	36412.07
724.044	36183.37
724.386	35937.95
724.729	36127.55
725.071	35824.96
725.413	35981.57
725.755	35942.7
726.097	35609.83
726.439	35608.92
726.782	35591.52
727.124	35691.86
727.465	35514.46
727.807	35409.38
728.149	35368.48
728.491	35277.41
728.833	35338.2
729.175	35071.08
729.516	35118.31
729.858	35036.51
730.199	34941.37
730.541	34911.77
730.882	34798.32
731.224	35002.38
731.565	34646.91
731.906	34695.95
732.248	34660.47
732.589	34597.88
732.93	34306.13
733.271	34410.76
733.612	34297.77
733.953	34365.79
734.294	34259.35
734.635	34182.29
734.976	34300.48
735.317	33978.68
735.658	33977.1
735.999	34042.18
736.339	33904.79
736.68	33839.48
737.021	33714.28
737.361	33468.64
737.702	33688.07
738.042	33477
738.383	33538.92
738.723	33649.2
739.063	33333.73
739.404	33443.78
739.744	33345.25
740.084	33234.52
740.424	33218.7
740.764	33187.07
741.104	33239.72
741.444	33028.2
741.784	32906.17
742.124	32910.01
742.464	32980.97
742.804	32752.05
743.143	32791.82
743.483	32703.46
743.823	32611.71
744.162	32611.26
744.502	32634.31
744.841	32446.07
745.181	32413.98
745.52	32266.19
745.86	32373.98
746.199	32109.35
746.538	32184.38
746.877	32106.42
747.216	32102.8
747.556	31909.81
747.895	32018.51
748.234	31752.75
748.573	31725.41
748.911	31697.39
749.25	31608.35
749.589	31400.9
749.928	31463.72
750.267	31491.52
750.605	31478.64
750.944	31328.36
751.283	31191.19
751.621	31301.47
751.96	31039.1
752.298	30995.48
752.636	31097.18
752.975	30814.7
