Data from foil_FLMS001491_044.txt Node
Date: Tue Feb 07 11:26:57 GMT 2017
User: dcchb
Spectrometer: FLMS00149
Trigger mode: 0
Integration Time (sec): 2.000000E-2
Scans to average: 10
Electric dark correction enabled: true
Nonlinearity correction enabled: false
Boxcar width: 0
XAxis mode: Wavelengths
Number of Pixels in Spectrum: 2048
>>>>>Begin Spectral Data<<<<<
341.393	-10.82
341.776	-10.82
342.16	-10.82
342.543	-77.94
342.927	-61.67
343.31	-49.91
343.693	-70.48
344.077	-78.39
344.46	-60.31
344.843	-39.07
345.226	-25.06
345.61	-33.87
345.993	-34.1
346.376	-16.02
346.759	23.53
347.142	29.63
347.525	40.03
347.908	52.91
348.291	77.99
348.674	90.87
349.057	92.23
349.44	139.01
349.823	151.89
350.206	166.13
350.588	249.51
350.971	271.21
351.354	256.74
351.737	290.42
352.119	315.5
352.502	326.57
352.884	333.35
353.267	354.37
353.65	360.47
354.032	381.04
354.414	349.62
354.797	377.19
355.179	383.97
355.562	388.94
355.944	390.3
356.326	400.7
356.709	407.02
357.091	390.07
357.473	406.57
357.855	412.45
358.238	419.23
358.62	418.1
359.002	419.45
359.384	398.89
359.766	406.8
360.148	401.37
360.53	421.94
360.912	442.05
361.294	424.2
361.676	418.77
362.057	414.25
362.439	413.58
362.821	410.86
363.203	409.73
363.584	414.48
363.966	411.09
364.348	393.01
364.729	429.17
365.111	408.38
365.493	405.44
365.874	431.88
366.256	418.77
366.637	433.01
367.019	431.66
367.4	454.25
367.781	422.39
368.163	436.4
368.544	452.22
368.925	426.46
369.306	455.84
369.688	437.53
370.069	433.24
370.45	445.67
370.831	416.74
371.212	441.15
371.593	449.51
371.974	441.37
372.355	466.46
372.736	444.99
373.117	466.91
373.498	468.04
373.879	468.72
374.26	453.12
374.641	447.7
375.021	463.52
375.402	469.62
375.783	499.9
376.163	503.07
376.544	525.21
376.925	497.64
377.305	499.22
377.686	525.89
378.066	516.17
378.447	510.52
378.827	502.61
379.208	521.37
379.588	519.79
379.968	521.14
380.349	550.07
380.729	533.57
381.109	549.39
381.489	530.18
381.87	561.37
382.25	569.05
382.63	546
383.01	567.92
383.39	588.94
383.77	576.74
384.15	589.84
384.53	606.11
384.91	608.6
385.29	606.34
385.67	603.85
386.049	631.88
386.429	620.8
386.809	611.76
387.189	619.22
387.568	660.8
387.948	661.25
388.328	637.53
388.707	658.54
389.087	676.17
389.466	655.38
389.846	691.31
390.225	685.66
390.605	684.76
390.984	710.74
391.363	731.76
391.743	726.11
392.122	731.08
392.501	732.21
392.881	768.6
393.26	769.73
393.639	773.34
394.018	778.99
394.397	759.33
394.776	815.15
395.155	793.23
395.534	810.63
395.913	796.84
396.292	816.28
396.671	837.52
397.05	849.95
397.429	849.95
397.808	821.25
398.186	860.12
398.565	845.88
398.944	890.63
399.323	893.34
399.701	874.81
400.08	870.06
400.458	915.94
400.837	914.13
401.215	904.19
401.594	897.63
401.972	948.48
402.351	928.14
402.729	952.55
403.107	966.78
403.486	974.01
403.864	993
404.242	1012.43
404.62	1022.6
404.999	1017.85
405.377	1036.84
405.755	1042.71
406.133	1039.32
406.511	1065.76
406.889	1077.29
407.267	1084.75
407.645	1096.5
408.023	1119.77
408.401	1164.74
408.779	1134.24
409.156	1177.62
409.534	1169.26
409.912	1199.54
410.29	1206.55
410.667	1250.84
411.045	1261.92
411.422	1261.46
411.8	1294.01
412.178	1295.36
412.555	1320.9
412.933	1336.04
413.31	1355.7
413.687	1390.5
414.065	1384.85
414.442	1396.6
414.819	1417.17
415.197	1415.58
415.574	1454
415.951	1467.79
416.328	1462.36
416.705	1470.5
417.082	1491.06
417.46	1497.62
417.837	1531.06
418.214	1505.98
418.591	1573.55
418.967	1557.5
419.344	1603.83
419.721	1597.27
420.098	1622.58
420.475	1641.34
420.852	1665.52
421.228	1672.98
421.605	1698.51
421.982	1733.09
422.358	1700.1
422.735	1731.96
423.111	1753.88
423.488	1755.24
423.864	1748.46
424.241	1798.17
424.617	1862.13
424.994	1849.47
425.37	1857.15
425.746	1859.64
426.123	1876.82
426.499	1922.01
426.875	1950.03
427.251	1953.42
427.627	1996.81
428.003	2054.21
428.379	2056.25
428.756	2069.35
429.132	2124.04
429.507	2140.08
429.883	2126.07
430.259	2207.43
430.635	2189.12
431.011	2245.17
431.387	2287.2
431.763	2344.15
432.138	2341.66
432.514	2333.3
432.89	2373.3
433.265	2412.17
433.641	2394.09
434.016	2457.36
434.392	2544.14
434.767	2551.37
435.143	2538.49
435.518	2589.79
435.894	2611.94
436.269	2658.04
436.644	2674.76
437.02	2755.21
437.395	2750.24
437.77	2776
438.145	2806.73
438.52	2833.4
438.895	2883.12
439.271	2855.55
439.646	2932.83
440.021	2942.55
440.395	2976.22
440.77	2951.59
441.145	3045.37
441.52	3067.74
441.895	3061.64
442.27	3086.73
442.645	3078.59
443.019	3189.32
443.394	3147.06
443.769	3226.38
444.143	3173.05
444.518	3268.64
444.892	3236.78
445.267	3285.59
445.641	3310
446.016	3314.97
446.39	3347.51
446.764	3391.35
447.139	3398.58
447.513	3430.67
447.887	3442.42
448.262	3425.02
448.636	3507.05
449.01	3550.22
449.384	3547.51
449.758	3575.53
450.132	3602.19
450.506	3627.05
450.88	3644.45
451.254	3679.93
451.628	3722.42
452.002	3753.38
452.376	3819.36
452.75	3871.79
453.123	3892.13
453.497	3901.17
453.871	3977.32
454.244	4051.22
454.618	4053.48
454.992	4100.49
455.365	4112.69
455.739	4199.92
456.112	4246.92
456.486	4289.18
456.859	4316.52
457.232	4411.21
457.606	4386.13
457.979	4483.07
458.352	4541.6
458.725	4557.87
459.099	4593.35
459.472	4697.98
459.845	4744.99
460.218	4777.98
460.591	4813.01
460.964	4859.11
461.337	5013
461.71	5035.6
462.083	5078.76
462.456	5077.63
462.829	5108.37
463.201	5222.49
463.574	5215.94
463.947	5302.26
464.32	5429.72
464.692	5468.36
465.065	5490.73
465.438	5569.15
465.81	5657.28
466.183	5740.44
466.555	5840.33
466.928	5873.09
467.3	5867.67
467.672	5948.12
468.045	6079.19
468.417	6086.2
468.789	6203.71
469.161	6258.85
469.534	6370.26
469.906	6484.38
470.278	6519.4
470.65	6527.54
471.022	6686.18
471.394	6833.97
471.766	6887.76
472.138	6973.63
472.51	7127.07
472.882	7195.32
473.253	7262.89
473.625	7366.16
473.997	7543.56
474.369	7598.02
474.74	7664.23
475.112	7813.16
475.484	8000.72
475.855	8058.57
476.227	8192.13
476.598	8387.6
476.97	8449.07
477.341	8639.35
477.713	8714.38
478.084	8809.06
478.455	9065.1
478.827	9116.4
479.198	9377.41
479.569	9366.34
479.94	9697.63
480.311	9781.69
480.682	10046.32
481.053	10166.09
481.424	10373.77
481.795	10412.64
482.166	10624.83
482.537	10800.65
482.908	10897.82
483.279	11082.22
483.65	11237.02
484.021	11507.07
484.391	11630
484.762	11732.83
485.133	11831.81
485.503	12048.98
485.874	12333.49
486.244	12386.6
486.615	12670.2
486.985	12733.7
487.356	13055.96
487.726	13148.16
488.097	13309.28
488.467	13444.65
488.837	13733.9
489.207	13841.47
489.578	14062.26
489.948	14220.67
490.318	14479.87
490.688	14496.82
491.058	14699.3
491.428	14857.72
491.798	15011.61
492.168	15318.72
492.538	15337.25
492.908	15506.29
493.278	15766.85
493.648	15858.37
494.017	15965.48
494.387	16149.66
494.757	16206.61
495.126	16541.06
495.496	16496.09
495.866	16648.63
496.235	16806.37
496.605	17008.62
496.974	17110.31
497.344	17264.21
497.713	17369.06
498.082	17465.11
498.452	17600.92
498.821	17753.69
499.19	17815.83
499.559	17983.51
499.928	18056.73
500.298	18220.11
500.667	18413.78
501.036	18409.94
501.405	18718.63
501.774	18658.29
502.143	18830.49
502.512	18857.16
502.88	19124.95
503.249	19201.78
503.618	19374.89
503.987	19508.44
504.356	19588.44
504.724	19705.5
505.093	19863.01
505.462	19860.07
505.83	19986.85
506.199	20247.86
506.567	20423.67
506.936	20443.11
507.304	20772.14
507.672	20669.77
508.041	20903.43
508.409	21101.85
508.777	21361.95
509.145	21337.77
509.514	21442.4
509.882	21645.79
510.25	21777.08
510.618	21915.38
510.986	22033.35
511.354	22314.92
511.722	22437.86
512.09	22663.84
512.458	22611.86
512.826	22900.22
513.193	22952.65
513.561	23071.74
513.929	23246.42
514.297	23456.13
514.664	23628.11
515.032	23803.24
515.4	23969.79
515.767	24000.3
516.135	24294.98
516.502	24151.26
516.869	24671.92
517.237	24711.92
517.604	24687.29
517.972	25123.66
518.339	25162.53
518.706	25257.67
519.073	25540.15
519.44	25598.68
519.808	25915.96
520.175	26002.28
520.542	26364.31
520.909	26553.68
521.276	26487.24
521.643	26781.7
522.009	27179.2
522.376	27220.33
522.743	27340.55
523.11	27748.68
523.477	27877.71
523.843	28020.53
524.21	28424.82
524.577	28488.32
524.943	28762.44
525.31	28828.2
525.676	29244.23
526.043	29322.65
526.409	29527.61
526.776	29804.67
527.142	29959.92
527.508	30171.21
527.874	30347.25
528.241	30496.4
528.607	30713.57
528.973	30971.19
529.339	31001.47
529.705	31284.18
530.071	31616.15
530.437	31716.93
530.803	31959.87
531.169	32089.35
531.535	32118.05
531.901	32316.92
532.267	32416.58
532.632	32572.05
532.998	32748.09
533.364	33043.23
533.73	33165.26
534.095	33403.9
534.461	33500.62
534.826	33716.43
535.192	33692.02
535.557	33959.14
535.923	34011.79
536.288	34331.1
536.653	34437.31
537.019	34512.12
537.384	34634.6
537.749	34856.06
538.114	34893.35
538.479	35022.61
538.845	35149.61
539.21	35095.83
539.575	35286.78
539.94	35477.29
540.305	35683.38
540.67	35564.29
541.034	35803.61
541.399	36064.16
541.764	36141.45
542.129	36413.76
542.494	36436.36
542.858	36434.78
543.223	36611.49
543.587	36846.07
543.952	36788.67
544.316	36961.54
544.681	36970.58
545.045	37319.95
545.41	37415.99
545.774	37501.42
546.138	37552.94
546.503	37620.73
546.867	37688.08
547.231	38110.44
547.595	38243.09
547.959	38415.97
548.324	38422.75
548.688	38497.32
549.052	38737.31
549.416	38757.43
549.779	39009.4
550.143	39062.73
550.507	39330.52
550.871	39364.19
551.235	39489.16
551.599	39757.17
551.962	39768.7
552.326	39989.94
552.689	40230.38
553.053	40211.85
553.417	40280.55
553.78	40710.37
554.143	40613.65
554.507	40766.64
554.87	40938.84
555.234	41412.72
555.597	41199.17
555.96	41470.12
556.323	41690.91
556.686	41740.4
557.05	42120.73
557.413	42124.12
557.776	42243.21
558.139	42694.72
558.502	42651.34
558.865	42760.26
559.228	43099.46
559.59	43120.02
559.953	43383.52
560.316	43744.19
560.679	43807.01
561.041	44069.83
561.404	44222.82
561.767	44576.26
562.129	44470.95
562.492	44998.17
562.854	44908.23
563.217	44919.3
563.579	45264.15
563.941	45427.08
564.304	45615.55
564.666	45760.63
565.028	45977.58
565.39	46064.35
565.753	46333.73
566.115	46437.45
566.477	46646.94
566.839	46732.58
567.201	47102.07
567.563	47045.8
567.925	47404.21
568.287	47405.79
568.648	47502.73
569.01	47741.6
569.372	48050.06
569.734	47957.41
570.095	48229.27
570.457	48375.71
570.819	48424.07
571.18	48531.41
571.542	48677.62
571.903	48859.53
572.265	48918.97
572.626	48983.6
572.987	49125.29
573.349	49302.01
573.71	49462.46
574.071	49541.78
574.432	49598.95
574.794	49819.28
575.155	49854.54
575.516	49845.95
575.877	49970.01
576.238	50017.47
576.599	50145.38
576.96	50152.83
577.32	50171.82
577.681	50326.61
578.042	50480.28
578.403	50457.46
578.763	50507.17
579.124	50484.12
579.485	50607.74
579.845	50730.45
580.206	50664.01
580.566	50755.53
580.927	50859.93
581.287	50966.82
581.648	50781.52
582.008	51026.03
582.368	50922.31
582.728	51041.4
583.089	50988.74
583.449	50936.54
583.809	50985.81
584.169	51143.99
584.529	51029.19
584.889	51323.42
585.249	51066.71
585.609	50971.57
585.969	51252.47
586.329	51130.21
586.688	51238
587.048	51078.91
587.408	51055.41
587.768	51197.55
588.127	51042.98
588.487	51101.28
588.846	51353.25
589.206	51058.8
589.565	51100.15
589.925	51317.55
590.284	51261.05
590.643	51317.32
591.003	51213.6
591.362	51401.61
591.721	51326.81
592.08	51376.3
592.44	51373.82
592.799	51386.93
593.158	51245.91
593.517	51241.62
593.876	51356.19
594.235	51292.24
594.593	51349.19
594.952	51358.9
595.311	51271
595.67	51403.42
596.029	51583.76
596.387	51568.84
596.746	51668.73
597.104	51432.12
597.463	51478.9
597.822	51682.06
598.18	51548.96
598.538	51411.11
598.897	51638.22
599.255	51395.51
599.613	51869.17
599.972	51674.38
600.33	51696.75
600.688	51596.64
601.046	51734.71
601.404	51788.05
601.762	51858.33
602.12	51856.29
602.478	51894.93
602.836	51917.53
603.194	51735.39
603.552	51918.89
603.91	51760.93
604.268	51934.26
604.625	51897.65
604.983	52022.16
605.341	51834.82
605.698	51957.08
606.056	52140.58
606.413	52021.49
606.771	52206.79
607.128	52321.82
607.485	52099
607.843	52139.9
608.2	52291.53
608.557	52377.18
608.914	52129.73
609.272	52358.2
609.629	52432.32
609.986	52569.27
610.343	52458.31
610.7	52640.23
611.057	52493.56
611.414	52558.87
611.771	52577.18
612.127	52776.27
612.484	52629.38
612.841	52808.36
613.198	52624.41
613.554	52660.34
613.911	52826.44
614.267	52781.69
614.624	52799.54
614.98	52890.16
615.337	52943.27
615.693	53023.94
616.05	52982.36
616.406	53162.02
616.762	52964.96
617.118	52932.42
617.475	53005.87
617.831	53140.33
618.187	53122.7
618.543	53089.93
618.899	53224.84
619.255	53141.68
619.611	53141.68
619.967	53295.35
620.323	53328.57
620.678	53156.6
621.034	53159.99
621.39	53061.23
621.746	53032.08
622.101	53512.97
622.457	53281.11
622.812	53288.34
623.168	53242.47
623.523	53282.7
623.879	53275.24
624.234	53157.27
624.589	53314.33
624.945	53263.71
625.3	53186.88
625.655	53166.77
626.01	53301.45
626.365	53390.04
626.72	53271.17
627.075	53183.94
627.43	53261.9
627.785	53214.22
628.14	53225.3
628.495	53261.68
628.85	53087.45
629.205	53018.75
629.559	53190.04
629.914	53006.77
630.269	53101.91
630.623	52988.69
630.978	52908.47
631.332	53071.63
631.687	53015.81
632.041	52878.19
632.396	52970.16
632.75	52741.24
633.104	52903.04
633.459	52778.75
633.813	52635.48
634.167	52660.79
634.521	52638.42
634.875	52683.16
635.229	52645.42
635.583	52514.58
635.937	52463.73
636.291	52445.65
636.645	52432.1
636.999	52331.53
637.352	52538.31
637.706	52228.26
638.06	52331.99
638.413	52253.12
638.767	52124.76
639.121	52203.18
639.474	52026.91
639.828	51961.83
640.181	51985.55
640.534	52064.65
640.888	51983.07
641.241	51785.33
641.594	51913.01
641.947	51946.01
642.301	51764.99
642.654	51772.68
643.007	51743.07
643.36	51752.11
643.713	51642.96
644.066	51815.84
644.419	51361.84
644.771	51031
645.124	50601.86
645.477	50525.93
645.83	50478.47
646.182	50425.6
646.535	50326.61
646.888	50602.77
647.24	50560.05
647.593	50730.9
647.945	50703.78
648.298	50410.45
648.65	50273.28
649.002	50310.8
649.355	50338.14
649.707	50085.72
650.059	50150.8
650.411	50432.6
650.763	50586.95
651.115	51016.99
651.467	50856.77
651.819	50836.43
652.171	50724.12
652.523	50670.56
652.875	50613.61
653.227	50492.26
653.578	50742.2
653.93	50605.93
654.282	50498.36
654.633	50492.94
654.985	50497.68
655.337	50375.2
655.688	50422.66
656.039	50596.44
656.391	50193.51
656.742	50243.68
657.094	50257.46
657.445	50266.05
657.796	50084.81
658.147	50163
658.498	50161.65
658.849	50222.89
659.2	50091.37
659.551	50111.48
659.902	50169.33
660.253	49883.24
660.604	50102.44
660.955	49885.5
661.306	50126.62
661.656	49912.61
662.007	49888.89
662.358	49759.62
662.708	49810.24
663.059	49791.26
663.409	49576.58
663.76	49781.77
664.11	49886.4
664.461	49763.92
664.811	49873.75
665.161	49822
665.511	49713.52
665.862	49642.34
666.212	49798.72
666.562	49671.49
666.912	49657.48
667.262	49476.02
667.612	49624.03
667.962	49633.07
668.312	49514.43
668.662	49697.03
669.011	49535.45
669.361	49377.49
669.711	49310.37
670.06	49293.42
670.41	49239.86
670.76	49238.28
671.109	49281.67
671.459	49297.04
671.808	49106.53
672.157	49272.86
672.507	49018.85
672.856	49025.18
673.205	49053.2
673.554	49213.42
673.904	49105.18
674.253	49270.37
674.602	48945.18
674.951	48532.76
675.3	48356.04
675.649	48923.26
675.998	48872.19
676.346	48815.47
676.695	48944.5
677.044	48494.35
677.393	48799.2
677.741	48781.12
678.09	48518.07
678.438	48567.34
678.787	48805.3
679.135	48591.74
679.484	48330.06
679.832	48490.96
680.181	48255.03
680.529	48483.05
680.877	48233.56
681.225	48173.22
681.573	48334.8
681.922	48114.92
682.27	48023.62
682.618	48089.61
682.966	47940.69
683.314	48012.78
683.661	47871.99
684.009	47638.55
684.357	47538.89
684.705	47573.24
685.053	47556.52
685.4	47426.58
685.748	47171.22
686.095	47230.65
686.443	47081.73
686.79	46960.83
687.138	47033.59
687.485	46988.17
687.832	46767.39
688.18	46889.64
688.527	46746.37
688.874	46527.39
689.221	46493.95
689.568	46343.22
689.915	46289.21
690.262	46245.59
690.609	46211.24
690.956	46103.9
691.303	46121.3
691.65	45735.32
691.997	45867.75
692.344	45516.8
692.69	45519.28
693.037	45644.03
693.383	45109.8
693.73	45414.65
694.077	44964.95
694.423	44998.62
694.769	44890.37
695.116	44834.33
695.462	44808.57
695.808	44567.44
696.155	44632.3
696.501	44318.64
696.847	44383.49
697.193	44095.82
697.539	44262.59
697.885	43992.09
698.231	43831.42
698.577	43875.26
698.923	43757.75
699.269	43515.49
699.614	43224.2
699.96	43316.86
700.306	43350.53
700.651	43098.78
700.997	43023.08
701.342	43018.56
701.688	42707.61
702.033	42686.14
702.379	42596.65
702.724	42421.29
703.069	42576.08
703.415	42142.2
703.76	42001.41
704.105	42090.9
704.45	41904.69
704.795	41617.24
705.14	41693.17
705.485	41614.98
705.83	41497.02
706.175	41515.55
706.52	41401.88
706.865	41196.01
707.209	41144.26
707.554	40900.2
707.899	41014.32
708.243	40804.38
708.588	40785.62
708.932	40643.93
709.277	40488.46
709.621	40528.23
709.966	40332.98
710.31	40342.92
710.654	40032.42
710.998	40149.93
711.342	40109.93
711.687	39805.54
712.031	39842.6
712.375	39636.27
712.719	39681.92
713.063	39608.25
713.407	39587.46
713.75	39471.31
714.094	39385.21
714.438	39200.58
714.782	39270.41
715.125	39004.43
715.469	39115.16
715.812	38774.38
716.156	38669.75
716.499	38752
716.843	38671.78
717.186	38432.92
717.53	38569.18
717.873	38728.28
718.216	38542.07
718.559	38170.1
718.902	38129.65
719.246	38202.19
719.589	38084.68
719.932	37873.61
720.275	37995.41
720.617	37836.77
720.96	37675.65
721.303	37686.04
721.646	37775.31
721.989	37436.11
722.331	37595.42
722.674	37453.05
723.016	37545.03
723.359	37380.74
723.701	37479.27
724.044	37130.8
724.386	36966.06
724.729	37074.08
725.071	37007.42
725.413	36815.56
725.755	36904.82
726.097	36739.18
726.439	36512.97
726.782	36664.6
727.124	36836.8
727.465	36491.27
727.807	36531.95
728.149	36447.43
728.491	36332.41
728.833	36346.19
729.175	36104.62
729.516	36157.04
729.858	36086.76
730.199	36032.3
730.541	35872.31
730.882	35935.13
731.224	35936.94
731.565	35770.84
731.906	35778.07
732.248	35671.41
732.589	35562.71
732.93	35496.72
733.271	35459.43
733.612	35418.31
733.953	35349.61
734.294	35217.18
734.635	35164.98
734.976	35242.27
735.317	35064.42
735.658	34962.72
735.999	34976.74
736.339	34871.2
736.68	35047.24
737.021	34883.4
737.361	34616.75
737.702	34884.31
738.042	34732
738.383	34638.67
738.723	34662.85
739.063	34491.78
739.404	34503.53
739.744	34420.82
740.084	34437.09
740.424	34349.41
740.764	34239.35
741.104	34308.28
741.444	34006.37
741.784	33951.45
742.124	34109.41
742.464	33921.85
742.804	33752.14
743.143	33702.19
743.483	33922.3
743.823	33751.91
744.162	33608.86
744.502	33642.53
744.841	33527.06
745.181	33493.84
745.52	33450.22
745.86	33516.44
746.199	33332.26
746.538	33302.66
746.877	33285.71
747.216	33219.49
747.556	33049.33
747.895	33080.51
748.234	32917.58
748.573	32854.53
748.911	32791.71
749.25	32816.11
749.589	32640.3
749.928	32571.6
750.267	32552.62
750.605	32583.35
750.944	32441.89
751.283	32276.69
751.621	32445.73
751.96	32282.8
752.298	32287.09
752.636	32200.76
752.975	31954.89
753.313	31797.16
