Data from foil_FLMS001491_050.txt Node
Date: Tue Feb 07 11:26:58 GMT 2017
User: dcchb
Spectrometer: FLMS00149
Trigger mode: 0
Integration Time (sec): 2.000000E-2
Scans to average: 10
Electric dark correction enabled: true
Nonlinearity correction enabled: false
Boxcar width: 0
XAxis mode: Wavelengths
Number of Pixels in Spectrum: 2048
>>>>>Begin Spectral Data<<<<<
341.393	-24.72
341.776	-24.72
342.16	-24.72
342.543	-59.97
342.927	-69.24
343.31	-63.36
343.693	-72.85
344.077	-75.56
344.46	-57.03
344.843	-57.71
345.226	-53.42
345.61	-33.53
345.993	-13.87
346.376	6.02
346.759	-9.58
347.142	12.8
347.525	45.34
347.908	79.46
348.291	75.39
348.674	110.19
349.057	107.71
349.44	127.6
349.823	130.31
350.206	164.43
350.588	250.3
350.971	270.87
351.354	270.19
351.737	281.04
352.119	309.96
352.502	330.53
352.884	318.32
353.267	344.31
353.65	346.35
354.032	363.07
354.414	390.64
354.797	379.11
355.179	374.37
355.562	385.22
355.944	405.1
356.326	408.27
356.709	403.97
357.091	395.39
357.473	410.75
357.855	419.79
358.238	406.23
358.62	429.73
359.002	422.5
359.384	442.16
359.766	419.11
360.148	447.14
360.53	431.99
360.912	444.2
361.294	409.85
361.676	432.67
362.057	413.69
362.439	418.66
362.821	431.99
363.203	433.8
363.584	427.25
363.966	414.59
364.348	427.02
364.729	432.22
365.111	412.11
365.493	418.89
365.874	418.89
366.256	449.39
366.637	424.99
367.019	443.52
367.4	433.58
367.781	432.45
368.163	423.41
368.544	436.51
368.925	446.46
369.306	445.1
369.688	427.93
370.069	430.19
370.45	435.16
370.831	452.33
371.212	454.59
371.593	455.5
371.974	456.63
372.355	466.34
372.736	476.96
373.117	461.15
373.498	466.8
373.879	448.49
374.26	450.52
374.641	433.35
375.021	470.86
375.402	477.64
375.783	498.66
376.163	521.03
376.544	494.82
376.925	497.98
377.305	515.38
377.686	519.9
378.066	486
378.447	511.31
378.827	520.35
379.208	548.83
379.588	534.36
379.968	543.4
380.349	515.61
380.729	542.95
381.109	545.89
381.489	545.21
381.87	564.19
382.25	566.91
382.63	561.71
383.01	588.15
383.39	570.75
383.77	552.44
384.15	578.88
384.53	630.18
384.91	602.16
385.29	609.62
385.67	620.46
386.049	620.01
386.429	604.65
386.809	659.11
387.189	621.14
387.568	617.07
387.948	657.3
388.328	667.69
388.707	670.63
389.087	685.77
389.466	693.23
389.846	675.15
390.225	682.16
390.605	689.61
390.984	704.08
391.363	723.74
391.743	731.65
392.122	728.94
392.501	736.17
392.881	725.32
393.26	767.13
393.639	770.29
394.018	767.35
394.397	770.52
394.776	775.26
395.155	794.92
395.534	797.18
395.913	800.35
396.292	811.42
396.671	825.88
397.05	838.31
397.429	856.62
397.808	840.12
398.186	859.78
398.565	874.24
398.944	877.41
399.323	862.49
399.701	877.41
400.08	879.67
400.458	885.54
400.837	910.17
401.215	943.85
401.594	942.26
401.972	942.72
402.351	946.56
402.729	950.85
403.107	970.06
403.486	980.45
403.864	981.81
404.242	996.95
404.62	1040.79
404.999	1026.78
405.377	1024.75
405.755	1022.04
406.133	1044.86
406.511	1098.19
406.889	1069.49
407.267	1099.55
407.645	1105.65
408.023	1119.66
408.401	1115.59
408.779	1159.43
409.156	1185.87
409.534	1201.92
409.912	1203.5
410.29	1191.97
410.667	1207.34
411.045	1249.83
411.422	1250.05
411.8	1262.93
412.178	1305.64
412.555	1315.59
412.933	1344.96
413.31	1340.9
413.687	1362.59
414.065	1365.76
414.442	1388.13
414.819	1414.12
415.197	1428.35
415.574	1401.23
415.951	1438.97
416.328	1458.63
416.705	1463.83
417.082	1478.97
417.46	1525.3
417.837	1510.61
418.214	1528.91
418.591	1562.36
418.967	1572.98
419.344	1581.34
419.721	1613.88
420.098	1601.91
420.475	1639.65
420.852	1641.23
421.228	1659.08
421.605	1692.75
421.982	1715.8
422.358	1681.45
422.735	1719.64
423.111	1761.45
423.488	1764.39
423.864	1779.53
424.241	1841.9
424.617	1833.77
424.994	1811.39
425.37	1858.85
425.746	1889.58
426.123	1907.66
426.499	1930.71
426.875	1934.55
427.251	1993.76
427.627	2045.29
428.003	2009.58
428.379	2059.3
428.756	2067.43
429.132	2118.28
429.507	2126.86
429.883	2164.83
430.259	2205.73
430.635	2201.44
431.011	2204.6
431.387	2292.96
431.763	2304.04
432.138	2328.89
432.514	2376.58
432.89	2326.63
433.265	2420.19
433.641	2433.75
434.016	2445.95
434.392	2499.51
434.767	2564.59
435.143	2569.79
435.518	2605.95
435.894	2620.41
436.269	2653.18
436.644	2692.95
437.02	2740.86
437.395	2741.54
437.77	2769.56
438.145	2805.72
438.52	2790.8
438.895	2846.17
439.271	2858.37
439.646	2962.78
440.021	2959.61
440.395	2966.39
440.77	2951.93
441.145	2980.4
441.52	3061.76
441.895	3062.43
442.27	3075.31
442.645	3071.02
443.019	3163.22
443.394	3156.22
443.769	3158.25
444.143	3157.35
444.518	3247.29
444.892	3193.96
445.267	3238.25
445.641	3262.2
446.016	3302.43
446.39	3312.37
446.764	3330.68
447.139	3375.19
447.513	3426.72
447.887	3413.61
448.262	3434.63
448.636	3426.94
449.01	3522.76
449.384	3557.56
449.758	3593.72
450.132	3598.01
450.506	3682.3
450.88	3645.02
451.254	3677.78
451.628	3731.57
452.002	3760.95
452.376	3793.94
452.75	3828.06
453.123	3825.13
453.497	3930.43
453.871	3965.69
454.244	3983.31
454.618	4059.7
454.992	4109.19
455.365	4045.68
455.739	4143.76
456.112	4235.74
456.486	4263.31
456.859	4305.34
457.232	4434.6
457.606	4358.9
457.979	4446.13
458.352	4555.28
458.725	4579.46
459.099	4629.4
459.472	4668.27
459.845	4686.57
460.218	4768.15
460.591	4809.51
460.964	4833.69
461.337	4908.49
461.71	4961.82
462.083	5055.15
462.456	5080.23
462.829	5077.97
463.201	5219.21
463.574	5181.02
463.947	5274.13
464.32	5398.42
464.692	5440.68
465.065	5477.29
465.438	5547.11
465.81	5638.19
466.183	5681.12
466.555	5831.85
466.928	5806.99
467.3	5776.03
467.672	5968.35
468.045	6074.11
468.417	6065.07
468.789	6142.13
469.161	6242.91
469.534	6317.49
469.906	6472.29
470.278	6512.06
470.65	6518.84
471.022	6686.52
471.394	6816.69
471.766	6886.29
472.138	6910.69
472.51	7116.11
472.882	7154.98
473.253	7233.17
473.625	7378.03
473.997	7533.95
474.369	7517.23
474.74	7704.8
475.112	7738.92
475.484	7940.72
475.855	8023.43
476.227	8136.42
476.598	8335.06
476.97	8429.07
477.341	8637.88
477.713	8674.04
478.084	8757.2
478.455	8963.75
478.827	9076.74
479.198	9358.54
479.569	9390.63
479.94	9631.53
480.311	9696.16
480.682	9944.06
481.053	10140.67
481.424	10222.47
481.795	10392.86
482.166	10563.71
482.537	10627.43
482.908	10901.55
483.279	10962.79
483.65	11201.65
484.021	11391.48
484.391	11540.85
484.762	11661.98
485.133	11795.76
485.503	11921.41
485.874	12247.5
486.244	12426.48
486.615	12565.69
486.985	12718.45
487.356	12930.2
487.726	13011.55
488.097	13390.75
488.467	13305.55
488.837	13680.01
489.207	13839.55
489.578	14010.39
489.948	14153.89
490.318	14329.71
490.688	14350.5
491.058	14617.84
491.428	14831.84
491.798	14935.57
492.168	15226.86
492.538	15294.2
492.908	15542.11
493.278	15623.46
493.648	15738.94
494.017	15912.72
494.387	15962.89
494.757	16073.16
495.126	16355.87
495.496	16458.24
495.866	16493.94
496.235	16738.01
496.605	16870.88
496.974	16980.03
497.344	17135.96
497.713	17237.88
498.082	17323.75
498.452	17575.95
498.821	17658.66
499.19	17762.16
499.559	17966.22
499.928	17998.09
500.298	18051.87
500.667	18280.79
501.036	18369.83
501.405	18522.37
501.774	18544.29
502.143	18746.31
502.512	18840.78
502.88	18978.4
503.249	19092.75
503.618	19249.8
503.987	19284.15
504.356	19449.35
504.724	19598.27
505.093	19629.68
505.462	19890.47
505.83	19865.83
506.199	20169.33
506.567	20396.22
506.936	20448.87
507.304	20618.81
507.672	20712.59
508.041	20909.87
508.409	20979.48
508.777	21143.54
509.145	21224.67
509.514	21339.69
509.882	21536.3
510.25	21582.4
510.618	21758.44
510.986	21852
511.354	22102.38
511.722	22300.57
512.09	22451.75
512.458	22439.33
512.826	22788.69
513.193	22826.43
513.561	23010.16
513.929	23040.44
514.297	23353.2
514.664	23450.82
515.032	23663.25
515.4	23853.75
515.767	23923.58
516.135	24138.26
516.502	24013.07
516.869	24552.94
517.237	24680.4
517.604	24609.21
517.972	24864.57
518.339	25193.38
518.706	25207.84
519.073	25329.87
519.44	25510.2
519.808	25753.81
520.175	25900.93
520.542	26227.93
520.909	26430.18
521.276	26449.62
521.643	26734.81
522.009	26840.57
522.376	27036.94
522.743	27222.93
523.11	27525.29
523.477	27772.29
523.843	27961.44
524.21	28191.04
524.577	28365.27
524.943	28542.44
525.31	28676.68
525.676	29054.29
526.043	29216.77
526.409	29364.79
526.776	29607.72
527.142	29698.12
527.508	30011.1
527.874	30287.25
528.241	30336.74
528.607	30454.03
528.973	30756.17
529.339	30783.51
529.705	31055.37
530.071	31254.91
530.437	31459.43
530.803	31686.09
531.169	31943.26
531.535	31907.55
531.901	32077.04
532.267	32207.66
532.632	32528.1
532.998	32619.62
533.364	32843.8
533.73	32972.61
534.095	33169.44
534.461	33238.36
534.826	33437.68
535.192	33667.5
535.557	33803.55
535.923	33813.26
536.288	34071.56
536.653	34251.44
537.019	34142.75
537.384	34325.79
537.749	34685.1
538.114	34537.31
538.479	34718.1
538.845	34828.83
539.21	34763.97
539.575	35111.31
539.94	35220.91
540.305	35474.01
540.67	35443.73
541.034	35656.83
541.399	35797.84
541.764	36018.4
542.129	36134.11
542.494	36195.35
542.858	36371.16
543.223	36391.95
543.587	36648.9
543.952	36738.61
544.316	36754.88
544.681	36904.48
545.045	37130.46
545.41	37230.12
545.774	37277.58
546.138	37330.23
546.503	37445.94
546.867	37553.96
547.231	37861.07
547.595	37981.06
547.959	38111.46
548.324	38265.8
548.688	38212.7
549.052	38539.92
549.416	38642.52
549.779	38715.73
550.143	38812.23
550.507	39190.3
550.871	39340.8
551.235	39207.92
551.599	39576.73
551.962	39603.17
552.326	39707.57
552.689	39897.17
553.053	39977.4
553.417	40032.31
553.78	40601.33
554.143	40434.78
554.507	40569.24
554.87	40871.61
555.234	40940.76
555.597	41025.5
555.96	41276.57
556.323	41281.99
556.686	41418.49
557.05	41892.37
557.413	41938.7
557.776	42000.39
558.139	42295.75
558.502	42512.92
558.865	42531.9
559.228	42766.25
559.59	42902.52
559.953	43212.79
560.316	43528.71
560.679	43584.08
561.041	43730.52
561.404	43910.17
561.767	44350.61
562.129	44228.58
562.492	44692.3
562.854	44773.2
563.217	44686.65
563.579	44841.67
563.941	45069.24
564.304	45441.66
564.666	45581.99
565.028	45767.3
565.39	45806.39
565.753	46057.46
566.115	46242.77
566.477	46377.45
566.839	46450.45
567.201	46848.17
567.563	46905.12
567.925	47126.36
568.287	47203.87
568.648	47294.26
569.01	47539.46
569.372	47739
569.734	47657.65
570.095	48058.09
570.457	48122.04
570.819	48214.47
571.18	48305.09
571.542	48446.1
571.903	48555.7
572.265	48711.85
572.626	48799.76
572.987	48886.31
573.349	49043.37
573.71	49193.42
574.071	49221.45
574.432	49421.44
574.794	49674.09
575.155	49737.36
575.516	49499.18
575.877	49648.33
576.238	49794.09
576.599	49962.22
576.96	50019.62
577.32	50023.68
577.681	50125.83
578.042	50303.68
578.403	50249.89
578.763	50313.39
579.124	50369.66
579.485	50528.98
579.845	50550.22
580.206	50525.82
580.566	50462.77
580.927	50626.83
581.287	50668.87
581.648	50552.48
582.008	50744.8
582.368	50732.14
582.728	50752.48
583.089	50721.75
583.449	50868.86
583.809	50802.87
584.169	50881.29
584.529	50869.09
584.889	51193.15
585.249	50934.85
585.609	50755.87
585.969	51016.43
586.329	50870.89
586.688	50962.87
587.048	50823.66
587.408	50865.92
587.768	50893.27
588.127	50945.02
588.487	50916.09
588.846	51207.16
589.206	51004.22
589.565	50939.59
589.925	51104.33
590.284	51041.96
590.643	51045.35
591.003	51098.91
591.362	51191.79
591.721	51082.41
592.08	51113.83
592.44	51170.1
592.799	51209.87
593.158	51114.96
593.517	51182.3
593.876	51215.97
594.235	51092.36
594.593	51190.66
594.952	51303.88
595.311	51068.18
595.67	51267.49
596.029	51423.2
596.387	51342.07
596.746	51481.5
597.104	51248.51
597.463	51338.45
597.822	51298.45
598.18	51283.99
598.538	51337.55
598.897	51483.53
599.255	51218
599.613	51646.24
599.972	51402.18
600.33	51493.93
600.688	51453.7
601.046	51535.74
601.404	51701.38
601.762	51530.76
602.12	51645.79
602.478	51650.08
602.836	51670.42
603.194	51514.49
603.552	51574.83
603.91	51563.98
604.268	51841.94
604.625	51691.21
604.983	51781.6
605.341	51624.55
605.698	51928.72
606.056	51962.84
606.413	51895.73
606.771	52002.62
607.128	52039
607.485	51922.84
607.843	51923.75
608.2	52096.62
608.557	52103.63
608.914	52052.33
609.272	52202.61
609.629	52321.25
609.986	52311.76
610.343	52234.47
610.7	52478.31
611.057	52404.41
611.414	52450.06
611.771	52422.94
612.127	52546.33
612.484	52464.98
612.841	52563.96
613.198	52384.3
613.554	52491.19
613.911	52640.11
614.267	52644.18
614.624	52653.45
614.98	52648.93
615.337	52859.77
615.693	52867.23
616.05	52763.73
616.406	52966.88
616.762	52793.1
617.118	52857.28
617.475	52764.18
617.831	52925.76
618.187	52914.68
618.543	52958.52
618.899	53041.91
619.255	53057.28
619.611	53019.99
619.967	52953.78
620.323	53111.51
620.678	53011.18
621.034	52998.75
621.39	52956.04
621.746	52899.32
622.101	53202.36
622.457	52929.82
622.812	53072.42
623.168	53035.58
623.523	53048.24
623.879	53150.83
624.234	52905.42
624.589	53064.06
624.945	53058.18
625.3	53053.89
625.655	53055.24
626.01	53060.44
626.365	53147.22
626.72	53016.6
627.075	53074.68
627.43	53027.45
627.785	52980.9
628.14	52979.54
628.495	53031.29
628.85	52899.32
629.205	52886.89
629.559	52951.29
629.914	52836.94
630.269	52826.77
630.623	52772.09
630.978	52707.91
631.332	52760.79
631.687	52883.5
632.041	52699.32
632.396	52763.05
632.75	52660.45
633.104	52619.55
633.459	52549.95
633.813	52545.65
634.167	52511.08
634.521	52518.31
634.875	52616.84
635.229	52432.66
635.583	52293.91
635.937	52344.3
636.291	52183.4
636.645	52225.89
636.999	52197.19
637.352	52211.2
637.706	52058.89
638.06	52246.9
638.413	52081.26
638.767	51990.41
639.121	52088.26
639.474	51811.43
639.828	51907.02
640.181	51825.67
640.534	51887.82
640.888	51753.58
641.241	51552.91
641.594	51596.98
641.947	51737.99
642.301	51537.32
642.654	51671.32
643.007	51577.32
643.36	51539.35
643.713	51563.08
644.066	51527.15
644.419	51268.62
644.771	50811.23
645.124	50383.22
645.477	50421.64
645.83	50299.84
646.182	50263.45
646.535	50310.91
646.888	50435.88
647.24	50248.31
647.593	50556.33
647.945	50460.74
648.298	50276.33
648.65	50278.37
649.002	50111.59
649.355	50179.84
649.707	49903.24
650.059	49949.34
650.411	50299.16
650.763	50428.87
651.115	50753.38
651.467	50663.44
651.819	50671.8
652.171	50609.88
652.523	50444.69
652.875	50472.49
653.227	50354.07
653.578	50594.74
653.93	50495.99
654.282	50337.35
654.633	50344.13
654.985	50289.21
655.337	50359.04
655.688	50240.18
656.039	50234.75
656.391	49937.36
656.742	49982.33
657.094	49975.1
657.445	50063.46
657.796	50054.87
658.147	49855.55
658.498	49939.17
658.849	49925.16
659.2	49840.64
659.551	49749.12
659.902	49927.64
660.253	49814.88
660.604	49875.44
660.955	49738.95
661.306	49892.61
661.656	49572.17
662.007	49710.92
662.358	49666.86
662.708	49686.74
663.059	49753.41
663.409	49375.57
663.76	49586.86
664.11	49732.17
664.461	49660.53
664.811	49637.93
665.161	49712.73
665.511	49601.32
665.862	49455.79
666.212	49484.04
666.562	49566.3
666.912	49376.47
667.262	49391.16
667.612	49331.5
667.962	49371.95
668.312	49320.2
668.662	49464.38
669.011	49326.3
669.361	49312.29
669.711	49255.34
670.06	49131.73
670.41	49021.9
670.76	48989.14
671.109	49155.23
671.459	48949.36
671.808	48952.53
672.157	49100.55
672.507	48835.02
672.856	48711.63
673.205	48764.06
673.554	48983.71
673.904	48847.67
674.253	48952.3
674.602	48803.6
674.951	48328.59
675.3	48235.03
675.649	48712.53
675.998	48658.75
676.346	48638.86
676.695	48771.29
677.044	48391.86
677.393	48589.82
677.741	48720.89
678.09	48569.49
678.438	48285.88
678.787	48567.9
679.135	48539.66
679.484	48218.99
679.832	48260.12
680.181	48054.47
680.529	48250.17
680.877	47986.45
681.225	47969.05
681.573	48230.29
681.922	47850.86
682.27	47844.98
682.618	47844.08
682.966	47773.35
683.314	47786.68
683.661	47618.1
684.009	47512.34
684.357	47479.12
684.705	47210.43
685.053	47270.54
685.4	47256.98
685.748	47073.25
686.095	47160.71
686.443	46882.3
686.79	46821.51
687.138	46862.64
687.485	46833.71
687.832	46613.38
688.18	46743.32
688.527	46561.85
688.874	46424.68
689.221	46282.31
689.568	46158.93
689.915	46049.78
690.262	46055.65
690.609	45910.57
690.956	45890.46
691.303	45879.16
691.65	45664.25
691.997	45637.59
692.344	45389.68
692.69	45223.81
693.037	45439.17
693.383	44972.29
693.73	45110.82
694.077	44824.27
694.423	44845.97
694.769	44641.45
695.116	44597.16
695.462	44572.75
695.808	44314.46
696.155	44410.95
696.501	44048.93
696.847	44079.89
697.193	43789.05
697.539	44042.6
697.885	43735.71
698.231	43596.51
698.577	43737.07
698.923	43611.42
699.269	43380.24
699.614	43194.26
699.96	43087.37
700.306	43084.88
700.651	42903.42
700.997	42829.07
701.342	42738.45
701.688	42640.6
702.033	42610.32
702.379	42451.68
702.724	42377.56
703.069	42413.72
703.415	41880.4
703.76	41887.85
704.105	41787.97
704.45	41790.68
704.795	41646.5
705.14	41513.63
705.485	41491.25
705.83	41346.4
706.175	41465.72
706.52	41279.96
706.865	41107.99
707.209	40975.79
707.554	40877.94
707.899	40967.88
708.243	40578.74
708.588	40728.34
708.932	40409.25
709.277	40262.36
709.621	40438.4
709.966	39953.22
710.31	40234.56
710.654	39755.48
710.998	39976.94
711.342	39899.88
711.687	39778.3
712.031	39571.3
712.375	39485.2
712.719	39449.95
713.063	39473.68
713.407	39381.25
713.75	39132.22
714.094	39269.84
714.438	39044.31
714.782	39065.33
715.125	38833.24
715.469	38936.07
715.812	38566.13
716.156	38362.07
716.499	38586.7
716.843	38607.49
717.186	38348.29
717.53	38503.54
717.873	38478
718.216	38302.86
718.559	38247.05
718.902	37930.22
719.246	38062.19
719.589	37968.63
719.932	37851.58
720.275	37681.18
720.617	37656.1
720.96	37532.26
721.303	37632.6
721.646	37609.1
721.989	37347.63
722.331	37502.43
722.674	37334.75
723.016	37348.99
723.359	37258.6
723.701	37185.38
724.044	36814.99
724.386	36668.33
724.729	36933.18
725.071	36730.02
725.413	36872.62
725.755	36724.83
726.097	36593.76
726.439	36399.64
726.782	36381.33
727.124	36568.67
727.465	36416.81
727.807	36306.53
728.149	36152.19
728.491	36188.34
728.833	36164.39
729.175	36115.35
729.516	36031.06
729.858	35870.84
730.199	35930.04
730.541	35729.82
730.882	35721.46
731.224	35804.17
731.565	35441.7
731.906	35618.64
732.248	35523.27
732.589	35298.65
732.93	35259.33
733.271	35278.76
733.612	35270.85
733.953	35290.29
734.294	34939.34
734.635	35056.62
734.976	35219.1
735.317	34904.31
735.658	34869.96
735.999	34890.3
736.339	34810.75
736.68	34799.45
737.021	34732.34
737.361	34550.87
737.702	34733.69
738.042	34510.19
738.383	34396.3
738.723	34407.6
739.063	34252.12
739.404	34490.31
739.744	34366.92
740.084	34220.94
740.424	34241.05
740.764	33978.46
741.104	34172.58
741.444	33838.12
741.784	33767.39
742.124	33919.25
742.464	33778.01
742.804	33509.99
743.143	33546.38
743.483	33693.49
743.823	33519.26
744.162	33583.89
744.502	33471.58
744.841	33280.17
745.181	33576.89
745.52	33328.76
745.86	33362.43
746.199	33225.71
746.538	33180.29
746.877	33200.62
747.216	33153.62
747.556	32971.03
747.895	32965.38
748.234	32737.59
748.573	32813.74
748.911	32655.78
749.25	32529.46
749.589	32463.24
749.928	32467.54
750.267	32543.24
750.605	32451.27
750.944	32226.19
751.283	32066.87
751.621	32155.23
751.96	32105.51
752.298	32079.3
752.636	31946.19
752.975	31828.46
