Data from foil_FLMS001491_033.txt Node
Date: Tue Feb 07 11:26:14 GMT 2017
User: dcchb
Spectrometer: FLMS00149
Trigger mode: 0
Integration Time (sec): 2.000000E-2
Scans to average: 10
Electric dark correction enabled: true
Nonlinearity correction enabled: false
Boxcar width: 0
XAxis mode: Wavelengths
Number of Pixels in Spectrum: 2048
>>>>>Begin Spectral Data<<<<<
341.393	-10.48
341.776	-10.48
342.16	-10.48
342.543	-50.03
342.927	-94.32
343.31	-76.01
343.693	-74.66
344.077	-62.23
344.46	-58.61
344.843	-56.35
345.226	-43.02
345.61	-21.78
345.993	-8.9
346.376	2.18
346.759	16.19
347.142	3.53
347.525	53.25
347.908	43.53
348.291	86.47
348.674	96.64
349.057	99.8
349.44	136.63
349.823	142.74
350.206	175.28
350.588	250.76
350.971	284.2
351.354	309.29
351.737	324.65
352.119	312.68
352.502	333.69
352.884	346.57
353.267	365.1
353.65	395.39
354.032	406.23
354.414	407.36
354.797	396.06
355.179	399.68
355.562	421.15
355.944	406.46
356.326	427.47
356.709	431.54
357.091	432.67
357.473	439.68
357.855	455.27
358.238	433.12
358.62	453.01
359.002	427.93
359.384	446.68
359.766	432.45
360.148	451.88
360.53	456.63
360.912	442.16
361.294	441.49
361.676	461.6
362.057	441.94
362.439	464.76
362.821	456.85
363.203	458.21
363.584	468.6
363.966	474.48
364.348	467.47
364.729	448.72
365.111	462.05
365.493	462.5
365.874	471.54
366.256	467.25
366.637	448.04
367.019	450.98
367.4	474.48
367.781	462.05
368.163	469.51
368.544	492.33
368.925	473.35
369.306	480.35
369.688	489.17
370.069	481.94
370.45	501.6
370.831	490.3
371.212	500.69
371.593	475.61
371.974	506.57
372.355	495.5
372.736	517.42
373.117	505.44
373.498	522.84
373.879	502.73
374.26	512.44
374.641	506.12
375.021	493.24
375.402	536.4
375.783	568.26
376.163	605.78
376.544	562.84
376.925	555.83
377.305	565.55
377.686	566
378.066	585.44
378.447	586.79
378.827	608.03
379.208	610.07
379.588	618.2
379.968	605.1
380.349	605.32
380.729	620.92
381.109	647.58
381.489	644.42
381.87	638.99
382.25	642.16
382.63	645.77
383.01	655.04
383.39	681.25
383.77	679.45
384.15	674.7
384.53	697.07
384.91	695.49
385.29	678.32
385.67	709.28
386.049	702.04
386.429	734.36
386.809	733.23
387.189	722.38
387.568	742.49
387.948	761.03
388.328	781.36
388.707	763.29
389.087	785.66
389.466	778.43
389.846	808.48
390.225	817.29
390.605	806.9
390.984	830.85
391.363	855.03
391.743	848.71
392.122	891.64
392.501	896.61
392.881	878.31
393.26	888.03
393.639	910.85
394.018	920.79
394.397	897.07
394.776	937.07
395.155	941.13
395.534	918.54
395.913	957.86
396.292	973.45
396.671	990.62
397.05	989.49
397.429	989.27
397.808	997.4
398.186	1011.19
398.565	1040.57
398.944	1023.39
399.323	1029.49
399.701	1058.87
400.08	1077.85
400.458	1075.14
400.837	1102.49
401.215	1098.64
401.594	1129.15
401.972	1117.63
402.351	1152.2
402.729	1141.35
403.107	1155.82
403.486	1221.35
403.864	1196.27
404.242	1202.82
404.62	1215.7
404.999	1231.52
405.377	1264.74
405.755	1269.71
406.133	1267.9
406.511	1282.82
406.889	1298.41
407.267	1341.8
407.645	1362.59
408.023	1402.36
408.401	1387.45
408.779	1398.97
409.156	1455.24
409.534	1445.07
409.912	1484.62
410.29	1481.46
410.667	1511.29
411.045	1535.47
411.422	1555.58
411.8	1563.04
412.178	1608.01
412.555	1636.71
412.933	1675.8
413.31	1666.09
413.687	1692.3
414.065	1743.6
414.442	1768.91
414.819	1734.78
415.197	1769.36
415.574	1779.3
415.951	1807.33
416.328	1849.13
416.705	1845.97
417.082	1860.21
417.46	1848.68
417.837	1909.92
418.214	1943.37
418.591	1953.99
418.967	1970.48
419.344	1971.84
419.721	2019.52
420.098	1997.15
420.475	2062.23
420.852	2075.34
421.228	2112.85
421.605	2112.85
421.982	2149.24
422.358	2171.38
422.735	2180.2
423.111	2211.61
423.488	2195.79
423.864	2237.37
424.241	2294.54
424.617	2311.27
424.994	2339.74
425.37	2331.83
425.746	2336.35
426.123	2354.2
426.499	2389.23
426.875	2419.51
427.251	2497.25
427.627	2554.65
428.003	2565.05
428.379	2573.18
428.756	2613.86
429.132	2664.25
429.507	2688.88
429.883	2716.45
430.259	2770.01
430.635	2774.53
431.011	2806.85
431.387	2908.09
431.763	2936.11
432.138	2990.57
432.514	3037.12
432.89	3013.62
433.265	3113.51
433.641	3124.8
434.016	3124.8
434.392	3186.05
434.767	3282.77
435.143	3291.81
435.518	3337.68
435.894	3358.25
436.269	3383.1
436.644	3458.13
437.02	3484.8
437.395	3487.28
437.77	3549.88
438.145	3587.39
438.52	3598.24
438.895	3661.74
439.271	3630.33
439.646	3764.34
440.021	3757.56
440.395	3753.49
440.77	3761.17
441.145	3842.07
441.52	3873.49
441.895	3915.97
442.27	3912.81
442.645	3903.09
443.019	3999.81
443.394	4008.85
443.769	4060.83
444.143	4016.76
444.518	4083.65
444.892	4065.35
445.267	4114.84
445.641	4188.73
446.016	4183.99
446.39	4248.17
446.764	4228.5
447.139	4256.53
447.513	4341.72
447.887	4342.4
448.262	4375.62
448.636	4369.07
449.01	4386.01
449.384	4486.35
449.758	4489.29
450.132	4571.09
450.506	4615.84
450.88	4630.75
451.254	4646.57
451.628	4714.82
452.002	4801.82
452.376	4853.57
452.75	4878.88
453.123	4899
453.497	5007.92
453.871	5048.37
454.244	5126.56
454.618	5140.8
454.992	5197.29
455.365	5227.35
455.739	5350.96
456.112	5420.11
456.486	5496.72
456.859	5534.23
457.232	5640.9
457.606	5590.95
457.979	5748.69
458.352	5837.05
458.725	5877.73
459.099	5905.07
459.472	6055.12
459.845	6132.86
460.218	6098.29
460.591	6226.42
460.964	6206.53
461.337	6375.11
461.71	6501.89
462.083	6609.68
462.456	6566.97
462.829	6677.48
463.201	6812.84
463.574	6784.6
463.947	6883.58
464.32	7038.15
464.692	7086.96
465.065	7116.56
465.438	7254.41
465.81	7376.9
466.183	7458.7
466.555	7558.81
466.928	7648.08
467.3	7678.13
467.672	7794.06
468.045	7962.64
468.417	7984.34
468.789	8071.34
469.161	8153.6
469.534	8351.79
469.906	8508.62
470.278	8565.79
470.65	8648.73
471.022	8856.63
471.394	9016.63
471.766	9075.38
472.138	9168.26
472.51	9374.13
472.882	9517.18
473.253	9631.75
473.625	9727.12
473.997	10042.59
474.369	10028.8
474.74	10151.96
475.112	10321.68
475.484	10476.93
475.855	10666.75
476.227	10873.08
476.598	11058.16
476.97	11183.8
477.341	11371.82
477.713	11610.23
478.084	11643.9
478.455	12097.9
478.827	12076.66
479.198	12465.35
479.569	12423.09
479.94	12812.46
480.311	12963.19
480.682	13273.01
481.053	13483.4
481.424	13749.16
481.795	13881.36
482.166	14058.3
482.537	14233.21
482.908	14544.84
483.279	14705.07
483.65	14974.44
484.021	15293.3
484.391	15399.96
484.762	15577.58
485.133	15694.64
485.503	15966.95
485.874	16323.55
486.244	16442.19
486.615	16831.56
486.985	17004.44
487.356	17286.24
487.726	17443.98
488.097	17745.21
488.467	17797.87
488.837	18160.79
489.207	18416.61
489.578	18617.96
489.948	18838.97
490.318	19154.44
490.688	19223.59
491.058	19530.93
491.428	19859.05
491.798	19897.02
492.168	20410
492.538	20386.72
492.908	20580.17
493.278	20965.47
493.648	21083.2
494.017	21315.06
494.387	21376.3
494.757	21601.38
495.126	21826.69
495.496	21921.6
495.866	22109.39
496.235	22404.98
496.605	22433.9
496.974	22802.71
497.344	22937.62
497.713	23042.47
498.082	23207.44
498.452	23478.62
498.821	23577.83
499.19	23665.06
499.559	23966.52
499.928	24017.14
500.298	24281.99
500.667	24532.15
501.036	24508.2
501.405	24706.84
501.774	24827.06
502.143	25004.23
502.512	25117.67
502.88	25384.11
503.249	25491.45
503.618	25665.23
503.987	25730.09
504.356	25896.18
504.724	26135.73
505.093	26277.42
505.462	26403.74
505.83	26584.98
506.199	26789.27
506.567	27191.74
506.936	27109.71
507.304	27547.67
507.672	27545.41
508.041	27669.47
508.409	27859.3
508.777	28116.69
509.145	28386.51
509.514	28508.32
509.882	28691.59
510.25	28783.34
510.618	29099.49
510.986	29175.65
511.354	29397.33
511.722	29649.31
512.09	29906.47
512.458	29948.05
512.826	30228.5
513.193	30440.92
513.561	30471.2
513.929	30829.61
514.297	31113.22
514.664	31359.09
515.032	31439.31
515.4	31675.24
515.767	31862.58
516.135	32146.87
516.502	32032.97
516.869	32603.13
517.237	32805.83
517.604	32657.81
517.972	33045.15
518.339	33347.96
518.706	33475.87
519.073	33600.16
519.44	33966.03
519.808	34258
520.175	34322.4
520.542	34809.85
520.909	34979.79
521.276	35034.93
521.643	35423.16
522.009	35683.72
522.376	35976.37
522.743	36192.41
523.11	36669.46
523.477	36913.29
523.843	37121.88
524.21	37541.98
524.577	37699.26
524.943	37849.32
525.31	37988.29
525.676	38364.1
526.043	38786.92
526.409	38858.1
526.776	39312.55
527.142	39460.8
527.508	39576.73
527.874	39979.43
528.241	40276.14
528.607	40345.3
528.973	40878.16
529.339	40760.43
529.705	41302.56
530.071	41458.26
530.437	41716.11
530.803	41891.02
531.169	42099.83
531.535	42044.69
531.901	42422.3
532.267	42639.25
532.632	42864.55
532.998	43051.89
533.364	43309.96
533.73	43402.84
534.095	43925.54
534.461	43935.48
534.826	44092.77
535.192	44237.62
535.557	44544.51
535.923	44538.86
536.288	44831.96
536.653	45099.29
537.019	44959.19
537.384	45135
537.749	45450.25
538.114	45607.76
538.479	45697.24
538.845	45847.07
539.21	45948.99
539.575	46026.95
539.94	46293.84
540.305	46568.18
540.67	46504.23
541.034	46770.44
541.399	46945.8
541.764	46974.73
542.129	47353.92
542.494	47343.53
542.858	47449.52
543.223	47508.27
543.587	47779
543.952	47781.03
544.316	47904.42
544.681	47900.12
545.045	48155.26
545.41	48331.75
545.774	48519.77
546.138	48533.55
546.503	48820.1
546.867	48788.01
547.231	49130.6
547.595	49217.6
547.959	49337.83
548.324	49451.04
548.688	49550.93
549.052	49789.34
549.416	49842.67
549.779	49809.9
550.143	50016.45
550.507	50290.34
550.871	50389.1
551.235	50480.4
551.599	50692.37
551.962	50807.62
552.326	50807.62
552.689	51131.9
553.053	50979.59
553.417	51234.73
553.78	51670.2
554.143	51566.69
554.507	51612.12
554.87	51735.5
555.234	52085.1
555.597	51922.62
555.96	52103.86
556.323	52253.23
556.686	52346.11
557.05	52641.47
557.413	52686.44
557.776	52932.99
558.139	53068.8
558.502	53103.6
558.865	53244.16
559.228	53493.2
559.59	53506.76
559.953	53592.86
560.316	53903.81
560.679	53979.51
561.041	54092.05
561.404	54280.3
561.767	54521.65
562.129	54362.55
562.492	54746.72
562.854	54733.84
563.217	54887.29
563.579	54890.45
563.941	55047.28
564.304	55192.36
564.666	55389.42
565.028	55507.16
565.39	55638.68
565.753	55812.23
566.115	55914.38
566.477	55905.56
566.839	56143.98
567.201	56333.12
567.563	56258.1
567.925	56407.02
568.287	56437.75
568.648	56572.21
569.01	56775.37
569.372	56897.18
569.734	56877.97
570.095	57008.13
570.457	57143.5
570.819	57219.65
571.18	57247.9
571.542	57368.58
571.903	57418.97
572.265	57512.3
572.626	57613.09
572.987	57647.67
573.349	57805.85
573.71	57915.68
574.071	57948.45
574.432	58019.18
574.794	58196.58
575.155	58077.94
575.516	58036.58
575.877	58201.55
576.238	58267.76
576.599	58345.27
576.96	58338.49
577.32	58448.1
577.681	58554.76
578.042	58559.51
578.403	58538.72
578.763	58589.79
579.124	58616.23
579.485	58793.62
579.845	58773.74
580.206	58760.18
580.566	58803.11
580.927	58809.89
581.287	58921.76
581.648	58846.73
582.008	58976.9
582.368	58833.4
582.728	59004.47
583.089	58955.65
583.449	58988.65
583.809	59019.15
584.169	59047.63
584.529	59036.33
584.889	59170.56
585.249	59058.02
585.609	58974.64
585.969	59048.53
586.329	59055.54
586.688	59081.75
587.048	59104.8
587.408	59030.45
587.768	59036.78
588.127	59063.22
588.487	59059.38
588.846	59212.6
589.206	59063.22
589.565	59092.15
589.925	59150.45
590.284	59171.69
590.643	59139.83
591.003	59156.1
591.362	59294.18
591.721	59234.52
592.08	59206.95
592.44	59293.27
592.799	59302.08
593.158	59199.49
593.517	59195.65
593.876	59217.12
594.235	59164.46
594.593	59217.57
594.952	59273.38
595.311	59205.14
595.67	59175.76
596.029	59346.38
596.387	59403.33
596.746	59354.51
597.104	59335.53
597.463	59293.27
597.822	59461.85
598.18	59432.7
598.538	59426.15
598.897	59558.58
599.255	59359.03
599.613	59717.67
599.972	59534.62
600.33	59574.62
600.688	59456.88
601.046	59527.39
601.404	59678.57
601.762	59533.04
602.12	59688.29
602.478	59687.39
602.836	59653.04
603.194	59550.67
603.552	59651.68
603.91	59619.59
604.268	59634.05
604.625	59592.47
604.983	59731
605.341	59591.12
605.698	59817.1
606.056	59865.23
606.413	59709.76
606.771	59821.85
607.128	59996.76
607.485	59891
607.843	59916.76
608.2	59938
608.557	60034.27
608.914	59914.95
609.272	60056.42
609.629	60096.41
609.986	60200.59
610.343	60085.12
610.7	60266.81
611.057	60209.86
611.414	60212.8
611.771	60265.22
612.127	60368.5
612.484	60270.65
612.841	60374.37
613.198	60284.66
613.554	60291.89
613.911	60433.81
614.267	60429.96
614.624	60427.7
614.98	60481.71
615.337	60577.98
615.693	60561.71
616.05	60495.27
616.406	60627.25
616.762	60549.96
617.118	60545.89
617.475	60454.82
617.831	60629.06
618.187	60613.91
618.543	60631.32
618.899	60724.19
619.255	60711.99
619.611	60668.15
619.967	60739.79
620.323	60806.68
620.678	60773.01
621.034	60655.04
621.39	60700.92
621.746	60649.62
622.101	60928.03
622.457	60764.87
622.812	60781.82
623.168	60850.29
623.523	60816.85
623.879	60928.71
624.234	60721.26
624.589	60817.53
624.945	60797.19
625.3	60818.2
625.655	60834.25
626.01	60899.56
626.365	60878.77
626.72	60730.52
627.075	60730.3
627.43	60698.43
627.785	60720.58
628.14	60744.98
628.495	60683.74
628.85	60736.85
629.205	60648.49
629.559	60814.36
629.914	60602.84
630.269	60649.62
630.623	60594.48
630.978	60573.01
631.332	60667.47
631.687	60709.51
632.041	60596.74
632.396	60663.18
632.75	60542.28
633.104	60506.35
633.459	60432.9
633.813	60442.17
634.167	60343.41
634.521	60381.15
634.875	60376.18
635.229	60317.65
635.583	60189.75
635.937	60254.15
636.291	60210.76
636.645	60145.9
636.999	60124.44
637.352	60098.9
637.706	60012.8
638.06	60082.86
638.413	60030.88
638.767	59985.91
639.121	60033.59
639.474	59903.42
639.828	59867.72
640.181	59987.94
640.534	60001.28
640.888	59874.73
641.241	59783.2
641.594	59854.61
641.947	59886.7
642.301	59763.77
642.654	59783.43
643.007	59781.62
643.36	59743.43
643.713	59755.41
644.066	59774.16
644.419	59587.28
644.771	59361.74
645.124	58951.13
645.477	58904.58
645.83	58750.23
646.182	58806.05
646.535	58771.25
646.888	58875.88
647.24	58851.48
647.593	59028.42
647.945	58926.5
648.298	58791.14
648.65	58703.46
649.002	58631.37
649.355	58648.77
649.707	58491.48
650.059	58594.31
650.411	58811.93
650.763	58878.37
651.115	59134.41
651.467	59154.29
651.819	59084.92
652.171	58961.98
652.523	58960.85
652.875	59004.69
653.227	58865.71
653.578	58904.81
653.93	58805.37
654.282	58841.98
654.633	58741.65
654.985	58861.64
655.337	58754.3
655.688	58795.43
656.039	58900.97
656.391	58665.27
656.742	58734.42
657.094	58629.56
657.445	58719.05
657.796	58639.96
658.147	58650.35
658.498	58658.03
658.849	58621.88
659.2	58582.78
659.551	58568.54
659.902	58564.7
660.253	58515.21
660.604	58596.79
660.955	58431.6
661.306	58534.65
661.656	58490.35
662.007	58449.9
662.358	58418.49
662.708	58432.73
663.059	58453.29
663.409	58323.58
663.76	58426.63
664.11	58444.71
664.461	58395.89
664.811	58378.95
665.161	58408.1
665.511	58212.4
665.862	58321.77
666.212	58352.05
666.562	58316.35
666.912	58219.85
667.262	58158.16
667.612	58315.67
667.962	58282.68
668.312	58144.38
668.662	58275.45
669.011	58254.88
669.361	58113.19
669.711	58202.68
670.06	58147.31
670.41	58086.52
670.76	58118.16
671.109	58226.41
671.459	58101.89
671.808	58075.45
672.157	58095.34
672.507	57874.55
672.856	57958.39
673.205	58012.18
673.554	58087.43
673.904	58019.41
674.253	58140.99
674.602	57984.38
674.951	57672.3
675.3	57458.29
675.649	57905.06
675.998	57852.41
676.346	57814.21
676.695	57895.34
677.044	57669.13
677.393	57736.93
677.741	57798.4
678.09	57672.3
678.438	57609.02
678.787	57671.39
679.135	57677.27
679.484	57552.75
679.832	57568.8
680.181	57402.93
680.529	57438.18
680.877	57415.58
681.225	57295.81
681.573	57447.67
681.922	57293.1
682.27	57199.09
682.618	57182.37
682.966	57168.58
683.314	57191.63
683.661	57056.49
684.009	56840.91
684.357	56915.03
684.705	56830.96
685.053	56933.79
685.4	56903.73
685.748	56691.08
686.095	56687.46
686.443	56633.68
686.79	56597.07
687.138	56665.09
687.485	56635.49
687.832	56475.94
688.18	56507.36
688.527	56340.81
688.874	56334.93
689.221	56337.64
689.568	56247.25
689.915	56111.66
690.262	56087.71
690.609	56012
690.956	56013.36
691.303	55983.08
691.65	55900.14
691.997	55786.7
692.344	55588.74
692.69	55596.19
693.037	55629.41
693.383	55325.92
693.73	55347.84
694.077	55189.42
694.423	55240.72
694.769	55121.18
695.116	55068.07
695.462	55086.6
695.808	54978.13
696.155	54926.15
696.501	54688.87
696.847	54770.45
697.193	54442.1
697.539	54620.63
697.885	54406.39
698.231	54319.84
698.577	54393.06
698.923	54273.29
699.269	54149
699.614	53932.06
699.96	53965.05
700.306	54025.16
700.651	53764.15
700.997	53716.47
701.342	53728.22
701.688	53776.13
702.033	53617.49
702.379	53591.27
702.724	53500.88
703.069	53520.54
703.415	53098.18
703.76	53300.89
704.105	53184.73
704.45	53132.53
704.795	52928.02
705.14	52843.5
705.485	52761.47
705.83	52774.57
706.175	52735.25
706.52	52515.6
706.865	52301.59
707.209	52342.72
707.554	52208.94
707.899	52342.27
708.243	52137.75
708.588	52039.9
708.932	51856.4
709.277	51855.73
709.621	51944.54
709.966	51578.45
710.31	51742.96
710.654	51255.52
710.998	51562.63
711.342	51522.18
711.687	51451.9
712.031	51211.9
712.375	51042.87
712.719	51131.45
713.063	51028.4
713.407	51080.61
713.75	50916.99
714.094	50992.25
714.438	50814.4
714.782	50899.82
715.125	50521.07
715.469	50602.2
715.812	50449.21
716.156	50208.09
716.499	50254.64
716.843	50350.46
717.186	49986.17
717.53	50235.66
717.873	50071.37
718.216	50243.11
718.559	49879.51
718.902	49752.28
719.246	49672.73
719.589	49652.17
719.932	49582.79
720.275	49565.39
720.617	49514.32
720.96	49319.75
721.303	49312.06
721.646	49239.07
721.989	49025.74
722.331	49224.16
722.674	49100.09
723.016	49147.1
723.359	48914.11
723.701	49084.27
724.044	48753.66
724.386	48505.76
724.729	48791.17
725.071	48681.35
725.413	48661.23
725.755	48420.79
726.097	48237.97
726.439	48168.82
726.782	48081.59
727.124	48155.71
727.465	48012.89
727.807	47859
728.149	47804.99
728.491	47712.78
728.833	47771.77
729.175	47562.28
729.516	47526.35
729.858	47362.74
730.199	47516.86
730.541	47353.25
730.882	47301.5
731.224	47353.02
731.565	47095.17
731.906	47219.01
732.248	47172.46
732.589	46922.3
732.93	46887.04
733.271	46987.61
733.612	46933.6
733.953	46984.89
734.294	46727.27
734.635	46684.56
734.976	46710.33
735.317	46462.42
735.658	46624.45
735.999	46565.24
736.339	46279.15
736.68	46481.63
737.021	46221.98
737.361	45970.91
737.702	46378.81
738.042	46050
738.383	45913.28
738.723	45967.07
739.063	45739.96
739.404	45801.65
739.744	45704.93
740.084	45633.07
740.424	45569.79
740.764	45468.78
741.104	45550.13
741.444	45443.24
741.784	45307.88
742.124	45478.72
742.464	45148.56
742.804	45018.17
743.143	45061.56
743.483	45013.65
743.823	44738.63
744.162	44958.06
744.502	44791.51
744.841	44680.55
745.181	44733.2
745.52	44518.07
745.86	44566.88
746.199	44383.61
746.538	44340.22
746.877	44350.16
747.216	44272.88
747.556	44114.46
747.895	44127.34
748.234	43929.61
748.573	43781.36
748.911	43821.81
749.25	43868.37
749.589	43716.05
749.928	43765.32
750.267	43783.85
750.605	43584.98
750.944	43373.24
751.283	43232.68
751.621	43307.03
751.96	43066.35
752.298	43199.23
752.636	43103.41
752.975	42733.48
