Data from foil_FLMS001491_067.txt Node
Date: Tue Feb 07 11:36:27 GMT 2017
User: dcchb
Spectrometer: FLMS00149
Trigger mode: 0
Integration Time (sec): 2.000000E-2
Scans to average: 10
Electric dark correction enabled: true
Nonlinearity correction enabled: false
Boxcar width: 0
XAxis mode: Wavelengths
Number of Pixels in Spectrum: 2048
>>>>>Begin Spectral Data<<<<<
341.393	-23.62
341.776	-23.62
342.16	-23.62
342.543	-74.46
342.927	-51.19
343.31	-64.29
343.693	-76.95
344.077	-64.07
344.46	-59.55
344.843	-49.15
345.226	-28.13
345.61	-31.75
345.993	-24.07
346.376	-5.54
346.759	2.82
347.142	30.85
347.525	37.63
347.908	48.47
348.291	77.4
348.674	87.57
349.057	118.75
349.44	110.39
349.823	146.32
350.206	170.96
350.588	259.99
350.971	276.49
351.354	301.12
351.737	332.99
352.119	324.4
352.502	353.32
352.884	346.54
353.267	371.4
353.65	368.24
354.032	379.54
354.414	426.54
354.797	389.26
355.179	391.29
355.562	411.18
355.944	431.06
356.326	429.03
356.709	419.54
357.091	422.47
357.473	445.53
357.855	439.42
358.238	439.88
358.62	457.73
359.002	436.71
359.384	437.62
359.766	437.62
360.148	453.21
360.53	448.46
360.912	450.95
361.294	443.94
361.676	439.88
362.057	465.19
362.439	431.29
362.821	448.01
363.203	460.44
363.584	446.2
363.966	453.43
364.348	457.28
364.729	445.98
365.111	450.95
365.493	446.2
365.874	445.07
366.256	459.31
366.637	450.04
367.019	459.31
367.4	462.93
367.781	464.73
368.163	457.28
368.544	483.94
368.925	473.32
369.306	484.39
369.688	474.9
370.069	466.09
370.45	477.61
370.831	489.59
371.212	510.83
371.593	483.04
371.974	495.92
372.355	489.14
372.736	501.34
373.117	506.09
373.498	516.48
373.879	517.84
374.26	492.76
374.641	475.81
375.021	493.89
375.402	526.43
375.783	549.7
376.163	550.38
376.544	555.8
376.925	538.18
377.305	540.21
377.686	563.71
378.066	556.48
378.447	553.77
378.827	557.84
379.208	571.62
379.588	568.69
379.968	591.74
380.349	589.48
380.729	595.35
381.109	596.93
381.489	587.89
381.87	604.16
382.25	648.01
382.63	604.62
383.01	634.67
383.39	647.33
383.77	624.05
384.15	644.84
384.53	642.36
384.91	669.47
385.29	676.03
385.67	673.32
386.049	687.78
386.429	689.59
386.809	693.88
387.189	695.24
387.568	736.59
387.948	734.56
388.328	724.61
388.707	753.77
389.087	763.03
389.466	764.16
389.846	773.2
390.225	787.21
390.605	796.48
390.984	798.74
391.363	793.99
391.743	793.54
392.122	788.34
392.501	805.29
392.881	847.55
393.26	844.61
393.639	859.3
394.018	847.32
394.397	865.4
394.776	862.01
395.155	875.34
395.534	889.36
395.913	906.76
396.292	892.74
396.671	919.86
397.05	919.41
397.429	955.12
397.808	964.38
398.186	948.34
398.565	942.24
398.944	969.35
399.323	1000.99
399.701	1004.83
400.08	995.12
400.458	1009.35
400.837	1012.06
401.215	1018.17
401.594	1041.67
401.972	1054.32
402.351	1033.08
402.729	1061.78
403.107	1055
403.486	1104.26
403.864	1100.65
404.242	1139.07
404.62	1140.2
404.999	1160.53
405.377	1171.16
405.755	1181.1
406.133	1185.39
406.511	1202.79
406.889	1204.83
407.267	1234.43
407.645	1255.9
408.023	1279.85
408.401	1280.08
408.779	1314.65
409.156	1334.32
409.534	1326.18
409.912	1354.43
410.29	1384.26
410.667	1411.6
411.045	1423.13
411.422	1440.3
411.8	1460.64
412.178	1454.54
412.555	1494.76
412.933	1509
413.31	1535.21
413.687	1566.17
414.065	1546.96
414.442	1602.78
414.819	1608.66
415.197	1614.31
415.574	1608.88
415.951	1672.61
416.328	1685.94
416.705	1717.58
417.082	1690.46
417.46	1751.25
417.837	1770.91
418.214	1750.12
418.591	1772.04
418.967	1784.02
419.344	1815.66
419.721	1810.69
420.098	1823.12
420.475	1891.36
420.852	1859.73
421.228	1917.35
421.605	1912.61
421.982	1951.25
422.358	1948.54
422.735	1991.7
423.111	1965.71
423.488	1990.12
423.864	2052.71
424.241	2055.88
424.617	2112.37
424.994	2114.18
425.37	2112.37
425.746	2144.01
426.123	2196.21
426.499	2188.53
426.875	2229.66
427.251	2294.74
427.627	2305.59
428.003	2344.23
428.379	2364.57
428.756	2367.28
429.132	2407.51
429.507	2478.47
429.883	2520.72
430.259	2514.17
430.635	2539.26
431.011	2573.6
431.387	2664.9
431.763	2671.23
432.138	2704.22
432.514	2738.35
432.89	2746.48
433.265	2767.05
433.641	2809.98
434.016	2867.83
434.392	2890.66
434.767	2966.14
435.143	2946.7
435.518	3001.62
435.894	3048.17
436.269	3103.08
436.644	3114.38
437.02	3178.11
437.395	3153.93
437.77	3195.96
438.145	3208.84
438.52	3275.96
438.895	3302.4
439.271	3328.84
439.646	3398.22
440.021	3424.66
440.395	3449.06
440.77	3398.67
441.145	3455.16
441.52	3526.35
441.895	3523.41
442.27	3578.1
442.645	3602.96
443.019	3622.39
443.394	3640.92
443.769	3675.72
444.143	3659.9
444.518	3760.47
444.892	3727.7
445.267	3698.77
445.641	3793.23
446.016	3824.87
446.39	3847.24
446.764	3882.04
447.139	3880.01
447.513	3967.24
447.887	3939.22
448.262	3933.34
448.636	3996.84
449.01	4056.96
449.384	4109.16
449.758	4077.29
450.132	4172.21
450.506	4217.86
450.88	4205.43
451.254	4200.68
451.628	4315.48
452.002	4345.76
452.376	4339.43
452.75	4405.19
453.123	4506.21
453.497	4509.82
453.871	4581.46
454.244	4627.34
454.618	4696.26
454.992	4811.51
455.365	4733.1
455.739	4889.7
456.112	4944.84
456.486	5011.96
456.859	5006.76
457.232	5126.53
457.606	5110.94
457.979	5200.43
458.352	5314.32
458.725	5405.85
459.099	5389.58
459.472	5511.38
459.845	5503.25
460.218	5627.76
460.591	5673.18
460.964	5712.28
461.337	5781.2
461.71	5850.81
462.083	5938.49
462.456	5993.18
462.829	6048.09
463.201	6140.06
463.574	6143.23
463.947	6249.89
464.32	6413.5
464.692	6409.44
465.065	6474.07
465.438	6542.77
465.81	6666.15
466.183	6768.52
466.555	6856.2
466.928	6934.39
467.3	6928.97
467.672	7000.61
468.045	7222.75
468.417	7236.08
468.789	7335.06
469.161	7355.63
469.534	7464.1
469.906	7740.02
470.278	7695.5
470.65	7829.06
471.022	7993.35
471.394	8140.92
471.766	8160.35
472.138	8271.31
472.51	8519.66
472.882	8588.81
473.253	8668.36
473.625	8828.81
473.997	9024.06
474.369	9027.9
474.74	9195.58
475.112	9293.65
475.484	9496.36
475.855	9669.69
476.227	9788.78
476.598	9992.39
476.97	10070.36
477.341	10289.11
477.713	10478.71
478.084	10513.73
478.455	10817.91
478.827	10921.18
479.198	11203.21
479.569	11267.84
479.94	11594.84
480.311	11610.66
480.682	11944.21
481.053	12170.64
481.424	12417.19
481.795	12475.72
482.166	12726.56
482.537	12898.53
482.908	13178.75
483.279	13238.41
483.65	13473.88
484.021	13749.36
484.391	13984.15
484.762	14045.17
485.133	14165.39
485.503	14450.81
485.874	14745.04
486.244	14807.86
486.615	15166.72
486.985	15279.71
487.356	15579.14
487.726	15644.22
488.097	16050.99
488.467	16078.56
488.837	16330.76
489.207	16501.83
489.578	16875.38
489.948	16981.36
490.318	17266.1
490.688	17308.13
491.058	17579.09
491.428	17817.27
491.798	17913.31
492.168	18417.03
492.538	18530.7
492.908	18574.54
493.278	18905.15
493.648	18931.82
494.017	19119.84
494.387	19298.36
494.757	19576.55
495.126	19748.29
495.496	19821.29
495.866	19922.53
496.235	20183.31
496.605	20403.19
496.974	20479.57
497.344	20687.7
497.713	20722.28
498.082	20903.74
498.452	21203.17
498.821	21347.57
499.19	21369.72
499.559	21621.47
499.928	21693.1
500.298	21843.61
500.667	22104.16
501.036	21974.68
501.405	22396.36
501.774	22425.06
502.143	22541.22
502.512	22622.34
502.88	22841.32
503.249	22965.61
503.618	23103.69
503.987	23109.79
504.356	23425.26
504.724	23525.14
505.093	23629.1
505.462	23830.45
505.83	23966.49
506.199	24125.81
506.567	24423.2
506.936	24387.49
507.304	24761.5
507.672	24832.68
508.041	25042.84
508.409	25200.13
508.777	25283.97
509.145	25444.42
509.514	25510.4
509.882	25732.32
510.25	25918.3
510.618	26127.79
510.986	26227.22
511.354	26458.17
511.722	26688.68
512.09	26951.72
512.458	27016.35
512.826	27200.08
513.193	27269
513.561	27506.51
513.929	27612.27
514.297	27965.48
514.664	28056.55
515.032	28185.81
515.4	28498.12
515.767	28629.87
516.135	28754.16
516.502	28794.16
516.869	29183.75
517.237	29332.9
517.604	29331.55
517.972	29721.82
518.339	29872.55
518.706	29868.71
519.073	30238.41
519.44	30423.49
519.808	30857.15
520.175	30778.06
520.542	31255.34
520.909	31436.8
521.276	31400.42
521.643	31820.52
522.009	32025.03
522.376	32153.84
522.743	32277.23
523.11	32723.77
523.477	33085.12
523.843	33219.35
524.21	33526.69
524.577	33687.81
524.943	33842.61
525.31	34162.15
525.676	34398.3
526.043	34564.4
526.409	34826.77
526.776	35078.74
527.142	35273.76
527.508	35524.6
527.874	35832.84
528.241	36080.52
528.607	36106.06
528.973	36392.15
529.339	36450.23
529.705	36857.67
530.071	37056.99
530.437	37317.1
530.803	37569.07
531.169	37715.28
531.535	37675.73
531.901	37875.5
532.267	38068.04
532.632	38262.38
532.998	38560
533.364	38715.03
533.73	38775.14
534.095	39099.65
534.461	39314.11
534.826	39438.85
535.192	39457.83
535.557	39899.18
535.923	39930.59
536.288	40079.51
536.653	40230.69
537.019	40311.6
537.384	40600.63
537.749	40699.61
538.114	40655.77
538.479	40779.61
538.845	41148.86
539.21	40934.86
539.575	41230.89
539.94	41393.83
540.305	41604.22
540.67	41566.93
541.034	41727.6
541.399	41982.96
541.764	41957.65
542.129	42137.76
542.494	42241.04
542.858	42472.44
543.223	42640.57
543.587	42993.56
543.952	42800.8
544.316	42956.05
544.681	42895.93
545.045	43333.66
545.41	43600.32
545.774	43657.95
546.138	43486.65
546.503	43777.04
546.867	43701.56
547.231	44200.76
547.595	44188.56
547.959	44390.36
548.324	44358.27
548.688	44546.06
549.052	44703.34
549.416	44857.24
549.779	44914.41
550.143	45123.67
550.507	45406.38
550.871	45481.85
551.235	45533.15
551.599	45946.02
551.962	45838.23
552.326	46003.42
552.689	46286.35
553.053	46210.42
553.417	46274.83
553.78	46907.35
554.143	46658.1
554.507	46908.26
554.87	47055.37
555.234	47336.72
555.597	47191.87
555.96	47339.89
556.323	47613.55
556.686	47691.06
557.05	47977.83
557.413	48092.41
557.776	48195.91
558.139	48498.72
558.502	48604.48
558.865	48722.67
559.228	48847.19
559.59	49000.86
559.953	49113.17
560.316	49555.65
560.679	49611.46
561.041	49847.16
561.404	49917.22
561.767	50120.38
562.129	50051
562.492	50539.58
562.854	50469.07
563.217	50529.63
563.579	50710.87
563.941	50936.4
564.304	51152.89
564.666	51281.7
565.028	51434.92
565.39	51464.75
565.753	51634.46
566.115	51838.52
566.477	51956.71
566.839	51983.6
567.201	52359.41
567.563	52289.36
567.925	52507.21
568.287	52458.62
568.648	52645.51
569.01	52790.14
569.372	53024.26
569.734	52998.49
570.095	53236.23
570.457	53269.67
570.819	53327.75
571.18	53400.74
571.542	53633.51
571.903	53614.07
572.265	53643.45
572.626	53746.04
572.987	53902.42
573.349	53988.3
573.71	54089.31
574.071	54196.2
574.432	54205.02
574.794	54460.38
575.155	54353.71
575.516	54368.85
575.877	54529.98
576.238	54540.83
576.599	54703.31
576.96	54709.18
577.32	54722.06
577.681	54881.38
578.042	54889.52
578.403	54942.4
578.763	54961.15
579.124	55053.58
579.485	55160.7
579.845	55207.47
580.206	55159.34
580.566	55148.04
580.927	55252.45
581.287	55250.64
581.648	55190.3
582.008	55370.41
582.368	55301.94
582.728	55319.34
583.089	55278.89
583.449	55262.61
583.809	55330.64
584.169	55414.25
584.529	55382.16
584.889	55542.83
585.249	55397.53
585.609	55350.97
585.969	55506.9
586.329	55494.47
586.688	55456.96
587.048	55455.38
587.408	55469.84
587.768	55414.25
588.127	55448.15
588.487	55379
588.846	55584.87
589.206	55450.86
589.565	55428.03
589.925	55577.41
590.284	55467.36
590.643	55507.58
591.003	55603.85
591.362	55717.97
591.721	55604.53
592.08	55655.82
592.44	55677.97
592.799	55796.39
593.158	55616.28
593.517	55577.86
593.876	55590.29
594.235	55539.22
594.593	55532.89
594.952	55656.95
595.311	55490.41
595.67	55661.7
596.029	55870.28
596.387	55785.76
596.746	55831.19
597.104	55612.66
597.463	55710.06
597.822	55842.94
598.18	55748.03
598.538	55723.85
598.897	55860.11
599.255	55668.03
599.613	56145.3
599.972	55886.1
600.33	55966.33
600.688	55892.2
601.046	55974.01
601.404	56069.83
601.762	55931.3
602.12	56069.83
602.478	55994.8
602.836	56069.37
603.194	55898.3
603.552	55960.22
603.91	55949.83
604.268	56088.36
604.625	56022.59
604.983	56078.19
605.341	55964.52
605.698	56134.23
606.056	56204.96
606.413	56170.16
606.771	56266.2
607.128	56323.15
607.485	56171.07
607.843	56287.22
608.2	56432.98
608.557	56515.24
608.914	56413.32
609.272	56480.89
609.629	56524.05
609.986	56548.68
610.343	56449.7
610.7	56661.9
611.057	56699.87
611.414	56525.86
611.771	56608.12
612.127	56759.52
612.484	56764.27
612.841	56795.46
613.198	56768.34
613.554	56693.76
613.911	56851.27
614.267	56856.02
614.624	56748.45
614.98	56889.69
615.337	57002.91
615.693	56970.59
616.05	56857.38
616.406	57047.88
616.762	56890.37
617.118	56991.61
617.475	56975.56
617.831	57108.89
618.187	57064.38
618.543	57131.72
618.899	57271.6
619.255	57135.56
619.611	57190.93
619.967	57204.48
620.323	57263.01
620.678	57098.05
621.034	57042
621.39	57114.09
621.746	57072.28
622.101	57337.36
622.457	57123.58
622.812	57238.83
623.168	57218.5
623.523	57155.45
623.879	57279.28
624.234	57199.74
624.589	57196.58
624.945	57281.77
625.3	57190.02
625.655	57214.2
626.01	57245.61
626.365	57277.03
626.72	57243.35
627.075	57151.83
627.43	57185.5
627.785	57149.12
628.14	57191.83
628.495	57234.09
628.85	57111.61
629.205	57003.13
629.559	57224.37
629.914	57088.1
630.269	57033.64
630.623	56925.4
630.978	56871.39
631.332	56941.67
631.687	56996.35
632.041	56895.11
632.396	56918.39
632.75	56802.01
633.104	56929.01
633.459	56740.77
633.813	56715.91
634.167	56674.1
634.521	56660.54
634.875	56717.04
635.229	56689.47
635.583	56558.4
635.937	56512.3
636.291	56575.57
636.645	56542.36
636.999	56451.28
637.352	56589.13
637.706	56431.17
638.06	56427.33
638.413	56329.71
638.767	56265.53
639.121	56426.88
639.474	56212.87
639.828	56228.47
640.181	56300.33
640.534	56245.41
640.888	56153.21
641.241	55975.59
641.594	56092.88
641.947	56163.61
642.301	56065.31
642.654	56063.5
643.007	56027.11
643.36	55918.19
643.713	55957.96
644.066	55999.54
644.419	55643.17
644.771	55402.05
645.124	55049.51
645.477	55147.59
645.83	54985.79
646.182	54989.4
646.535	54983.75
646.888	55077.53
647.24	54882.51
647.593	55060.81
647.945	54965.9
648.298	54835.73
648.65	54788.95
649.002	54731.1
649.355	54868.05
649.707	54709.63
650.059	54780.37
650.411	55024.2
650.763	54976.75
651.115	55336.29
651.467	55334.93
651.819	55209.51
652.171	55194.37
652.523	55092.45
652.875	55147.59
653.227	54991.89
653.578	55158.89
653.93	55177.42
654.282	54996.86
654.633	54807.71
654.985	54973.36
655.337	54973.36
655.688	54897.65
656.039	54969.74
656.391	54739.24
656.742	54727.94
657.094	54750.54
657.445	54839.58
657.796	54743.53
658.147	54651.11
658.498	54645.91
658.849	54695.62
659.2	54646.59
659.551	54548.28
659.902	54665.79
660.253	54598.23
660.604	54669.41
660.955	54492.24
661.306	54665.79
661.656	54454.27
662.007	54523.88
662.358	54447.95
662.708	54440.94
663.059	54469.64
663.409	54321.85
663.76	54464.22
664.11	54409.53
664.461	54365.92
664.811	54402.75
665.161	54390.1
665.511	54310.32
665.862	54227.84
666.212	54403.43
666.562	54310.1
666.912	54311
667.262	54228.74
667.612	54175.41
667.962	54194.85
668.312	54113.94
668.662	54273.04
669.011	54191.91
669.361	54141.51
669.711	54067.84
670.06	54029.88
670.41	54001.18
670.76	53985.59
671.109	54022.2
671.459	53933.84
671.808	53966.6
672.157	54023.78
672.507	53795.76
672.856	53788.08
673.205	53775.42
673.554	53907.85
673.904	53821.3
674.253	53913.05
674.602	53801.18
674.951	53404.58
675.3	53177.47
675.649	53694.52
675.998	53611.81
676.346	53671.47
676.695	53765.25
677.044	53449.1
677.393	53638.93
677.741	53593.96
678.09	53565.94
678.438	53445.49
678.787	53483.9
679.135	53503.34
679.484	53261.99
679.832	53405.49
680.181	53180.86
680.529	53339.28
680.877	53254.08
681.225	53173.86
681.573	53345.83
681.922	53072.39
682.27	53050.47
682.618	53067.64
682.966	53034.42
683.314	53043.69
683.661	52765.51
684.009	52659.07
684.357	52673.76
684.705	52570.93
685.053	52669.01
685.4	52612.51
685.748	52471.28
686.095	52448.9
686.443	52318.51
686.79	52248
687.138	52271.28
687.485	52154.9
687.832	52069.48
688.18	52088.23
688.527	51948.13
688.874	51938.86
689.221	51871.07
689.568	51757.85
689.915	51514.69
690.262	51648.25
690.609	51495.26
690.956	51499.78
691.303	51371.19
691.65	51319.22
691.997	51238.77
692.344	50991.54
692.69	51048.71
693.037	51099.56
693.383	50750.19
693.73	50761.72
694.077	50607.82
694.423	50560.59
694.769	50534.38
695.116	50362.18
695.462	50324.21
695.808	50208.06
696.155	50300.49
696.501	50029.53
696.847	49933.49
697.193	49825.24
697.539	49801.97
697.885	49603.78
698.231	49442.43
698.577	49525.14
698.923	49408.08
699.269	49233.39
699.614	48988.88
699.96	48937.13
700.306	49066.17
700.651	48721.54
700.997	48716.12
701.342	48621.21
701.688	48413.76
702.033	48406.3
702.379	48317.94
702.724	48269.35
703.069	48370.82
703.415	47790.49
703.76	47835.47
704.105	47892.19
704.45	47751.4
704.795	47587.34
705.14	47394.8
705.485	47552.53
705.83	47145.99
706.175	47239.32
706.52	47087.24
706.865	46952.78
707.209	46936.96
707.554	46697.64
707.899	46891.08
708.243	46617.42
708.588	46468.95
708.932	46292
709.277	46282.74
709.621	46063.31
709.966	46002.07
710.31	46111.67
710.654	45736.09
710.998	45807.72
711.342	45727.27
711.687	45683.43
712.031	45506.94
712.375	45352.59
712.719	45361.41
713.063	45320.96
713.407	45335.64
713.75	45034.86
714.094	45114.18
714.438	45073.05
714.782	44994.64
715.125	44734.3
715.469	44870.57
715.812	44407.98
716.156	44425.16
716.499	44414.09
716.843	44479.62
717.186	44274.88
717.53	44342.68
717.873	44302.9
718.216	44211.38
718.559	43987.66
718.902	43632.64
719.246	43801.67
719.589	43527.33
719.932	43483.26
720.275	43428.8
720.617	43302.7
720.96	43313.55
721.303	43461.8
721.646	43379.09
721.989	43018.64
722.331	43120.34
722.674	42863.84
723.016	42982.49
723.359	42912.88
723.701	42913.33
724.044	42579.33
724.386	42528.94
724.729	42546.11
725.071	42466.34
725.413	42505.21
725.755	42339.11
726.097	42271.32
726.439	42010.31
726.782	42050.31
727.124	42218.44
727.465	41891.67
727.807	41862.97
728.149	41799.69
728.491	41685.12
728.833	41873.36
729.175	41632.46
729.516	41486.71
729.858	41417.56
730.199	41340.49
730.541	41358.57
730.882	41267.28
731.224	41324.45
731.565	41034.51
731.906	41112.48
732.248	41074.51
732.589	40833.84
732.93	40766.72
733.271	40676.11
733.612	40857.57
733.953	40690.57
734.294	40564.02
734.635	40488.54
734.976	40628.42
735.317	40335.55
735.658	40331.93
735.999	40286.51
736.339	40037.93
736.68	40183.46
737.021	39994.54
737.361	39767.43
737.702	39840.42
738.042	39952.73
738.383	39756.13
738.723	39795.45
739.063	39726.98
739.404	39832.96
739.744	39642.01
740.084	39477.49
740.424	39569.69
740.764	39258.06
741.104	39520.66
741.444	39171.29
741.784	39049.03
742.124	39131.97
742.464	39156.82
742.804	38996.38
743.143	38945.76
743.483	38962.93
743.823	38594.58
744.162	38662.83
744.502	38713.67
744.841	38534.47
745.181	38655.82
745.52	38408.82
745.86	38500.8
746.199	38330.18
746.538	38192.33
746.877	38399.56
747.216	38297.64
747.556	38213.35
747.895	38113.24
748.234	37843.41
748.573	37875.05
748.911	37831.66
749.25	37800.02
749.589	37527.26
749.928	37580.59
750.267	37665.79
750.605	37421.5
750.944	37318.91
751.283	37238.91
751.621	37327.04
751.96	37056.54
752.298	37085.24
752.636	37015.86
