Data from foil_FLMS001491_051.txt Node
Date: Tue Feb 07 11:27:10 GMT 2017
User: dcchb
Spectrometer: FLMS00149
Trigger mode: 0
Integration Time (sec): 2.000000E-2
Scans to average: 10
Electric dark correction enabled: true
Nonlinearity correction enabled: false
Boxcar width: 0
XAxis mode: Wavelengths
Number of Pixels in Spectrum: 2048
>>>>>Begin Spectral Data<<<<<
341.393	1.21
341.776	1.21
342.16	1.21
342.543	-42.63
342.927	-75.17
343.31	-71.55
343.693	-78.56
344.077	-41.72
344.46	-52.34
344.843	-42.63
345.226	-64.09
345.61	-42.4
345.993	-5.56
346.376	-7.37
346.759	-14.6
347.142	41.89
347.525	42.57
347.908	71.5
348.291	77.14
348.674	72.85
349.057	114.88
349.44	135.45
349.823	124.38
350.206	164.37
350.588	236.91
350.971	251.6
351.354	268.78
351.737	246.86
352.119	294.77
352.502	300.42
352.884	308.78
353.267	318.72
353.65	334.09
354.032	334.31
354.414	343.8
354.797	354.88
355.179	391.94
355.562	366.85
355.944	375.67
356.326	374.31
356.709	403.46
357.091	388.1
357.473	405.72
357.855	415.22
358.238	393.97
358.62	419.51
359.002	421.77
359.384	410.47
359.766	407.98
360.148	407.08
360.53	409.57
360.912	416.57
361.294	398.04
361.676	402.56
362.057	423.12
362.439	405.05
362.821	379.74
363.203	411.6
363.584	393.75
363.966	399.85
364.348	409.79
364.729	404.37
365.111	403.46
365.493	401.43
365.874	410.92
366.256	406.63
366.637	392.62
367.019	402.33
367.4	386.52
367.781	419.96
368.163	425.38
368.544	408.66
368.925	423.35
369.306	426.51
369.688	418.83
370.069	421.32
370.45	409.11
370.831	439.4
371.212	442.11
371.593	435.78
371.974	428.32
372.355	443.91
372.736	465.38
373.117	438.49
373.498	451.37
373.879	457.93
374.26	457.47
374.641	432.84
375.021	461.99
375.402	475.78
375.783	490.02
376.163	511.26
376.544	503.8
376.925	491.15
377.305	489.56
377.686	504.03
378.066	495.44
378.447	508.55
378.827	519.39
379.208	493.63
379.588	533.18
379.968	503.8
380.349	517.13
380.729	538.15
381.109	545.61
381.489	523.91
381.87	530.69
382.25	547.87
382.63	563.46
383.01	556.23
383.39	581.09
383.77	558.71
384.15	576.79
384.53	617.24
384.91	601.42
385.29	612.05
385.67	613.18
386.049	603.01
386.429	611.59
386.809	599.62
387.189	609.11
387.568	603.23
387.948	632.38
388.328	636.9
388.707	647.53
389.087	669.67
389.466	645.49
389.846	680.52
390.225	710.57
390.605	683.68
390.984	678.03
391.363	708.31
391.743	717.81
392.122	721.87
392.501	744.02
392.881	761.87
393.26	748.09
393.639	760.52
394.018	768.2
394.397	763.45
394.776	777.24
395.155	800.29
395.534	795.09
395.913	800.52
396.292	820.4
396.671	839.84
397.05	826.5
397.429	837.58
397.808	849.55
398.186	862.66
398.565	867.86
398.944	868.31
399.323	884.13
399.701	875.77
400.08	914.86
400.458	945.37
400.837	946.27
401.215	939.27
401.594	970.23
401.972	958.25
402.351	935.43
402.729	1009.55
403.107	980.62
403.486	1021.75
403.864	1001.87
404.242	1005.26
404.62	1040.96
404.999	1038.93
405.377	1029.66
405.755	1055.65
406.133	1090.68
406.511	1114.41
406.889	1108.53
407.267	1138.13
407.645	1153.5
408.023	1178.81
408.401	1194.4
408.779	1186.49
409.156	1223.78
409.534	1236.89
409.912	1263.55
410.29	1265.14
410.667	1289.09
411.045	1294.29
411.422	1308.98
411.8	1345.36
412.178	1360.27
412.555	1364.57
412.933	1385.81
413.31	1405.92
413.687	1434.85
414.065	1416.09
414.442	1427.84
414.819	1502.42
415.197	1489.54
415.574	1521.17
415.951	1533.6
416.328	1549.87
416.705	1582.42
417.082	1551.46
417.46	1610.89
417.837	1630.1
418.214	1643.88
418.591	1650.66
418.967	1678.23
419.344	1693.83
419.721	1725.01
420.098	1730.21
420.475	1739.47
420.852	1764.33
421.228	1786.25
421.605	1811.79
421.982	1806.59
422.358	1867.83
422.735	1863.99
423.111	1878
423.488	1940.82
423.864	1937.21
424.241	1976.76
424.617	1993.25
424.994	1983.76
425.37	2047.49
425.746	2051.78
426.123	2084.1
426.499	2066.92
426.875	2101.95
427.251	2177.2
427.627	2221.5
428.003	2235.96
428.379	2259.23
428.756	2285.9
429.132	2300.36
429.507	2391.66
429.883	2370.87
430.259	2441.15
430.635	2429.4
431.011	2477.31
431.387	2508.72
431.763	2572.67
432.138	2625.78
432.514	2613.8
432.89	2659.68
433.265	2694.93
433.641	2762.95
434.016	2771.09
434.392	2808.37
434.767	2906.45
435.143	2906
435.518	2963.85
435.894	2947.13
436.269	3003.85
436.644	3077.97
437.02	3089.72
437.395	3096.05
437.77	3155.93
438.145	3218.76
438.52	3261.47
438.895	3270.96
439.271	3302.6
439.646	3391.63
440.021	3399.54
440.395	3417.4
440.77	3430.5
441.145	3452.2
441.52	3546.43
441.895	3530.61
442.27	3572.87
442.645	3614.23
443.019	3675.47
443.394	3707.56
443.769	3684.73
444.143	3709.14
444.518	3802.02
444.892	3772.64
445.267	3833.2
445.641	3889.93
446.016	3948.46
446.39	3951.17
446.764	3958.17
447.139	4023.48
447.513	4063.71
447.887	4073.42
448.262	4083.59
448.636	4113.2
449.01	4186.42
449.384	4256.24
449.758	4265.74
450.132	4334.43
450.506	4407.43
450.88	4382.12
451.254	4357.03
451.628	4480.19
452.002	4542.56
452.376	4583.92
452.75	4619.4
453.123	4654.43
453.497	4743.01
453.871	4813.07
454.244	4891.48
454.618	4935.77
454.992	4980.07
455.365	5003.12
455.739	5110.23
456.112	5153.62
456.486	5215.54
456.859	5193.62
457.232	5329.44
457.606	5348.87
457.979	5431.35
458.352	5486.04
458.725	5547.06
459.099	5626.15
459.472	5702.31
459.845	5795.86
460.218	5810.78
460.591	5884.9
460.964	5936.43
461.337	6034.28
461.71	6157.44
462.083	6195.63
462.456	6252.12
462.829	6224.1
463.201	6399.46
463.574	6389.75
463.947	6486.02
464.32	6587.26
464.692	6699.8
465.065	6702.73
465.438	6811.88
465.81	6982.27
466.183	6973.69
466.555	7194.92
466.928	7184.98
467.3	7191.08
467.672	7336.39
468.045	7523.95
468.417	7476.5
468.789	7615.03
469.161	7724.4
469.534	7823.16
469.906	8022.25
470.278	8011.63
470.65	8131.17
471.022	8319.87
471.394	8503.14
471.766	8541.33
472.138	8635.34
472.51	8803.02
472.882	8938.83
473.253	9111.26
473.625	9263.8
473.997	9450.91
474.369	9424.47
474.74	9581.3
475.112	9714.18
475.484	9929.99
475.855	10057.45
476.227	10230.1
476.598	10521.84
476.97	10553.48
477.341	10775.39
477.713	10899.46
478.084	10937.88
478.455	11296.96
478.827	11374.7
479.198	11742.15
479.569	11789.61
479.94	12148.92
480.311	12267.56
480.682	12559.75
481.053	12775.34
481.424	12959.97
481.795	13108.44
482.166	13402.9
482.537	13489.22
482.908	13868.19
483.279	13939.15
483.65	14126.27
484.021	14471.57
484.391	14669.08
484.762	14842.18
485.133	14940.71
485.503	15200.14
485.874	15532.33
486.244	15682.38
486.615	15896.84
486.985	16175.93
487.356	16536.6
487.726	16605.98
488.097	16936.36
488.467	16961.45
488.837	17340.87
489.207	17564.14
489.578	17786.96
489.948	18032.38
490.318	18310.11
490.688	18296.78
491.058	18617.67
491.428	18905.35
491.798	19062.63
492.168	19458.78
492.538	19544.2
492.908	19796.85
493.278	20103.74
493.648	20213.56
494.017	20365.42
494.387	20524.97
494.757	20883.6
495.126	20953.88
495.496	21068.23
495.866	21213.31
496.235	21461.22
496.605	21710.93
496.974	21882.67
497.344	22049.45
497.713	22216.45
498.082	22292.15
498.452	22729.43
498.821	22673.16
499.19	22784.34
499.559	23026.6
499.928	23301.62
500.298	23481.28
500.667	23572.35
501.036	23663.19
501.405	23930.98
501.774	24026.35
502.143	24202.61
502.512	24244.65
502.88	24636.73
503.249	24607.12
503.618	24786.1
503.987	24997.85
504.356	25093.66
504.724	25331.17
505.093	25397.16
505.462	25400.55
505.83	25730.48
506.199	25984.26
506.567	26435.1
506.936	26313.07
507.304	26575.88
507.672	26704.92
508.041	26842.32
508.409	27017.91
508.777	27293.38
509.145	27409.31
509.514	27623.99
509.882	27932.46
510.25	27893.59
510.618	28115.73
510.986	28123.19
511.354	28480.92
511.722	28715.49
512.09	28975.37
512.458	28994.12
512.826	29508.24
513.193	29640.89
513.561	29740.55
513.929	30034.55
514.297	30126.98
514.664	30381.88
515.032	30433.41
515.4	30721.31
515.767	30827.97
516.135	31058.48
516.502	31104.13
516.869	31576.43
517.237	31631.34
517.604	31647.84
517.972	32101.61
518.339	32354.04
518.706	32452.34
519.073	32543.18
519.44	32907.69
519.808	33233.34
520.175	33282.37
520.542	33746.09
520.909	33837.61
521.276	33959.87
521.643	34249.58
522.009	34500.87
522.376	34613.41
522.743	34906.96
523.11	35220.4
523.477	35658.13
523.843	35852.93
524.21	36183.77
524.577	36517.32
524.943	36565.23
525.31	36936.97
525.676	37124.76
526.043	37365.2
526.409	37532.43
526.776	37919.77
527.142	38044.51
527.508	38275.01
527.874	38614.89
528.241	38752.96
528.607	38919.97
528.973	39239.05
529.339	39319.05
529.705	39726.27
530.071	39961.07
530.437	40093.27
530.803	40344.79
531.169	40671.78
531.535	40706.81
531.901	40836.75
532.267	41111.32
532.632	41316.29
532.998	41502.95
533.364	41548.37
533.73	41732.55
534.095	42055.7
534.461	42102.03
534.826	42333.66
535.192	42553.77
535.557	42937.94
535.923	42970.03
536.288	43159.63
536.653	43217.71
537.019	43250.25
537.384	43431.71
537.749	43603.68
538.114	43706.05
538.479	43886.16
538.845	43989.89
539.21	43968.19
539.575	44139.49
539.94	44271.46
540.305	44581.51
540.67	44665.58
541.034	44720.04
541.399	44799.58
541.764	45117.77
542.129	45275.5
542.494	45154.38
542.858	45440.02
543.223	45491.09
543.587	45783.29
543.952	45814.7
544.316	45794.59
544.681	46033
545.045	46146.44
545.41	46394.57
545.774	46515.7
546.138	46508.24
546.503	46675.92
546.867	46690.83
547.231	47097.38
547.595	46982.35
547.959	47219.41
548.324	47288.56
548.688	47331.95
549.052	47548.67
549.416	47579.4
549.779	47609.23
550.143	47675.44
550.507	48093.06
550.871	48173.96
551.235	48030.69
551.599	48390.22
551.962	48375.08
552.326	48452.14
552.689	48772.14
553.053	48652.14
553.417	48781.63
553.78	49273.59
554.143	49186.59
554.507	49352.46
554.87	49570.31
555.234	49897.98
555.597	49750.42
555.96	49799.91
556.323	50065.44
556.686	50122.61
557.05	50364.86
557.413	50468.81
557.776	50503.16
558.139	50797.85
558.502	50813.21
558.865	50902.7
559.228	51133.43
559.59	51290.94
559.953	51308.79
560.316	51675.11
560.679	51630.59
561.041	51778.84
561.404	51900.42
561.767	52111.26
562.129	52084.59
562.492	52369.1
562.854	52435.32
563.217	52440.97
563.579	52627.85
563.941	52791.24
564.304	52917.11
564.666	53133.6
565.028	53158.69
565.39	53242.98
565.753	53325.46
566.115	53501.73
566.477	53643.65
566.839	53740.82
567.201	53868.95
567.563	53929.29
567.925	54182.16
568.287	54214.7
568.648	54181.71
569.01	54323.85
569.372	54564.98
569.734	54452.44
570.095	54710.06
570.457	54790.28
570.819	54855.82
571.18	54867.79
571.542	54973.55
571.903	54968.58
572.265	55144.4
572.626	55243.15
572.987	55308.69
573.349	55409.02
573.71	55436.37
574.071	55416.25
574.432	55703.03
574.794	55803.14
575.155	55743.7
575.516	55725.85
575.877	55894.21
576.238	55889.46
576.599	55926.3
576.96	55965.62
577.32	55981.21
577.681	56011.04
578.042	56209.68
578.403	56193.86
578.763	56200.19
579.124	56259.62
579.485	56332.61
579.845	56385.49
580.206	56311.6
580.566	56371.48
580.927	56411.71
581.287	56521.54
581.648	56404.48
582.008	56493.29
582.368	56487.64
582.728	56454.19
583.089	56418.04
583.449	56415.32
583.809	56466.4
584.169	56515.21
584.529	56513.4
584.889	56627.97
585.249	56429.11
585.609	56401.31
585.969	56581.87
586.329	56451.03
586.688	56487.64
587.048	56530.58
587.408	56453.97
587.768	56510.92
588.127	56439.05
588.487	56535.32
588.846	56734.19
589.206	56517.47
589.565	56500.52
589.925	56654.41
590.284	56574.64
590.643	56520.86
591.003	56637.69
591.362	56723.34
591.721	56584.59
592.08	56620.74
592.44	56613.06
592.799	56714.98
593.158	56588.43
593.517	56608.99
593.876	56628.43
594.235	56619.16
594.593	56652.38
594.952	56732.15
595.311	56626.84
595.67	56632.27
596.029	56754.75
596.387	56846.73
596.746	56766.28
597.104	56681.98
597.463	56703.9
597.822	56793.17
598.18	56698.71
598.538	56685.37
598.897	56785.71
599.255	56601.31
599.613	56967.85
599.972	56804.47
600.33	56956.55
600.688	56719.5
601.046	56782.77
601.404	56924.92
601.762	56862.32
602.12	57008.08
602.478	56999.04
602.836	57072.03
603.194	56904.13
603.552	56958.14
603.91	56902.32
604.268	57024.12
604.625	56942.32
604.983	57046.04
605.341	56869.78
605.698	57051.24
606.056	57100.73
606.413	57083.56
606.771	57212.14
607.128	57126.27
607.485	57052.82
607.843	57091.01
608.2	57191.12
608.557	57227.05
608.914	57102.09
609.272	57283.32
609.629	57281.52
609.986	57461.17
610.343	57315.41
610.7	57506.14
611.057	57399.48
611.414	57373.04
611.771	57377.56
612.127	57542.53
612.484	57486.26
612.841	57568.97
613.198	57529.42
613.554	57555.86
613.911	57597.89
614.267	57616.42
614.624	57627.72
614.98	57676.76
615.337	57686.48
615.693	57695.06
616.05	57576.42
616.406	57805.57
616.762	57628.85
617.118	57673.37
617.475	57722.41
617.831	57722.41
618.187	57745.23
618.543	57751.11
618.899	57889.64
619.255	57856.19
619.611	57755.85
619.967	57849.86
620.323	57859.35
620.678	57753.14
621.034	57727.15
621.39	57783.2
621.746	57720.83
622.101	58013.02
622.457	57711.79
622.812	57772.58
623.168	57861.39
623.523	57852.8
623.879	57844.67
624.234	57663.65
624.589	57781.62
624.945	57718.79
625.3	57780.03
625.655	57686.93
626.01	57666.59
626.365	57674.5
626.72	57720.37
627.075	57693.93
627.43	57729.64
627.785	57604.22
628.14	57652.13
628.495	57721.28
628.85	57621.62
629.205	57581.85
629.559	57652.81
629.914	57547.5
630.269	57517.44
630.623	57314.28
630.978	57327.84
631.332	57474.51
631.687	57509.53
632.041	57373.94
632.396	57396.54
632.75	57201.74
633.104	57290.33
633.459	57069.77
633.813	57154.74
634.167	57166.04
634.521	57121.07
634.875	57079.26
635.229	57083.1
635.583	56963.33
635.937	56918.36
636.291	56942.77
636.645	56974.41
636.999	56860.51
637.352	56919.72
637.706	56745.94
638.06	56809.44
638.413	56704.36
638.767	56754.52
639.121	56728.76
639.474	56528.99
639.828	56553.4
640.181	56563.57
640.534	56533.06
640.888	56415.1
641.241	56335.1
641.594	56346.85
641.947	56355.44
642.301	56214.65
642.654	56188.66
643.007	56272.5
643.36	56130.81
643.713	56083.81
644.066	56183.47
644.419	56014.43
644.771	55869.12
645.124	55579.41
645.477	55533.09
645.83	55399.53
646.182	55278.18
646.535	55179.42
646.888	55264.62
647.24	55013.1
647.593	55121.57
647.945	54976.72
648.298	54811.98
648.65	54767.23
649.002	54827.57
649.355	54873.9
649.707	54802.94
650.059	54899.43
650.411	55178.52
650.763	55217.62
651.115	55537.61
651.467	55341.23
651.819	55302.81
652.171	55214
652.523	55126.09
652.875	55170.61
653.227	55043.38
653.578	55170.84
653.93	55128.58
654.282	55042.71
654.633	54827.12
654.985	54917.06
655.337	54872.99
655.688	54926.32
656.039	54952.09
656.391	54653.79
656.742	54753.22
657.094	54812.88
657.445	54861.24
657.796	54732.43
658.147	54626.67
658.498	54657.18
658.849	54729.27
659.2	54569.72
659.551	54574.47
659.902	54586.9
660.253	54503.74
660.604	54505.32
660.955	54389.16
661.306	54548.93
661.656	54343.29
662.007	54382.84
662.358	54417.18
662.708	54366.79
663.059	54334.48
663.409	54117.53
663.76	54221.03
664.11	54342.38
664.461	54251.99
664.811	54275.95
665.161	54164.31
665.511	54171.99
665.862	54153.01
666.212	54192.11
666.562	54159.79
666.912	54132.22
667.262	54096.97
667.612	54092.9
667.962	54129.96
668.312	54056.74
668.662	54164.54
669.011	54052.67
669.361	53931.32
669.711	53890.42
670.06	53853.13
670.41	53762.96
670.76	53760.71
671.109	53885
671.459	53825.56
671.808	53646.13
672.157	53766.35
672.507	53539.02
672.856	53522.07
673.205	53620.6
673.554	53699.24
673.904	53366.82
674.253	53579.47
674.602	53554.16
674.951	53074.4
675.3	52957.11
675.649	53449.75
675.998	53184
676.346	53268.74
676.695	53377.44
677.044	53080.27
677.393	53259.7
677.741	53261.51
678.09	53101.51
678.438	53049.76
678.787	53093.38
679.135	53080.27
679.484	52899.48
679.832	53027.84
680.181	52737
680.529	52881.41
680.877	52764.35
681.225	52672.15
681.573	52803.22
681.922	52528.2
682.27	52491.59
682.618	52530.45
682.966	52394.87
683.314	52482.55
683.661	52363
684.009	52268.09
684.357	52156.23
684.705	52036.68
685.053	52107.87
685.4	52032.61
685.748	51889.57
686.095	51777.71
686.443	51739.97
686.79	51653.64
687.138	51592.4
687.485	51568.67
687.832	51454.1
688.18	51517.6
688.527	51321.45
688.874	51305.85
689.221	51071.06
689.568	51063.15
689.915	51016.6
690.262	50995.35
690.609	50925.53
690.956	50711.29
691.303	50700.22
691.65	50539.32
691.997	50567.57
692.344	50223.62
692.69	50191.76
693.037	50181.36
693.383	49934.59
693.73	50068.37
694.077	49719.91
694.423	49729.62
694.769	49570.98
695.116	49485.11
695.462	49297.32
695.808	49181.16
696.155	49292.57
696.501	49026.82
696.847	49117.66
697.193	48840.38
697.539	48902.98
697.885	48604
698.231	48436.33
698.577	48244.69
698.923	48281.08
699.269	48102.77
699.614	47934.42
699.96	47900.75
700.306	47947.07
700.651	47846.96
700.997	47550.92
701.342	47604.48
701.688	47481.55
702.033	47423.92
702.379	47380.08
702.724	47310.48
703.069	47296.92
703.415	46888.8
703.76	46936.03
704.105	46780.32
704.45	46617.62
704.795	46338.75
705.14	46318.64
705.485	46146.67
705.83	46231.86
706.175	46090.17
706.52	46066.22
706.865	45779.45
707.209	45827.58
707.554	45622.39
707.899	45839.33
708.243	45533.8
708.588	45459
708.932	45029.64
709.277	45157.77
709.621	45172.46
709.966	44925.91
710.31	44968.39
710.654	44631.91
710.998	44761.17
711.342	44703.09
711.687	44334.51
712.031	44243.22
712.375	44123.22
712.719	44215.87
713.063	44055.65
713.407	44020.17
713.75	43896.78
714.094	43725.71
714.438	43532.73
714.782	43618.6
715.125	43396.68
715.469	43531.14
715.812	43187.88
716.156	42953.53
716.499	42957.15
716.843	43036.02
717.186	42855.68
717.53	42805.29
717.873	42912.18
718.216	42874.66
718.559	42496.59
718.902	42419.08
719.246	42482.81
719.589	42339.54
719.932	42123.04
720.275	42094.8
720.617	42104.51
720.96	42075.59
721.303	42027.68
721.646	41897.97
721.989	41762.6
722.331	41645.09
722.674	41526
723.016	41540.24
723.359	41537.75
723.701	41559.67
724.044	41223.63
724.386	40956.07
724.729	41080.13
725.071	41037.88
725.413	40933.92
725.755	40887.37
726.097	40611.22
726.439	40409.64
726.782	40484.67
727.124	40495.74
727.465	40461.17
727.807	40362.87
728.149	40199.03
728.491	40093.72
728.833	40231.8
729.175	40067.05
729.516	40087.17
729.858	39923.1
730.199	40031.8
730.541	39847.4
730.882	39726.05
731.224	39851.24
731.565	39446.73
731.906	39340.29
732.248	39433.4
732.589	39225.49
732.93	39213.74
733.271	39109.56
733.612	39125.16
733.953	38997.7
734.294	38802.91
734.635	38853.75
734.976	38889.68
735.317	38532.86
735.658	38738.95
735.999	38484.72
736.339	38478.4
736.68	38535.34
737.021	38235.92
737.361	38170.61
737.702	38378.51
738.042	38214.22
738.383	38220.77
738.723	38141
739.063	37880.67
739.404	38005.41
739.744	37783.5
740.084	37673.67
740.424	37787.34
740.764	37645.2
741.104	37738.08
741.444	37505.31
741.784	37305.77
742.124	37332.89
742.464	37227.81
742.804	37251.08
743.143	37173.12
743.483	37004.99
743.823	36875.05
744.162	36870.98
744.502	36872.79
744.841	36776.74
745.181	36755.05
745.52	36554.38
745.86	36649.74
746.199	36651.78
746.538	36383.08
746.877	36412.69
747.216	36417.88
747.556	36294.5
747.895	36324.1
748.234	36166.14
748.573	36191.68
748.911	36085.69
749.25	36032.81
749.589	35814.28
749.928	35802.31
750.267	35761.18
750.605	35611.35
750.944	35653.61
751.283	35408.19
751.621	35604.57
751.96	35183.34
752.298	35294.52
752.636	35292.72
