Data from foil_FLMS001491_062.txt Node
Date: Tue Feb 07 11:36:26 GMT 2017
User: dcchb
Spectrometer: FLMS00149
Trigger mode: 0
Integration Time (sec): 2.000000E-2
Scans to average: 10
Electric dark correction enabled: true
Nonlinearity correction enabled: false
Boxcar width: 0
XAxis mode: Wavelengths
Number of Pixels in Spectrum: 2048
>>>>>Begin Spectral Data<<<<<
341.393	8.46
341.776	8.46
342.16	8.46
342.543	-59.11
342.927	-49.62
343.31	-76.74
343.693	-78.32
344.077	-62.27
344.46	-65.21
344.843	-47.81
345.226	-48.71
345.61	-24.99
345.993	-10.75
346.376	-0.58
346.759	25.63
347.142	18.4
347.525	27.67
347.908	64.28
348.291	80.77
348.674	91.85
349.057	106.76
349.44	117.38
349.823	134.11
350.206	167.1
350.588	268.11
350.971	287.77
351.354	314.67
351.737	301.11
352.119	353.76
352.502	350.82
352.884	349.24
353.267	356.93
353.65	358.06
354.032	378.85
354.414	381.56
354.797	416.59
355.179	412.29
355.562	420.2
355.944	425.62
356.326	431.95
356.709	427.66
357.091	426.3
357.473	438.96
357.855	450.71
358.238	428.34
358.62	455
359.002	453.65
359.384	455.23
359.766	455.45
360.148	448.45
360.53	442.12
360.912	422.69
361.294	452.29
361.676	438.05
362.057	459.75
362.439	450.03
362.821	446.41
363.203	461.33
363.584	453.42
363.966	452.29
364.348	467.43
364.729	426.53
365.111	472.63
365.493	473.08
365.874	458.17
366.256	465.17
366.637	473.98
367.019	463.14
367.4	484.83
367.781	459.07
368.163	467.43
368.544	470.37
368.925	462.01
369.306	469.01
369.688	493.42
370.069	471.95
370.45	489.13
370.831	507.2
371.212	501.1
371.593	485.74
371.974	502.46
372.355	494.1
372.736	508.79
373.117	528.22
373.498	485.06
373.879	535
374.26	502.68
374.641	480.76
375.021	514.44
375.402	545.62
375.783	554.43
376.163	570.93
376.544	588.33
376.925	536.58
377.305	562.12
377.686	539.07
378.066	529.8
378.447	570.48
378.827	568.45
379.208	581.55
379.588	590.14
379.968	586.52
380.349	608.22
380.729	629.91
381.109	590.82
381.489	602.57
381.87	629.69
382.25	631.49
382.63	622.23
383.01	626.3
383.39	648.44
383.77	632.4
384.15	620.2
384.53	651.38
384.91	646.18
385.29	680.08
385.67	695.45
386.049	681.21
386.429	702
386.809	687.31
387.189	711.49
387.568	701.78
387.948	709.46
388.328	733.64
388.707	711.94
389.087	760.3
389.466	753.75
389.846	747.88
390.225	757.82
390.605	767.99
390.984	788.1
391.363	784.03
391.743	777.71
392.122	830.59
392.501	828.78
392.881	847.76
393.26	845.5
393.639	855.44
394.018	857.25
394.397	879.4
394.776	869
395.155	900.87
395.534	899.96
395.913	908.32
396.292	924.37
396.671	935.67
397.05	948.1
397.429	949.45
397.808	944.48
398.186	956.23
398.565	951.26
398.944	991.94
399.323	996.23
399.701	991.71
400.08	986.51
400.458	1009.79
400.837	1022.9
401.215	1048.21
401.594	1047.3
401.972	1061.31
402.351	1093.4
402.729	1099.28
403.107	1106.96
403.486	1094.08
403.864	1125.72
404.242	1142.67
404.62	1130.92
404.999	1138.6
405.377	1164.36
405.755	1165.04
406.133	1203.91
406.511	1210.46
406.889	1257.47
407.267	1233.96
407.645	1274.42
408.023	1277.58
408.401	1307.64
408.779	1307.64
409.156	1338.37
409.534	1322.32
409.912	1343.79
410.29	1380.85
410.667	1390.34
411.045	1394.41
411.422	1431.47
411.8	1462.89
412.178	1496.33
412.555	1482.55
412.933	1499.95
413.31	1557.35
413.687	1555.31
414.065	1590.79
414.442	1586.27
414.819	1607.74
415.197	1592.6
415.574	1644.58
415.951	1679.38
416.328	1703.78
416.705	1713.95
417.082	1706.04
417.46	1735.42
417.837	1756.66
418.214	1772.26
418.591	1786.27
418.967	1804.12
419.344	1840.05
419.721	1850.9
420.098	1880.05
420.475	1871.91
420.852	1912.36
421.228	1901.07
421.605	1909.65
421.982	1929.99
422.358	1964.34
422.735	1994.17
423.111	1975.19
423.488	2004.57
423.864	2043.43
424.241	2048.63
424.617	2100.38
424.994	2100.61
425.37	2106.26
425.746	2153.26
426.123	2200.49
426.499	2206.82
426.875	2242.53
427.251	2312.35
427.627	2292.92
428.003	2342.64
428.379	2344.44
428.756	2375.4
429.132	2427.61
429.507	2459.02
429.883	2483.42
430.259	2542.4
430.635	2511.67
431.011	2528.39
431.387	2645
431.763	2665.34
432.138	2686.13
432.514	2722.97
432.89	2745.34
433.265	2785.34
433.641	2858.1
434.016	2888.16
434.392	2899.01
434.767	2973.35
435.143	2992.34
435.518	2988.72
435.894	3036.18
436.269	3068.72
436.644	3099.68
437.02	3180.81
437.395	3146.23
437.77	3198.43
438.145	3251.09
438.52	3317.07
438.895	3302.38
439.271	3339.45
439.646	3380.8
440.021	3432.78
440.395	3396.62
440.77	3427.58
441.145	3486.11
441.52	3553.68
441.895	3566.56
442.27	3567.46
442.645	3598.87
443.019	3639.78
443.394	3652.66
443.769	3627.35
444.143	3651.08
444.518	3749.15
444.892	3741.7
445.267	3771.3
445.641	3791.41
446.016	3837.96
446.39	3818.98
446.764	3879.77
447.139	3877.06
447.513	3950.05
447.887	3961.58
448.262	3967.68
448.636	4032.31
449.01	4055.36
449.384	4109.82
449.758	4114.57
450.132	4143.94
450.506	4195.24
450.88	4171.74
451.254	4205.64
451.628	4317.05
452.002	4372.87
452.376	4380.1
452.75	4435.46
453.123	4502.13
453.497	4529.7
453.871	4576.93
454.244	4638.17
454.618	4712.52
454.992	4746.41
455.365	4753.65
455.739	4868.67
456.112	4931.49
456.486	4972.85
456.859	5054.88
457.232	5130.59
457.606	5112.51
457.979	5153.86
458.352	5282.67
458.725	5357.7
459.099	5366.06
459.472	5474.08
459.845	5514.3
460.218	5575.55
460.591	5627.07
460.964	5715.2
461.337	5815.99
461.71	5900.51
462.083	5999.49
462.456	5985.03
462.829	6020.05
463.201	6138.69
463.574	6167.39
463.947	6200.39
464.32	6357.22
464.692	6373.72
465.065	6449.19
465.438	6513.6
465.81	6688.28
466.183	6724.89
466.555	6886.02
466.928	6897.77
467.3	6950.65
467.672	6970.99
468.045	7257.54
468.417	7247.59
468.789	7284.65
469.161	7331.66
469.534	7495.04
469.906	7699.78
470.278	7736.84
470.65	7830.85
471.022	8003.73
471.394	8107.91
471.766	8181.8
472.138	8265.19
472.51	8434
472.882	8595.35
473.253	8735.46
473.625	8809.81
473.997	9071.95
474.369	9031.73
474.74	9120.31
475.112	9343.81
475.484	9436.01
475.855	9708.77
476.227	9691.6
476.598	9997.58
476.97	10115.54
477.341	10324.35
477.713	10460.61
478.084	10555.98
478.455	10807.27
478.827	10892.92
479.198	11262.85
479.569	11251.78
479.94	11563.86
480.311	11615.39
480.682	11945.32
481.053	12159.33
481.424	12371.07
481.795	12486.32
482.166	12720.44
482.537	12871.85
482.908	13182.13
483.279	13289.01
483.65	13542.57
484.021	13707.31
484.391	13905.5
484.762	14026.17
485.133	14161.08
485.503	14426.39
485.874	14794.96
486.244	14895.3
486.615	15113.6
486.985	15304.33
487.356	15560.37
487.726	15732.34
488.097	16118.32
488.467	16117.19
488.837	16441.93
489.207	16531.42
489.578	16850.28
489.948	16947.9
490.318	17291.17
490.688	17290.49
491.058	17592.18
491.428	17810.25
491.798	17949.01
492.168	18339.96
492.538	18462.44
492.908	18653.62
493.278	18873.27
493.648	18966.61
494.017	19076.66
494.387	19360.72
494.757	19523.43
495.126	19646.59
495.496	19739.92
495.866	19967.94
496.235	20117.08
496.605	20348.49
496.974	20460.13
497.344	20586.22
497.713	20843.84
498.082	20960.68
498.452	21199.09
498.821	21197.28
499.19	21392.3
499.559	21517.05
499.928	21695.35
500.298	21856.47
500.667	22120.2
501.036	22038.39
501.405	22256.24
501.774	22284.48
502.143	22519.73
502.512	22623.91
502.88	22939.16
503.249	22913.39
503.618	23077.91
503.987	23243.1
504.356	23356.77
504.724	23521.97
505.093	23721.96
505.462	23794.28
505.83	23965.12
506.199	24109.97
506.567	24378.21
506.936	24380.93
507.304	24768.71
507.672	24795.15
508.041	24895.72
508.409	25124.86
508.777	25393.56
509.145	25552.87
509.514	25569.82
509.882	25810.27
510.25	25820.44
510.618	26197.15
510.986	26193.99
511.354	26487.54
511.722	26548.33
512.09	27011.14
512.458	26850.47
512.826	27177.92
513.193	27360.96
513.561	27429.43
513.929	27783.1
514.297	27805.7
514.664	28181.05
515.032	28303.99
515.4	28461.05
515.767	28634.6
516.135	28774.48
516.502	28655.16
516.869	29239.56
517.237	29309.16
517.604	29330.18
517.972	29686.1
518.339	29884.96
518.706	29978.97
519.073	30270.04
519.44	30421.45
519.808	30756.35
520.175	30736.92
520.542	31140.97
520.909	31278.82
521.276	31500.29
521.643	31789.55
522.009	32056.66
522.376	32190.44
522.743	32272.7
523.11	32711.78
523.477	32962.85
523.843	33034.03
524.21	33444.64
524.577	33822.26
524.943	33858.87
525.31	34104.06
525.676	34406.2
526.043	34566.42
526.409	34796.02
526.776	35234.65
527.142	35230.36
527.508	35528.66
527.874	35738.37
528.241	35954.86
528.607	36063.78
528.973	36391.46
529.339	36477.78
529.705	36811.79
530.071	37148.05
530.437	37373.13
530.803	37526.34
531.169	37653.12
531.535	37686.34
531.901	38039.55
532.267	38011.53
532.632	38290.39
532.998	38419.88
533.364	38770.6
533.73	38749.81
534.095	39195.23
534.461	39208.11
534.826	39380.31
535.192	39597.7
535.557	39812.84
535.923	39929.67
536.288	39955.21
536.653	40172.15
537.019	40220.06
537.384	40499.37
537.749	40713.15
538.114	40823.88
538.479	40868.63
538.845	40981.62
539.21	40951.56
539.575	41209.86
539.94	41260.26
540.305	41598.1
540.67	41651.21
541.034	41808.49
541.399	41936.85
541.764	42093.68
542.129	42115.83
542.494	42164.41
542.858	42471.75
543.223	42530.73
543.587	42950.83
543.952	42798.3
544.316	43045.75
544.681	42959.42
545.045	43361.44
545.41	43532.97
545.774	43498.62
546.138	43647.76
546.503	43671.27
546.867	43776.57
547.231	44053.86
547.595	44071.71
547.959	44263.57
548.324	44374.3
548.688	44502.66
549.052	44649.77
549.416	44786.04
549.779	44896.55
550.143	45146.48
550.507	45337.89
550.871	45585.57
551.235	45469.19
551.599	45737.65
551.962	45990.08
552.326	46066.46
552.689	46374.47
553.053	46234.82
553.417	46255.15
553.78	46849.94
554.143	46703.28
554.507	46868.02
554.87	47053.78
555.234	47367.21
555.597	47233.66
555.96	47441.34
556.323	47597.94
556.686	47695.79
557.05	47926.75
557.413	48027.31
557.776	48245.84
558.139	48486.06
558.502	48506.85
558.865	48712.72
559.228	48952.94
559.59	49114.06
559.953	49160.39
560.316	49466.14
560.679	49618.68
561.041	49689.41
561.404	49930.31
561.767	50184.54
562.129	50149.97
562.492	50461.6
562.854	50514.93
563.217	50486
563.579	50717.86
563.941	50955.82
564.304	51085.54
564.666	51267.23
565.028	51361.91
565.39	51547.67
565.753	51740.66
566.115	51772.97
566.477	51945.85
566.839	52064.27
567.201	52222.91
567.563	52336.58
567.925	52493.86
568.287	52628.09
568.648	52570.69
569.01	52866.73
569.372	52976.33
569.734	52941.98
570.095	53192.82
570.457	53314.63
570.819	53301.75
571.18	53417.68
571.542	53507.84
571.903	53623.77
572.265	53673.04
572.626	53762.08
572.987	53844.78
573.349	53981.73
573.71	54109.18
574.071	54215.4
574.432	54238.22
574.794	54402.74
575.155	54458.55
575.516	54336.52
575.877	54546.69
576.238	54568.38
576.599	54643.18
576.96	54731.32
577.32	54771.77
577.681	54866.68
578.042	54877.98
578.403	54939.9
578.763	54992.1
579.124	55031.19
579.485	55208.36
579.845	55127.01
580.206	55201.36
580.566	55067.35
580.927	55193.68
581.287	55287.68
581.648	55192.77
582.008	55307.12
582.368	55277.06
582.728	55276.61
583.089	55299.89
583.449	55308.25
583.809	55306.89
584.169	55365.42
584.529	55334.46
584.889	55651.29
585.249	55316.61
585.609	55325.88
585.969	55486.32
586.329	55374.46
586.688	55483.16
587.048	55460.79
587.408	55277.74
587.768	55457.4
588.127	55453.33
588.487	55385.31
588.846	55613.33
589.206	55357.29
589.565	55381.92
589.925	55613.55
590.284	55530.62
590.643	55604.29
591.003	55559.32
591.362	55654.68
591.721	55599.54
592.08	55545.31
592.44	55656.49
592.799	55710.27
593.158	55604.51
593.517	55582.37
593.876	55599.09
594.235	55529.49
594.593	55621.69
594.952	55715.02
595.311	55582.82
595.67	55664.62
596.029	55753.44
596.387	55817.39
596.746	55789.37
597.104	55677.5
597.463	55667.11
597.822	55808.12
598.18	55720.89
598.538	55637.51
598.897	55891.96
599.255	55617.39
599.613	56120.88
599.972	55947.1
600.33	55998.17
600.688	55878.4
601.046	55924.5
601.404	56040.21
601.762	55980.1
602.12	56093.54
602.478	56068.23
602.836	56023.71
603.194	55909.14
603.552	55966.54
603.91	55978.74
604.268	56105.29
604.625	55988.68
604.983	56087.21
605.341	55989.36
605.698	56126.31
606.056	56188.45
606.413	56202.24
606.771	56333.76
607.128	56357.49
607.485	56188.23
607.843	56262.12
608.2	56386.19
608.557	56419.63
608.914	56319.52
609.272	56497.14
609.629	56501.21
609.986	56564.49
610.343	56499.4
610.7	56699.85
611.057	56560.87
611.414	56558.16
611.771	56628.44
612.127	56752.5
612.484	56686.52
612.841	56776.91
613.198	56680.42
613.554	56721.09
613.911	56855.1
614.267	56822.56
614.624	56864.14
614.98	56894.42
615.337	56980.3
615.693	56929.45
616.05	56892.39
616.406	57066.17
616.762	56961.76
617.118	57039.28
617.475	56983.69
617.831	57138.03
618.187	57070.24
618.543	57056
618.899	57232.49
619.255	57158.82
619.611	57106.39
619.967	57173.28
620.323	57206.73
620.678	57130.57
621.034	57047.86
621.39	57096.68
621.746	57009.22
622.101	57346.61
622.457	57109.33
622.812	57185.04
623.168	57202.66
623.523	57231.81
623.879	57268.88
624.234	57092.83
624.589	57192.95
624.945	57183.23
625.3	57232.72
625.655	57304.81
626.01	57257.58
626.365	57275.43
626.72	57267.75
627.075	57184.58
627.43	57253.96
627.785	57086.96
628.14	57157.01
628.495	57164.02
628.85	57103.91
629.205	57062.78
629.559	57211.48
629.914	57021.42
630.269	57032.72
630.623	56926.06
630.978	56877.93
631.332	56950.92
631.687	56993.63
632.041	56861.88
632.396	56898.94
632.75	56853.07
633.104	56871.6
633.459	56728.78
633.813	56704.37
634.167	56704.37
634.521	56681.55
634.875	56764.93
635.229	56709.79
635.583	56522.91
635.937	56549.57
636.291	56548.67
636.645	56547.54
636.999	56439.52
637.352	56541.89
637.706	56348.22
638.06	56443.13
638.413	56373.08
638.767	56262.8
639.121	56395
639.474	56258.28
639.828	56245.63
640.181	56214.21
640.534	56269.81
640.888	56127.66
641.241	56064.39
641.594	56090.38
641.947	56192.97
642.301	56150.26
642.654	56081.34
643.007	55943.94
643.36	55967.44
643.713	55950.04
644.066	56039.98
644.419	55612.42
644.771	55395.93
645.124	55057.63
645.477	55065.32
645.83	54953.23
646.182	54993.68
646.535	54999.33
646.888	55116.62
647.24	54837.08
647.593	55164.75
647.945	55001.59
648.298	54781.71
648.65	54744.87
649.002	54640.7
649.355	54763.86
649.707	54651.54
650.059	54661.71
650.411	55001.59
650.763	55015.6
651.115	55296.5
651.467	55186.67
651.819	55279.78
652.171	55176.73
652.523	55123.17
652.875	55117.52
653.227	55004.53
653.578	55174.92
653.93	55073.23
654.282	54999.33
654.633	54827.81
654.985	54946.68
655.337	54871.88
655.688	54896.96
656.039	55019.9
656.391	54706.46
656.742	54685.89
657.094	54733.8
657.445	54796.17
657.796	54734.25
658.147	54693.8
658.498	54659.68
658.849	54717.98
659.2	54677.76
659.551	54691.32
659.902	54611.54
660.253	54645.22
660.604	54669.4
660.955	54482.28
661.306	54638.89
661.656	54569.96
662.007	54558.89
662.358	54436.18
662.708	54467.82
663.059	54424.43
663.409	54255.85
663.76	54443.87
664.11	54420.81
664.461	54451.1
664.811	54442.06
665.161	54321.16
665.511	54305.56
665.862	54286.81
666.212	54370.19
666.562	54339.91
666.912	54226.7
667.262	54210.2
667.612	54227.15
667.962	54182.18
668.312	54037.32
668.662	54231.89
669.011	54113.03
669.361	54143.76
669.711	54186.47
670.06	54040.94
670.41	54015.4
670.76	53974.95
671.109	54095.4
671.459	53991.45
671.808	53970.66
672.157	53958
672.507	53782.19
672.856	53783.77
673.205	53771.79
673.554	53873.26
673.904	53746.71
674.253	53877.1
674.602	53793.94
674.951	53387.62
675.3	53292.93
675.649	53616.99
675.998	53562.31
676.346	53668.07
676.695	53749.19
677.044	53447.06
677.393	53592.14
677.741	53676.65
678.09	53497
678.438	53381.75
678.787	53521.63
679.135	53549.88
679.484	53372.48
679.832	53380.84
680.181	53238.47
680.529	53387.85
680.877	53243.44
681.225	53217.91
681.573	53310.79
681.922	53072.15
682.27	53026.73
682.618	53075.09
682.966	52988.31
683.314	53138.36
683.661	52942.66
684.009	52711.93
684.357	52703.57
684.705	52587.19
685.053	52626.96
685.4	52603.24
685.748	52405.27
686.095	52479.85
686.443	52273.98
686.79	52197.6
687.138	52340.19
687.485	52177.48
687.832	52080.99
688.18	52159.18
688.527	51913.31
688.874	51964.61
689.221	51854.33
689.568	51676.93
689.915	51619.98
690.262	51665.86
690.609	51578.18
690.956	51418.86
691.303	51491.17
691.65	51257.73
691.997	51148.58
692.344	51074.69
692.69	51062.26
693.037	51068.13
693.383	50659.78
693.73	50764.19
694.077	50540.01
694.423	50512.89
694.769	50497.3
695.116	50259.34
695.462	50293.92
695.808	50263.86
696.155	50235.39
696.501	49993.13
696.847	49964.66
697.193	49712.69
697.539	49858
697.885	49681.96
698.231	49532.58
698.577	49452.36
698.923	49363.09
699.269	49272.48
699.614	49094.4
699.96	48950.45
700.306	49011.47
700.651	48699.84
700.997	48703.9
701.342	48582.55
701.688	48516.56
702.033	48436.34
702.379	48290.58
702.724	48266.85
703.069	48396.34
703.415	47903.25
703.76	47881.78
704.105	47723.36
704.45	47667.09
704.795	47464.39
705.14	47429.81
705.485	47431.39
705.83	47326.54
706.175	47215.81
706.52	47018.3
706.865	47024.17
707.209	46956.6
707.554	46750.51
707.899	46838.42
708.243	46563.85
708.588	46509.84
708.932	46230.75
709.277	46233.69
709.621	46246.57
709.966	46025.56
710.31	46151.88
710.654	45707.6
710.998	45822.62
711.342	45856.52
711.687	45774.26
712.031	45445.01
712.375	45314.84
712.719	45368.62
713.063	45317.55
713.407	45372.01
713.75	45158.91
714.094	45010.44
714.438	44901.52
714.782	45017.45
715.125	44666.27
715.469	44821.07
715.812	44536.78
716.156	44420.4
716.499	44408.2
716.843	44369.78
717.186	44087.75
717.53	44355.54
717.873	44316.67
718.216	44023.12
718.559	43905.84
718.902	43693.19
719.246	43830.58
719.589	43783.13
719.932	43348.79
720.275	43394.89
720.617	43275.35
720.96	43392.18
721.303	43271.73
721.646	43302.69
721.989	43026.76
722.331	43143.37
722.674	43063.15
723.016	42871.29
723.359	42855.7
723.701	42931.4
724.044	42564.63
724.386	42442.6
724.729	42525.08
725.071	42534.35
725.413	42435.82
725.755	42281.92
726.097	42196.96
726.439	41940.92
726.782	41993.12
727.124	42151.08
727.465	41885.1
727.807	41993.12
728.149	41752.9
728.491	41750.87
728.833	41757.42
729.175	41566.24
729.516	41528.27
729.858	41422.29
730.199	41376.19
730.541	41294.38
730.882	41252.12
731.224	41328.96
731.565	41126.02
731.906	41042.64
732.248	41117.66
732.589	40721.74
732.93	40743.43
733.271	40834.28
733.612	40858.46
733.953	40712.7
734.294	40580.27
734.635	40490.11
734.976	40643.32
735.317	40225.48
735.658	40325.37
735.999	40274.29
736.339	40085.15
736.68	40265.25
737.021	40088.76
737.361	39816.68
737.702	40049.44
738.042	39870.46
738.383	39764.25
738.723	39796.34
739.063	39679.73
739.404	39780.07
739.744	39484.48
740.084	39493.07
740.424	39512.28
740.764	39353.64
741.104	39620.07
741.444	39307.54
741.784	39118.62
742.124	39121.33
742.464	39150.48
742.804	39003.82
743.143	38875.69
743.483	38932.63
743.823	38717.5
744.162	38647.67
744.502	38720.66
744.841	38437.51
745.181	38575.58
745.52	38470.95
745.86	38326.32
746.199	38212.43
746.538	38145.54
746.877	38260.34
747.216	38232.31
747.556	38179.43
747.895	38237.06
748.234	37939.67
748.573	37907.35
748.911	37820.12
749.25	37740.58
749.589	37578.55
749.928	37593.46
750.267	37623.06
750.605	37463.75
750.944	37372.22
751.283	37215.17
751.621	37360.7
751.96	37147.14
752.298	37087.71
752.636	36953.48
