Data from foil_FLMS001491_046.txt Node
Date: Tue Feb 07 11:26:57 GMT 2017
User: dcchb
Spectrometer: FLMS00149
Trigger mode: 0
Integration Time (sec): 2.000000E-2
Scans to average: 10
Electric dark correction enabled: true
Nonlinearity correction enabled: false
Boxcar width: 0
XAxis mode: Wavelengths
Number of Pixels in Spectrum: 2048
>>>>>Begin Spectral Data<<<<<
341.393	-6.33
341.776	-6.33
342.16	-6.33
342.543	-70.28
342.927	-65.99
343.31	-63.28
343.693	-80.45
344.077	-70.73
344.46	-45.2
344.843	-48.81
345.226	-28.02
345.61	-44.52
345.993	-41.58
346.376	9.04
346.759	-4.97
347.142	29.83
347.525	60.11
347.908	59.89
348.291	69.83
348.674	85.42
349.057	113.44
349.44	140.79
349.823	132.65
350.206	175.36
350.588	241.8
350.971	271.86
351.354	296.26
351.737	311.86
352.119	315.7
352.502	300.78
352.884	332.19
353.267	330.39
353.65	359.54
354.032	345.08
354.414	363.38
354.797	385.53
355.179	369.93
355.562	371.06
355.944	402.25
356.326	383.94
356.709	426.88
357.091	399.54
357.473	398.86
357.855	413.55
358.238	385.3
358.62	414
359.002	426.43
359.384	423.49
359.766	428.69
360.148	421.68
360.53	430.72
360.912	405.41
361.294	405.41
361.676	413.77
362.057	408.58
362.439	386.66
362.821	418.97
363.203	422.81
363.584	405.87
363.966	422.14
364.348	426.66
364.729	423.94
365.111	422.36
365.493	420.78
365.874	409.03
366.256	424.62
366.637	411.97
367.019	398.41
367.4	417.84
367.781	432.31
368.163	420.55
368.544	449.48
368.925	440.67
369.306	436.37
369.688	443.38
370.069	442.7
370.45	452.87
370.831	440.44
371.212	459.87
371.593	453.55
371.974	468.91
372.355	480.44
372.736	459.87
373.117	464.17
373.498	460.78
373.879	462.81
374.26	471.85
374.641	443.38
375.021	449.48
375.402	482.02
375.783	497.16
376.163	518.4
376.544	514.34
376.925	503.04
377.305	482.47
377.686	515.24
378.066	505.52
378.447	519.53
378.827	517.73
379.208	513.21
379.588	518.86
379.968	538.52
380.349	558.18
380.729	527.22
381.109	558.63
381.489	548.46
381.87	562.47
382.25	545.75
382.63	556.37
383.01	559.76
383.39	575.58
383.77	595.92
384.15	583.49
384.53	574.22
384.91	596.37
385.29	601.11
385.67	611.28
386.049	625.52
386.429	616.71
386.809	626.42
387.189	628.01
387.568	664.84
387.948	633.88
388.328	649.93
388.707	678.17
389.087	649.7
389.466	708
389.846	655.58
390.225	693.32
390.605	690.83
390.984	711.62
391.363	713.65
391.743	747.1
392.122	722.92
392.501	757.72
392.881	748.45
393.26	735.8
393.639	767.44
394.018	779.64
394.397	800.2
394.776	791.62
395.155	806.53
395.534	778.06
395.913	807.89
396.292	779.41
396.671	800.66
397.05	825.06
397.429	838.85
397.808	848.11
398.186	859.19
398.565	847.66
398.944	860.54
399.323	875.46
399.701	883.14
400.08	894.21
400.458	880.88
400.837	892.41
401.215	922.01
401.594	925.85
401.972	946.19
402.351	923.37
402.729	956.13
403.107	971.95
403.486	962.46
403.864	973.53
404.242	987.54
404.62	1035
404.999	1014.21
405.377	1039.07
405.755	1042.91
406.133	1052.18
406.511	1064.15
406.889	1070.48
407.267	1083.14
407.645	1121.33
408.023	1116.58
408.401	1111.61
408.779	1157.94
409.156	1181.21
409.534	1189.8
409.912	1186.18
410.29	1209.01
410.667	1215.79
411.045	1257.37
411.422	1277.25
411.8	1274.32
412.178	1305.5
412.555	1297.37
412.933	1348.89
413.31	1345.05
413.687	1399.29
414.065	1373.3
414.442	1396.12
414.819	1409
415.197	1414.2
415.574	1427.99
415.951	1460.53
416.328	1472.96
416.705	1467.08
417.082	1490.13
417.46	1508.66
417.837	1547.08
418.214	1543.24
418.591	1548.66
418.967	1604.7
419.344	1601.54
419.721	1597.7
420.098	1616
420.475	1634.99
420.852	1661.2
421.228	1684.48
421.605	1666.62
421.982	1695.55
422.358	1712.5
422.735	1719.28
423.111	1737.13
423.488	1757.02
423.864	1790.46
424.241	1797.92
424.617	1840.4
424.994	1837.92
425.37	1858.26
425.746	1847.64
426.123	1901.42
426.499	1920.63
426.875	1965.37
427.251	1958.59
427.627	2011.25
428.003	2005.15
428.379	2071.36
428.756	2071.36
429.132	2080.62
429.507	2123.11
429.883	2164.91
430.259	2188.42
430.635	2186.16
431.011	2214.86
431.387	2284.23
431.763	2293.5
432.138	2340.05
432.514	2378.02
432.89	2378.47
433.265	2423.89
433.641	2430.9
434.016	2444.23
434.392	2519.93
434.767	2569.42
435.143	2578.24
435.518	2612.59
435.894	2613.94
436.269	2613.72
436.644	2688.52
437.02	2723.09
437.395	2707.27
437.77	2771.23
438.145	2816.2
438.52	2841.73
438.895	2855.29
439.271	2843.09
439.646	2925.12
440.021	2965.57
440.395	2982.52
440.77	2939.81
441.145	3004.67
441.52	3101.16
441.895	3040.82
442.27	3098.9
442.645	3081.73
443.019	3169.41
443.394	3116.53
443.769	3137.54
444.143	3220.93
444.518	3212.8
444.892	3201.72
445.267	3227.26
445.641	3296.64
446.016	3269.97
446.39	3325.56
446.764	3335.28
447.139	3368.95
447.513	3394.49
447.887	3385.9
448.262	3428.16
448.636	3450.98
449.01	3512
449.384	3569.4
449.758	3581.15
450.132	3609.17
450.506	3625.44
450.88	3664.08
451.254	3635.38
451.628	3760.81
452.002	3785.89
452.376	3789.28
452.75	3826.34
453.123	3876.96
453.497	3875.15
453.871	3954.47
454.244	4021.14
454.618	3981.59
454.992	4104.07
455.365	4089.38
455.739	4195.82
456.112	4237.18
456.486	4291.86
456.859	4304.07
457.232	4414.8
457.606	4386.55
457.979	4436.95
458.352	4552.65
458.725	4603.72
459.099	4611.63
459.472	4638.52
459.845	4669.03
460.218	4789.25
460.591	4829.93
460.964	4831.96
461.337	4969.13
461.71	5041.68
462.083	5055.46
462.456	5115.35
462.829	5112.41
463.201	5211.61
463.574	5203.03
463.947	5342.23
464.32	5394.89
464.692	5450.7
465.065	5510.14
465.438	5596.24
465.81	5665.16
466.183	5695.22
466.555	5817.7
466.928	5808.89
467.3	5856.8
467.672	5960.52
468.045	6091.82
468.417	6129.56
468.789	6135.21
469.161	6211.59
469.534	6343.79
469.906	6460.62
470.278	6447.51
470.65	6556.44
471.022	6693.84
471.394	6786.04
471.766	6822.87
472.138	6908.97
472.51	7105.58
472.882	7193.03
473.253	7308.51
473.625	7387.6
473.997	7513.7
474.369	7548.95
474.74	7682.06
475.112	7797.31
475.484	7975.61
475.855	8134.02
476.227	8154.81
476.598	8405.43
476.97	8466.44
477.341	8582.83
477.713	8766.78
478.084	8771.75
478.455	9087.22
478.827	9045.86
479.198	9371.05
479.569	9454.21
479.94	9586.87
480.311	9684.27
480.682	9961.32
481.053	10173.29
481.424	10308.43
481.795	10430.46
482.166	10643.56
482.537	10731.92
482.908	10949.09
483.279	11077.9
483.65	11249.87
484.021	11469.98
484.391	11563.54
484.762	11632.69
485.133	11797.43
485.503	11973.02
485.874	12269.28
486.244	12332.56
486.615	12627.01
486.985	12701.36
487.356	12985.87
487.726	13127.34
488.097	13361.91
488.467	13315.36
488.837	13638.51
489.207	13809.58
489.578	13984.27
489.948	14108.1
490.318	14342.9
490.688	14384.71
491.058	14598.26
491.428	14834.41
491.798	14899.5
492.168	15294.29
492.538	15352.59
492.908	15514.17
493.278	15711
493.648	15652.92
494.017	15896.76
494.387	15962.52
494.757	16190.31
495.126	16480.02
495.496	16443.18
495.866	16611.99
496.235	16766.34
496.605	16952.32
496.974	17101.02
497.344	17196.61
497.713	17302.14
498.082	17519.99
498.452	17607.22
498.821	17659.2
499.19	17771.51
499.559	17879.53
499.928	18058.73
500.298	18228.22
500.667	18394.32
501.036	18399.52
501.405	18546.41
501.774	18664.14
502.143	18839.5
502.512	18810.58
502.88	19017.35
503.249	19164.92
503.618	19375.08
503.987	19405.59
504.356	19526.49
504.724	19690.1
505.093	19807.84
505.462	19847.16
505.83	19983.2
506.199	20210.99
506.567	20342.29
506.936	20411.67
507.304	20671.32
507.672	20732.79
508.041	20836.06
508.409	21079.9
508.777	21194.47
509.145	21362.6
509.514	21382.04
509.882	21542.03
510.25	21674.23
510.618	21842.82
510.986	22019.08
511.354	22155.35
511.722	22378.62
512.09	22492.52
512.458	22629.46
512.826	22808.89
513.193	22881.66
513.561	22992.62
513.929	23206.85
514.297	23419.05
514.664	23610.45
515.032	23625.14
515.4	23953.49
515.767	24073.94
516.135	24073.49
516.502	24157.56
516.869	24605.23
517.237	24696.75
517.604	24579.01
517.972	24910.98
518.339	25139.45
518.706	25240.24
519.073	25361.37
519.44	25564.75
519.808	25807.46
520.175	25880.22
520.542	26275.92
520.909	26394.79
521.276	26505.52
521.643	26778.28
522.009	26980.31
522.376	27035.67
522.743	27349.79
523.11	27603.57
523.477	27904.13
523.843	28012.14
524.21	28343.21
524.577	28533.71
524.943	28614.61
525.31	28704.33
525.676	29113.13
526.043	29249.63
526.409	29409.17
526.776	29771.87
527.142	29824.98
527.508	30023.62
527.874	30308.81
528.241	30414.57
528.607	30582.02
528.973	30900.66
529.339	30947.66
529.705	31249.12
530.071	31398.27
530.437	31515.56
530.803	31843.46
531.169	32016.33
531.535	31907.64
531.901	32165.26
532.267	32344.23
532.632	32512.59
532.998	32824.45
533.364	32924.78
533.73	33037.78
534.095	33218.11
534.461	33455.62
534.826	33609.29
535.192	33764.99
535.557	34042.27
535.923	33966.56
536.288	34120.46
536.653	34268.25
537.019	34220.34
537.384	34529.49
537.749	34645.87
538.114	34709.14
538.479	34816.94
538.845	35029.59
539.21	34899.65
539.575	35132.86
539.94	35301.67
540.305	35632.74
540.67	35462.34
541.034	35724.03
541.399	35922.45
541.764	36128.32
542.129	36383.68
542.494	36320.17
542.858	36458.02
543.223	36481.3
543.587	36695.98
543.952	36712.48
544.316	36868.86
544.681	36914.28
545.045	37224.56
545.41	37228.4
545.774	37335.29
546.138	37486.25
546.503	37649.18
546.867	37617.09
547.231	37974.82
547.595	38012.56
547.959	38096.63
548.324	38215.04
548.688	38566.67
549.052	38660.45
549.416	38798.08
549.779	38868.36
550.143	39001.23
550.507	39195.81
550.871	39409.36
551.235	39339.08
551.599	39549.92
551.962	39685.28
552.326	39767.77
552.689	39975.9
553.053	39915.33
553.417	40099.96
553.78	40659.95
554.143	40471.25
554.507	40689.55
554.87	40779.27
555.234	41201.63
555.597	41086.83
555.96	41324.11
556.323	41609.08
556.686	41563.2
557.05	41950.31
557.413	41980.37
557.776	42230.98
558.139	42414.25
558.502	42481.59
558.865	42534.93
559.228	42959.1
559.59	43086.55
559.953	43173.33
560.316	43610.83
560.679	43668.23
561.041	43896.7
561.404	44144.38
561.767	44408.1
562.129	44348.66
562.492	44846.5
562.854	44752.27
563.217	44813.74
563.579	44994.52
563.941	45368.07
564.304	45486.04
564.666	45729.42
565.028	45801.06
565.39	45885.57
565.753	46278.33
566.115	46273.81
566.477	46595.38
566.839	46584.76
567.201	47020.46
567.563	46962.61
567.925	47107.24
568.287	47209.15
568.648	47431.97
569.01	47598.52
569.372	47862.92
569.734	47782.25
570.095	48194.44
570.457	48284.61
570.819	48325.28
571.18	48466.07
571.542	48649.79
571.903	48588.33
572.265	48743.35
572.626	48884.59
572.987	48906.74
573.349	49244.81
573.71	49321.42
574.071	49372.26
574.432	49533.39
574.794	49757.34
575.155	49838.69
575.516	49598.02
575.877	49834.62
576.238	49980.83
576.599	50064.9
576.96	50071.45
577.32	50151.68
577.681	50322.74
578.042	50386.7
578.403	50353.03
578.763	50380.37
579.124	50512.57
579.485	50642.28
579.845	50725.45
580.206	50697.65
580.566	50632.12
580.927	50774.03
581.287	50881.15
581.648	50694.49
582.008	50925.21
582.368	50781.72
582.728	50852.67
583.089	50853.35
583.449	50831.66
583.809	50872.33
584.169	51089.96
584.529	51076.62
584.889	51144.42
585.249	50983.97
585.609	50887.93
585.969	51080.92
586.329	50871.66
586.688	51052.44
587.048	51039.79
587.408	50965.89
587.768	51016.74
588.127	50934.03
588.487	50896.97
588.846	51162.27
589.206	50990.3
589.565	51049.05
589.925	51121.14
590.284	51066.23
590.643	51251.99
591.003	51151.65
591.362	51175.38
591.721	51197.07
592.08	51201.59
592.44	51266.45
592.799	51310.74
593.158	51150.97
593.517	51181.71
593.876	51319.55
594.235	51124.76
594.593	51323.4
594.952	51293.11
595.311	51222.83
595.67	51323.4
596.029	51468.03
596.387	51390.06
596.746	51575.14
597.104	51252.66
597.463	51357.07
597.822	51571.53
598.18	51381.25
598.538	51319.78
598.897	51659.88
599.255	51330.4
599.613	51775.14
599.972	51620.11
600.33	51655.36
600.688	51596.61
601.046	51635.25
601.404	51732.65
601.762	51585.31
602.12	51740.56
602.478	51769.26
602.836	51834.8
603.194	51557.97
603.552	51745.98
603.91	51705.31
604.268	51792.54
604.625	51714.8
604.983	51780.11
605.341	51726.1
605.698	51976.03
606.056	52039.08
606.413	52078.4
606.771	52082.47
607.128	52144.39
607.485	52056.26
607.843	52015.36
608.2	52133.32
608.557	52272.52
608.914	52086.54
609.272	52282.47
609.629	52396.36
609.986	52445.63
610.343	52304.16
610.7	52555.91
611.057	52486.76
611.414	52536.7
611.771	52528.56
612.127	52605.17
612.484	52641.78
612.841	52584.15
613.198	52515.68
613.554	52606.07
613.911	52748.9
614.267	52721.1
614.624	52672.74
614.98	52771.04
615.337	52856.01
615.693	52823.7
616.05	52816.46
616.406	52980.53
616.762	52898.27
617.118	52834.77
617.475	52920.19
617.831	52999.06
618.187	53118.6
618.543	53052.16
618.899	53208.54
619.255	53071.37
619.611	52980.08
619.967	53086.51
620.323	53273.85
620.678	53168.32
621.034	52985.27
621.39	53062.11
621.746	53028.44
622.101	53376
622.457	53120.64
622.812	53126.29
623.168	53231.82
623.523	53173.74
623.879	53207.87
624.234	52965.16
624.589	53116.8
624.945	53188.43
625.3	53191.6
625.655	53209.9
626.01	53170.58
626.365	53251.03
626.72	53084.48
627.075	53098.94
627.43	53128.32
627.785	53105.5
628.14	53140.75
628.495	53130.58
628.85	53065.72
629.205	52905.5
629.559	53140.52
629.914	52941.66
630.269	52993.18
630.623	52842.23
630.978	52787.31
631.332	52915.9
631.687	52905.95
632.041	52774.21
632.396	52811.27
632.75	52748.9
633.104	52823.47
633.459	52571.27
633.813	52589.13
634.167	52566.08
634.521	52696.69
634.875	52612.63
635.229	52493.76
635.583	52422.35
635.937	52359.53
636.291	52326.76
636.645	52348.91
636.999	52212.19
637.352	52276.59
637.706	52182.36
638.06	52271.62
638.413	52126.09
638.767	51974.45
639.121	52117.05
639.474	51868.47
639.828	51893.32
640.181	51967.67
640.534	51903.49
640.888	51924.51
641.241	51666.44
641.594	51755.7
641.947	51800.45
642.301	51651.3
642.654	51726.55
643.007	51663.27
643.36	51650.17
643.713	51599.55
644.066	51704.18
644.419	51280.69
644.771	50918.44
645.124	50573.59
645.477	50440.03
645.83	50409.3
646.182	50418.56
646.535	50334.04
646.888	50599.35
647.24	50497.2
647.593	50663.3
647.945	50586.47
648.298	50359.58
648.65	50321.84
649.002	50178.34
649.355	50169.53
649.707	49956.43
650.059	50098.34
650.411	50443.19
650.763	50621.27
651.115	50948.04
651.467	50873.24
651.819	50701.72
652.171	50642.51
652.523	50569.07
652.875	50578.33
653.227	50375.62
653.578	50628.95
653.93	50611.1
654.282	50449.07
654.633	50350.54
654.985	50390.09
655.337	50420.6
655.688	50332.91
656.039	50440.03
656.391	50079.81
656.742	50216.08
657.094	50214.5
657.445	50175.18
657.796	50091.34
658.147	50055.41
658.498	50013.6
658.849	50086.82
659.2	49974.05
659.551	49939.03
659.902	50050.66
660.253	49875.3
660.604	49911
660.955	49904
661.306	49996.65
661.656	49835.3
662.007	49780.61
662.358	49863.1
662.708	49723.89
663.059	49687.28
663.409	49520.05
663.76	49887.28
664.11	49751.01
664.461	49938.8
664.811	49766.83
665.161	49698.58
665.511	49590.56
665.862	49548.08
666.212	49635.53
666.562	49657.45
666.912	49515.53
667.262	49444.12
667.612	49361.87
667.962	49506.27
668.312	49435.54
668.662	49530.68
669.011	49308.76
669.361	49449.77
669.711	49246.16
670.06	49241.87
670.41	49118.93
670.76	49165.03
671.109	49148.54
671.459	49115.32
671.808	49075.77
672.157	49212.04
672.507	48922.33
672.856	48946.06
673.205	48893.4
673.554	49078.94
673.904	48890.24
674.253	49130.91
674.602	49088.88
674.951	48313.98
675.3	48097.72
675.649	48789.45
675.998	48767.08
676.346	48763.69
676.695	48778.38
677.044	48512.4
677.393	48709.45
677.741	48711.94
678.09	48620.19
678.438	48504.71
678.787	48647.99
679.135	48483.7
679.484	48296.81
679.832	48404.83
680.181	48259.97
680.529	48352.63
680.877	48138.4
681.225	48172.52
681.573	48279.63
681.922	48057.27
682.27	47922.36
682.618	47922.36
682.966	47892.07
683.314	47859.31
683.661	47854.33
684.009	47404.63
684.357	47564.63
684.705	47363.05
685.053	47512.88
685.4	47440.11
685.748	47274.92
686.095	47262.03
686.443	46967.13
686.79	46967.35
687.138	46966
687.485	46959.22
687.832	46940.23
688.18	46878.54
688.527	46709.05
688.874	46640.81
689.221	46387.25
689.568	46101.61
689.915	46024.33
690.262	46053.7
690.609	46043.76
690.956	45994.04
691.303	45905.46
691.65	45695.3
691.997	45751.11
692.344	45546.37
692.69	45382.08
693.037	45369.43
693.383	45075.88
693.73	45197.91
694.077	44978.93
694.423	44960.4
694.769	44995.43
695.116	44716.79
695.462	44640.18
695.808	44333.98
696.155	44560.86
696.501	44333.98
696.847	44245.16
697.193	43956.81
697.539	44149.35
697.885	43745.29
698.231	43804.95
698.577	43826.64
698.923	43535.13
699.269	43358.86
699.614	43299.88
699.96	43182.37
700.306	43204.74
700.651	43016.5
700.997	42961.58
701.342	42699.67
701.688	42795.71
702.033	42626.9
702.379	42520.46
702.724	42300.36
703.069	42581.71
703.415	42097.65
703.76	42018.33
704.105	42013.58
704.45	41875.28
704.795	41638
705.14	41596.42
705.485	41614.72
705.83	41442.98
706.175	41452.92
706.52	41228.29
706.865	41183.55
707.209	40905.37
707.554	40925.25
707.899	40899.72
708.243	40706.73
708.588	40722.32
708.932	40451.14
709.277	40522.55
709.621	40329.56
709.966	40166.85
710.31	40219.51
710.654	39880.99
710.998	40078.72
711.342	40053.18
711.687	39771.16
712.031	39818.61
712.375	39530.94
712.719	39734.1
713.063	39546.3
713.407	39589.69
713.75	39153.55
714.094	39316.93
714.438	39025.87
714.782	39171.63
715.125	38970.95
715.469	39056.15
715.812	38722.37
716.156	38593.79
716.499	38598.08
716.843	38574.13
717.186	38455.49
717.53	38669.72
717.873	38584.97
718.216	38387.92
718.559	38180.24
718.902	37992.22
719.246	38051.43
719.589	37972.11
719.932	37891.21
720.275	37862.06
720.617	37653.02
720.96	37631.1
721.303	37773.24
721.646	37668.84
721.989	37265.69
722.331	37490.54
722.674	37486.25
723.016	37459.35
723.359	37353.14
723.701	37204.22
724.044	37119.25
724.386	36851.46
724.729	36986.15
725.071	36987.28
725.413	36887.17
725.755	36845.36
726.097	36719.49
726.439	36374.86
726.782	36502.32
727.124	36694.4
727.465	36312.04
727.807	36402.21
728.149	36328.08
728.491	36331.47
728.833	36230.69
729.175	36173.96
729.516	35931.03
729.858	35971.71
730.199	36024.82
730.541	35773.3
730.882	35693.07
731.224	35929
731.565	35711.83
731.906	35622.57
732.248	35526.52
732.589	35409.69
732.93	35189.13
733.271	35421.67
733.612	35369.24
733.953	35358.84
734.294	35242.01
734.635	35057.38
734.976	35205.85
735.317	34977.84
735.658	35004.96
735.999	34894.45
736.339	34819.65
736.68	34930.15
737.021	34771.97
737.361	34601.12
737.702	34867.33
738.042	34758.86
738.383	34574.23
738.723	34634.12
739.063	34351.64
739.404	34550.5
739.744	34380.34
740.084	34278.65
740.424	34258.53
740.764	34181.7
741.104	34321.58
741.444	34007.47
741.784	33812.22
742.124	34047.01
742.464	33970.86
742.804	33672.11
743.143	33590.53
743.483	33717.53
743.823	33593.69
744.162	33632.79
744.502	33663.3
744.841	33469.18
745.181	33543.07
745.52	33350.99
745.86	33393.25
746.199	33313.47
746.538	33186.92
746.877	33335.39
747.216	33218.79
747.556	32907.84
747.895	33029.19
748.234	32890.66
748.573	32875.97
748.911	32681.4
749.25	32608.18
749.589	32463.1
749.928	32500.84
750.267	32485.02
750.605	32378.36
750.944	32405.25
751.283	32225.37
751.621	32431.92
751.96	32155.09
752.298	32074.41
752.636	32032.38
752.975	31859.95
753.313	31757.36
