Data from foil_FLMS001491_093.txt Node
Date: Tue Feb 07 11:37:32 GMT 2017
User: dcchb
Spectrometer: FLMS00149
Trigger mode: 0
Integration Time (sec): 2.000000E-2
Scans to average: 10
Electric dark correction enabled: true
Nonlinearity correction enabled: false
Boxcar width: 0
XAxis mode: Wavelengths
Number of Pixels in Spectrum: 2048
>>>>>Begin Spectral Data<<<<<
341.393	5.18
341.776	5.18
342.16	5.18
342.543	-47.47
342.927	-81.82
343.31	-73.23
343.693	-64.42
344.077	-62.61
344.46	-54.7
344.843	-57.41
345.226	-40.24
345.61	-31.88
345.993	-11.99
346.376	7.22
346.759	8.12
347.142	10.38
347.525	54.9
347.908	56.48
348.291	74.79
348.674	88.8
349.057	95.8
349.44	115.92
349.823	150.04
350.206	155.91
350.588	228.23
350.971	269.81
351.354	270.94
351.737	282.69
352.119	298.74
352.502	306.42
352.884	318.4
353.267	332.18
353.65	371.95
354.032	342.12
354.414	360.2
354.797	347.77
355.179	383.25
355.562	368.79
355.944	366.53
356.326	400.2
356.709	402.69
357.091	403.37
357.473	416.92
357.855	390.71
358.238	416.7
358.62	392.52
359.002	407.66
359.384	401.56
359.766	391.39
360.148	424.38
360.53	414.66
360.912	421.67
361.294	415.57
361.676	406.98
362.057	419.64
362.439	409.01
362.821	408.79
363.203	412.18
363.584	404.27
363.966	407.43
364.348	413.53
364.729	427.55
365.111	422.35
365.493	425.74
365.874	408.34
366.256	417.6
366.637	441.56
367.019	412.4
367.4	418.05
367.781	463.25
368.163	430.26
368.544	418.73
368.925	435
369.306	418.28
369.688	428.45
370.069	451.27
370.45	437.04
370.831	465.51
371.212	434.1
371.593	443.36
371.974	435.68
372.355	458.5
372.736	458.96
373.117	467.77
373.498	421.44
373.879	438.62
374.26	439.75
374.641	451.95
375.021	426.87
375.402	475.23
375.783	497.83
376.163	500.54
376.544	526.53
376.925	487.66
377.305	512.51
377.686	503.48
378.066	506.64
378.447	515
378.827	514.32
379.208	525.4
379.588	516.81
379.968	520.42
380.349	529.01
380.729	516.36
381.109	553.64
381.489	556.58
381.87	547.09
382.25	572.4
382.63	571.04
383.01	585.73
383.39	580.99
383.77	587.09
384.15	594.32
384.53	607.65
384.91	611.5
385.29	611.5
385.67	610.14
386.049	628.9
386.429	624.38
386.809	648.56
387.189	636.13
387.568	617.37
387.948	643.36
388.328	658.05
388.707	664.15
389.087	667.31
389.466	682.45
389.846	698.95
390.225	676.35
390.605	709.12
390.984	700.76
391.363	738.5
391.743	730.14
392.122	726.75
392.501	744.6
392.881	747.76
393.26	770.81
393.639	795.67
394.018	779.17
394.397	801.77
394.776	808.55
395.155	776.24
395.534	811.04
395.913	809
396.292	846.97
396.671	842.9
397.05	846.97
397.429	877.48
397.808	842.68
398.186	873.86
398.565	894.2
398.944	905.5
399.323	876.57
399.701	919.28
400.08	918.83
400.458	922
400.837	956.8
401.215	953.41
401.594	975.78
401.972	938.94
402.351	975.78
402.729	986.17
403.107	997.93
403.486	1004.71
403.864	1029.56
404.242	1013.97
404.62	1044.48
404.999	1058.04
405.377	1070.47
405.755	1076.12
406.133	1104.59
406.511	1119.5
406.889	1126.96
407.267	1136.45
407.645	1145.49
408.023	1175.1
408.401	1192.27
408.779	1212.61
409.156	1222.78
409.534	1252.83
409.912	1230.01
410.29	1279.05
410.667	1281.76
411.045	1299.61
411.422	1318.37
411.8	1321.31
412.178	1366.5
412.555	1378.03
412.933	1348.42
413.31	1402.21
413.687	1434.3
414.065	1464.13
414.442	1437.01
414.819	1490.57
415.197	1483.34
415.574	1522.21
415.951	1553.39
416.328	1531.25
416.705	1565.59
417.082	1589.55
417.46	1604.46
417.837	1606.05
418.214	1634.75
418.591	1645.14
418.967	1677
419.344	1673.84
419.721	1676.55
420.098	1710.68
420.475	1698.7
420.852	1743.44
421.228	1754.29
421.605	1778.7
421.982	1801.52
422.358	1813.5
422.735	1833.84
423.111	1838.13
423.488	1867.06
423.864	1883.33
424.241	1912.03
424.617	1949.09
424.994	1957.22
425.37	1979.37
425.746	1990.22
426.123	2013.04
426.499	2015.98
426.875	2061.17
427.251	2122.19
427.627	2156.31
428.003	2166.26
428.379	2177.1
428.756	2193.6
429.132	2259.59
429.507	2271.56
429.883	2283.54
430.259	2378.68
430.635	2350.43
431.011	2396.53
431.387	2444.89
431.763	2484.44
432.138	2500.26
432.514	2510.65
432.89	2529.18
433.265	2596.53
433.641	2603.99
434.016	2643.76
434.392	2709.07
434.767	2721.95
435.143	2724.66
435.518	2796.75
435.894	2803.08
436.269	2836.97
436.644	2891.21
437.02	2934.15
437.395	2953.13
437.77	2958.33
438.145	3022.96
438.52	3036.29
438.895	3054.82
439.271	3118.32
439.646	3149.73
440.021	3197.19
440.395	3196.74
440.77	3189.96
441.145	3215.95
441.52	3284.19
441.895	3274.02
442.27	3356.73
442.645	3328.49
443.019	3345.66
443.394	3420.23
443.769	3419.78
444.143	3393.79
444.518	3442.16
444.892	3500.68
445.267	3488.48
445.641	3481.25
446.016	3575.49
446.39	3590.4
446.764	3604.18
447.139	3644.18
447.513	3653.9
447.887	3690.96
448.262	3713.11
448.636	3667.69
449.01	3738.42
449.384	3796.04
449.758	3818.19
450.132	3889.38
450.506	3908.58
450.88	3913.78
451.254	3918.53
451.628	4040.56
452.002	4079.65
452.376	4115.58
452.75	4157.62
453.123	4162.36
453.497	4196.03
453.871	4245.75
454.244	4332.53
454.618	4368.68
454.992	4476.48
455.365	4468.79
455.739	4526.87
456.112	4575.01
456.486	4610.03
456.859	4652.97
457.232	4786.07
457.606	4771.84
457.979	4879.63
458.352	4892.74
458.725	4968.67
459.099	5031.27
459.472	5160.98
459.845	5188.32
460.218	5278.27
460.591	5304.48
460.964	5321.2
461.337	5401.2
461.71	5531.82
462.083	5596.9
462.456	5648.65
462.829	5631.25
463.201	5727.29
463.574	5746.28
463.947	5849.55
464.32	6005.48
464.692	6054.97
465.065	6114.85
465.438	6146.49
465.81	6255.87
466.183	6272.82
466.555	6434.84
466.928	6481.62
467.3	6496.09
467.672	6608.17
468.045	6798.68
468.417	6800.26
468.789	6886.13
469.161	6971.78
469.534	7076.64
469.906	7272.79
470.278	7322.51
470.65	7372.45
471.022	7500.13
471.394	7640.01
471.766	7751.87
472.138	7760.91
472.51	7966.33
472.882	8071.41
473.253	8212.43
473.625	8292.88
473.997	8459.88
474.369	8537.61
474.74	8581.23
475.112	8780.32
475.484	8956.81
475.855	9094.89
476.227	9167.2
476.598	9451.71
476.97	9496.91
477.341	9727.87
477.713	9822.1
478.084	9927.41
478.455	10215.99
478.827	10227.97
479.198	10544.57
479.569	10630.67
479.94	10942.97
480.311	11034.5
480.682	11275.4
481.053	11523.07
481.424	11759.45
481.795	11798.55
482.166	11963.06
482.537	12112.21
482.908	12375.03
483.279	12574.34
483.65	12773.44
484.021	12977.72
484.391	13204.38
484.762	13297.04
485.133	13429.24
485.503	13645.73
485.874	13927.3
486.244	13993.29
486.615	14348.76
486.985	14502.88
487.356	14749.88
487.726	14898.13
488.097	15057.9
488.467	15263.99
488.837	15552.57
489.207	15740.59
489.578	15889.96
489.948	16138.77
490.318	16416.28
490.688	16449.27
491.058	16683.39
491.428	16887.68
491.798	17044.74
492.168	17421.45
492.538	17474.1
492.908	17681.33
493.278	17880.42
493.648	17960.64
494.017	18108.89
494.387	18314.76
494.757	18526.5
495.126	18692.83
495.496	18743.22
495.866	18884.46
496.235	19135.08
496.605	19311.57
496.974	19364.67
497.344	19552.47
497.713	19653.03
498.082	19829.75
498.452	20031.32
498.821	20154.94
499.19	20187.7
499.559	20441.26
499.928	20534.14
500.298	20805.99
500.667	20888.48
501.036	21008.7
501.405	21230.61
501.774	21145.19
502.143	21408.01
502.512	21572.07
502.88	21727.55
503.249	21741.11
503.618	21980.65
503.987	22097.71
504.356	22189.23
504.724	22399.85
505.093	22451.37
505.462	22556.68
505.83	22788.99
506.199	23029.66
506.567	23281.18
506.936	23236.44
507.304	23461.29
507.672	23670.1
508.041	23714.84
508.409	23835.07
508.777	24110.09
509.145	24281.16
509.514	24398.89
509.882	24591.2
510.25	24632.56
510.618	24858.09
510.986	24874.81
511.354	25152.09
511.722	25375.36
512.09	25515.93
512.458	25531.97
512.826	25832.98
513.193	25949.59
513.561	26213.76
513.929	26324.49
514.297	26575.56
514.664	26790.47
515.032	26857.36
515.4	27023.23
515.767	27197.01
516.135	27467.74
516.502	27217.12
516.869	27760.61
517.237	27907.73
517.604	27980.27
517.972	28435.4
518.339	28589.97
518.706	28539.12
519.073	28755.84
519.44	29029.28
519.808	29389.5
520.175	29246.22
520.542	29638.53
520.909	29750.62
521.276	29775.47
521.643	30309.7
522.009	30349.02
522.376	30702.23
522.743	30765.05
523.11	31022.22
523.477	31429.67
523.843	31620.85
524.21	31904.23
524.577	32229.87
524.943	32308.97
525.31	32393.26
525.676	32807.26
526.043	32920.48
526.409	33165.67
526.776	33440.01
527.142	33600.23
527.508	33767.46
527.874	33989.6
528.241	34291.74
528.607	34512.75
528.973	34667.77
529.339	34841.78
529.705	35089.01
530.071	35266.63
530.437	35528.54
530.803	35565.15
531.169	35906.39
531.535	35832.72
531.901	36056.89
532.267	36322.65
532.632	36471.34
532.998	36573.49
533.364	36916.76
533.73	36898.9
534.095	37244.88
534.461	37422.96
534.826	37599.22
535.192	37627.7
535.557	38062.71
535.923	38013.22
536.288	38142.49
536.653	38417.73
537.019	38307.68
537.384	38587.22
537.749	38743.15
538.114	38838.96
538.479	38941.33
538.845	39133.42
539.21	39041.67
539.575	39336.13
539.94	39505.16
540.305	39718.94
540.67	39689.11
541.034	39832.84
541.399	39885.04
541.764	40006.84
542.129	40192.83
542.494	40364.35
542.858	40424.69
543.223	40588.52
543.587	40758.24
543.952	40726.82
544.316	41016.99
544.681	41108.51
545.045	41256.75
545.41	41442.29
545.774	41559.35
546.138	41622.85
546.503	41814.48
546.867	41738.1
547.231	42167.01
547.595	42167.01
547.959	42358.19
548.324	42353.67
548.688	42507.12
549.052	42668.02
549.416	42569.71
549.779	42789.6
550.143	42926.77
550.507	43341.67
550.871	43465.06
551.235	43299.64
551.599	43590.25
551.962	43713.19
552.326	43761.77
552.689	44157.69
553.053	43967.19
553.417	44052.39
553.78	44710.22
554.143	44451.02
554.507	44794.29
554.87	44805.59
555.234	45234.28
555.597	45018.24
555.96	45239.25
556.323	45395.18
556.686	45504.78
557.05	45844.2
557.413	45997.65
557.776	46064.09
558.139	46244.19
558.502	46450.06
558.865	46603.05
559.228	46822.03
559.59	46991.97
559.953	46989.26
560.316	47333.43
560.679	47333.43
561.041	47692.07
561.404	47833.98
561.767	48106.74
562.129	47954.43
562.492	48263.12
562.854	48337.02
563.217	48407.07
563.579	48637.35
563.941	48885.93
564.304	48951.69
564.666	49156.21
565.028	49261.52
565.39	49451.11
565.753	49522.75
566.115	49773.82
566.477	49791.9
566.839	49979.69
567.201	50187.59
567.563	50261.49
567.925	50557.3
568.287	50456.51
568.648	50584.87
569.01	50837.29
569.372	50968.59
569.734	50945.31
570.095	51073.9
570.457	51280.45
570.819	51374.91
571.18	51379.88
571.542	51541.46
571.903	51576.93
572.265	51658.06
572.626	51798.62
572.987	51840.2
573.349	51912.52
573.71	52122.23
574.071	52246.3
574.432	52312.96
574.794	52512.28
575.155	52550.92
575.516	52439.51
575.877	52535.33
576.238	52572.39
576.599	52656.23
576.96	52729.9
577.32	52731.93
577.681	52805.38
578.042	52885.83
578.403	52920.85
578.763	52973.96
579.124	53064.58
579.485	53147.97
579.845	53257.57
580.206	53056.22
580.566	53112.94
580.927	53124.46
581.287	53378.24
581.648	53265.7
582.008	53364.01
582.368	53231.81
582.728	53306.38
583.089	53334.4
583.449	53227.74
583.809	53382.76
584.169	53412.37
584.529	53276.33
584.889	53505.02
585.249	53347.96
585.609	53262.09
585.969	53482.65
586.329	53339.83
586.688	53439.71
587.048	53456.66
587.408	53404.68
587.768	53427.73
588.127	53424.12
588.487	53354.06
588.846	53551.12
589.206	53398.36
589.565	53342.09
589.925	53499.82
590.284	53440.16
590.643	53418.02
591.003	53453.04
591.362	53618.69
591.721	53457.79
592.08	53423.21
592.44	53589.09
592.799	53589.99
593.158	53455.3
593.517	53398.81
593.876	53572.36
594.235	53493.49
594.593	53461.41
594.952	53552.93
595.311	53444.91
595.67	53499.14
596.029	53780.49
596.387	53707.27
596.746	53727.61
597.104	53639.03
597.463	53606.26
597.822	53773.49
598.18	53695.75
598.538	53566.26
598.897	53853.94
599.255	53535.53
599.613	53939.13
599.972	53750.21
600.33	53800.61
600.688	53646.94
601.046	53791.79
601.404	53915.63
601.762	53800.83
602.12	53929.42
602.478	53938
602.836	53989.75
603.194	53823.2
603.552	53966.02
603.91	53725.13
604.268	53969.19
604.625	53958.34
604.983	54065.23
605.341	53966.48
605.698	54037.89
606.056	54033.82
606.413	54057.77
606.771	54300.25
607.128	54262.06
607.485	54125.79
607.843	54094.38
608.2	54260.71
608.557	54291.44
608.914	54204.89
609.272	54276.52
609.629	54312.23
609.986	54438.33
610.343	54259.35
610.7	54582.73
611.057	54449.85
611.414	54383.87
611.771	54426.13
612.127	54637.87
612.484	54524.88
612.841	54572.11
613.198	54521.72
613.554	54542.05
613.911	54718.1
614.267	54707.47
614.624	54690.53
614.98	54802.84
615.337	54899.79
615.693	54818.88
616.05	54804.19
616.406	54891.2
616.762	54781.37
617.118	54828.15
617.475	54882.38
617.831	54877.19
618.187	54860.24
618.543	55057.52
618.899	55129.84
619.255	55006
619.611	54919.22
619.967	55084.87
620.323	55089.84
620.678	54969.16
621.034	54822.73
621.39	54869.28
621.746	54871.54
622.101	55117.41
622.457	54968.03
622.812	54981.59
623.168	55000.57
623.523	55024.3
623.879	55175.71
624.234	54853.91
624.589	55109.72
624.945	55003.96
625.3	55036.28
625.655	55058.2
626.01	55043.28
626.365	55032.21
626.72	55056.39
627.075	54922.84
627.43	54941.59
627.785	54827.47
628.14	54910.63
628.495	54996.96
628.85	54824.08
629.205	54754.48
629.559	54935.26
629.914	54764.87
630.269	54782.27
630.623	54775.49
630.978	54619.11
631.332	54783.63
631.687	54802.61
632.041	54667.48
632.396	54641.04
632.75	54528.04
633.104	54627.25
633.459	54413.24
633.813	54493.24
634.167	54370.31
634.521	54414.15
634.875	54406.69
635.229	54426.13
635.583	54160.82
635.937	54213.02
636.291	54119.24
636.645	54175.28
636.999	54074.5
637.352	54230.88
637.706	53978
638.06	54158.56
638.413	54057.77
638.767	53957.89
639.121	53975.29
639.474	53789.53
639.828	53832.92
640.181	53842.64
640.534	53726.03
640.888	53737.56
641.241	53498.01
641.594	53553.61
641.947	53654.62
642.301	53525.58
642.654	53457.11
643.007	53472.48
643.36	53353.16
643.713	53509.09
644.066	53484.46
644.419	53297.79
644.771	52909.78
645.124	52703.91
645.477	52541.43
645.83	52467.08
646.182	52301.21
646.535	52212.4
646.888	52308.22
647.24	52183.02
647.593	52263.92
647.945	52258.05
648.298	52040.2
648.65	52046.3
649.002	51943.93
649.355	51968.34
649.707	51923.59
650.059	52023.7
650.411	52329.46
650.763	52298.95
651.115	52643.57
651.467	52566.06
651.819	52508.89
652.171	52422.11
652.523	52414.65
652.875	52347.76
653.227	52227.77
653.578	52427.99
653.93	52354.99
654.282	52276.8
654.633	52116.58
654.985	52111.16
655.337	52129.01
655.688	52179.63
656.039	52147.54
656.391	51825.97
656.742	51875.91
657.094	51980.31
657.445	51983.25
657.796	51920.43
658.147	51697.84
658.498	51769.02
658.849	51827.32
659.2	51826.42
659.551	51672.3
659.902	51815.8
660.253	51659.87
660.604	51730.6
660.955	51513.43
661.306	51726.99
661.656	51509.37
662.007	51614.45
662.358	51431.18
662.708	51512.76
663.059	51407.22
663.409	51282.25
663.76	51521.34
664.11	51430.95
664.461	51484.51
664.811	51378.3
665.161	51406.32
665.511	51379.43
665.862	51289.71
666.212	51365.19
666.562	51372.42
666.912	51153.44
667.262	51254.46
667.612	51159.32
667.962	51233.44
668.312	51115.25
668.662	51262.14
669.011	51167.45
669.361	51131.3
669.711	51093.33
670.06	50985.76
670.41	50902.15
670.76	50853.79
671.109	50986.22
671.459	50891.98
671.808	50823.96
672.157	50724.53
672.507	50696.05
672.856	50723.17
673.205	50677.07
673.554	50724.3
673.904	50708.48
674.253	50825.77
674.602	50663.96
674.951	50179.23
675.3	50031.66
675.649	50524.99
675.998	50393.46
676.346	50476.85
676.695	50620.35
677.044	50248.61
677.393	50317.76
677.741	50327.48
678.09	50312.56
678.438	50126.8
678.787	50158.89
679.135	50199.34
679.484	50024.66
679.832	50154.83
680.181	49907.37
680.529	50011.1
680.877	49789.64
681.225	49756.42
681.573	49888.39
681.922	49612.01
682.27	49464.45
682.618	49478.68
682.966	49455.63
683.314	49439.14
683.661	49397.78
684.009	49070.11
684.357	49018.58
684.705	49111.01
685.053	49062.88
685.4	48953.5
685.748	48839.83
686.095	48846.61
686.443	48573.85
686.79	48536.11
687.138	48604.58
687.485	48585.15
687.832	48445.94
688.18	48269.23
688.527	48231.71
688.874	48139.06
689.221	48076.91
689.568	48036.01
689.915	47815.9
690.262	47930.03
690.609	47776.58
690.956	47529.81
691.303	47519.87
691.65	47285.75
691.997	47332.53
692.344	47182.02
692.69	47029.48
693.037	47067.45
693.383	46636.27
693.73	46686.67
694.077	46538.2
694.423	46497.07
694.769	46263.63
695.116	46248.49
695.462	46140.69
695.808	46171.65
696.155	46101.15
696.501	45823.19
696.847	45667.03
697.193	45374.84
697.539	45660.03
697.885	45299.36
698.231	45062.53
698.577	45183.2
698.923	45020.72
699.269	44840.61
699.614	44703.9
699.96	44696.21
700.306	44573.05
700.651	44362.66
700.997	44295.77
701.342	44276.79
701.688	44255.32
702.033	43878.83
702.379	43924.03
702.724	43792.05
703.069	43925.16
703.415	43392.29
703.76	43497.83
704.105	43351.61
704.45	43275.68
704.795	43100.55
705.14	42882.7
705.485	42841.35
705.83	42734
706.175	42798.18
706.52	42644.29
706.865	42451.07
707.209	42394.35
707.554	42169.95
707.899	42208.82
708.243	42087.24
708.588	41965.66
708.932	41786.91
709.277	41685.22
709.621	41760.7
709.966	41445.68
710.31	41484.77
710.654	41185.8
710.998	41159.58
711.342	41161.16
711.687	41149.41
712.031	40910.77
712.375	40746.26
712.719	40814.28
713.063	40740.38
713.407	40856.09
713.75	40485.02
714.094	40442.09
714.438	40474.18
714.782	40356.44
715.125	40107.41
715.469	40226.95
715.812	39719.17
716.156	39713.52
716.499	39802.33
716.843	39759.84
717.186	39453.41
717.53	39771.37
717.873	39725.95
718.216	39480.76
718.559	39468.55
718.902	39115.12
719.246	39231.95
719.589	39017.72
719.932	38841.68
720.275	38917.83
720.617	38855.24
720.96	38763.03
721.303	38667.9
721.646	38668.12
721.989	38398.3
722.331	38483.95
722.674	38386.77
723.016	38272.65
723.359	38147.46
723.701	38197.85
724.044	38059.1
724.386	37860.46
724.729	38043.28
725.071	37911.76
725.413	37859.1
725.755	37834.92
726.097	37527.36
726.439	37507.7
726.782	37340.47
727.124	37553.35
727.465	37287.37
727.807	37210.98
728.149	37237.42
728.491	37065.45
728.833	37120.59
729.175	36889.19
729.516	36742.75
729.858	36939.35
730.199	36846.93
730.541	36917.66
730.882	36606.93
731.224	36748.17
731.565	36517.9
731.906	36355.87
732.248	36446.71
732.589	36427.73
732.93	36141.18
733.271	36205.81
733.612	36104.35
733.953	36076.33
734.294	35892.15
734.635	35767.18
734.976	35944.8
735.317	35622.1
735.658	35649.9
735.999	35594.76
736.339	35493.06
736.68	35631.59
737.021	35412.61
737.361	35352.5
737.702	35533.06
738.042	35331.26
738.383	35221.21
738.723	35241.55
739.063	35093.3
739.404	35051.72
739.744	34929.01
740.084	34711.39
740.424	34954.77
740.764	34714.33
741.104	34839.3
741.444	34642.69
741.784	34636.14
742.124	34665.52
742.464	34523.15
742.804	34563.14
743.143	34277.5
743.483	34300.1
743.823	34074.12
744.162	34046.55
744.502	34151.63
744.841	33936.04
745.181	33895.82
745.52	33848.81
745.86	33842.71
746.199	33694.69
746.538	33569.27
746.877	33657.63
747.216	33621.7
747.556	33483.17
747.895	33551.19
748.234	33298.77
748.573	33300.58
748.911	33138.55
749.25	33127.02
749.589	33017.87
749.928	33068.49
750.267	32941.94
750.605	32961.83
750.944	32801.38
751.283	32765.45
751.621	32707.15
751.96	32520.26
752.298	32492.24
752.636	32418.12
752.975	32240.27
