Data from foil_FLMS001491_002.txt Node
Date: Tue Feb 07 11:25:16 GMT 2017
User: dcchb
Spectrometer: FLMS00149
Trigger mode: 0
Integration Time (sec): 2.000000E-2
Scans to average: 10
Electric dark correction enabled: true
Nonlinearity correction enabled: false
Boxcar width: 0
XAxis mode: Wavelengths
Number of Pixels in Spectrum: 2048
>>>>>Begin Spectral Data<<<<<
341.393	-14.31
341.776	-14.31
342.16	-14.31
342.543	-55.66
342.927	-59.28
343.31	-72.84
343.693	-76
344.077	-59.28
344.46	-71.93
344.843	-48.43
345.226	-35.1
345.61	-38.04
345.993	-14.53
346.376	7.61
346.759	12.36
347.142	20.49
347.525	57.1
347.908	28.86
348.291	90.32
348.674	76.54
349.057	122.86
349.44	138.91
349.823	140.49
350.206	181.62
350.588	298
350.971	296.42
351.354	296.64
351.737	323.31
352.119	321.95
352.502	349.07
352.884	353.59
353.267	370.77
353.65	358.79
354.032	393.37
354.414	388.85
354.797	422.07
355.179	404.89
355.562	419.35
355.944	422.97
356.326	425.68
356.709	437.43
357.091	425
357.473	454.83
357.855	458.22
358.238	460.03
358.62	452.12
359.002	446.7
359.384	472.01
359.766	458.67
360.148	464.78
360.53	461.39
360.912	457.09
361.294	458.45
361.676	456.64
362.057	497.09
362.439	481.5
362.821	493.7
363.203	462.06
363.584	477.2
363.966	461.39
364.348	479.24
364.729	482.85
365.111	488.73
365.493	490.31
365.874	488.05
366.256	463.42
366.637	461.84
367.019	491.89
367.4	510.2
367.781	495.28
368.163	494.83
368.544	488.28
368.925	490.76
369.306	502.97
369.688	505
370.069	498
370.45	506.13
370.831	523.53
371.212	508.62
371.593	520.59
371.974	519.69
372.355	530.54
372.736	543.87
373.117	558.11
373.498	546.81
373.879	559.46
374.26	521.95
374.641	505
375.021	555.62
375.402	584.32
375.783	580.71
376.163	613.92
376.544	587.48
376.925	605.11
377.305	621.16
377.686	594.49
378.066	617.99
378.447	611.66
378.827	633.81
379.208	622.96
379.588	626.35
379.968	624.32
380.349	655.73
380.729	641.27
381.109	657.99
381.489	648.27
381.87	660.48
382.25	672.45
382.63	694.37
383.01	711.32
383.39	720.36
383.77	707.48
384.15	697.31
384.53	722.85
384.91	745.45
385.29	744.54
385.67	749.51
386.049	765.56
386.429	760.59
386.809	773.02
387.189	787.93
387.568	805.56
387.948	789.06
388.328	820.92
388.707	809.85
389.087	834.48
389.466	850.53
389.846	854.14
390.225	877.65
390.605	874.26
390.984	898.21
391.363	892.11
391.743	903.18
392.122	914.03
392.501	958.77
392.881	949.96
393.26	970.07
393.639	951.77
394.018	967.36
394.397	981.6
394.776	992.45
395.155	988.6
395.534	1050.3
395.913	1044.87
396.292	1038.09
396.671	1051.88
397.05	1053.91
397.429	1079.22
397.808	1090.52
398.186	1086.68
398.565	1109.5
398.944	1112.67
399.323	1120.8
399.701	1147.24
400.08	1183.4
400.458	1170.29
400.837	1166
401.215	1164.64
401.594	1206.9
401.972	1226.56
402.351	1229.28
402.729	1250.97
403.107	1257.52
403.486	1232.21
403.864	1292.78
404.242	1296.84
404.62	1309.27
404.999	1306.56
405.377	1346.11
405.755	1368.25
406.133	1375.71
406.511	1377.52
406.889	1411.19
407.267	1426.11
407.645	1468.82
408.023	1463.39
408.401	1501.81
408.779	1493.68
409.156	1534.8
409.534	1540.23
409.912	1602.37
410.29	1589.27
410.667	1620.45
411.045	1666.33
411.422	1648.25
411.8	1681.24
412.178	1720.56
412.555	1755.14
412.933	1743.61
413.31	1783.84
413.687	1844.63
414.065	1814.57
414.442	1887.11
414.819	1865.19
415.197	1891.18
415.574	1925.75
415.951	1958.07
416.328	1952.87
416.705	1984.96
417.082	1983.38
417.46	1983.83
417.837	2031.74
418.214	2068.12
418.591	2098.86
418.967	2108.8
419.344	2137.73
419.721	2156.26
420.098	2172.53
420.475	2169.59
420.852	2236.71
421.228	2216.59
421.605	2233.32
421.982	2283.49
422.358	2293.88
422.735	2308.57
423.111	2346.08
423.488	2388.57
423.864	2402.58
424.241	2441.9
424.617	2434.67
424.994	2476.02
425.37	2501.78
425.746	2521.45
426.123	2552.63
426.499	2571.16
426.875	2606.41
427.251	2630.37
427.627	2702.01
428.003	2756.69
428.379	2818.16
428.756	2767.31
429.132	2827.2
429.507	2864.49
429.883	2933.41
430.259	2995.1
430.635	2998.49
431.011	3011.38
431.387	3082.33
431.763	3153.74
432.138	3181.09
432.514	3244.82
432.89	3239.39
433.265	3309.67
433.641	3325.04
434.016	3377.24
434.392	3401.42
434.767	3513.51
435.143	3511.48
435.518	3548.99
435.894	3575.88
436.269	3620.63
436.644	3687.97
437.02	3755.31
437.395	3761.86
437.77	3746.27
438.145	3828.08
438.52	3869.21
438.895	3919.83
439.271	3922.54
439.646	4019.03
440.021	3999.82
440.395	4063.1
440.77	4034.63
441.145	4071.69
441.52	4181.97
441.895	4182.42
442.27	4235.98
442.645	4198.01
443.019	4254.51
443.394	4314.62
443.769	4329.76
444.143	4332.24
444.518	4440.04
444.892	4374.96
445.267	4443.88
445.641	4487.95
446.016	4522.52
446.39	4590.32
446.764	4596.42
447.139	4566.81
447.513	4678.9
447.887	4695.85
448.262	4661.73
448.636	4738.56
449.01	4751.44
449.384	4805.9
449.758	4840.71
450.132	4961.38
450.506	4966.13
450.88	5008.61
451.254	5060.59
451.628	5108.27
452.002	5119.79
452.376	5192.79
452.75	5263.97
453.123	5237.08
453.497	5381.26
453.871	5360.47
454.244	5515.72
454.618	5538.09
454.992	5597.75
455.365	5638.88
455.739	5777.18
456.112	5824.63
456.486	5850.85
456.859	5878.42
457.232	5980.11
457.606	6063.72
457.979	6067.79
458.352	6215.81
458.725	6263.27
459.099	6330.16
459.472	6420.1
459.845	6516.37
460.218	6542.81
460.591	6576.48
460.964	6714.33
461.337	6797.94
461.71	6883.14
462.083	6993.19
462.456	7039.29
462.829	7014.21
463.201	7149.35
463.574	7224.6
463.947	7299.85
464.32	7452.16
464.692	7502.78
465.065	7555.66
465.438	7670.01
465.81	7816.45
466.183	7861.64
466.555	8091.92
466.928	8034.07
467.3	8092.37
467.672	8253.5
468.045	8473.6
468.417	8466.6
468.789	8544.11
469.161	8633.15
469.534	8842.63
469.906	9008.96
470.278	9038.56
470.65	9090.09
471.022	9297.99
471.394	9461.83
471.766	9578.21
472.138	9675.83
472.51	9866.56
472.882	9959.44
473.253	10062.26
473.625	10244.41
473.997	10481.69
474.369	10538.64
474.74	10701.12
475.112	10819.53
475.484	11000.77
475.855	11236.24
476.227	11336.58
476.598	11642.79
476.97	11692.5
477.341	11900.86
477.713	12145.82
478.084	12203
478.455	12555.31
478.827	12604.8
479.198	13006.59
479.569	13010.21
479.94	13392.35
480.311	13509.4
480.682	13848.15
481.053	14061.48
481.424	14270.97
481.795	14430.51
482.166	14671.18
482.537	14783.95
482.908	15184.16
483.279	15265.06
483.65	15601.33
484.021	15844.26
484.391	16047.64
484.762	16232.27
485.133	16376.45
485.503	16618.25
485.874	17010.78
486.244	17136.65
486.615	17511.56
486.985	17721.05
487.356	17982.51
487.726	18007.59
488.097	18576.62
488.467	18558.54
488.837	18999.43
489.207	19159.2
489.578	19445.97
489.948	19645.06
490.318	19850.93
490.688	19961.21
491.058	20315.78
491.428	20530.24
491.798	20690.01
492.168	21135.64
492.538	21172.25
492.908	21455.86
493.278	21646.82
493.648	21791.9
494.017	22061.72
494.387	22185.79
494.757	22401.6
495.126	22711.2
495.496	22712.55
495.866	22893.79
496.235	23235.7
496.605	23360.67
496.974	23535.58
497.344	23769.47
497.713	23941.45
498.082	24021.44
498.452	24287.2
498.821	24421.21
499.19	24522
499.559	24734.87
499.928	24974.64
500.298	25036.33
500.667	25263.45
501.036	25363.78
501.405	25695.75
501.774	25631.12
502.143	25886.71
502.512	26050.32
502.88	26169.86
503.249	26333.93
503.618	26528.05
503.987	26644.43
504.356	26897.3
504.724	27007.35
505.093	27086
505.462	27202.15
505.83	27534.8
506.199	27691.18
506.567	28101.79
506.936	27982.92
507.304	28502.68
507.672	28480.99
508.041	28585.84
508.409	28745.61
508.777	29031.03
509.145	29243.23
509.514	29330.91
509.882	29534.07
510.25	29604.8
510.618	30014.96
510.986	29945.13
511.354	30329.08
511.722	30581.95
512.09	30766.8
512.458	30784.66
512.826	31002.5
513.193	31310.07
513.561	31346
513.929	31677.51
514.297	31925.19
514.664	32154.11
515.032	32293.32
515.4	32623.7
515.767	32590.94
516.135	32953.87
516.502	32871.38
516.869	33483.57
517.237	33661.42
517.604	33400.41
517.972	34004.68
518.339	34350.44
518.706	34242.64
519.073	34527.38
519.44	34678.79
519.808	35055.28
520.175	35104.77
520.542	35487.13
520.909	35850.29
521.276	35911.08
521.643	36325.53
522.009	36427.45
522.376	36638.74
522.743	36938.39
523.11	37301.1
523.477	37580.41
523.843	37904.92
524.21	38167.06
524.577	38526.6
524.943	38740.83
525.31	38779.93
525.676	39242.74
526.043	39272.8
526.409	39611.54
526.776	40047.24
527.142	40153.9
527.508	40516.83
527.874	40734.9
528.241	40856.26
528.607	41028
528.973	41449.91
529.339	41445.39
529.705	41884.7
530.071	42271.59
530.437	42219.61
530.803	42606.49
531.169	42831.12
531.535	42750.9
531.901	43001.74
532.267	43224.78
532.632	43520.14
532.998	43713.58
533.364	43929.85
533.73	44039
534.095	44246.22
534.461	44409.38
534.826	44726.66
535.192	44867.45
535.557	45185.41
535.923	45160.32
536.288	45353.54
536.653	45596.24
537.019	45455.68
537.384	45715.34
537.749	45894.77
538.114	45954.2
538.479	46119.17
538.845	46160.3
539.21	46307.19
539.575	46430.8
539.94	46651.36
540.305	46844.57
540.67	46802.54
541.034	47052.03
541.399	47238.69
541.764	47370.21
542.129	47516.87
542.494	47565.91
542.858	47762.74
543.223	47844.1
543.587	48145.33
543.952	48116.18
544.316	48179.45
544.681	48171.54
545.045	48539.67
545.41	48731.3
545.774	48776.05
546.138	48792.09
546.503	48939.21
546.867	49020.11
547.231	49209.26
547.595	49360.89
547.959	49598.63
548.324	49510.27
548.688	49647.44
549.052	49963.81
549.416	49947.32
549.779	50099.63
550.143	50278.83
550.507	50500.07
550.871	50571.26
551.235	50623.91
551.599	50802.44
551.962	50833.62
552.326	50945.26
552.689	51135.99
553.053	51007.18
553.417	51161.3
553.78	51580.04
554.143	51490.1
554.507	51758.79
554.87	51752.92
555.234	52185.45
555.597	51984.33
555.96	52174.15
556.323	52297.09
556.686	52293.92
557.05	52660.92
557.413	52820.91
557.776	52834.25
558.139	53068.59
558.502	53067.69
558.865	53184.97
559.228	53367.11
559.59	53372.31
559.953	53482.36
560.316	53857.27
560.679	53795.8
561.041	54097.26
561.404	54204.38
561.767	54443.24
562.129	54273.3
562.492	54673.97
562.854	54661.54
563.217	54747.87
563.579	54737.25
563.941	55013.4
564.304	55144.02
564.666	55287.74
565.028	55319.83
565.39	55385.82
565.753	55610.22
566.115	55722.98
566.477	55767.73
566.839	55907.84
567.201	56018.34
567.563	56050.66
567.925	56339.01
568.287	56273.25
568.648	56376.53
569.01	56552.11
569.372	56726.35
569.734	56633.02
570.095	56858.1
570.457	56978.54
570.819	57054.02
571.18	57046.79
571.542	57120.01
571.903	57206.56
572.265	57226
572.626	57293.56
572.987	57397.06
573.349	57457.18
573.71	57581.69
574.071	57626.21
574.432	57745.98
574.794	57914.79
575.155	57871.85
575.516	57877.05
575.877	57963.38
576.238	58031.62
576.599	58160.43
576.96	58082.92
577.32	58137.61
577.681	58221.68
578.042	58291.96
578.403	58316.36
578.763	58300.77
579.124	58341.9
579.485	58438.39
579.845	58510.48
580.206	58469.8
580.566	58493.08
580.927	58465.28
581.287	58561.1
581.648	58412.4
582.008	58641.78
582.368	58545.96
582.728	58542.8
583.089	58561.55
583.449	58606.07
583.809	58618.95
584.169	58684.04
584.529	58606.98
584.889	58920.41
585.249	58686.75
585.609	58633.42
585.969	58733.3
586.329	58705.73
586.688	58757.93
587.048	58698.5
587.408	58616.47
587.768	58684.26
588.127	58671.61
588.487	58608.33
588.846	58820.76
589.206	58623.25
589.565	58662.34
589.925	58739.18
590.284	58655.56
590.643	58718.39
591.003	58777.59
591.362	58833.86
591.721	58733.3
592.08	58698.72
592.44	58873.18
592.799	58757.48
593.158	58766.97
593.517	58713.87
593.876	58796.35
594.235	58777.82
594.593	58759.06
594.952	58902.11
595.311	58708.89
595.67	58891.26
596.029	58994.54
596.387	58941.43
596.746	58941.43
597.104	58792.28
597.463	58885.61
597.822	58980.53
598.18	58851.26
598.538	58814.43
598.897	58949.57
599.255	58868.44
599.613	59199.5
599.972	59012.62
600.33	59040.41
600.688	58897.82
601.046	58958.15
601.404	59045.61
601.762	59061.65
602.12	59138.94
602.478	59160.18
602.836	59129.45
603.194	59070.47
603.552	59126.06
603.91	59027.53
604.268	59155.89
604.625	59054.87
604.983	59244.93
605.341	59073.18
605.698	59231.37
606.056	59348.88
606.413	59295.09
606.771	59321.31
607.128	59331.48
607.485	59205.83
607.843	59269.33
608.2	59319.95
608.557	59390.46
608.914	59253.96
609.272	59388.65
609.629	59447.41
609.986	59550.68
610.343	59442.89
610.7	59657.8
611.057	59633.62
611.414	59517.01
611.771	59547.74
612.127	59717.91
612.484	59621.41
612.841	59730.56
613.198	59713.39
613.554	59658.47
613.911	59736.44
614.267	59725.59
614.624	59799.71
614.98	59803.1
615.337	59873.16
615.693	59877
616.05	59822.99
616.406	59959.93
616.762	59827.28
617.118	59867.96
617.475	59868.86
617.831	59940.05
618.187	59925.81
618.543	59961.29
618.899	60078.35
619.255	59992.7
619.611	59939.14
619.967	60045.81
620.323	60118.35
620.678	59999.71
621.034	59918.58
621.39	59889.65
621.746	59956.54
622.101	60178.91
622.457	59910.22
622.812	59919.71
623.168	59999.71
623.523	60004.45
623.879	60012.14
624.234	59901.86
624.589	59961.97
624.945	59890.78
625.3	59956.77
625.655	59948.18
626.01	60020.27
626.365	59979.37
626.72	60031.12
627.075	59915.87
627.43	59897.79
627.785	59850.79
628.14	59887.39
628.495	59901.41
628.85	59922.42
629.205	59852.14
629.559	59988.41
629.914	59798.36
630.269	59833.84
630.623	59698.25
630.978	59675.65
631.332	59794.97
631.687	59793.16
632.041	59617.8
632.396	59709.77
632.75	59683.78
633.104	59653.5
633.459	59527.4
633.813	59512.04
634.167	59522.66
634.521	59465.03
634.875	59535.31
635.229	59409.44
635.583	59323.79
635.937	59304.81
636.291	59272.27
636.645	59272.5
636.999	59216.68
637.352	59183.46
637.706	59046.06
638.06	59129.22
638.413	59060.75
638.767	58960.19
639.121	59011.94
639.474	58879.06
639.828	58918.83
640.181	58879.29
640.534	58870.47
640.888	58889.91
641.241	58721.1
641.594	58733.07
641.947	58765.84
642.301	58671.16
642.654	58677.71
643.007	58694.88
643.36	58649.23
643.713	58640.42
644.066	58664.6
644.419	58380.32
644.771	58197.04
645.124	57845.64
645.477	57822.82
645.83	57720.45
646.182	57696.94
646.535	57600.9
646.888	57756.15
647.24	57709.37
647.593	57912.53
647.945	57815.36
648.298	57661.92
648.65	57608.13
649.002	57501.92
649.355	57539.89
649.707	57445.2
650.059	57462.37
650.411	57676.15
650.763	57745.98
651.115	57985.3
651.467	57908.01
651.819	57855.81
652.171	57823.72
652.523	57831.4
652.875	57777.62
653.227	57680.67
653.578	57829.82
653.93	57754.57
654.282	57554.8
654.633	57541.69
654.985	57611.97
655.337	57602.48
655.688	57557.51
656.039	57564.29
656.391	57365.2
656.742	57466.89
657.094	57441.36
657.445	57560.9
657.796	57415.82
658.147	57353
658.498	57326.33
658.849	57364.52
659.2	57341.47
659.551	57278.2
659.902	57347.12
660.253	57221.48
660.604	57224.87
660.955	57168.6
661.306	57234.13
661.656	57183.74
662.007	57145.55
662.358	57082.27
662.708	57096.73
663.059	57087.69
663.409	56972.67
663.76	57088.15
664.11	57084.76
664.461	57094.93
664.811	57090.63
665.161	57010.18
665.511	56936.51
665.862	56945.78
666.212	57006.11
666.562	56967.02
666.912	56924.08
667.262	56872.11
667.612	56831.43
667.962	56848.15
668.312	56790.53
668.662	56904.42
669.011	56745.33
669.361	56762.05
669.711	56706.91
670.06	56648.16
670.41	56635.73
670.76	56546.01
671.109	56666.91
671.459	56591.21
671.808	56539.01
672.157	56643.86
672.507	56402.97
672.856	56471.89
673.205	56441.84
673.554	56591.89
673.904	56449.74
674.253	56619.91
674.602	56476.86
674.951	56115.06
675.3	55939.02
675.649	56292.46
675.998	56317.54
676.346	56310.77
676.695	56386.7
677.044	56114.84
677.393	56167.27
677.741	56128.85
678.09	56017.44
678.438	56017.67
678.787	56079.81
679.135	56041.85
679.484	55927.05
679.832	55896.09
680.181	55781.97
680.529	55762.08
680.877	55693.61
681.225	55672.36
681.573	55798.91
681.922	55636.66
682.27	55479.6
682.618	55545.59
682.966	55496.32
683.314	55535.87
683.661	55472.14
684.009	55345.37
684.357	55251.81
684.705	55160.51
685.053	55208.87
685.4	55207.07
685.748	55084.13
686.095	55001.2
686.443	54889.79
686.79	54860.63
687.138	54951.25
687.485	54911.03
687.832	54755.78
688.18	54780.64
688.527	54623.8
688.874	54552.17
689.221	54491.6
689.568	54420.42
689.915	54338.84
690.262	54323.02
690.609	54254.32
690.956	54073.54
691.303	54117.83
691.65	53982.92
691.997	53961.9
692.344	53657.28
692.69	53671.96
693.037	53761.45
693.383	53459.09
693.73	53554.68
694.077	53255.25
694.423	53336.83
694.769	53180
695.116	53125.99
695.462	52970.97
695.808	52912.44
696.155	52990.17
696.501	52757.41
696.847	52789.5
697.193	52572.78
697.539	52663.18
697.885	52405.56
698.231	52344.32
698.577	52341.83
698.923	52289.85
699.269	52130.54
699.614	51929.19
699.96	51887.15
700.306	51876.76
700.651	51704.78
700.997	51690.32
701.342	51578.23
701.688	51637.67
702.033	51491.46
702.379	51403.1
702.724	51298.24
703.069	51392.02
703.415	50931.7
703.76	50906.61
704.105	50907.52
704.45	50801.98
704.795	50573.51
705.14	50649.45
705.485	50455.55
705.83	50390.02
706.175	50317.02
706.52	50203.58
706.865	50114.09
707.209	50092.85
707.554	49982.57
707.899	50046.07
708.243	49764.95
708.588	49771.28
708.932	49451.74
709.277	49479.31
709.621	49475.01
709.966	49178.3
710.31	49404.05
710.654	48990.51
710.998	48990.05
711.342	48947.34
711.687	48749.16
712.031	48802.49
712.375	48467.13
712.719	48708.93
713.063	48481.37
713.407	48605.43
713.75	48437.53
714.094	48253.58
714.438	48161.83
714.782	48119.57
715.125	48068.95
715.469	48019.91
715.812	47717.54
716.156	47472.58
716.499	47438.91
716.843	47565.01
717.186	47201.85
717.53	47539.7
717.873	47351.45
718.216	47256.31
718.559	47177.9
718.902	46881.41
719.246	47005.93
719.589	46840.51
719.932	46701.53
720.275	46584.69
720.617	46610.23
720.96	46493.4
721.303	46521.19
721.646	46560.29
721.989	46164.59
722.331	46179.51
722.674	46040.3
723.016	46135.44
723.359	46013.18
723.701	46041.66
724.044	45701.33
724.386	45541.33
724.729	45818.61
725.071	45504.95
725.413	45417.94
725.755	45425.63
726.097	45374.1
726.439	44961.23
726.782	45144.28
727.124	45436.93
727.465	45118.97
727.807	44954.91
728.149	44977.28
728.491	44843.95
728.833	44815.93
729.175	44731.41
729.516	44626.55
729.858	44605.08
730.199	44527.12
730.541	44340.46
730.882	44381.81
731.224	44315.37
731.565	44103.18
731.906	44023.4
732.248	44075.15
732.589	43739.8
732.93	43656.41
733.271	43785.44
733.612	43756.52
733.953	43692.79
734.294	43522.85
734.635	43432.69
734.976	43575.05
735.317	43322.86
735.658	43372.12
735.999	43146.37
736.339	43058.23
736.68	43205.8
737.021	43118.12
737.361	42784.79
737.702	43139.36
738.042	42940.95
738.383	42690.56
738.723	42926.26
739.063	42677.45
739.404	42651.24
739.744	42524.46
740.084	42448.76
740.424	42408.53
740.764	42265.26
741.104	42426.61
741.444	42257.8
741.784	42169.44
742.124	42176
742.464	41924.7
742.804	41889.45
743.143	41868.88
743.483	41804.48
743.823	41637.7
744.162	41557.48
744.502	41521.55
744.841	41356.36
745.181	41595.9
745.52	41141.67
745.86	41231.39
746.199	41131.96
746.538	41057.61
746.877	41102.8
747.216	40995.69
747.556	40915.69
747.895	40995.24
748.234	40715.24
748.573	40671.63
748.911	40517.73
749.25	40493.1
749.589	40387.12
749.928	40385.99
750.267	40406.1
750.605	39984.87
750.944	40120.68
751.283	39883.4
751.621	40018.99
751.96	39745.1
752.298	39780.13
752.636	39821.03
