Data from foil_FLMS001491_038.txt Node
Date: Tue Feb 07 11:26:15 GMT 2017
User: dcchb
Spectrometer: FLMS00149
Trigger mode: 0
Integration Time (sec): 2.000000E-2
Scans to average: 10
Electric dark correction enabled: true
Nonlinearity correction enabled: false
Boxcar width: 0
XAxis mode: Wavelengths
Number of Pixels in Spectrum: 2048
>>>>>Begin Spectral Data<<<<<
341.393	-16.98
341.776	-16.98
342.16	-16.98
342.543	-44.32
342.927	-55.17
343.31	-88.84
343.693	-53.13
344.077	-66.24
344.46	-46.58
344.843	-68.95
345.226	-49.74
345.61	-40.03
345.993	2.23
346.376	8.11
346.759	16.69
347.142	18.05
347.525	48.11
347.908	48.56
348.291	73.19
348.674	95.34
349.057	103.25
349.44	131.72
349.823	132.17
350.206	201.1
350.588	266.18
350.971	272.96
351.354	302.56
351.737	297.14
352.119	332.62
352.502	333.07
352.884	367.87
353.267	375.78
353.65	354.76
354.032	380.53
354.414	400.41
354.797	414.2
355.179	387.76
355.562	392.05
355.944	391.37
356.326	435.21
356.709	426.4
357.091	437.47
357.473	438.15
357.855	442.45
358.238	456
358.62	416.68
359.002	429.79
359.384	454.2
359.766	452.39
360.148	452.84
360.53	439.51
360.912	450.13
361.294	460.98
361.676	452.84
362.057	461.65
362.439	455.33
362.821	453.75
363.203	456
363.584	474.31
363.966	470.02
364.348	463.69
364.729	463.01
365.111	442.22
365.493	480.19
365.874	448.77
366.256	446.97
366.637	454.42
367.019	462.78
367.4	481.09
367.781	466.17
368.163	479.28
368.544	478.83
368.925	504.37
369.306	493.74
369.688	493.29
370.069	501.65
370.45	507.98
370.831	481.32
371.212	504.14
371.593	505.72
371.974	507.76
372.355	517.25
372.736	527.19
373.117	538.49
373.498	530.58
373.879	521.99
374.26	502.11
374.641	510.24
375.021	491.94
375.402	546.17
375.783	560.86
376.163	577.36
376.544	553.18
376.925	560.18
377.305	571.71
377.686	569.22
378.066	580.07
378.447	589.56
378.827	576.68
379.208	583.46
379.588	592.05
379.968	608.54
380.349	596.57
380.729	623.91
381.109	612.84
381.489	609.45
381.87	625.04
382.25	639.95
382.63	668.43
383.01	651.93
383.39	659.84
383.77	666.17
384.15	675.43
384.53	672.27
384.91	689.67
385.29	718.14
385.67	698.26
386.049	731.7
386.429	742.33
386.809	735.32
387.189	730.8
387.568	757.92
387.948	743.91
388.328	749.78
388.707	760.86
389.087	770.57
389.466	823.45
389.846	806.73
390.225	807.18
390.605	830.91
390.984	851.47
391.363	848.31
391.743	853.96
392.122	869.33
392.501	896.9
392.881	898.03
393.26	893.73
393.639	889.44
394.018	926.5
394.397	936.22
394.776	945.48
395.155	939.38
395.534	939.83
395.913	942.32
396.292	986.39
396.671	988.65
397.05	987.06
397.429	994.97
397.808	995.43
398.186	1011.02
398.565	1016.67
398.944	1056.22
399.323	1069.55
399.701	1047.85
400.08	1089.43
400.458	1103.22
400.837	1105.48
401.215	1092.37
401.594	1125.14
401.972	1138.47
402.351	1155.87
402.729	1153.61
403.107	1145.48
403.486	1188.19
403.864	1202.88
404.242	1203.33
404.62	1233.16
404.999	1224.57
405.377	1252.59
405.755	1281.07
406.133	1269.77
406.511	1294.63
406.889	1327.17
407.267	1340.95
407.645	1368.52
408.023	1406.71
408.401	1385.25
408.779	1432.25
409.156	1457.56
409.534	1456.66
409.912	1468.41
410.29	1499.37
410.667	1505.47
411.045	1539.59
411.422	1560.61
411.8	1565.13
412.178	1583.43
412.555	1624.56
412.933	1621.17
413.31	1665.69
413.687	1699.14
414.065	1678.8
414.442	1692.36
414.819	1730.32
415.197	1748.4
415.574	1830.88
415.951	1804.67
416.328	1813.48
416.705	1851.45
417.082	1834.73
417.46	1850.32
417.837	1916.08
418.214	1956.3
418.591	1945.23
418.967	1976.64
419.344	2016.64
419.721	2009.41
420.098	2014.16
420.475	2070.65
420.852	2076.3
421.228	2075.17
421.605	2123.98
421.982	2130.76
422.358	2164.43
422.735	2214.38
423.111	2159.69
423.488	2218.9
423.864	2242.62
424.241	2251.66
424.617	2288.05
424.994	2317.65
425.37	2327.59
425.746	2295.05
426.123	2375.28
426.499	2416.86
426.875	2424.09
427.251	2493.24
427.627	2533.69
428.003	2571.88
428.379	2630.64
428.756	2585.67
429.132	2642.84
429.507	2688.04
429.883	2766.23
430.259	2789.05
430.635	2806.68
431.011	2823.17
431.387	2913.12
431.763	2921.02
432.138	2939.1
432.514	2999.21
432.89	3008.03
433.265	3074.47
433.641	3116.5
434.016	3179.55
434.392	3174.58
434.767	3242.37
435.143	3266.33
435.518	3299.09
435.894	3356.72
436.269	3403.95
436.644	3400.33
437.02	3468.13
437.395	3482.14
437.77	3541.35
438.145	3593.55
438.52	3613.89
438.895	3627.9
439.271	3658.86
439.646	3805.97
440.021	3761
440.395	3772.53
440.77	3781.57
441.145	3821.34
441.52	3865.63
441.895	3852.98
442.27	3922.58
442.645	3979.98
443.019	4021.56
443.394	3995.57
443.769	4039.64
444.143	4008.68
444.518	4083.03
444.892	4092.75
445.267	4124.61
445.641	4147.43
446.016	4236.92
446.39	4215.45
446.764	4251.16
447.139	4244.83
447.513	4305.4
447.887	4334.1
448.262	4357.37
448.636	4410.7
449.01	4438.95
449.384	4497.93
449.758	4518.5
450.132	4572.28
450.506	4567.76
450.88	4629.23
451.254	4650.47
451.628	4652.05
452.002	4777.93
452.376	4781.77
452.75	4869.9
453.123	4892.5
453.497	4975.21
453.871	5020.4
454.244	5146.28
454.618	5157.12
454.992	5189.89
455.365	5287.52
455.739	5401.19
456.112	5416.33
456.486	5419.26
456.859	5479.38
457.232	5638.92
457.606	5580.16
457.979	5691.12
458.352	5850.44
458.725	5834.85
459.099	5914.62
459.472	6036.2
459.845	6102.41
460.218	6133.37
460.591	6243.88
460.964	6219.7
461.337	6453.59
461.71	6519.35
462.083	6599.35
462.456	6584.66
462.829	6655.62
463.201	6732.22
463.574	6788.49
463.947	6848.38
464.32	6977.64
464.692	7085.89
465.065	7186.45
465.438	7240.91
465.81	7357.74
466.183	7417.63
466.555	7566.1
466.928	7590.28
467.3	7647.23
467.672	7761.35
468.045	8030.72
468.417	8063.71
468.789	8077.95
469.161	8203.6
469.534	8318.85
469.906	8466.64
470.278	8566.75
470.65	8619.63
471.022	8807.42
471.394	8983.46
471.766	9055.78
472.138	9205.61
472.51	9348.2
472.882	9460.29
473.253	9634.75
473.625	9713.16
473.997	9985.7
474.369	10051.23
474.74	10118.58
475.112	10314.28
475.484	10594.72
475.855	10663.87
476.227	10752.68
476.598	11071.77
476.97	11092.11
477.341	11423.4
477.713	11591.98
478.084	11635.6
478.455	12007.79
478.827	12099.99
479.198	12485.75
479.569	12383.15
479.94	12825.17
480.311	12963.47
480.682	13244.6
481.053	13532.05
481.424	13681.87
481.795	13826.95
482.166	14034.4
482.537	14173.16
482.908	14554.84
483.279	14664.22
483.65	15000.26
484.021	15368.16
484.391	15370.19
484.762	15563.86
485.133	15777.18
485.503	15997.52
485.874	16256.95
486.244	16414
486.615	16817.38
486.985	16913.65
487.356	17270.7
487.726	17460.76
488.097	17817.36
488.467	17867.75
488.837	18192.26
489.207	18389.77
489.578	18671.57
489.948	18876.76
490.318	19064.33
490.688	19198.34
491.058	19506.8
491.428	19791.54
491.798	19953.57
492.168	20325.31
492.538	20419.1
492.908	20512.2
493.278	21041.9
493.648	20937.5
494.017	21284.84
494.387	21452.74
494.757	21520.08
495.126	21835.1
495.496	21960.98
495.866	21999.85
496.235	22372.26
496.605	22513.5
496.974	22664.69
497.344	22931.35
497.713	23042.98
498.082	23228.29
498.452	23504.89
498.821	23579.01
499.19	23727.03
499.559	23935.84
499.928	23966.57
500.298	24183.06
500.667	24520.46
501.036	24452.89
501.405	24749.6
501.774	24861.92
502.143	24992.31
502.512	25169.71
502.88	25336.48
503.249	25465.97
503.618	25684.72
503.987	25752.51
504.356	26014.65
504.724	26082.45
505.093	26210.13
505.462	26418.49
505.83	26520.86
506.199	26847.4
506.567	27070.67
506.936	26974.4
507.304	27459.14
507.672	27480.83
508.041	27712.24
508.409	27877.88
508.777	28123.53
509.145	28236.74
509.514	28365.33
509.882	28685.32
510.25	28779.33
510.618	29017.06
510.986	29078.3
511.354	29421.35
511.722	29673.77
512.09	29993.76
512.458	29955.12
512.826	30138.61
513.193	30402.79
513.561	30525.72
513.929	30821.53
514.297	31077.8
514.664	31275.31
515.032	31372.71
515.4	31689.08
515.767	31871.68
516.135	32007.27
516.502	31999.58
516.869	32668.72
517.237	32639.57
517.604	32588.95
517.972	33123.85
518.339	33309.38
518.706	33492.65
519.073	33659.65
519.44	33880.21
519.808	34214.89
520.175	34381.89
520.542	34801.99
520.909	34987.98
521.276	34983.68
521.643	35393.39
522.009	35709.99
522.376	36023.43
522.743	36100.27
523.11	36472.69
523.477	36842.39
523.843	37118.54
524.21	37453.22
524.577	37649.38
524.943	37843.95
525.31	37967.56
525.676	38474.67
526.043	38682.57
526.409	38829.91
526.776	39248.21
527.142	39329.11
527.508	39718.02
527.874	39987.85
528.241	40316.88
528.607	40373.15
528.973	40801.61
529.339	40742.86
529.705	41161.83
530.071	41500.8
530.437	41691.98
530.803	41764.98
531.169	42051.3
531.535	42097.62
531.901	42323.6
532.267	42514.56
532.632	42913.65
532.998	43022.34
533.364	43259.63
533.73	43435.44
534.095	43850.57
534.461	43880.63
534.826	44039.94
535.192	44291.24
535.557	44625.92
535.923	44678.57
536.288	44892.35
536.653	44972.8
537.019	44921.73
537.384	45206.47
537.749	45410.08
538.114	45547.93
538.479	45556.97
538.845	45843.29
539.21	45829.5
539.575	46008.71
539.94	46156.72
540.305	46594.68
540.67	46391.52
541.034	46758.29
541.399	46922.58
541.764	47102.91
542.129	47199.63
542.494	47330.48
542.858	47369.57
543.223	47527.99
543.587	47714.2
543.952	47785.16
544.316	47838.04
544.681	47812.5
545.045	48204.58
545.41	48321.64
545.774	48501.3
546.138	48553.72
546.503	48897.22
546.867	48683.44
547.231	49070.09
547.595	49109.64
547.959	49337.88
548.324	49393.25
548.688	49455.17
549.052	49683.41
549.416	49812
549.779	49869.62
550.143	49957.98
550.507	50297.41
550.871	50399.32
551.235	50372.88
551.599	50731.07
551.962	50748.92
552.326	50886.09
552.689	51091.06
553.053	51055.13
553.417	51117.05
553.78	51616.47
554.143	51420.09
554.507	51670.93
554.87	51657.6
555.234	51990.47
555.597	51924.26
555.96	52039.96
556.323	52265.94
556.686	52326.73
557.05	52524.69
557.413	52728.08
557.776	52823.67
558.139	53035.87
558.502	53130.1
558.865	53149.99
559.228	53494.84
559.59	53650.09
559.953	53580.48
560.316	53944.32
560.679	53920.81
561.041	54092.56
561.404	54225.66
561.767	54436.51
562.129	54423.4
562.492	54689.61
562.854	54709.72
563.217	54833.56
563.579	54886.66
563.941	55087.11
564.304	55203.94
564.666	55426.31
565.028	55460.21
565.39	55642.8
565.753	55779.75
566.115	55842.8
566.477	55946.52
566.839	56004.15
567.201	56251.15
567.563	56304.93
567.925	56499.73
568.287	56474.42
568.648	56621.53
569.01	56720.97
569.372	56876.67
569.734	56800.96
570.095	56970
570.457	57120.28
570.819	57135.19
571.18	57147.4
571.542	57378.58
571.903	57362.31
572.265	57495.41
572.626	57638
572.987	57643.65
573.349	57759.13
573.71	57868.96
574.071	57934.72
574.432	58000.48
574.794	58163.87
575.155	58096.52
575.516	58032.57
575.877	58197.76
576.238	58227.37
576.599	58290.42
576.96	58314.37
577.32	58411.77
577.681	58475.5
578.042	58553.23
578.403	58548.71
578.763	58553.91
579.124	58607.7
579.485	58707.13
579.845	58750.97
580.206	58714.13
580.566	58802.27
580.927	58818.31
581.287	58934.92
581.648	58775.6
582.008	58966.78
582.368	58831.19
582.728	58942.15
583.089	58921.13
583.449	58967.23
583.809	58939.21
584.169	59021.7
584.529	58959.78
584.889	59175.59
585.249	59033.67
585.609	58916.84
585.969	59044.29
586.329	58939.66
586.688	59095.37
587.048	59077.74
587.408	59010.4
587.768	59013.79
588.127	59069.61
588.487	58971.08
588.846	59209.04
589.206	59075.03
589.565	59056.27
589.925	59154.57
590.284	59058.76
590.643	59134.69
591.003	59196.83
591.362	59245.65
591.721	59167.68
592.08	59154.12
592.44	59299.2
592.799	59241.13
593.158	59158.19
593.517	59148.47
593.876	59171.3
594.235	59130.85
594.593	59140.79
594.952	59318.41
595.311	59238.64
595.67	59200.68
596.029	59347.34
596.387	59318.41
596.746	59341.01
597.104	59284.51
597.463	59369.71
597.822	59443.83
598.18	59335.59
598.538	59361.57
598.897	59484.96
599.255	59310.05
599.613	59662.81
599.972	59522.93
600.33	59584.85
600.688	59446.09
601.046	59518.18
601.404	59571.29
601.762	59534.68
602.12	59645.41
602.478	59679.53
602.836	59638.18
603.194	59562.7
603.552	59591.63
603.91	59555.24
604.268	59652.19
604.625	59605.64
604.983	59739.64
605.341	59617.39
605.698	59747.55
606.056	59749.14
606.413	59721.57
606.771	59828.68
607.128	59867.32
607.485	59848.34
607.843	59800.66
608.2	59901
608.557	60096.92
608.914	59955.91
609.272	60038.39
609.629	60055.12
609.986	60145.73
610.343	59985.74
610.7	60253.98
611.057	60207.88
611.414	60197.26
611.771	60207.65
612.127	60307.31
612.484	60216.02
612.841	60270.7
613.198	60246.75
613.554	60290.14
613.911	60397.71
614.267	60379.85
614.624	60391.6
614.98	60486.97
615.337	60538.49
615.693	60478.61
616.05	60486.06
616.406	60561.32
616.762	60490.58
617.118	60537.36
617.475	60536.69
617.831	60606.51
618.187	60621.2
618.543	60590.24
618.899	60695.78
619.255	60660.3
619.611	60644.25
619.967	60686.96
620.323	60762.22
620.678	60764.93
621.034	60657.13
621.39	60634.54
621.746	60649.9
622.101	60834.53
622.457	60698.94
622.812	60699.84
623.168	60771.93
623.523	60809.22
623.879	60917.01
624.234	60751.82
624.589	60731.48
624.945	60798.37
625.3	60806.51
625.655	60789.79
626.01	60822.33
626.365	60877.47
626.72	60714.76
627.075	60736
627.43	60743.69
627.785	60685.83
628.14	60724.25
628.495	60734.87
628.85	60681.09
629.205	60633.41
629.559	60706.17
629.914	60561.09
630.269	60651.48
630.623	60535.33
630.978	60612.16
631.332	60611.03
631.687	60674.53
632.041	60522.67
632.396	60617.36
632.75	60499.17
633.104	60493.97
633.459	60404.03
633.813	60300.08
634.167	60354.77
634.521	60409.46
634.875	60402.23
635.229	60281.55
635.583	60210.14
635.937	60149.12
636.291	60145.28
636.645	60199.07
636.999	60115.68
637.352	60088.34
637.706	59964.95
638.06	60121.55
638.413	59981.9
638.767	59986.42
639.121	59997.94
639.474	59914.1
639.828	59956.14
640.181	59957.04
640.534	59929.02
640.888	59881.79
641.241	59720.21
641.594	59858.74
641.947	59830.94
642.301	59795.69
642.654	59751.85
643.007	59786.65
643.36	59742.36
643.713	59689.93
644.066	59769.25
644.419	59544.62
644.771	59269.6
645.124	58909.38
645.477	58877.75
645.83	58746.68
646.182	58736.96
646.535	58762.27
646.888	58885.2
647.24	58772.89
647.593	58973.11
647.945	58929.04
648.298	58762.49
648.65	58624.87
649.002	58593.91
649.355	58647.02
649.707	58497.87
650.059	58569.96
650.411	58775.38
650.763	58887.69
651.115	59115.48
651.467	59054.01
651.819	59036.16
652.171	58904.64
652.523	58937.86
652.875	58959.78
653.227	58824.19
653.578	58940.57
653.93	58825.54
654.282	58802.49
654.633	58729.27
654.985	58790.29
655.337	58729.73
655.688	58786.9
656.039	58795.49
656.391	58604.08
656.742	58695.83
657.094	58625.77
657.445	58715.49
657.796	58613.8
658.147	58679.78
658.498	58545.33
658.849	58590.3
659.2	58560.24
659.551	58529.96
659.902	58597.3
660.253	58524.31
660.604	58529.73
660.955	58454.25
661.306	58546
661.656	58439.79
662.007	58415.84
662.358	58421.49
662.708	58425.78
663.059	58468.72
663.409	58247.93
663.76	58412.45
664.11	58378.32
664.461	58409.28
664.811	58393.01
665.161	58353.24
665.511	58256.07
665.862	58303.98
666.212	58340.13
666.562	58225.11
666.912	58204.09
667.262	58179.46
667.612	58200.48
667.962	58179.68
668.312	58151.66
668.662	58279.12
669.011	58225.11
669.361	58182.62
669.711	58113.47
670.06	58173.81
670.41	58071.89
670.76	58035.28
671.109	58129.29
671.459	58029.18
671.808	58031.67
672.157	58053.36
672.507	57862.63
672.856	57920.71
673.205	57944.89
673.554	58065.11
673.904	57962.06
674.253	58102.4
674.602	57920.48
674.951	57603.43
675.3	57488.18
675.649	57839.13
675.998	57819.92
676.346	57796.19
676.695	57899.92
677.044	57678.91
677.393	57765.68
677.741	57711
678.09	57619.93
678.438	57529.08
678.787	57638.68
679.135	57668.06
679.484	57447.27
679.832	57599.59
680.181	57311.01
680.529	57421.29
680.877	57299.03
681.225	57340.16
681.573	57450.66
681.922	57270.78
682.27	57129.09
682.618	57170.9
682.966	57112.82
683.314	57129.54
683.661	57024.24
684.009	56887.97
684.357	56955.31
684.705	56890.91
685.053	56896.55
685.4	56863.34
685.748	56672.38
686.095	56653.85
686.443	56600.29
686.79	56593.74
687.138	56627.86
687.485	56568.88
687.832	56488.2
688.18	56534.98
688.527	56328.21
688.874	56332.05
689.221	56298.83
689.568	56172.96
689.915	56131.6
690.262	56052.96
690.609	55976.8
690.956	56007.31
691.303	55996.69
691.65	55786.98
691.997	55710.6
692.344	55590.15
692.69	55620.88
693.037	55632.86
693.383	55341.79
693.73	55372.75
694.077	55207.33
694.423	55209.59
694.769	55062.93
695.116	54989.26
695.462	55027.23
695.808	54886.66
696.155	54915.59
696.501	54657.07
696.847	54745.2
697.193	54480.35
697.539	54554.92
697.885	54357.19
698.231	54448.94
698.577	54361.25
698.923	54194.7
699.269	54038.55
699.614	53898.22
699.96	53936.63
700.306	53977.76
700.651	53720.37
700.997	53688.96
701.342	53690.09
701.688	53685.79
702.033	53562.86
702.379	53549.75
702.724	53442.63
703.069	53487.38
703.415	53125.13
703.76	53069.99
704.105	53115.64
704.45	52970.56
704.795	52980.95
705.14	52679.94
705.485	52674.29
705.83	52636.78
706.175	52694.63
706.52	52433.4
706.865	52335.09
707.209	52280.18
707.554	52230.24
707.899	52278.82
708.243	52023.01
708.588	51915.22
708.932	51843.13
709.277	51854.88
709.621	51846.97
709.966	51490.6
710.31	51577.15
710.654	51347.1
710.998	51549.35
711.342	51462.57
711.687	51345.97
712.031	51209.25
712.375	50994.11
712.719	51011.29
713.063	51022.36
713.407	51002.02
713.75	50920.67
714.094	50845.87
714.438	50730.39
714.782	50658.3
715.125	50482.71
715.469	50473.67
715.812	50273.23
716.156	50197.75
716.499	50292.66
716.843	50217.63
717.186	50016.51
717.53	50274.58
717.873	50206.56
718.216	50007.47
718.559	49828.04
718.902	49614.03
719.246	49682.28
719.589	49589.63
719.932	49488.84
720.275	49488.39
720.617	49434.15
720.96	49300.82
721.303	49291.33
721.646	49351.89
721.989	49075.52
722.331	49254.72
722.674	49018.34
723.016	49066.93
723.359	48925.46
723.701	48980.83
724.044	48730.44
724.386	48621.29
724.729	48658.35
725.071	48639.37
725.413	48543.33
725.755	48575.19
726.097	48258.82
726.439	48223.11
726.782	48142.43
727.124	48195.31
727.465	47975.43
727.807	47887.3
728.149	47786.96
728.491	47673.52
728.833	47636.91
729.175	47457.03
729.516	47396.24
729.858	47342.68
730.199	47453.41
730.541	47282.12
730.882	47307.65
731.224	47355.34
731.565	47097.49
731.906	47172.29
732.248	47213.19
732.589	46828.57
732.93	46883.71
733.271	46916.48
733.612	46910.15
733.953	46912.18
734.294	46737.73
734.635	46472.87
734.976	46577.5
735.317	46532.99
735.658	46658.18
735.999	46463.16
736.339	46328.47
736.68	46272.43
737.021	46205.76
737.361	46009.38
737.702	46245.31
738.042	45931.87
738.383	45844.64
738.723	45906.79
739.063	45713.12
739.404	45843.29
739.744	45628.6
740.084	45504.54
740.424	45704.53
740.764	45397.65
741.104	45452.34
741.444	45373.92
741.784	45319.46
742.124	45338.89
742.464	45238.56
742.804	45075.17
743.143	44895.74
743.483	45040.82
743.823	44886.93
744.162	44814.16
744.502	44760.38
744.841	44525.58
745.181	44684.22
745.52	44433.83
745.86	44478.35
746.199	44371.46
746.538	44289.65
746.877	44359.71
747.216	44239.71
747.556	44086.95
747.895	43961.08
748.234	43888.31
748.573	43821.19
748.911	43878.14
749.25	43810.12
749.589	43585.49
749.928	43707.3
750.267	43677.47
750.605	43587.53
750.944	43333.52
751.283	43249.91
751.621	43255.78
751.96	43173.07
752.298	43032.51
