Data from foil_FLMS001491_043.txt Node
Date: Tue Feb 07 11:26:56 GMT 2017
User: dcchb
Spectrometer: FLMS00149
Trigger mode: 0
Integration Time (sec): 2.000000E-2
Scans to average: 10
Electric dark correction enabled: true
Nonlinearity correction enabled: false
Boxcar width: 0
XAxis mode: Wavelengths
Number of Pixels in Spectrum: 2048
>>>>>Begin Spectral Data<<<<<
341.393	-13.6
341.776	-13.6
342.16	-13.6
342.543	-50.44
342.927	-73.03
343.31	-77.1
343.693	-81.85
344.077	-68.06
344.46	-48.85
344.843	-41.4
345.226	-47.27
345.61	-36.65
345.993	-29.42
346.376	-2.53
346.759	9.45
347.142	30.24
347.525	43.8
347.908	77.24
348.291	88.32
348.674	84.02
349.057	100.07
349.44	121.99
349.823	137.58
350.206	175.77
350.588	233.17
350.971	258.03
351.354	292.83
351.737	315.2
352.119	295.54
352.502	310.23
352.884	322.66
353.267	359.27
353.65	352.72
354.032	361.76
354.414	383.22
354.797	404.69
355.179	380.29
355.562	373.96
355.944	386.84
356.326	392.94
356.709	398.59
357.091	406.5
357.473	423.45
357.855	436.1
358.238	431.13
358.62	404.47
359.002	440.85
359.384	432.94
359.766	408.76
360.148	417.57
360.53	428.65
360.912	410.34
361.294	441.98
361.676	428.65
362.057	440.85
362.439	417.57
362.821	447.63
363.203	419.61
363.584	411.47
363.966	404.01
364.348	407.63
364.729	430
365.111	417.12
365.493	415.77
365.874	418.03
366.256	427.74
366.637	411.25
367.019	447.63
367.4	438.36
367.781	450.34
368.163	447.86
368.544	428.87
368.925	432.04
369.306	458.7
369.688	453.51
370.069	434.52
370.45	446.05
370.831	445.82
371.212	439.95
371.593	474.75
371.974	461.41
372.355	461.87
372.736	476.78
373.117	474.75
373.498	477.46
373.879	461.19
374.26	463.22
374.641	441.53
375.021	477.01
375.402	498.02
375.783	493.5
376.163	524.69
376.544	506.61
376.925	514.52
377.305	496.22
377.686	491.92
378.066	493.5
378.447	519.27
378.827	513.16
379.208	533.5
379.588	540.28
379.968	522.43
380.349	532.82
380.729	545.03
381.109	526.05
381.489	550
381.87	543.67
382.25	581.19
382.63	578.93
383.01	579.38
383.39	593.61
383.77	575.99
384.15	585.03
384.53	599.72
384.91	613.5
385.29	618.7
385.67	615.76
386.049	625.48
386.429	622.77
386.809	618.92
387.189	647.4
387.568	630
387.948	647.62
388.328	675.19
388.707	705.93
389.087	676.1
389.466	685.82
389.846	687.62
390.225	693.95
390.605	688.08
390.984	688.08
391.363	724.68
391.743	721.29
392.122	727.62
392.501	738.92
392.881	761.07
393.26	774.85
393.639	783.21
394.018	772.82
394.397	759.71
394.776	786.15
395.155	822.31
395.534	815.3
395.913	806.04
396.292	836.55
396.671	821.18
397.05	839.03
397.429	834.06
397.808	822.53
398.186	870.44
398.565	878.58
398.944	863.89
399.323	889.2
399.701	892.36
400.08	911.12
400.458	900.27
400.837	919.26
401.215	928.07
401.594	945.92
401.972	943.89
402.351	940.72
402.729	964.9
403.107	965.36
403.486	981.63
403.864	963.77
404.242	1003.1
404.62	1023.66
404.999	998.58
405.377	1034.28
405.755	1067.95
406.133	1060.49
406.511	1069.31
406.889	1102.3
407.267	1110.89
407.645	1090.55
408.023	1128.97
408.401	1162.86
408.779	1154.28
409.156	1192.69
409.534	1166.03
409.912	1195.63
410.29	1233.37
410.667	1244.44
411.045	1241.28
411.422	1273.14
411.8	1265.46
412.178	1320.15
412.555	1305.23
412.933	1335.29
413.31	1350.66
413.687	1366.93
414.065	1389.98
414.442	1389.98
414.819	1411.9
415.197	1395.85
415.574	1472.91
415.951	1459.58
416.328	1496.64
416.705	1472.69
417.082	1496.64
417.46	1529.63
417.837	1537.32
418.214	1556.98
418.591	1565.34
418.967	1562.85
419.344	1587.03
419.721	1599.24
420.098	1620.71
420.475	1623.42
420.852	1628.16
421.228	1674.04
421.605	1692.57
421.982	1724.21
422.358	1693.7
422.735	1728.05
423.111	1759.46
423.488	1776.86
423.864	1788.84
424.241	1822.73
424.617	1815.73
424.994	1809.18
425.37	1861.38
425.746	1859.12
426.123	1918.33
426.499	1901.38
426.875	1942.73
427.251	1968.27
427.627	1984.99
428.003	2038.55
428.379	2049.85
428.756	2053.69
429.132	2133.01
429.507	2155.16
429.883	2134.36
430.259	2201.03
430.635	2218.66
431.011	2247.58
431.387	2264.08
431.763	2318.77
432.138	2286.45
432.514	2358.09
432.89	2370.74
433.265	2461.59
433.641	2451.42
434.016	2475.6
434.392	2527.35
434.767	2594.69
435.143	2541.13
435.518	2592.43
435.894	2619.78
436.269	2672.2
436.644	2669.72
437.02	2708.81
437.395	2729.6
437.77	2771.18
438.145	2799.88
438.52	2845.08
438.895	2880.33
439.271	2869.94
439.646	2930.5
440.021	2982.03
440.395	2975.47
440.77	2942.93
441.145	3006.66
441.52	3078.29
441.895	3047.11
442.27	3103.83
442.645	3072.87
443.019	3138.18
443.394	3172.53
443.769	3201
444.143	3147.45
444.518	3260.66
444.892	3215.01
445.267	3299.53
445.641	3296.82
446.016	3325.52
446.39	3347.21
446.764	3332.3
447.139	3402.81
447.513	3409.36
447.887	3445.97
448.262	3470.83
448.636	3528
449.01	3528.9
449.384	3589.92
449.758	3566.42
450.132	3623.82
450.506	3610.03
450.88	3666.53
451.254	3689.35
451.628	3784.04
452.002	3804.6
452.376	3800.99
452.75	3859.97
453.123	3841.89
453.497	3913.98
453.871	3921.89
454.244	4045.05
454.618	4071.26
454.992	4087.53
455.365	4120.3
455.739	4235.33
456.112	4259.28
456.486	4272.39
456.859	4304.48
457.232	4355.55
457.606	4423.8
457.979	4437.58
458.352	4554.19
458.725	4601.42
459.099	4589.67
459.472	4711.47
459.845	4761.64
460.218	4737.46
460.591	4852.49
460.964	4875.08
461.337	4977.91
461.71	5038.7
462.083	5122.31
462.456	5127.96
462.829	5121.4
463.201	5202.53
463.574	5243.21
463.947	5327.05
464.32	5434.17
464.692	5449.31
465.065	5545.35
465.438	5595.97
465.81	5704.44
466.183	5740.37
466.555	5833.93
466.928	5889.75
467.3	5833.48
467.672	5951.21
468.045	6110.98
468.417	6137.42
468.789	6131.1
469.161	6213.35
469.534	6378.77
469.906	6518.43
470.278	6482.73
470.65	6694.7
471.022	6784.64
471.394	6833.68
471.766	6929.72
472.138	6988.47
472.51	7114.35
472.882	7219.43
473.253	7336.49
473.625	7375.36
473.997	7598.85
474.369	7587.55
474.74	7697.38
475.112	7806.98
475.484	7915.91
475.855	8135.34
476.227	8144.83
476.598	8465.72
476.97	8520.19
477.341	8668.2
477.713	8723.12
478.084	8800.4
478.455	9068.42
478.827	9098.7
479.198	9429.09
479.569	9406.26
479.94	9632.02
480.311	9759.93
480.682	9991.79
481.053	10167.6
481.424	10352.91
481.795	10490.08
482.166	10591.77
482.537	10749.05
482.908	10980.01
483.279	11121.47
483.65	11344.29
484.021	11495.93
484.391	11623.15
484.762	11731.63
485.133	11869.02
485.503	12088
485.874	12224.27
486.244	12412.96
486.615	12637.82
486.985	12791.71
487.356	12958.49
487.726	13084.81
488.097	13397.8
488.467	13342.66
488.837	13697.68
489.207	13803.21
489.578	14049.08
489.948	14131.11
490.318	14452.91
490.688	14455.17
491.058	14702.17
491.428	14895.61
491.798	14958.89
492.168	15378.54
492.538	15349.84
492.908	15564.07
493.278	15780.33
493.648	15799.32
494.017	16016.94
494.387	16122.92
494.757	16262.58
495.126	16406.31
495.496	16492.41
495.866	16635.68
496.235	16872.51
496.605	16914.99
496.974	17048.77
497.344	17295.1
497.713	17399.05
498.082	17562.21
498.452	17745.48
498.821	17756.78
499.19	17776.67
499.559	17978.69
499.928	18206.94
500.298	18232.7
500.667	18427.72
501.036	18422.75
501.405	18722.86
501.774	18709.97
502.143	18860.7
502.512	18895.96
502.88	19169.85
503.249	19154.71
503.618	19283.07
503.987	19452.1
504.356	19647.8
504.724	19703.62
505.093	19777.29
505.462	19970.73
505.83	20000.11
506.199	20123.5
506.567	20503.37
506.936	20391.29
507.304	20781.78
507.672	20802.35
508.041	20810.94
508.409	21119.63
508.777	21194.88
509.145	21424.03
509.514	21490.47
509.882	21645.04
510.25	21747.41
510.618	21868.54
510.986	22073.05
511.354	22233.95
511.722	22426.03
512.09	22639.36
512.458	22734.95
512.826	22856.76
513.193	22968.39
513.561	23068.73
513.929	23286.8
514.297	23544.88
514.664	23718.2
515.032	23762.5
515.4	23975.37
515.767	24098.31
516.135	24235.7
516.502	24135.82
516.869	24687.67
517.237	24707.56
517.604	24762.24
517.972	25071.16
518.339	25265.28
518.706	25341.66
519.073	25482.9
519.44	25704.14
519.808	25977.13
520.175	26002.66
520.542	26405.14
520.909	26517
521.276	26538.69
521.643	26847.16
522.009	27136.87
522.376	27117.44
522.743	27432.68
523.11	27641.72
523.477	28006.45
523.843	28072.67
524.21	28326.22
524.577	28541.35
524.943	28718.98
525.31	28919.65
525.676	29156.93
526.043	29408.9
526.409	29543.81
526.776	29904.48
527.142	29974.08
527.508	30027.87
527.874	30332.04
528.241	30544.47
528.607	30591.47
528.973	30886.83
529.339	31059.25
529.705	31282.98
530.071	31632.57
530.437	31707.6
530.803	31930.87
531.169	32076.63
531.535	32050.87
531.901	32263.74
532.267	32467.8
532.632	32691.98
532.998	32809.26
533.364	32976.49
533.73	33068.69
534.095	33403.83
534.461	33439.3
534.826	33733.99
535.192	33740.99
535.557	34198.15
535.923	34089.68
536.288	34398.38
536.653	34449.45
537.019	34389.56
537.384	34577.81
537.749	34759.04
538.114	34832.71
538.479	34935.54
538.845	35200.84
539.21	35036.32
539.575	35315.19
539.94	35398.35
540.305	35768.51
540.67	35648.74
541.034	35918.79
541.399	35926.7
541.764	36221.38
542.129	36333.47
542.494	36407.36
542.858	36483.29
543.223	36713.79
543.587	36851.19
543.952	36916.28
544.316	37051.64
544.681	37096.16
545.045	37214.35
545.41	37583.83
545.774	37555.35
546.138	37647.78
546.503	37881
546.867	37781.11
547.231	38247.54
547.595	38160.08
547.959	38272.17
548.324	38393.75
548.688	38547.42
549.052	38805.72
549.416	38973.17
549.779	38926.62
550.143	39198.47
550.507	39302.88
550.871	39481.41
551.235	39573.15
551.599	39759.14
551.962	39874.84
552.326	39992.58
552.689	40239.13
553.053	39996.19
553.417	40292.68
553.78	40810.86
554.143	40696.97
554.507	40881.14
554.87	41022.16
555.234	41330.17
555.597	41148.25
555.96	41516.15
556.323	41846.09
556.686	41802.02
557.05	42064.84
557.413	42108.91
557.776	42246.76
558.139	42596.13
558.502	42642
558.865	42874.76
559.228	43114.53
559.59	43201.53
559.953	43404.47
560.316	43804.23
560.679	43807.85
561.041	44118.12
561.404	44342.97
561.767	44602.4
562.129	44398.34
562.492	44853.69
562.854	44810.98
563.217	44842.85
563.579	45256.85
563.941	45480.57
564.304	45661.13
564.666	45937.28
565.028	45947.45
565.39	46091.4
565.753	46392.64
566.115	46507.66
566.477	46576.81
566.839	46834.88
567.201	47165.5
567.563	47026.29
567.925	47446.62
568.287	47434.87
568.648	47529.1
569.01	47810.9
569.372	48016.55
569.734	47964.12
570.095	48217.67
570.457	48407.05
570.819	48479.13
571.18	48552.35
571.542	48790.77
571.903	48676.64
572.265	48866.92
572.626	48893.59
572.987	49198.89
573.349	49212.9
573.71	49446.79
574.071	49469.39
574.432	49664.87
574.794	49919.55
575.155	49929.04
575.516	49792.55
575.877	50061.92
576.238	50116.83
576.599	50222.82
576.96	50303.95
577.32	50323.38
577.681	50429.37
578.042	50407.45
578.403	50465.75
578.763	50503.04
579.124	50541.45
579.485	50673.65
579.845	50778.96
580.206	50687.66
580.566	50748.91
580.927	50799.53
581.287	50960.88
581.648	50804.72
582.008	50987.09
582.368	50880.65
582.728	50990.93
583.089	50940.31
583.449	50955.45
583.809	50963.82
584.169	51138.5
584.529	51048.33
584.889	51295.33
585.249	51056.02
585.609	51052.4
585.969	51206.97
586.329	51174.43
586.688	51205.62
587.048	51115.9
587.408	51001.78
587.768	51164.71
588.127	51114.09
588.487	51070.25
588.846	51369
589.206	51174.21
589.565	51151.61
589.925	51366.97
590.284	51298.95
590.643	51208.33
591.003	51378.04
591.362	51389.79
591.721	51250.36
592.08	51289.91
592.44	51400.19
592.799	51445.84
593.158	51281.77
593.517	51305.95
593.876	51427.31
594.235	51347.53
594.593	51329
594.952	51398.38
595.311	51283.81
595.67	51368.55
596.029	51629.11
596.387	51640.18
596.746	51626.4
597.104	51513.86
597.463	51587.98
597.822	51623.91
598.18	51396.8
598.538	51450.36
598.897	51764.02
599.255	51429.34
599.613	51894.86
599.972	51720.86
600.33	51685.6
600.688	51663.68
601.046	51785.49
601.404	51919.04
601.762	51769.67
602.12	51932.15
602.478	51842.44
602.836	51865.94
603.194	51697.36
603.552	51870.23
603.91	51751.37
604.268	51990.91
604.625	51883.79
604.983	51935.99
605.341	51851.25
605.698	52027.52
606.056	52106.84
606.413	52075.88
606.771	52146.61
607.128	52199.94
607.485	52184.35
607.843	52192.48
608.2	52258.24
608.557	52316.77
608.914	52297.57
609.272	52408.07
609.629	52380.05
609.986	52564.45
610.343	52475.41
610.7	52646.03
611.057	52565.81
611.414	52560.84
611.771	52653.94
612.127	52730.77
612.484	52729.19
612.841	52795.41
613.198	52729.64
613.554	52645.13
613.911	52854.84
614.267	52792.92
614.624	52805.35
614.98	52914.95
615.337	53054.16
615.693	52991.56
616.05	52942.97
616.406	53101.16
616.762	52945.46
617.118	52955.85
617.475	53019.35
617.831	53109.07
618.187	53128.73
618.543	53101.39
618.899	53248.5
619.255	53237.65
619.611	53106.36
619.967	53300.93
620.323	53315.62
620.678	53221.38
621.034	53097.77
621.39	53153.14
621.746	53220.71
622.101	53473.58
622.457	53183.19
622.812	53281.04
623.168	53237.65
623.523	53227.71
623.879	53311.78
624.234	53155.85
624.589	53239.91
624.945	53290.31
625.3	53289.63
625.655	53270.65
626.01	53286.69
626.365	53307.48
626.72	53235.62
627.075	53192.01
627.43	53252.12
627.785	53086.25
628.14	53185.9
628.495	53243.3
628.85	53090.54
629.205	53012.8
629.559	53262.29
629.914	52992.46
630.269	53016.42
630.623	53076.53
630.978	52883.31
631.332	53049.41
631.687	52978.68
632.041	52937.1
632.396	53035.17
632.75	52808.06
633.104	52876.08
633.459	52773.49
633.813	52633.83
634.167	52721.28
634.521	52625.47
634.875	52714.05
635.229	52733.94
635.583	52507.96
635.937	52472.7
636.291	52395.42
636.645	52458.24
636.999	52334.63
637.352	52399.71
637.706	52250.56
638.06	52362.65
638.413	52284.01
638.767	52160.85
639.121	52266.38
639.474	52017.57
639.828	52052.6
640.181	52137.8
640.534	52129.21
640.888	51939.61
641.241	51792.72
641.594	51830.01
641.947	51933.96
642.301	51903.23
642.654	51859.84
643.007	51646.28
643.36	51821.65
643.713	51666.62
644.066	51825.71
644.419	51381.88
644.771	51005.17
645.124	50602.02
645.477	50599.76
645.83	50478.86
646.182	50437.73
646.535	50448.8
646.888	50645.18
647.24	50465.98
647.593	50809.47
647.945	50675.69
648.298	50356.37
648.65	50441.8
649.002	50296.49
649.355	50310.27
649.707	50212.87
650.059	50067.79
650.411	50556.14
650.763	50716.82
651.115	50960.88
651.467	50969.46
651.819	50900.54
652.171	50673.2
652.523	50663.94
652.875	50621
653.227	50417.16
653.578	50860.99
653.93	50632.3
654.282	50456.71
654.633	50581
654.985	50476.82
655.337	50515.01
655.688	50379.65
656.039	50572.19
656.391	50190.28
656.742	50215.36
657.094	50242.48
657.445	50332.65
657.796	50172.88
658.147	50184.17
658.498	50117.74
658.849	50209.48
659.2	50151.41
659.551	50068.25
659.902	50058.3
660.253	50074.35
660.604	50007.68
660.955	49893.34
661.306	50024.18
661.656	49983.05
662.007	49966.1
662.358	49886.1
662.708	49756.62
663.059	49907.12
663.409	49649.27
663.76	49896.72
664.11	49913.22
664.461	49886.56
664.811	49761.36
665.161	49873.67
665.511	49736.28
665.862	49738.54
666.212	49627.58
666.562	49704.19
666.912	49599.56
667.262	49628.48
667.612	49606.79
667.962	49606.34
668.312	49563.63
668.662	49673.91
669.011	49539.67
669.361	49445.44
669.711	49381.94
670.06	49299.45
670.41	49221.04
670.76	49186.46
671.109	49461.48
671.459	49252.22
671.808	49255.16
672.157	49217.87
672.507	48979.91
672.856	48994.83
673.205	49100.14
673.554	49101.94
673.904	48965.45
674.253	49168.61
674.602	49162.96
674.951	48497.44
675.3	48339.03
675.649	48763.65
675.998	48886.81
676.346	48895.85
676.695	48962.74
677.044	48653.14
677.393	48851.78
677.741	48901.27
678.09	48684.78
678.438	48633.71
678.787	48758.9
679.135	48652.92
679.484	48373.15
679.832	48558.91
680.181	48226.94
680.529	48429.19
680.877	48307.39
681.225	48258.8
681.573	48335.64
681.922	48133.83
682.27	48040.5
682.618	48047.51
682.966	47987.4
683.314	47931.35
683.661	47746.95
684.009	47722.32
684.357	47563.45
684.705	47633.73
685.053	47543.57
685.4	47475.55
685.748	47276.23
686.095	47294.08
686.443	47138.38
686.79	47020.19
687.138	47043.24
687.485	47054.99
687.832	46833.98
688.18	46963.47
688.527	46716.47
688.874	46715.11
689.221	46480.32
689.568	46328.91
689.915	46251.62
690.262	46235.13
690.609	46100.21
690.956	46147.9
691.303	45974.57
691.65	45828.36
691.997	45859.77
692.344	45523.73
692.69	45521.92
693.037	45478.08
693.383	45211.2
693.73	45382.49
694.077	45101.37
694.423	44950.64
694.769	44962.17
695.116	44879.23
695.462	44702.74
695.808	44617.99
696.155	44653.47
696.501	44438.34
696.847	44404.44
697.193	44076.54
697.539	44234.73
697.885	43985.24
698.231	43889.2
698.577	43844.23
698.923	43727.17
699.269	43569.89
699.614	43456.44
699.96	43290.12
700.306	43272.27
700.651	43201.08
700.997	43116.11
701.342	42903.69
701.688	42792.96
702.033	42561.55
702.379	42724.94
702.724	42462.57
703.069	42456.69
703.415	42140.77
703.76	42019.64
704.105	42046.99
704.45	42033.65
704.795	41667.56
705.14	41662.14
705.485	41738.07
705.83	41551.86
706.175	41489.26
706.52	41394.8
706.865	41286.1
707.209	41228.93
707.554	40907.58
707.899	41000.46
708.243	40753.91
708.588	40958.65
708.932	40508.72
709.277	40471.44
709.621	40603.41
709.966	40132.69
710.31	40412.68
710.654	39984.22
710.998	40126.36
711.342	40100.82
711.687	39948.29
712.031	39703.55
712.375	39678.69
712.719	39722.3
713.063	39535.87
713.407	39731.12
713.75	39328.64
714.094	39377.91
714.438	39290
714.782	39205.93
715.125	38999.84
715.469	39107.86
715.812	38756.23
716.156	38690.24
716.499	38636.46
716.843	38694.76
717.186	38378.38
717.53	38718.71
717.873	38667.19
718.216	38452.51
718.559	38233.75
718.902	38055.23
719.246	38120.54
719.589	38064.95
719.932	37830.15
720.275	37834.22
720.617	37798.96
720.96	37758.29
721.303	37778.17
721.646	37642.36
721.989	37453.66
722.331	37577.27
722.674	37485.53
723.016	37515.58
723.359	37308.58
723.701	37331.18
724.044	37021.58
724.386	36905.43
724.729	37130.05
725.071	37012.54
725.413	36948.36
725.755	36904.52
726.097	36707.02
726.439	36627.02
726.782	36681.03
727.124	36689.16
727.465	36387.48
727.807	36408.04
728.149	36360.13
728.491	36417.31
728.833	36216.63
729.175	36145.45
729.516	36109.52
729.858	36076.3
730.199	36142.06
730.541	35901.16
730.882	35836.3
731.224	36097.09
731.565	35740.71
731.906	35695.06
732.248	35689.64
732.589	35568.51
732.93	35408.07
733.271	35314.51
733.612	35416.65
733.953	35408.07
734.294	35354.06
734.635	35196.32
734.976	35278.8
735.317	35052.82
735.658	35075.87
735.999	34933.95
736.339	34856.89
736.68	34930.34
737.021	34771.25
737.361	34644.47
737.702	34875.88
738.042	34651.02
738.383	34614.41
738.723	34694.19
739.063	34599.95
739.404	34427.53
739.744	34552.72
740.084	34293.97
740.424	34331.03
740.764	34213.52
741.104	34326.06
741.444	33980.31
741.784	34005.84
742.124	34138.27
742.464	33895.34
742.804	33856.69
743.143	33780.31
743.483	33692.41
743.823	33745.96
744.162	33559.53
744.502	33707.32
744.841	33437.04
745.181	33564.27
745.52	33470.94
745.86	33548.91
746.199	33367.44
746.538	33178.07
746.877	33289.03
747.216	33178.97
747.556	33083.61
747.895	33100.56
748.234	32882.26
748.573	32980.11
748.911	32755.48
749.25	32699.21
749.589	32607.91
749.928	32541.25
750.267	32608.14
750.605	32546.22
750.944	32473.45
751.283	32302.16
751.621	32391.87
751.96	32077.08
752.298	32202.95
752.636	32258.54
752.975	32044.09
