Data from foil_FLMS001491_091.txt Node
Date: Tue Feb 07 11:37:32 GMT 2017
User: dcchb
Spectrometer: FLMS00149
Trigger mode: 0
Integration Time (sec): 2.000000E-2
Scans to average: 10
Electric dark correction enabled: true
Nonlinearity correction enabled: false
Boxcar width: 0
XAxis mode: Wavelengths
Number of Pixels in Spectrum: 2048
>>>>>Begin Spectral Data<<<<<
341.393	-7.23
341.776	-7.23
342.16	-7.23
342.543	-46.33
342.927	-61.24
343.31	-44.07
343.693	-48.59
344.077	-81.35
344.46	-61.47
344.843	-56.95
345.226	-54.01
345.61	-47.23
345.993	-32.54
346.376	-1.81
346.759	24.41
347.142	40.9
347.525	35.93
347.908	52.65
348.291	58.08
348.674	92.65
349.057	123.39
349.44	124.74
349.823	155.93
350.206	173.33
350.588	236.15
350.971	275.7
351.354	277.96
351.737	274.34
352.119	319.77
352.502	327.68
352.884	336.26
353.267	348.01
353.65	323.16
354.032	373.78
354.414	363.15
354.797	349.37
355.179	371.06
355.562	395.92
355.944	393.66
356.326	406.32
356.709	408.8
357.091	390.05
357.473	423.04
357.855	423.49
358.238	423.72
358.62	425.75
359.002	414
359.384	419.65
359.766	424.85
360.148	422.14
360.53	404.06
360.912	426.88
361.294	431.4
361.676	412.19
362.057	406.09
362.439	422.81
362.821	416.71
363.203	415.58
363.584	430.05
363.966	418.52
364.348	442.25
364.729	418.75
365.111	409.93
365.493	425.53
365.874	418.29
366.256	429.37
366.637	421.68
367.019	397.5
367.4	447.22
367.781	446.77
368.163	433.66
368.544	433.21
368.925	445.64
369.306	442.93
369.688	446.09
370.069	434.11
370.45	439.08
370.831	450.38
371.212	443.6
371.593	472.53
371.974	441.8
372.355	463.04
372.736	461.68
373.117	486.09
373.498	444.06
373.879	436.37
374.26	464.39
374.641	459.42
375.021	455.58
375.402	499.65
375.783	512.98
376.163	526.99
376.544	507.33
376.925	507.33
377.305	512.98
377.686	519.76
378.066	520.21
378.447	506.2
378.827	533.32
379.208	534.22
379.588	532.19
379.968	531.29
380.349	544.39
380.729	538.52
381.109	534.9
381.489	557.5
381.87	546.2
382.25	576.93
382.63	586.43
383.01	579.19
383.39	565.86
383.77	577.39
384.15	606.54
384.53	605.86
384.91	597.27
385.29	611.06
385.67	603.15
386.049	638.18
386.429	630.04
386.809	630.72
387.189	628.46
387.568	666.42
387.948	652.19
388.328	683.82
388.707	651.73
389.087	679.08
389.466	704.39
389.846	711.62
390.225	706.65
390.605	692.64
390.984	709.36
391.363	750.49
391.743	731.73
392.122	752.3
392.501	787.32
392.881	752.97
393.26	770.83
393.639	799.75
394.018	776.7
394.397	815.8
394.776	794.33
395.155	846.31
395.534	840.66
395.913	833.88
396.292	856.93
396.671	845.18
397.05	875.46
397.429	882.24
397.808	861.9
398.186	857.83
398.565	891.05
398.944	889.69
399.323	906.87
399.701	920.43
400.08	921.56
400.458	943.93
400.837	967.66
401.215	956.13
401.594	970.6
401.972	959.52
402.351	997.49
402.729	977.6
403.107	983.25
403.486	1022.12
403.864	1027.09
404.242	1027.77
404.62	1052.18
404.999	1064.15
405.377	1085.85
405.755	1100.31
406.133	1105.73
406.511	1114.32
406.889	1119.52
407.267	1138.05
407.645	1150.7
408.023	1194.32
408.401	1205.39
408.779	1208.78
409.156	1225.28
409.534	1237.48
409.912	1243.58
410.29	1283.36
410.667	1288.55
411.045	1317.03
411.422	1355.44
411.8	1312.96
412.178	1357.25
412.555	1385.27
412.933	1413.75
413.31	1417.14
413.687	1437.7
414.065	1433.63
414.442	1456.01
414.819	1474.54
415.197	1529.45
415.574	1525.84
415.951	1537.13
416.328	1576.91
416.705	1549.11
417.082	1580.98
417.46	1589.56
417.837	1645.38
418.214	1637.25
418.591	1664.14
418.967	1674.76
419.344	1690.35
419.721	1711.14
420.098	1698.26
420.475	1743.91
420.852	1748.88
421.228	1761.54
421.605	1816
421.982	1800.4
422.358	1815.32
422.735	1830.23
423.111	1819.16
423.488	1887.63
423.864	1887.86
424.241	1920.4
424.617	1954.07
424.994	1958.82
425.37	1975.77
425.746	1991.13
426.123	2004.69
426.499	2021.19
426.875	2076.1
427.251	2113.16
427.627	2129.21
428.003	2159.72
428.379	2206.27
428.756	2205.59
429.132	2213.28
429.507	2288.08
429.883	2310.45
430.259	2333.27
430.635	2393.84
431.011	2398.13
431.387	2440.16
431.763	2483.78
432.138	2491.23
432.514	2489.65
432.89	2550.22
433.265	2631.57
433.641	2639.93
434.016	2674.05
434.392	2723.09
434.767	2788.18
435.143	2745.01
435.518	2787.05
435.894	2815.07
436.269	2841.28
436.644	2886.48
437.02	2901.39
437.395	2932.35
437.77	2948.4
438.145	3036.98
438.52	3056.19
438.895	3113.36
439.271	3079.92
439.646	3160.59
440.021	3184.78
440.395	3199.69
440.77	3176.87
441.145	3241.27
441.52	3304.32
441.895	3287.15
442.27	3314.04
442.645	3344.09
443.019	3383.19
443.394	3349.29
443.769	3432.68
444.143	3404.2
444.518	3493.02
444.892	3519.68
445.267	3543.18
445.641	3540.7
446.016	3549.51
446.39	3615.5
446.764	3622.28
447.139	3593.35
447.513	3657.98
447.887	3695.5
448.262	3712.22
448.636	3679.23
449.01	3759.68
449.384	3783.63
449.758	3803.29
450.132	3921.03
450.506	3905.21
450.88	3871.76
451.254	3964.19
451.628	4005.09
452.002	3993.79
452.376	4062.72
452.75	4137.97
453.123	4173.45
453.497	4200.57
453.871	4210.51
454.244	4389.26
454.618	4382.48
454.992	4431.97
455.365	4453.89
455.739	4568.69
456.112	4591.29
456.486	4651.4
456.859	4654.11
457.232	4760.78
457.606	4734.11
457.979	4854.11
458.352	4952.41
458.725	4967.78
459.099	5030.83
459.472	5141.56
459.845	5139.98
460.218	5218.62
460.591	5302.69
460.964	5321.22
461.337	5481.44
461.71	5524.6
462.083	5609.8
462.456	5631.94
462.829	5651.83
463.201	5753.75
463.574	5742.9
463.947	5864.48
464.32	6011.14
464.692	6058.37
465.065	6067.41
465.438	6173.62
465.81	6248.2
466.183	6287.29
466.555	6487.29
466.928	6520.73
467.3	6566.83
467.672	6639.83
468.045	6743.55
468.417	6771.8
468.789	6873.94
469.161	6925.69
469.534	7076.42
469.906	7291.79
470.278	7307.38
470.65	7356.87
471.022	7457.88
471.394	7625.56
471.766	7687.48
472.138	7792.34
472.51	7957.76
472.882	8121.59
473.253	8206.56
473.625	8309.84
473.997	8495.37
474.369	8487.46
474.74	8590.28
475.112	8874.57
475.484	8967.45
475.855	9098.52
476.227	9254.67
476.598	9397.72
476.97	9541.67
477.341	9732.85
477.713	9923.13
478.084	9966.29
478.455	10210.35
478.827	10278.6
479.198	10607.18
479.569	10601.53
479.94	10895.53
480.311	10959.94
480.682	11278.12
481.053	11469.98
481.424	11653.48
481.795	11758.11
482.166	12069.06
482.537	12165.1
482.908	12448.03
483.279	12504.76
483.65	12857.74
484.021	12989.49
484.391	13206.21
484.762	13289.82
485.133	13472.64
485.503	13678.06
485.874	13995.11
486.244	14047.54
486.615	14264.94
486.985	14476.91
487.356	14767.75
487.726	14919.83
488.097	15159.15
488.467	15208.64
488.837	15508.52
489.207	15673.03
489.578	15929.07
489.948	16079.8
490.318	16292.45
490.688	16374.03
491.058	16642.27
491.428	16949.84
491.798	17009.27
492.168	17429.37
492.538	17460.11
492.908	17567.22
493.278	17897.61
493.648	17929.25
494.017	18225.06
494.387	18363.13
494.757	18526.07
495.126	18626.63
495.496	18774.2
495.866	18886.96
496.235	19140.74
496.605	19373.95
496.974	19392.94
497.344	19526.04
497.713	19741.63
498.082	19856.88
498.452	20119.24
498.821	20200.15
499.19	20185.68
499.559	20478.56
499.928	20601.04
500.298	20797.19
500.667	21017.98
501.036	20984.76
501.405	21138.65
501.774	21158.54
502.143	21463.39
502.512	21576.16
502.88	21754.46
503.249	21704.74
503.618	21912.64
503.987	22036.03
504.356	22136.82
504.724	22391.05
505.093	22454.55
505.462	22565.73
505.83	22780.87
506.199	23017.7
506.567	23167.3
506.936	23195.77
507.304	23510.34
507.672	23679.15
508.041	23696.78
508.409	23900.61
508.777	24039.59
509.145	24340.38
509.514	24345.12
509.882	24438.45
510.25	24653.14
510.618	24838.44
510.986	24926.35
511.354	25106.91
511.722	25380.58
512.09	25585.54
512.458	25513.68
512.826	25755.71
513.193	26007.68
513.561	26108.01
513.929	26218.52
514.297	26576.7
514.664	26649.92
515.032	26847.43
515.4	27115.9
515.767	27110.25
516.135	27433.85
516.502	27294.65
516.869	27827.97
517.237	27948.42
517.604	27812.15
517.972	28316.54
518.339	28542.3
518.706	28514.96
519.073	28808.73
519.44	28904.78
519.808	29153.58
520.175	29193.81
520.542	29652.33
520.909	29870.18
521.276	29817.3
521.643	30234.01
522.009	30517.39
522.376	30659.31
522.743	30866.76
523.11	31139.07
523.477	31338.61
523.843	31551.71
524.21	31897.47
524.577	32136.56
524.943	32204.12
525.31	32558.24
525.676	32831
526.043	32919.13
526.409	33186.25
526.776	33457.88
527.142	33636.4
527.508	33727.7
527.874	34144.86
528.241	34229.83
528.607	34375.82
528.973	34688.35
529.339	34799.54
529.705	35213.31
530.071	35363.36
530.437	35436.58
530.803	35621.89
531.169	35861.2
531.535	35971.71
531.901	36004.03
532.267	36263.23
532.632	36658.02
532.998	36706.38
533.364	36831.35
533.73	37043.09
534.095	37391.33
534.461	37334.61
534.826	37603.31
535.192	37726.24
535.557	38038.1
535.923	37817.08
536.288	38101.82
536.653	38378.43
537.019	38305.89
537.384	38633.56
537.749	38754.01
538.114	38859.09
538.479	38930.5
538.845	39109.71
539.21	39022.25
539.575	39431.96
539.94	39422.24
540.305	39680.31
540.67	39677.6
541.034	39822.46
541.399	39944.03
541.764	40071.49
542.129	40167.08
542.494	40261.09
542.858	40503.34
543.223	40461.99
543.587	40738.82
543.952	40819.04
544.316	40918.47
544.681	41084.8
545.045	41245.02
545.41	41475.07
545.774	41585.12
546.138	41512.81
546.503	41652.01
546.867	41811.1
547.231	42138.78
547.595	42198.21
547.959	42230.75
548.324	42461.48
548.688	42462.16
549.052	42669.61
549.416	42736.96
549.779	42756.84
550.143	42996.38
550.507	43192.99
550.871	43390.5
551.235	43397.73
551.599	43684.05
551.962	43711.39
552.326	43865.29
552.689	44176.01
553.053	44012.85
553.417	44062.12
553.78	44532.39
554.143	44487.42
554.507	44745.49
554.87	44867.75
555.234	45257.34
555.597	45122.88
555.96	45174.41
556.323	45476.54
556.686	45405.59
557.05	45689.42
557.413	45803.54
557.776	46182.51
558.139	46374.6
558.502	46409.4
558.865	46522.39
559.228	46904.76
559.59	46841.25
559.953	47030.85
560.316	47387.68
560.679	47326.67
561.041	47455.7
561.404	47889.81
561.767	48038.51
562.129	48027.44
562.492	48321.22
562.854	48357.37
563.217	48354.89
563.579	48637.14
563.941	48780.64
564.304	49042.55
564.666	49135.88
565.028	49279.16
565.39	49412.94
565.753	49512.14
566.115	49662.2
566.477	49775.87
566.839	49917.56
567.201	50049.08
567.563	50153.71
567.925	50407.94
568.287	50513.47
568.648	50544.43
569.01	50791.21
569.372	51048.83
569.734	50887.48
570.095	51168.15
570.457	51252.44
570.819	51306.22
571.18	51473.45
571.542	51480
571.903	51595.03
572.265	51718.87
572.626	51885.19
572.987	51890.39
573.349	51947.11
573.71	52005.41
574.071	52269.81
574.432	52241.11
574.794	52490.6
575.155	52437.27
575.516	52503.7
575.877	52524.95
576.238	52517.49
576.599	52627.77
576.96	52692.63
577.32	52655.79
577.681	52874.32
578.042	52895.56
578.403	52987.08
578.763	52959.06
579.124	53044.48
579.485	53132.16
579.845	53178.04
580.206	53189.34
580.566	53153.4
580.927	53160.64
581.287	53282.44
581.648	53148.21
582.008	53352.72
582.368	53236.57
582.728	53255.55
583.089	53277.7
583.449	53310.91
583.809	53332.61
584.169	53377.13
584.529	53301.2
584.889	53528.76
585.249	53286.06
585.609	53288.09
585.969	53515.66
586.329	53395.43
586.688	53431.82
587.048	53400.18
587.408	53357.02
587.768	53364.92
588.127	53380.29
588.487	53347.52
588.846	53610.79
589.206	53286.96
589.565	53348.65
589.925	53550.46
590.284	53430.46
590.643	53398.82
591.003	53514.3
591.362	53547.52
591.721	53514.53
592.08	53504.36
592.44	53569.66
592.799	53545.94
593.158	53449.89
593.517	53373.74
593.876	53488.54
594.235	53436.11
594.593	53454.64
594.952	53524.47
595.311	53426.62
595.67	53558.14
596.029	53742.99
596.387	53736.67
596.746	53743.45
597.104	53608.99
597.463	53618.03
597.822	53827.29
598.18	53648.76
598.538	53659.38
598.897	53790
599.255	53536.9
599.613	53942.31
599.972	53722.66
600.33	53771.47
600.688	53644.24
601.046	53796.1
601.404	53943.44
601.762	53782.77
602.12	53972.37
602.478	53921.52
602.836	53867.96
603.194	53826.61
603.552	53846.04
603.91	53897.34
604.268	53973.95
604.625	53859.6
604.983	54063.21
605.341	53977.79
605.698	54037
606.056	54113.61
606.413	54103.89
606.771	54109.31
607.128	54240.38
607.485	54074.28
607.843	54117.67
608.2	54290.78
608.557	54298.69
608.914	54280.15
609.272	54370.1
609.629	54394.95
609.986	54459.36
610.343	54305.01
610.7	54540.94
611.057	54444.22
611.414	54459.81
611.771	54473.37
612.127	54509.98
612.484	54510.43
612.841	54618.9
613.198	54524.67
613.554	54563.09
613.911	54725.79
614.267	54765.79
614.624	54725.11
614.98	54729.86
615.337	54858.22
615.693	54744.32
616.05	54715.85
616.406	54891.21
616.762	54723.08
617.118	54832.46
617.475	54867.48
617.831	54931.44
618.187	54862.51
618.543	54857.54
618.899	55040.81
619.255	55040.81
619.611	54931.89
619.967	55030.42
620.323	55012.56
620.678	54938.89
621.034	54894.38
621.39	54867.71
621.746	54811.67
622.101	55159.68
622.457	54982.51
622.812	54919.91
623.168	55006.92
623.523	54963.07
623.879	55122.84
624.234	54949.74
624.589	55007.14
624.945	55003.53
625.3	55075.16
625.655	55023.41
626.01	55014.15
626.365	54994.03
626.72	54988.61
627.075	54973.47
627.43	54921.95
627.785	54848.95
628.14	54917.43
628.495	54993.36
628.85	54796.98
629.205	54844.21
629.559	54983.86
629.914	54806.47
630.269	54787.03
630.623	54757.43
630.978	54605.34
631.332	54763.08
631.687	54757.2
632.041	54640.82
632.396	54649.41
632.75	54506.82
633.104	54600.6
633.459	54482.86
633.813	54451
634.167	54382.75
634.521	54421.39
634.875	54441.28
635.229	54356.08
635.583	54201.74
635.937	54227.5
636.291	54214.39
636.645	54174.62
636.999	54119.48
637.352	54166.03
637.706	54035.87
638.06	54091.23
638.413	53987.06
638.767	53959.49
639.121	54072.48
639.474	53753.16
639.828	53872.03
640.181	53803.33
640.534	53762.88
640.888	53615.54
641.241	53562.89
641.594	53568.76
641.947	53664.35
642.301	53509.78
642.654	53467.97
643.007	53486.28
643.36	53380.52
643.713	53357.47
644.066	53377.13
644.419	53165.83
644.771	52982.79
645.124	52591.39
645.477	52505.51
645.83	52374.67
646.182	52255.58
646.535	52249.7
646.888	52289.7
647.24	52157.72
647.593	52250.83
647.945	52216.48
648.298	52043.38
648.65	51908.69
649.002	51809.03
649.355	51962.93
649.707	51824.85
650.059	51950.27
650.411	52320.66
650.763	52343.26
651.115	52691.27
651.467	52469.13
651.819	52437.49
652.171	52496.47
652.523	52304.84
652.875	52340.32
653.227	52210.83
653.578	52404.5
653.93	52353.2
654.282	52205.41
654.633	52166.54
654.985	52197.95
655.337	52127.89
655.688	52115.01
656.039	52176.93
656.391	51884.96
656.742	51919.09
657.094	51965.87
657.445	52019.42
657.796	51989.14
658.147	51752.76
658.498	51803.16
658.849	51891.97
659.2	51745.98
659.551	51686.78
659.902	51790.5
660.253	51609.04
660.604	51750.28
660.955	51630.96
661.306	51684.06
661.656	51677.74
662.007	51508.02
662.358	51520.91
662.708	51449.95
663.059	51481.58
663.409	51124.31
663.76	51501.47
664.11	51378.54
664.461	51390.29
664.811	51321.36
665.161	51390.74
665.511	51296.05
665.862	51287.69
666.212	51360.91
666.562	51370.17
666.912	51165.43
667.262	51137.19
667.612	51122.72
667.962	51185.77
668.312	51089.73
668.662	51228.26
669.011	51188.48
669.361	51045.44
669.711	51084.98
670.06	50929.96
670.41	50873.01
670.76	50847.48
671.109	50884.09
671.459	50807.03
671.808	50777.2
672.157	50828.49
672.507	50634.6
672.856	50605.9
673.205	50774.26
673.554	50822.62
673.904	50617.65
674.253	50792.11
674.602	50718.21
674.951	50144.9
675.3	49977.44
675.649	50459.01
675.998	50355.06
676.346	50400.03
676.695	50497.88
677.044	50286.36
677.393	50299.02
677.741	50337.89
678.09	50241.84
678.438	50191.22
678.787	50252.24
679.135	50131.79
679.484	49961.17
679.832	50013.37
680.181	49950.33
680.529	49807.28
680.877	49794.62
681.225	49709.2
681.573	49954.62
681.922	49667.85
682.27	49501.3
682.618	49524.8
682.966	49425.59
683.314	49467.63
683.661	49386.05
684.009	49124.36
684.357	48985.15
684.705	49097.24
685.053	49112.38
685.4	48916
685.748	48803.24
686.095	48782.45
686.443	48658.16
686.79	48505.84
687.138	48604.6
687.485	48511.72
687.832	48438.5
688.18	48411.38
688.527	48110.15
688.874	48008.23
689.221	48144.5
689.568	47854.56
689.915	47895.92
690.262	47809.14
690.609	47574.12
690.956	47571.63
691.303	47479.2
691.65	47405.31
691.997	47284.18
692.344	47105.43
692.69	46991.76
693.037	47108.59
693.383	46755.83
693.73	46721.26
694.077	46633.8
694.423	46545.44
694.769	46304.32
695.116	46312.68
695.462	46158.56
695.808	45904.78
696.155	46022.29
696.501	45792.92
696.847	45764.22
697.193	45386.83
697.539	45523.32
697.885	45256.89
698.231	45173.5
698.577	45135.99
698.923	44986.16
699.269	44873.85
699.614	44572.16
699.96	44577.58
700.306	44569.45
700.651	44317.48
700.997	44259.18
701.342	44152.96
701.688	44176.92
702.033	43898.05
702.379	43970.37
702.724	43720.43
703.069	43823.71
703.415	43206.32
703.76	43340.33
704.105	43310.73
704.45	43162.03
704.795	43025.99
705.14	42984.18
705.485	42863.96
705.83	42784.19
706.175	42659.9
706.52	42532.89
706.865	42476.4
707.209	42334.25
707.554	42107.14
707.899	42391.2
708.243	41866.02
708.588	41932
708.932	41767.49
709.277	41793.93
709.621	41743.31
709.966	41343.77
710.31	41436.88
710.654	41171.8
710.998	41323.21
711.342	41316.2
711.687	41072.14
712.031	40935.19
712.375	40797.12
712.719	40763.67
713.063	40746.5
713.407	40793.73
713.75	40496.11
714.094	40579.72
714.438	40377.02
714.782	40346.96
715.125	40125.27
715.469	40050.92
715.812	39836.01
716.156	39800.08
716.499	39767.32
716.843	39790.14
717.186	39477.38
717.53	39560.99
717.873	39597.83
718.216	39487.78
718.559	39388.79
718.902	39149.48
719.246	39085.98
719.589	39038.07
719.932	38876.27
720.275	38982.48
720.617	38963.04
720.96	38807.57
721.303	38618.87
721.646	38639.21
721.989	38555.6
722.331	38528.03
722.674	38281.03
723.016	38320.8
723.359	38174.82
723.701	38178.88
724.044	38066.34
724.386	37821.38
724.729	37962.17
725.071	37771.21
725.413	37879.23
725.755	37746.58
726.097	37634.94
726.439	37387.72
726.782	37410.32
727.124	37554.04
727.465	37348.17
727.807	37292.35
728.149	37177.55
728.491	37018.91
728.833	37062.98
729.175	36996.54
729.516	36789.09
729.858	36840.84
730.199	36760.16
730.541	36699.6
730.882	36638.13
731.224	36717
731.565	36503.67
731.906	36566.5
732.248	36487.18
732.589	36312.94
732.93	36065.72
733.271	36074.31
733.612	36099.39
733.953	36155.89
734.294	35868.66
734.635	35763.81
734.976	35888.32
735.317	35562.68
735.658	35673.86
735.999	35679.51
736.339	35583.25
736.68	35557.94
737.021	35429.58
737.361	35249.69
737.702	35390.03
738.042	35314.55
738.383	35178.28
738.723	35235.68
739.063	35015.12
739.404	35223.03
739.744	34931.51
740.084	34849.03
740.424	34887.44
740.764	34810.38
741.104	34828.91
741.444	34664.4
741.784	34482.03
742.124	34578.98
742.464	34482.48
742.804	34445.87
743.143	34377.18
743.483	34324.75
743.823	34165.88
744.162	34056.96
744.502	34083.4
744.841	33972.67
745.181	34083.62
745.52	33809.28
745.86	33792.78
746.199	33731.99
746.538	33695.84
746.877	33635.5
747.216	33494.49
747.556	33505.11
747.895	33401.16
748.234	33277.54
748.573	33235.74
748.911	33188.73
749.25	33225.79
749.589	32933.15
749.928	33025.57
750.267	32901.51
750.605	32952.35
750.944	32810.21
751.283	32712.36
751.621	32724.11
751.96	32422.88
752.298	32430.33
752.636	32470.78
