Data from foil_FLMS001491_016.txt Node
Date: Tue Feb 07 11:25:28 GMT 2017
User: dcchb
Spectrometer: FLMS00149
Trigger mode: 0
Integration Time (sec): 2.000000E-2
Scans to average: 10
Electric dark correction enabled: true
Nonlinearity correction enabled: false
Boxcar width: 0
XAxis mode: Wavelengths
Number of Pixels in Spectrum: 2048
>>>>>Begin Spectral Data<<<<<
341.393	-6.82
341.776	-6.82
342.16	-6.82
342.543	-63.09
342.927	-67.39
343.31	-68.74
343.693	-59.02
344.077	-69.42
344.46	-62.64
344.843	-48.63
345.226	-37.56
345.61	-27.61
345.993	-16.77
346.376	-7.73
346.759	0.18
347.142	34.98
347.525	38.6
347.908	38.37
348.291	79.73
348.674	77.24
349.057	128.99
349.44	128.09
349.823	133.06
350.206	170.35
350.588	234.08
350.971	253.96
351.354	266.17
351.737	265.49
352.119	287.18
352.502	302.77
352.884	314.98
353.267	331.47
353.65	335.32
354.032	348.88
354.414	354.75
354.797	373.51
355.179	397.69
355.562	411.25
355.944	374.19
356.326	401.3
356.709	401.08
357.091	397.24
357.473	428.42
357.855	400.63
358.238	412.6
358.62	388.65
359.002	401.3
359.384	408.53
359.766	404.69
360.148	406.27
360.53	408.08
360.912	414.64
361.294	427.97
361.676	412.83
362.057	402.43
362.439	422.77
362.821	413.96
363.203	415.31
363.584	408.31
363.966	405.6
364.348	395.43
364.729	409.66
365.111	406.73
365.493	424.58
365.874	410.12
366.256	415.09
366.637	417.8
367.019	392.04
367.4	427.52
367.781	424.13
368.163	427.97
368.544	440.85
368.925	433.62
369.306	432.26
369.688	420.51
370.069	447.86
370.45	415.99
370.831	432.49
371.212	446.05
371.593	444.24
371.974	444.47
372.355	457.35
372.736	458.02
373.117	466.61
373.498	467.74
373.879	465.93
374.26	452.6
374.641	470.91
375.021	467.52
375.402	465.26
375.783	472.26
376.163	516.78
376.544	500.28
376.925	503.9
377.305	507.29
377.686	507.06
378.066	495.99
378.447	511.13
378.827	515.88
379.208	520.62
379.588	518.14
379.968	522.43
380.349	537.34
380.729	522.66
381.109	548.19
381.489	557.46
381.87	550.23
382.25	561.3
382.63	557.01
383.01	555.65
383.39	559.49
383.77	562.43
384.15	592.26
384.53	612.6
384.91	607.4
385.29	602.65
385.67	580.51
386.049	617.12
386.429	618.25
386.809	628.64
387.189	637.23
387.568	655.31
387.948	639.04
388.328	651.24
388.707	655.99
389.087	661.86
389.466	671.35
389.846	712.26
390.225	693.05
390.605	702.09
390.984	719.26
391.363	709.77
391.743	735.53
392.122	725.14
392.501	759.03
392.881	754.29
393.26	777.79
393.639	753.61
394.018	778.92
394.397	797.68
394.776	817.11
395.155	792.71
395.534	811.69
395.913	808.75
396.292	820.5
396.671	814.17
397.05	831.57
397.429	832.93
397.808	853.27
398.186	861.86
398.565	874.74
398.944	877.9
399.323	905.7
399.701	886.94
400.08	906.83
400.458	900.5
400.837	926.26
401.215	951.35
401.594	935.07
401.972	958.35
402.351	974.85
402.729	983.21
403.107	975.75
403.486	983.43
403.864	994.51
404.242	1014.17
404.62	1044.45
404.999	1067.5
405.377	1048.52
405.755	1058.01
406.133	1083.77
406.511	1066.37
406.889	1095.07
407.267	1125.8
407.645	1138.23
408.023	1155.41
408.401	1154.5
408.779	1181.4
409.156	1169.87
409.534	1197.21
409.912	1232.47
410.29	1253.48
410.667	1256.65
411.045	1281.28
411.422	1298.45
411.8	1328.96
412.178	1351.56
412.555	1365.12
412.933	1369.19
413.31	1382.52
413.687	1403.54
414.065	1411.22
414.442	1440.15
414.819	1430.43
415.197	1441.5
415.574	1505.23
415.951	1510.2
416.328	1481.5
416.705	1539.35
417.082	1524.89
417.46	1590.65
417.837	1608.5
418.214	1568.05
418.591	1575.74
418.967	1588.16
419.344	1672
419.721	1647.82
420.098	1660.25
420.475	1705.22
420.852	1735.96
421.228	1729.4
421.605	1737.77
421.982	1799.01
422.358	1789.52
422.735	1812.79
423.111	1823.64
423.488	1851.89
423.864	1859.57
424.241	1894.15
424.617	1951.09
424.994	1915.39
425.37	1958.32
425.746	1941.6
426.123	1978.89
426.499	1974.14
426.875	2007.81
427.251	2101.82
427.627	2083.29
428.003	2119.22
428.379	2143.63
428.756	2196.96
429.132	2213.46
429.507	2241.48
429.883	2255.49
430.259	2322.61
430.635	2344.98
431.011	2323.74
431.387	2414.36
431.763	2444.87
432.138	2464.53
432.514	2506.33
432.89	2512.89
433.265	2573.45
433.641	2592.21
434.016	2643.73
434.392	2684.18
434.767	2700.23
435.143	2714.01
435.518	2735.03
435.894	2762.37
436.269	2811.18
436.644	2829.71
437.02	2903.38
437.395	2912.88
437.77	2924.17
438.145	2970.28
438.52	3049.37
438.895	3021.57
439.271	3125.07
439.646	3152.19
440.021	3158.07
440.395	3184.51
440.77	3158.74
441.145	3237.84
441.52	3265.18
441.895	3283.26
442.27	3321.45
442.645	3350.6
443.019	3377.72
443.394	3377.04
443.769	3416.82
444.143	3412.3
444.518	3517.38
444.892	3463.82
445.267	3526.87
445.641	3586.53
446.016	3558.06
446.39	3631.73
446.764	3693.65
447.139	3673.53
447.513	3716.47
447.887	3751.72
448.262	3741.1
448.636	3769.8
449.01	3869.23
449.384	3862.91
449.758	3885.51
450.132	3967.31
450.506	4009.12
450.88	4014.99
451.254	4030.81
451.628	4085.95
452.002	4120.53
452.376	4183.35
452.75	4194.65
453.123	4275.33
453.497	4327.08
453.871	4330.92
454.244	4445.04
454.618	4446.17
454.992	4526.17
455.365	4511.48
455.739	4616.33
456.112	4679.61
456.486	4701.3
456.859	4740.4
457.232	4813.62
457.606	4782.2
457.979	4823.56
458.352	4958.7
458.725	4990.11
459.099	5006.38
459.472	5178.58
459.845	5224.45
460.218	5179.03
460.591	5303.32
460.964	5292.47
461.337	5426.71
461.71	5507.38
462.083	5566.36
462.456	5547.38
462.829	5580.38
463.201	5683.2
463.574	5748.28
463.947	5815.4
464.32	5921.61
464.692	5977.88
465.065	6010.2
465.438	6105.56
465.81	6156.86
466.183	6254.48
466.555	6400.02
466.928	6390.07
467.3	6407.47
467.672	6515.49
468.045	6690.4
468.417	6676.17
468.789	6734.92
469.161	6846.78
469.534	6955.93
469.906	7083.61
470.278	7100.11
470.65	7206.77
471.022	7329.03
471.394	7500.78
471.766	7546.43
472.138	7624.84
472.51	7752.97
472.882	7902.35
473.253	7997.71
473.625	8139.18
473.997	8312.28
474.369	8329.23
474.74	8410.58
475.112	8625.04
475.484	8697.13
475.855	8857.58
476.227	8924.02
476.598	9223.67
476.97	9282.88
477.341	9461.63
477.713	9601.29
478.084	9685.58
478.455	9881.73
478.827	9995.85
479.198	10290.08
479.569	10265
479.94	10544.31
480.311	10645.1
480.682	11036.73
481.053	11172.55
481.424	11329.6
481.795	11419.77
482.166	11621.12
482.537	11790.38
482.908	12054.78
483.279	12176.13
483.65	12410.25
484.021	12586.97
484.391	12791.94
484.762	12911.48
485.133	13056.11
485.503	13148.54
485.874	13534.52
486.244	13671.24
486.615	13916.88
486.985	14049.08
487.356	14370.65
487.726	14379.01
488.097	14729.97
488.467	14770.19
488.837	15100.13
489.207	15273.91
489.578	15475.71
489.948	15684.97
490.318	15844.51
490.688	15894.23
491.058	16224.84
491.428	16401.11
491.798	16566.75
492.168	16920.19
492.538	17006.52
492.908	17174.42
493.278	17352.95
493.648	17432.49
494.017	17632.94
494.387	17836.1
494.757	17968.07
495.126	18169.42
495.496	18241.29
495.866	18439.7
496.235	18644.89
496.605	18822.29
496.974	18915.17
497.344	18998.33
497.713	19303.63
498.082	19339.34
498.452	19517.18
498.821	19658.88
499.19	19694.81
499.559	19966.89
499.928	20056.15
500.298	20235.36
500.667	20366.43
501.036	20389.93
501.405	20562.58
501.774	20724.84
502.143	20984.72
502.512	20994.43
502.88	21161.66
503.249	21183.36
503.618	21433.07
503.987	21547.41
504.356	21743.79
504.724	21840.29
505.093	21991.47
505.462	22063.78
505.83	22222.88
506.199	22478.46
506.567	22755.74
506.936	22732.24
507.304	22958.9
507.672	23133.59
508.041	23277.76
508.409	23360.02
508.777	23522.28
509.145	23739.9
509.514	23837.3
509.882	24090.85
510.25	24092.21
510.618	24207.23
510.986	24429.15
511.354	24563.38
511.722	24836.37
512.09	25056.93
512.458	25025.97
512.826	25401.55
513.193	25536.91
513.561	25587.31
513.929	25741.65
514.297	26010.57
514.664	26230
515.032	26418.02
515.4	26671.12
515.767	26719.48
516.135	26930.55
516.502	26796.99
516.869	27312.01
517.237	27320.82
517.604	27382.97
517.972	27739.57
518.339	27902.5
518.706	28137.07
519.073	28196.28
519.44	28408.25
519.808	28724.4
520.175	28651.18
520.542	29141.79
520.909	29313.54
521.276	29252.75
521.643	29725.05
522.009	29831.49
522.376	30059.05
522.743	30260.18
523.11	30550.57
523.477	30812.71
523.843	31083.66
524.21	31380.15
524.577	31588.28
524.943	31704.21
525.31	31933.13
525.676	32175.83
526.043	32515.49
526.409	32646.56
526.776	33012.87
527.142	33103.27
527.508	33279.31
527.874	33530.38
528.241	33663.25
528.607	33639.53
528.973	34050.14
529.339	33989.8
529.705	34445.15
530.071	34767.18
530.437	34966.04
530.803	35149.99
531.169	35352.47
531.535	35250.56
531.901	35486.26
532.267	35746.36
532.632	35973.02
532.998	36053.47
533.364	36308.16
533.73	36389.74
534.095	36748.14
534.461	36732.55
534.826	36932.09
535.192	37058.87
535.557	37469.48
535.923	37375.02
536.288	37686.42
536.653	37845.97
537.019	37756.03
537.384	37935.68
537.749	37995.34
538.114	38137.71
538.479	38247.77
538.845	38367.76
539.21	38361.21
539.575	38618.15
539.94	38832.16
540.305	39078.25
540.67	38919.61
541.034	39163.9
541.399	39354.18
541.764	39501.52
542.129	39482.54
542.494	39680.5
542.858	39797.56
543.223	40023.76
543.587	40209.97
543.952	40211.1
544.316	40382.62
544.681	40308.73
545.045	40502.17
545.41	40782.61
545.774	40833.69
546.138	41061.48
546.503	41007.24
546.867	41073.45
547.231	41401.35
547.595	41451.07
547.959	41763.38
548.324	41659.88
548.688	41817.84
549.052	42059.64
549.416	41884.96
549.779	42109.58
550.143	42260.77
550.507	42550.48
550.871	42597.93
551.235	42599.06
551.599	43045.61
551.962	42999.73
552.326	43165.6
552.689	43365.6
553.053	43342.32
553.417	43379.38
553.78	43959.03
554.143	43747.06
554.507	43864.34
554.87	44009.65
555.234	44392.69
555.597	44428.85
555.96	44619.8
556.323	44688.73
556.686	44909.51
557.05	45140.92
557.413	45222.05
557.776	45353.34
558.139	45661.36
558.502	45684.63
558.865	45769.15
559.228	46103.6
559.59	46173.66
559.953	46334.78
560.316	46703.36
560.679	46758.73
561.041	46966.63
561.404	47120.3
561.767	47295.66
562.129	47365.94
562.492	47741.3
562.854	47661.76
563.217	47735.2
563.579	47937.91
563.941	48078.92
564.304	48267.39
564.666	48534.73
565.028	48672.8
565.39	48744.21
565.753	49026.69
566.115	49092.45
566.477	49230.75
566.839	49191.21
567.201	49484.76
567.563	49464.19
567.925	49839.55
568.287	49906.22
568.648	49886.1
569.01	50218.98
569.372	50319.99
569.734	50267.79
570.095	50452.42
570.457	50642.47
570.819	50719.75
571.18	50753.65
571.542	50927.66
571.903	50946.19
572.265	51020.99
572.626	51121.33
572.987	51249.91
573.349	51295.11
573.71	51542.11
574.071	51583.23
574.432	51724.25
574.794	51884.47
575.155	51817.58
575.516	51767.18
575.877	51994.07
576.238	52070
576.599	52072.71
576.96	52164.91
577.32	52078.14
577.681	52248.98
578.042	52257.11
578.403	52328.07
578.763	52325.14
579.124	52380.05
579.485	52523.55
579.845	52601.29
580.206	52592.02
580.566	52515.64
580.927	52530.78
581.287	52676.54
581.648	52538.92
582.008	52697.78
582.368	52606.03
582.728	52716.31
583.089	52649.87
583.449	52651
583.809	52640.38
584.169	52742.98
584.529	52628.4
584.889	52839.92
585.249	52718.35
585.609	52546.6
585.969	52770.77
586.329	52685.8
586.688	52802.19
587.048	52709.76
587.408	52676.99
587.768	52627.05
588.127	52659.14
588.487	52657.1
588.846	52831.79
589.206	52661.85
589.565	52749.76
589.925	52710.44
590.284	52652.36
590.643	52759.25
591.003	52851.68
591.362	52787.72
591.721	52769.42
592.08	52842.64
592.44	52888.28
592.799	52853.71
593.158	52775.52
593.517	52759.47
593.876	52745.46
594.235	52721.06
594.593	52792.24
594.952	52806.03
595.311	52726.71
595.67	52764.67
596.029	52965.12
596.387	52921.28
596.746	52968.73
597.104	52878.34
597.463	52847.16
597.822	52951.33
598.18	52740.49
598.538	52802.41
598.897	53047.15
599.255	52654.39
599.613	53193.14
599.972	52944.33
600.33	52976.64
600.688	52875.86
601.046	53024.55
601.404	53143.65
601.762	53047.6
602.12	53111.33
602.478	53086.02
602.836	53159.01
603.194	52946.81
603.552	53114.27
603.91	52953.37
604.268	53145.68
604.625	53069.3
604.983	53231.33
605.341	53111.1
605.698	53229.29
606.056	53195.62
606.413	53203.3
606.771	53287.82
607.128	53333.7
607.485	53150.65
607.843	53163.31
608.2	53304.09
608.557	53431.55
608.914	53286.69
609.272	53429.97
609.629	53498.44
609.986	53545.44
610.343	53575.95
610.7	53559.23
611.057	53601.94
611.414	53495.5
611.771	53537.76
612.127	53652.11
612.484	53636.51
612.841	53743.86
613.198	53585.89
613.554	53691.43
613.911	53845.55
614.267	53779.11
614.624	53752.67
614.98	53809.62
615.337	54011.64
615.693	53907.24
616.05	53824.08
616.406	54042.83
616.762	53940.46
617.118	53913.57
617.475	53878.54
617.831	53941.59
618.187	53955.38
618.543	53952.44
618.899	54076.95
619.255	53933.68
619.611	53892.78
619.967	54051.19
620.323	54142.04
620.678	53933.68
621.034	53848.03
621.39	53854.36
621.746	53870.41
622.101	54215.93
622.457	53863.85
622.812	53969.61
623.168	53997.18
623.523	53987.01
623.879	54081.47
624.234	53821.14
624.589	54006.67
624.945	53922.38
625.3	53910.86
625.655	53918.54
626.01	53914.47
626.365	53961.48
626.72	53910.4
627.075	53806.68
627.43	53891.2
627.785	53715.83
628.14	53779.11
628.495	53860.69
628.85	53839.9
629.205	53710.64
629.559	53787.7
629.914	53724.87
630.269	53802.16
630.623	53661.82
630.978	53593.35
631.332	53705.21
631.687	53726.45
632.041	53551.54
632.396	53559.23
632.75	53438.33
633.104	53592.22
633.459	53409.4
633.813	53369.4
634.167	53326.24
634.521	53213.7
634.875	53356.29
635.229	53162.85
635.583	53053.48
635.937	52972.8
636.291	52989.3
636.645	52947.72
636.999	52861.84
637.352	52984.33
637.706	52711.79
638.06	52803.99
638.413	52767.38
638.767	52690.32
639.121	52739.36
639.474	52484.23
639.828	52511.12
640.181	52530.33
640.534	52446.94
640.888	52329.66
641.241	52253.5
641.594	52193.39
641.947	52303.67
642.301	52186.83
642.654	52150.68
643.007	52115.2
643.36	52049.66
643.713	52054.18
644.066	52061.19
644.419	51924.24
644.771	51708.88
645.124	51423.92
645.477	51271.6
645.83	51089.46
646.182	50820.99
646.535	50831.62
646.888	50903.25
647.24	50577.16
647.593	50938.28
647.945	50933.76
648.298	50636.37
648.65	50593.88
649.002	50363.38
649.355	50496.93
649.707	50343.94
650.059	50550.49
650.411	50907.55
650.763	50872.52
651.115	51204.04
651.467	51039.52
651.819	50933.76
652.171	50894.44
652.523	50816.93
652.875	50792.52
653.227	50697.16
653.578	50880.43
653.93	50681.34
654.282	50667.55
654.633	50455.81
654.985	50566.31
655.337	50574.67
655.688	50509.36
656.039	50613.99
656.391	50330.61
656.742	50433.66
657.094	50406.32
657.445	50406.09
657.796	50427.78
658.147	50193.44
658.498	50132.88
658.849	50276.38
659.2	50181.91
659.551	50079.54
659.902	50208.13
660.253	50110.28
660.604	50065.99
660.955	50043.39
661.306	50023.5
661.656	49986.67
662.007	49919.55
662.358	49952.54
662.708	49941.7
663.059	49915.48
663.409	49589.61
663.76	49906.44
664.11	49833
664.461	49779.89
664.811	49761.36
665.161	49635.04
665.511	49527.02
665.862	49611.53
666.212	49693.57
666.562	49627.81
666.912	49547.58
667.262	49449.28
667.612	49497.19
667.962	49495.15
668.312	49495.83
668.662	49691.76
669.011	49479.56
669.361	49295.84
669.711	49287.48
670.06	49254.48
670.41	49160.25
670.76	49211.55
671.109	49300.13
671.459	48976.97
671.808	48915.28
672.157	49020.82
672.507	48751.9
672.856	48807.94
673.205	48913.93
673.554	48986.24
673.904	48894.04
674.253	49017.2
674.602	48906.69
674.951	48403.66
675.3	48127.73
675.649	48749.64
675.998	48670.09
676.346	48618.34
676.695	48695.17
677.044	48407.27
677.393	48574.05
677.741	48639.81
678.09	48455.86
678.438	48248.41
678.787	48341.96
679.135	48417.67
679.484	48072.37
679.832	48098.81
680.181	47921.18
680.529	47991.01
680.877	47913.73
681.225	47901.07
681.573	48000.5
681.922	47721.19
682.27	47656.78
682.618	47660.85
682.966	47690.68
683.314	47635.77
683.661	47374.98
684.009	47258.38
684.357	47267.87
684.705	47122.79
685.053	47143.8
685.4	47134.09
685.748	46877.37
686.095	46917.59
686.443	46785.39
686.79	46725.06
687.138	46752.63
687.485	46609.58
687.832	46493.65
688.18	46574.33
688.527	46220.21
688.874	46336.37
689.221	46215.47
689.568	45938.41
689.915	45858.64
690.262	45812.09
690.609	45647.12
690.956	45630.4
691.303	45702.71
691.65	45563.05
691.997	45346.79
692.344	45092.33
692.69	45029.73
693.037	45112.22
693.383	44666.58
693.73	44747.26
694.077	44481.5
694.423	44549.52
694.769	44229.98
695.116	44196.99
695.462	44300.04
695.808	44047.16
696.155	44067.5
696.501	43793.38
696.847	43766.26
697.193	43455.09
697.539	43554.74
697.885	43371.02
698.231	43170.8
698.577	43200.86
698.923	43000.63
699.269	42875.89
699.614	42599.06
699.96	42504.15
700.306	42551.38
700.651	42432.51
700.997	42216.47
701.342	42160.43
701.688	41923.83
702.033	41988.68
702.379	42035.46
702.724	41930.61
703.069	41905.07
703.415	41335.82
703.76	41409.04
704.105	41327.91
704.45	41211.98
704.795	40908.03
705.14	40833.01
705.485	40903.74
705.83	40714.59
706.175	40754.82
706.52	40493.36
706.865	40458.1
707.209	40395.28
707.554	40208.62
707.899	40288.84
708.243	40027.38
708.588	40033.26
708.932	39846.82
709.277	39797.78
709.621	39748.74
709.966	39308.75
710.31	39596.43
710.654	39140.4
710.998	39355.53
711.342	39230.79
711.687	39154.86
712.031	38971.81
712.375	38828.77
712.719	38857.47
713.063	38754.87
713.407	39040.96
713.75	38589.45
714.094	38606.17
714.438	38343.81
714.782	38498.83
715.125	38194.89
715.469	38243.02
715.812	38117.6
716.156	37803.94
716.499	37914.67
716.843	37838.74
717.186	37636.93
717.53	37799.19
717.873	37812.3
718.216	37446.88
718.559	37506.32
718.902	37296.38
719.246	37276.94
719.589	37275.14
719.932	37147.46
720.275	37022.49
720.617	36922.6
720.96	36944.07
721.303	36784.75
721.646	36763.06
721.989	36616.85
722.331	36648.94
722.674	36505.44
723.016	36519.45
723.359	36342.5
723.701	36419.56
724.044	36110.19
724.386	35890.31
724.729	36093.02
725.071	35931.22
725.413	35838.56
725.755	35879.69
726.097	35788.62
726.439	35584.56
726.782	35528.29
727.124	35664.1
727.465	35430.44
727.807	35282.42
728.149	35347.5
728.491	35358.8
728.833	35299.59
729.175	35159.94
729.516	35203.33
729.858	35134.85
730.199	35114.29
730.541	34834.3
730.882	34901.86
731.224	34895.54
731.565	34633.17
731.906	34644.02
732.248	34678.37
732.589	34586.84
732.93	34378.26
733.271	34395.21
733.612	34331.26
733.953	34453.06
734.294	34174.88
734.635	34092.62
734.976	34190.92
735.317	34054.43
735.658	34064.15
735.999	33907.31
736.339	33839.29
736.68	33974.43
737.021	33845.17
737.361	33659.64
737.702	33668.9
738.042	33672.74
738.383	33436.82
738.723	33526.99
739.063	33335.8
739.404	33449.02
739.744	33465.74
740.084	33169.71
740.424	33178.52
740.764	33122.25
741.104	33256.03
741.444	33124.51
741.784	32864.18
742.124	32982.37
742.464	32883.84
742.804	32829.83
743.143	32708.93
743.483	32720.45
743.823	32584.64
744.162	32649.49
744.502	32509.84
744.841	32418.09
745.181	32505.09
745.52	32324.08
745.86	32282.72
746.199	32222.16
746.538	32200.24
746.877	32284.08
747.216	32148.72
747.556	31924.99
747.895	31876.63
748.234	31833.47
748.573	31656.3
748.911	31737.43
749.25	31476.42
749.589	31403.43
749.928	31417.89
750.267	31461.05
750.605	31372.47
750.944	31369.98
751.283	31216.76
751.621	31312.58
751.96	31053.83
752.298	30984
752.636	31058.12
