Data from foil_FLMS001491_042.txt Node
Date: Tue Feb 07 11:26:56 GMT 2017
User: dcchb
Spectrometer: FLMS00149
Trigger mode: 0
Integration Time (sec): 2.000000E-2
Scans to average: 10
Electric dark correction enabled: true
Nonlinearity correction enabled: false
Boxcar width: 0
XAxis mode: Wavelengths
Number of Pixels in Spectrum: 2048
>>>>>Begin Spectral Data<<<<<
341.393	-5.64
341.776	-5.64
342.16	-5.64
342.543	-57.16
342.927	-81.57
343.31	-82.24
343.693	-70.94
344.077	-59.65
344.46	-52.41
344.843	-27.78
345.226	-40.21
345.61	-11.29
345.993	-18.97
346.376	-26.2
346.759	7.92
347.142	13.57
347.525	51.76
347.908	49.28
348.291	80.01
348.674	101.25
349.057	85.89
349.44	127.02
349.823	141.93
350.206	161.59
350.588	258.31
350.971	270.29
351.354	294.02
351.737	269.16
352.119	309.38
352.502	323.4
352.884	316.84
353.267	350.06
353.65	366.11
354.032	368.82
354.414	379.89
354.797	384.64
355.179	371.76
355.562	401.36
355.944	389.38
356.326	392.09
356.709	380.57
357.091	418.76
357.473	427.57
357.855	417.18
358.238	423.05
358.62	410.17
359.002	416.05
359.384	417.18
359.766	392.77
360.148	413.56
360.53	416.5
360.912	425.77
361.294	413.79
361.676	419.44
362.057	409.72
362.439	406.78
362.821	409.49
363.203	410.4
363.584	430.06
363.966	414.24
364.348	408.36
364.729	446.1
365.111	412.21
365.493	415.82
365.874	413.34
366.256	419.44
366.637	432.77
367.019	422.83
367.4	453.11
367.781	448.82
368.163	431.42
368.544	429.16
368.925	419.21
369.306	448.36
369.688	448.14
370.069	447.69
370.45	444.52
370.831	444.52
371.212	450.17
371.593	452.21
371.974	455.82
372.355	455.37
372.736	454.01
373.117	456.73
373.498	467.12
373.879	469.38
374.26	427.8
374.641	431.64
375.021	459.89
375.402	477.74
375.783	486.56
376.163	515.03
376.544	504.86
376.925	486.33
377.305	500.11
377.686	481.58
378.066	530.62
378.447	507.12
378.827	481.13
379.208	519.32
379.588	514.58
379.968	527.46
380.349	545.08
380.729	536.72
381.109	530.62
381.489	553.22
381.87	556.38
382.25	580.79
382.63	549.6
383.01	558.87
383.39	574.01
383.77	598.19
384.15	596.83
384.53	616.95
384.91	617.4
385.29	615.37
385.67	603.84
386.049	616.27
386.429	612.43
386.809	635.7
387.189	658.98
387.568	654.01
387.948	652.43
388.328	651.97
388.707	654.91
389.087	674.35
389.466	672.09
389.846	686.1
390.225	703.5
390.605	704.63
390.984	701.46
391.363	699.88
391.743	715.48
392.122	723.84
392.501	740.79
392.881	737.62
393.26	774.91
393.639	780.56
394.018	771.97
394.397	786.66
394.776	782.14
395.155	790.73
395.534	793.89
395.913	789.15
396.292	806.77
396.671	839.99
397.05	823.95
397.429	815.59
397.808	840.44
398.186	861.01
398.565	866.21
398.944	876.83
399.323	886.32
399.701	870.05
400.08	891.29
400.458	909.14
400.837	921.35
401.215	929.71
401.594	925.64
401.972	920.67
402.351	947.33
402.729	968.58
403.107	956.15
403.486	970.16
403.864	970.84
404.242	984.17
404.62	1004.51
404.999	1009.25
405.377	1040.89
405.755	1048.35
406.133	1041.34
406.511	1044.05
406.889	1064.84
407.267	1094.45
407.645	1115.92
408.023	1117.05
408.401	1136.71
408.779	1148.68
409.156	1168.57
409.534	1166.09
409.912	1182.13
410.29	1204.28
410.667	1216.25
411.045	1230.26
411.422	1258.96
411.8	1276.14
412.178	1311.62
412.555	1308
412.933	1313.88
413.31	1366.76
413.687	1385.97
414.065	1371.28
414.442	1401.11
414.819	1411.5
415.197	1427.1
415.574	1443.37
415.951	1460.77
416.328	1491.73
416.705	1481.33
417.082	1507.55
417.46	1495.57
417.837	1534.44
418.214	1514.1
418.591	1550.26
418.967	1549.35
419.344	1624.15
419.721	1601.33
420.098	1609.69
420.475	1626.19
420.852	1653.53
421.228	1682
421.605	1682.23
421.982	1691.04
422.358	1672.29
422.735	1731.49
423.111	1725.39
423.488	1798.61
423.864	1770.59
424.241	1807.88
424.617	1807.42
424.994	1825.05
425.37	1855.11
425.746	1892.17
426.123	1900.3
426.499	1889.91
426.875	1908.21
427.251	1960.64
427.627	2019.62
428.003	1998.15
428.379	2034.99
428.756	2058.49
429.132	2094.65
429.507	2120.64
429.883	2133.74
430.259	2201.99
430.635	2208.09
431.011	2198.83
431.387	2262.1
431.763	2302.1
432.138	2341.42
432.514	2333.74
432.89	2347.75
433.265	2428.65
433.641	2429.1
434.016	2483.34
434.392	2511.36
434.767	2556.78
435.143	2548.87
435.518	2596.78
435.894	2584.8
436.269	2650.34
436.644	2713.39
437.02	2725.37
437.395	2727.85
437.77	2786.61
438.145	2799.26
438.52	2857.57
438.895	2865.25
439.271	2874.06
439.646	2944.12
440.021	2932.37
440.395	2973.27
440.77	2967.85
441.145	3003.78
441.52	3054.85
441.895	3107.28
442.27	3088.29
442.645	3136.2
443.019	3181.63
443.394	3149.31
443.769	3165.58
444.143	3167.39
444.518	3203.77
444.892	3238.8
445.267	3252.81
445.641	3307.27
446.016	3340.94
446.39	3379.59
446.764	3345.46
447.139	3352.69
447.513	3414.84
447.887	3455.97
448.262	3438.79
448.636	3466.82
449.01	3550.43
449.384	3592.24
449.758	3584.78
450.132	3672.91
450.506	3638.79
450.88	3702.97
451.254	3679.69
451.628	3724.21
452.002	3792.91
452.376	3837.88
452.75	3822.96
453.123	3923.07
453.497	3895.5
453.871	3996.75
454.244	4030.19
454.618	4043.07
454.992	4134.82
455.365	4074.03
455.739	4231.77
456.112	4249.62
456.486	4313.35
456.859	4320.8
457.232	4403.51
457.606	4422.72
457.979	4443.74
458.352	4525.54
458.725	4612.32
459.099	4622.49
459.472	4689.61
459.845	4778.65
460.218	4799.44
460.591	4843.73
460.964	4881.92
461.337	4965.31
461.71	5033.33
462.083	5086.66
462.456	5107.68
462.829	5158.07
463.201	5186.54
463.574	5247.33
463.947	5298.63
464.32	5374.34
464.692	5466.76
465.065	5488.23
465.438	5569.36
465.81	5603.03
466.183	5744.95
466.555	5823.59
466.928	5834.21
467.3	5870.82
467.672	5954.21
468.045	6131.38
468.417	6146.97
468.789	6180.19
469.161	6180.42
469.534	6343.8
469.906	6467.41
470.278	6548.99
470.65	6549.45
471.022	6702.21
471.394	6812.49
471.766	6879.83
472.138	6977.01
472.51	7090.22
472.882	7273.72
473.253	7338.8
473.625	7416.54
473.997	7581.06
474.369	7612.92
474.74	7652.02
475.112	7876.64
475.484	7941.27
475.855	8129.97
476.227	8184.43
476.598	8426.91
476.97	8444.99
477.341	8653.57
477.713	8776.96
478.084	8781.03
478.455	9056.73
478.827	9182.15
479.198	9476.15
479.569	9397.73
479.94	9667.56
480.311	9743.03
480.682	9970.6
481.053	10204.72
481.424	10404.94
481.795	10477.48
482.166	10557.93
482.537	10736.23
482.908	10970.12
483.279	11032.94
483.65	11256.44
484.021	11439.49
484.391	11608.75
484.762	11794.28
485.133	11776.43
485.503	12013.71
485.874	12332.57
486.244	12385.45
486.615	12624.31
486.985	12762.39
487.356	12986.79
487.726	13098.65
488.097	13312.21
488.467	13455.25
488.837	13668.13
489.207	13880.1
489.578	14021.57
489.948	14197.38
490.318	14530.03
490.688	14471.05
491.058	14739.51
491.428	14953.29
491.798	15045.04
492.168	15349.44
492.538	15421.98
492.908	15455.43
493.278	15707.4
493.648	15765.48
494.017	15897.45
494.387	16152.58
494.757	16321.39
495.126	16475.06
495.496	16487.49
495.866	16634.83
496.235	16822.4
496.605	17035.27
496.974	17131.32
497.344	17193.46
497.713	17390.74
498.082	17488.82
498.452	17714.8
498.821	17836.61
499.19	17823.95
499.559	17972.65
499.928	18246.31
500.298	18235.24
500.667	18377.38
501.036	18448.34
501.405	18592.07
501.774	18691.05
502.143	18842.46
502.512	18870.93
502.88	19204.48
503.249	19238.38
503.618	19348.21
503.987	19382.33
504.356	19548.65
504.724	19707.52
505.093	19746.61
505.462	19917.68
505.83	20096.43
506.199	20159.48
506.567	20521.28
506.936	20556.99
507.304	20761.28
507.672	20890.54
508.041	20960.14
508.409	21090.98
508.777	21331.66
509.145	21462.05
509.514	21493.46
509.882	21614.81
510.25	21750.85
510.618	21976.39
510.986	22011.64
511.354	22264.29
511.722	22385.41
512.09	22611.62
512.458	22626.54
512.826	22921.45
513.193	22914.67
513.561	23088.45
513.929	23341.1
514.297	23561.65
514.664	23709.9
515.032	23731.37
515.4	24000.51
515.767	24173.84
516.135	24292.26
516.502	24244.12
516.869	24760.49
517.237	24723.66
517.604	24771.57
517.972	25109.64
518.339	25244.1
518.706	25409.74
519.073	25427.14
519.44	25641.83
519.808	26033.23
520.175	26049.72
520.542	26423.95
520.909	26505.53
521.276	26522.48
521.643	26811.51
522.009	27066.65
522.376	27308.45
522.743	27314.1
523.11	27733.75
523.477	27908.88
523.843	28070.01
524.21	28390.68
524.577	28412.83
524.943	28833.61
525.31	28937.78
525.676	29167.61
526.043	29333.71
526.409	29607.15
526.776	29936.4
527.142	29881.94
527.508	30105.89
527.874	30494.81
528.241	30629.49
528.607	30717.17
528.973	31000.78
529.339	30995.81
529.705	31375.23
530.071	31579.07
530.437	31680.99
530.803	32014.54
531.169	32147.42
531.535	32021.55
531.901	32266.96
532.267	32555.77
532.632	32638.25
532.998	32769.55
533.364	32986.04
533.73	33135.41
534.095	33465.12
534.461	33500.6
534.826	33738.79
535.192	33866.24
535.557	34191.88
535.923	34078.44
536.288	34341.26
536.653	34379
537.019	34414.7
537.384	34632.1
537.749	34925.2
538.114	34896.95
538.479	34897.18
538.845	35111.18
539.21	35145.53
539.575	35276.6
539.94	35404.05
540.305	35664.39
540.67	35800.43
541.034	35935.34
541.399	35993.19
541.764	36258.95
542.129	36306.4
542.494	36360.87
542.858	36543.23
543.223	36575.55
543.587	36886.5
543.952	36920.85
544.316	37011.47
544.681	37009.66
545.045	37361.74
545.41	37578.01
545.774	37652.13
546.138	37583.21
546.503	37727.16
546.867	37807.61
547.231	38091.22
547.595	38155.17
547.959	38327.59
548.324	38483.97
548.688	38554.93
549.052	38703.4
549.416	38967.8
549.779	39063.62
550.143	39202.6
550.507	39411.63
550.871	39427.23
551.235	39515.59
551.599	39813.2
551.962	39969.36
552.326	39970.26
552.689	40255.45
553.053	40148.34
553.417	40316.02
553.78	40826.29
554.143	40706.74
554.507	40953.51
554.87	41020.4
555.234	41374.75
555.597	41267.63
555.96	41456.78
556.323	41827.61
556.686	41798.46
557.05	42079.59
557.413	42115.74
557.776	42215.18
558.139	42687.03
558.502	42674.15
558.865	42840.7
559.228	43204.98
559.59	43256.05
559.953	43277.29
560.316	43888.58
560.679	43888.35
561.041	44061.68
561.404	44260.09
561.767	44489.24
562.129	44428.9
562.492	44935.56
562.854	44805.39
563.217	44987.76
563.579	45234.08
563.941	45481.53
564.304	45570.34
564.666	45931.24
565.028	45877.68
565.39	46064.57
565.753	46326.48
566.115	46515.85
566.477	46699.58
566.839	46733.25
567.201	47109.28
567.563	47123.97
567.925	47314.93
568.287	47473.34
568.648	47660.68
569.01	47854.35
569.372	48011.86
569.734	47928.92
570.095	48276.03
570.457	48480.32
570.819	48469.47
571.18	48567.1
571.542	48747.43
571.903	48805.51
572.265	48890.93
572.626	49087.31
572.987	49179.51
573.349	49304.25
573.71	49391.03
574.071	49574.3
574.432	49663.34
574.794	49911.02
575.155	49870.34
575.516	49713.06
575.877	50008.64
576.238	50132.71
576.599	50199.6
576.96	50196.43
577.32	50269.65
577.681	50366.37
578.042	50476.43
578.403	50473.04
578.763	50433.49
579.124	50698.34
579.485	50688.4
579.845	50737.89
580.206	50786.25
580.566	50826.7
580.927	50823.31
581.287	50898.34
581.648	50863.76
582.008	50989.63
582.368	50896.98
582.728	51075.06
583.089	50919.35
583.449	50883.2
583.809	51106.92
584.169	51129.74
584.529	51049.75
584.889	51237.76
585.249	51175.17
585.609	51023.31
585.969	51176.75
586.329	51016.53
586.688	51202.96
587.048	51165.67
587.408	51164.09
587.768	51108.95
588.127	51087.26
588.487	51071.67
588.846	51354.14
589.206	51162.06
589.565	51170.19
589.925	51361.38
590.284	51228.95
590.643	51244.54
591.003	51342.17
591.362	51404.54
591.721	51266.69
592.08	51290.19
592.44	51459.23
592.799	51456.51
593.158	51404.09
593.517	51355.27
593.876	51427.81
594.235	51378.1
594.593	51400.92
594.952	51387.36
595.311	51299.68
595.67	51448.15
596.029	51424.88
596.387	51593.01
596.746	51609.73
597.104	51509.85
597.463	51522.73
597.822	51708.03
598.18	51532.22
598.538	51472.33
598.897	51699.67
599.255	51438.89
599.613	51929.5
599.972	51654.25
600.33	51769.5
600.688	51607.24
601.046	51831.42
601.404	51915.94
601.762	51767.92
602.12	51891.76
602.478	51858.99
602.836	51914.81
603.194	51738.54
603.552	51868.25
603.91	51768.6
604.268	52078.19
604.625	51835.71
604.983	51987.8
605.341	51893.56
605.698	52091.98
606.056	52155.25
606.413	52101.47
606.771	52250.62
607.128	52248.81
607.485	52106.44
607.843	52221.24
608.2	52298.07
608.557	52350.73
608.914	52137.4
609.272	52362.03
609.629	52500.55
609.986	52563.83
610.343	52434.79
610.7	52621.91
611.057	52593.43
611.414	52618.52
611.771	52624.85
612.127	52741.45
612.484	52749.81
612.841	52798.17
613.198	52615.81
613.554	52673.88
613.911	52908.23
614.267	52793.65
614.624	52825.29
614.98	52845.18
615.337	53040.43
615.693	52977.15
616.05	52957.72
616.406	53115.23
616.762	52966.08
617.118	52982.35
617.475	53043.37
617.831	53144.15
618.187	53138.5
618.543	53134.66
618.899	53187.99
619.255	53189.35
619.611	53131.05
619.967	53322.68
620.323	53403.58
620.678	53240.87
621.034	53127.66
621.39	53165.17
621.746	53060.99
622.101	53448.33
622.457	53218.05
622.812	53288.33
623.168	53254.21
623.523	53286.3
623.879	53322
624.234	53187.54
624.589	53292.4
624.945	53322.23
625.3	53256.01
625.655	53260.08
626.01	53212.85
626.365	53298.5
626.72	53232.06
627.075	53254.43
627.43	53228.45
627.785	53181.44
628.14	53209.91
628.495	53309.8
628.85	53155.45
629.205	52996.81
629.559	53190.03
629.914	53011.28
630.269	53024.16
630.623	52966.31
630.978	52912.75
631.332	53044.5
631.687	53064.16
632.041	52837.27
632.396	52947.55
632.75	52796.14
633.104	52913.65
633.459	52753.66
633.813	52697.84
634.167	52770.6
634.521	52666.2
634.875	52797.27
635.229	52672.53
635.583	52451.06
635.937	52481.57
636.291	52446.09
636.645	52545.3
636.999	52411.52
637.352	52428.01
637.706	52240
638.06	52399.77
638.413	52252.65
638.767	52152.32
639.121	52154.57
639.474	52068.48
639.828	52051.98
640.181	52017.4
640.534	52123.84
640.888	51988.25
641.241	51820.57
641.594	51798.65
641.947	51931.53
642.301	51712.78
642.654	51829.61
643.007	51769.05
643.36	51720.24
643.713	51746.68
644.066	51880.23
644.419	51478.66
644.771	51080.7
645.124	50739.47
645.477	50544
645.83	50471
646.182	50419.48
646.535	50498.12
646.888	50605.01
647.24	50602.75
647.593	50813.14
647.945	50708.06
648.298	50574.73
648.65	50432.59
649.002	50183.33
649.355	50356.43
649.707	50216.32
650.059	50206.38
650.411	50486.14
650.763	50699.02
651.115	50922.29
651.467	50857.66
651.819	50816.76
652.171	50709.87
652.523	50622.19
652.875	50573.6
653.227	50556.88
653.578	50845.23
653.93	50635.97
654.282	50471.23
654.633	50414.28
654.985	50552.58
655.337	50497.67
655.688	50429.42
656.039	50469.2
656.391	50131.13
656.742	50169.54
657.094	50377.9
657.445	50350.1
657.796	50200.28
658.147	50145.59
658.498	50079.6
658.849	50228.75
659.2	50137.45
659.551	50178.36
659.902	50120.73
660.253	49962.54
660.604	50033.05
660.955	49960.51
661.306	50068.08
661.656	50033.95
662.007	49911.7
662.358	49772.04
662.708	49873.73
663.059	49758.03
663.409	49565.49
663.76	49943.33
664.11	49842.32
664.461	49892.04
664.811	49920.06
665.161	49716
665.511	49660.18
665.862	49743.79
666.212	49711.48
666.562	49737.92
666.912	49727.52
667.262	49616.56
667.612	49576.56
667.962	49577.47
668.312	49573.63
668.662	49705.6
669.011	49476.91
669.361	49431.03
669.711	49427.42
670.06	49299.96
670.41	49264.03
670.76	49221.32
671.109	49420.64
671.459	49274.2
671.808	49048.89
672.157	49240.53
672.507	48912.85
672.856	48986.07
673.205	49121.43
673.554	49247.53
673.904	49081.66
674.253	49273.75
674.602	49140.42
674.951	48569.13
675.3	48380.66
675.649	48937.03
675.998	48784.27
676.346	48906.98
676.695	48912.85
677.044	48604.61
677.393	48806.64
677.741	48817.49
678.09	48570.71
678.438	48459.3
678.787	48632.86
679.135	48690.03
679.484	48417.05
679.832	48575.23
680.181	48278.74
680.529	48443.03
680.877	48331.62
681.225	48132.31
681.573	48282.81
681.922	48035.36
682.27	48133.44
682.618	48118.97
682.966	47975.7
683.314	48013.67
683.661	47902.94
684.009	47748.59
684.357	47611.64
684.705	47533.91
685.053	47533.68
685.4	47364.64
685.748	47365.1
686.095	47241.94
686.443	47235.61
686.79	47028.83
687.138	47091.43
687.485	47079.23
687.832	46975.95
688.18	46981.15
688.527	46698
688.874	46707.49
689.221	46573.03
689.568	46300.94
689.915	46225.01
690.262	46311.79
690.609	46245.13
690.956	46077.9
691.303	46076.09
691.65	45927.62
691.997	45896.89
692.344	45637.01
692.69	45503.22
693.037	45606.72
693.383	45206.28
693.73	45323.34
694.077	45043.12
694.423	45126.51
694.769	45014.42
695.116	44804.26
695.462	44773.53
695.808	44529.46
696.155	44691.04
696.501	44349.58
696.847	44368.11
697.193	44088.12
697.539	44223.71
697.885	44005.64
698.231	43739.2
698.577	43778.52
698.923	43731.52
699.269	43491.07
699.614	43465.76
699.96	43343.73
700.306	43292.89
700.651	43137.41
700.997	42938.55
701.342	43009.05
701.688	42996.4
702.033	42626.92
702.379	42798.66
702.724	42494.04
703.069	42518.67
703.415	41976.31
703.76	42035.29
704.105	42223.54
704.45	41921.62
704.795	41705.13
705.14	41692.25
705.485	41697
705.83	41443.9
706.175	41559.15
706.52	41393.5
706.865	41271.7
707.209	41201.19
707.554	41111.7
707.899	41081.65
708.243	40881.88
708.588	40838.49
708.932	40612.28
709.277	40410.7
709.621	40507.2
709.966	40271.72
710.31	40245.51
710.654	40062.46
710.998	40234.66
711.342	40183.82
711.687	39765.3
712.031	39769.36
712.375	39683.72
712.719	39779.99
713.063	39721.46
713.407	39706.54
713.75	39339.77
714.094	39347.91
714.438	39335.93
714.782	39223.39
715.125	39048.7
715.469	39146.78
715.812	38886
716.156	38646.91
716.499	38713.8
716.843	38726.91
717.186	38532.79
717.53	38806
717.873	38576.85
718.216	38395.84
718.559	38276.07
718.902	38050.77
719.246	38210.31
719.589	38191.33
719.932	37890.32
720.275	37889.41
720.617	37796.53
720.96	37701.85
721.303	37678.57
721.646	37751.56
721.989	37462.98
722.331	37614.17
722.674	37576.43
723.016	37473.61
723.359	37410.33
723.701	37418.69
724.044	37049.89
724.386	36891.7
724.729	37098.47
725.071	37041.75
725.413	36868.65
725.755	36904.35
726.097	36811.48
726.439	36496.23
726.782	36723.79
727.124	36644.7
727.465	36532.39
727.807	36426.17
728.149	36426.85
728.491	36391.83
728.833	36374.88
729.175	36185.5
729.516	36164.71
729.858	36007.88
730.199	36118.16
730.541	35943.25
730.882	35959.75
731.224	35994.1
731.565	35743.48
731.906	35737.61
732.248	35800.43
732.589	35494.22
732.93	35364.96
733.271	35466.88
733.612	35456.48
733.953	35366.32
734.294	35260.33
734.635	35173.33
734.976	35262.82
735.317	35106.21
735.658	35061.69
735.999	35074.35
736.339	34903.73
736.68	34931.98
737.021	34892.88
737.361	34744.41
737.702	34945.54
738.042	34741.7
738.383	34617.18
738.723	34678.2
739.063	34447.47
739.404	34519.56
739.744	34385.78
740.084	34293.12
740.424	34318.43
740.764	34215.16
741.104	34385.78
741.444	34102.62
741.784	33917.77
742.124	34016.52
742.464	33952.12
742.804	33796.64
743.143	33815.62
743.483	33730.65
743.823	33735.62
744.162	33619.92
744.502	33690.2
744.841	33566.36
745.181	33505.57
745.52	33395.07
745.86	33479.59
746.199	33297.44
746.538	33229.87
746.877	33360.04
747.216	33312.13
747.556	33084.57
747.895	33129.99
748.234	32921.41
748.573	32814.52
748.911	32734.29
749.25	32630.12
749.589	32563.23
749.928	32654.52
750.267	32611.13
750.605	32461.76
750.944	32457.47
751.283	32191.26
751.621	32368.88
751.96	32172.5
752.298	32125.95
752.636	32132.5
752.975	32029.91
