Data from foil_FLMS001491_009.txt Node
Date: Tue Feb 07 11:25:17 GMT 2017
User: dcchb
Spectrometer: FLMS00149
Trigger mode: 0
Integration Time (sec): 2.000000E-2
Scans to average: 10
Electric dark correction enabled: true
Nonlinearity correction enabled: false
Boxcar width: 0
XAxis mode: Wavelengths
Number of Pixels in Spectrum: 2048
>>>>>Begin Spectral Data<<<<<
341.393	3.56
341.776	3.56
342.16	3.56
342.543	-64.24
342.927	-32.82
343.31	-65.59
343.693	-64.46
344.077	-78.02
344.46	-52.03
344.843	-59.04
345.226	-37.57
345.61	-34.18
345.993	-20.62
346.376	-2.32
346.759	-9.1
347.142	30.68
347.525	43.56
347.908	67.29
348.291	70.45
348.674	106.61
349.057	104.35
349.44	109.55
349.823	156.78
350.206	190.22
350.588	258.24
350.971	297.34
351.354	295.3
351.737	322.42
352.119	334.17
352.502	335.3
352.884	361.06
353.267	378.24
353.65	379.82
354.032	386.6
354.414	389.99
354.797	415.75
355.179	414.62
355.562	434.96
355.944	434.06
356.326	449.2
356.709	436.99
357.091	454.85
357.473	455.52
357.855	448.07
358.238	450.55
358.62	456.88
359.002	449.2
359.384	451.01
359.766	476.99
360.148	463.66
360.53	448.52
360.912	463.43
361.294	466.6
361.676	461.63
362.057	470.67
362.439	477.9
362.821	472.7
363.203	485.13
363.584	469.99
363.966	468.41
364.348	482.42
364.729	455.3
365.111	492.81
365.493	487.16
365.874	493.04
366.256	489.65
366.637	475.64
367.019	477.67
367.4	472.47
367.781	471.34
368.163	499.14
368.544	502.98
368.925	492.36
369.306	492.13
369.688	495.07
370.069	503.43
370.45	497.56
370.831	512.92
371.212	526.26
371.593	522.42
371.974	522.19
372.355	515.86
372.736	543.66
373.117	536.2
373.498	538.23
373.879	529.42
374.26	519.03
374.641	515.18
375.021	538.46
375.402	576.2
375.783	576.2
376.163	610.77
376.544	624.79
376.925	576.43
377.305	602.64
377.686	571.45
378.066	589.98
378.447	619.81
378.827	624.56
379.208	624.33
379.588	604.9
379.968	629.98
380.349	628.4
380.729	635.41
381.109	666.14
381.489	656.2
381.87	679.47
382.25	673.15
382.63	692.81
383.01	688.74
383.39	680.15
383.77	701.17
384.15	709.08
384.53	710.43
384.91	719.7
385.29	738.68
385.67	748.85
386.049	745.23
386.429	757.44
386.809	775.97
387.189	772.13
387.568	767.38
387.948	811.67
388.328	812.58
388.707	813.48
389.087	836.76
389.466	851.9
389.846	873.82
390.225	863.88
390.605	894.16
390.984	880.82
391.363	890.09
391.743	913.59
392.122	928.96
392.501	922.41
392.881	918.34
393.26	960.37
393.639	968.28
394.018	973.48
394.397	985.91
394.776	1001.73
395.155	1010.54
395.534	1000.82
395.913	1024.1
396.292	1036.75
396.671	1043.76
397.05	1071.55
397.429	1053.7
397.808	1100.93
398.186	1091.21
398.565	1088.28
398.944	1117.88
399.323	1116.98
399.701	1150.2
400.08	1135.28
400.458	1146.81
400.837	1190.19
401.215	1167.6
401.594	1198.78
401.972	1220.93
402.351	1219.35
402.729	1244.43
403.107	1290.31
403.486	1236.97
403.864	1266.35
404.242	1284.2
404.62	1307.03
404.999	1303.41
405.377	1338.67
405.755	1366.01
406.133	1365.56
406.511	1359.68
406.889	1397.19
407.267	1413.47
407.645	1436.29
408.023	1466.57
408.401	1472.67
408.779	1500.92
409.156	1536.85
409.534	1535.04
409.912	1572.78
410.29	1620.69
410.667	1610.07
411.045	1628.38
411.422	1634.02
411.8	1687.13
412.178	1733.91
412.555	1739.33
412.933	1731.42
413.31	1784.76
413.687	1822.95
414.065	1799.9
414.442	1828.37
414.819	1876.73
415.197	1904.07
415.574	1900.91
415.951	1938.65
416.328	1946.78
416.705	1965.54
417.082	1966.45
417.46	2011.87
417.837	1999.44
418.214	2056.39
418.591	2070.62
418.967	2065.43
419.344	2105.2
419.721	2138.42
420.098	2111.75
420.475	2242.37
420.852	2219.09
421.228	2210.05
421.605	2238.75
421.982	2253.44
422.358	2275.36
422.735	2291.63
423.111	2311.3
423.488	2412.76
423.864	2388.36
424.241	2447.79
424.617	2443.5
424.994	2468.13
425.37	2514
425.746	2516.94
426.123	2549.93
426.499	2537.73
426.875	2577.05
427.251	2656.14
427.627	2662.02
428.003	2707.67
428.379	2760.77
428.756	2763.49
429.132	2819.53
429.507	2860.21
429.883	2885.29
430.259	2959.87
430.635	2973.65
431.011	2975.23
431.387	3079.64
431.763	3103.59
432.138	3109.47
432.514	3142.91
432.89	3213.42
433.265	3316.24
433.641	3332.96
434.016	3334.32
434.392	3419.51
434.767	3481.21
435.143	3462.45
435.518	3523.01
435.894	3556.01
436.269	3631.03
436.644	3647.08
437.02	3699.96
437.395	3714.42
437.77	3794.19
438.145	3806.17
438.52	3847.3
438.895	3871.93
439.271	3873.74
439.646	3974.98
440.021	4032.61
440.395	4031.48
440.77	3975.88
441.145	4043.68
441.52	4141.98
441.895	4137.01
442.27	4226.5
442.645	4179.95
443.019	4232.6
443.394	4266.27
443.769	4338.81
444.143	4270.79
444.518	4398.02
444.892	4397.34
445.267	4395.99
445.641	4504.91
446.016	4489.09
446.39	4548.98
446.764	4552.59
447.139	4535.42
447.513	4605.7
447.887	4670.33
448.262	4687.5
448.636	4708.52
449.01	4774.06
449.384	4808.63
449.758	4850.21
450.132	4875.07
450.506	4935.18
450.88	4931.34
451.254	5011.11
451.628	5022.18
452.002	5112.8
452.376	5132.69
452.75	5261.95
453.123	5243.42
453.497	5319.58
453.871	5372.23
454.244	5475.51
454.618	5497.43
454.992	5568.38
455.365	5586.01
455.739	5722.05
456.112	5788.94
456.486	5808.83
456.859	5887.02
457.232	5997.3
457.606	5958.2
457.979	6037.98
458.352	6219.22
458.725	6268.25
459.099	6297.41
459.472	6368.14
459.845	6430.73
460.218	6535.59
460.591	6569.71
460.964	6589.83
461.337	6818.3
461.71	6870.05
462.083	6962.92
462.456	6963.15
462.829	6964.05
463.201	7141.45
463.574	7095.58
463.947	7184.39
464.32	7415.34
464.692	7461.89
465.065	7555
465.438	7672.96
465.81	7770.36
466.183	7780.08
466.555	7999.28
466.928	8049.9
467.3	8017.81
467.672	8172.16
468.045	8385.03
468.417	8435.88
468.789	8452.6
469.161	8574.18
469.534	8731.69
469.906	8876.32
470.278	8944.12
470.65	9092.36
471.022	9234.05
471.394	9455.06
471.766	9516.08
472.138	9620.71
472.51	9830.19
472.882	9849.4
473.253	10003.3
473.625	10226.12
473.997	10385.43
474.369	10419.1
474.74	10564.64
475.112	10808.02
475.484	10908.58
475.855	11116.71
476.227	11181.8
476.598	11558.06
476.97	11632.86
477.341	11880.99
477.713	12085.73
478.084	12042.34
478.455	12500.18
478.827	12600.29
479.198	12923.22
479.569	12864.46
479.94	13372.02
480.311	13430.32
480.682	13798
481.053	13979.46
481.424	14257.87
481.795	14385.1
482.166	14586.68
482.537	14750.74
482.908	15058.08
483.279	15239.77
483.65	15550.72
484.021	15817.15
484.391	15992.74
484.762	16187.54
485.133	16299.63
485.503	16550.02
485.874	16913.17
486.244	17016.9
486.615	17360.84
486.985	17551.35
487.356	17934.39
487.726	17952.47
488.097	18421.83
488.467	18427.03
488.837	18925.32
489.207	19024.98
489.578	19311.07
489.948	19518.07
490.318	19750.61
490.688	19870.38
491.058	20135.01
491.428	20402.57
491.798	20490.7
492.168	21056.79
492.538	21047.98
492.908	21256.33
493.278	21645.25
493.648	21642.76
494.017	21890.22
494.387	22207.72
494.757	22241.62
495.126	22573.36
495.496	22691.78
495.866	22784.88
496.235	22984.65
496.605	23259.9
496.974	23388.48
497.344	23602.71
497.713	23734.01
498.082	23986.43
498.452	24102.13
498.821	24251.74
499.19	24301.23
499.559	24591.16
499.928	24734.43
500.298	24967.2
500.667	25057.82
501.036	25249
501.405	25459.16
501.774	25571.25
502.143	25691.7
502.512	25749.1
502.88	26059.82
503.249	26121.52
503.618	26380.72
503.987	26444.9
504.356	26684.44
504.724	26921.27
505.093	26980.7
505.462	27098.21
505.83	27350.18
506.199	27504.76
506.567	27886.67
506.936	27795.6
507.304	28364.17
507.672	28294.79
508.041	28493.21
508.409	28786.76
508.777	28883.93
509.145	29090.03
509.514	29142
509.882	29361.88
510.25	29370.7
510.618	29871.93
510.986	29881.64
511.354	30254.06
511.722	30315.3
512.09	30577.22
512.458	30546.71
512.826	31052.69
513.193	31229.63
513.561	31293.36
513.929	31403.86
514.297	31701.48
514.664	31959.1
515.032	32061.25
515.4	32350.96
515.767	32425.31
516.135	32643.83
516.502	32670.27
516.869	33293.31
517.237	33459.18
517.604	33359.97
517.972	33880.86
518.339	34144.13
518.706	34214.19
519.073	34264.81
519.44	34578.7
519.808	34981.17
520.175	34941.4
520.542	35370.54
520.909	35471.33
521.276	35685.11
521.643	36149.5
522.009	36241.25
522.376	36538.19
522.743	36647.57
523.11	37105.63
523.477	37317.38
523.843	37621.78
524.21	38081.65
524.577	38298.37
524.943	38581.75
525.31	38553.05
525.676	39056.54
526.043	39250.44
526.409	39343.32
526.776	39757.09
527.142	40043.41
527.508	40342.61
527.874	40481.59
528.241	40797.97
528.607	40847.68
528.973	41115.02
529.339	41164.74
529.705	41615.8
530.071	42020.76
530.437	42122.45
530.803	42317.93
531.169	42575.77
531.535	42605.83
531.901	42814.41
532.267	43007.4
532.632	43349.99
532.998	43456.88
533.364	43781.84
533.73	43844.44
534.095	44101.16
534.461	44293.24
534.826	44444.42
535.192	44673.8
535.557	44994.92
535.923	45037.4
536.288	45068.81
536.653	45402.82
537.019	45334.57
537.384	45657.27
537.749	45658.63
538.114	45845.07
538.479	45938.62
538.845	45963.25
539.21	46057.49
539.575	46261.55
539.94	46412.06
540.305	46698.83
540.67	46813.85
541.034	46848.66
541.399	47068.76
541.764	47110.12
542.129	47323.22
542.494	47323.22
542.858	47480.95
543.223	47629.88
543.587	47824.45
543.952	47840.04
544.316	48025.35
544.681	48113.71
545.045	48371.78
545.41	48503.53
545.774	48513.92
546.138	48628.5
546.503	48765.44
546.867	48777.87
547.231	49058.99
547.595	49099.9
547.959	49376.27
548.324	49423.73
548.688	49550.73
549.052	49716.6
549.416	49848.8
549.779	49871.85
550.143	50114.33
550.507	50173.09
550.871	50327.89
551.235	50374.89
551.599	50588.44
551.962	50637.48
552.326	50824.82
552.689	50994.76
553.053	50889.68
553.417	50928.77
553.78	51459.16
554.143	51317.46
554.507	51446.95
554.87	51633.84
555.234	51974.4
555.597	51773.95
555.96	52069.99
556.323	52170.32
556.686	52206.71
557.05	52479.47
557.413	52629.75
557.776	52638.79
558.139	52823.41
558.502	52917.2
558.865	53022.73
559.228	53205.55
559.59	53270.41
559.953	53362.16
560.316	53676.5
560.679	53634.69
561.041	54028.35
561.404	54066.77
561.767	54257.73
562.129	54184.51
562.492	54501.79
562.854	54473.31
563.217	54584.5
563.579	54675.34
563.941	54836.47
564.304	54984.03
564.666	55180.19
565.028	55171.83
565.39	55338.83
565.753	55448.43
566.115	55490.91
566.477	55664.02
566.839	55809.32
567.201	55844.58
567.563	55964.8
567.925	56116.89
568.287	56114.17
568.648	56312.14
569.01	56420.15
569.372	56572.69
569.734	56574.05
570.095	56755.74
570.457	56870.54
570.819	56883.42
571.18	56867.15
571.542	57049.74
571.903	57025.56
572.265	57132
572.626	57133.36
572.987	57261.26
573.349	57384.2
573.71	57458.55
574.071	57468.26
574.432	57582.38
574.794	57752.78
575.155	57851.3
575.516	57772.66
575.877	57850.85
576.238	57923.62
576.599	58050.62
576.96	58042.71
577.32	58028.93
577.681	58104.4
578.042	58150.96
578.403	58172.88
578.763	58223.27
579.124	58196.61
579.485	58314.12
579.845	58331.74
580.206	58300.78
580.566	58383.49
580.927	58352.99
581.287	58486.09
581.648	58390.5
582.008	58480.21
582.368	58372.42
582.728	58365.41
583.089	58410.84
583.449	58439.08
583.809	58461.68
584.169	58538.07
584.529	58455.81
584.889	58658.97
585.249	58550.27
585.609	58556.6
585.969	58679.3
586.329	58566.31
586.688	58663.71
587.048	58611.28
587.408	58561.34
587.768	58532.19
588.127	58532.87
588.487	58505.3
588.846	58637.95
589.206	58470.72
589.565	58539.65
589.925	58688.34
590.284	58548.69
590.643	58522.47
591.003	58686.08
591.362	58743.03
591.721	58632.98
592.08	58680.66
592.44	58762.24
592.799	58710.04
593.158	58648.8
593.517	58636.14
593.876	58656.03
594.235	58611.06
594.593	58678.63
594.952	58685.63
595.311	58650.15
595.67	58750.94
596.029	58841.11
596.387	58784.39
596.746	58790.71
597.104	58677.95
597.463	58764.95
597.822	58841.56
598.18	58691.96
598.538	58703.94
598.897	58865.74
599.255	58747.78
599.613	59064.38
599.972	58823.71
600.33	58922.46
600.688	58829.36
601.046	58887.21
601.404	58983.25
601.762	58846.98
602.12	59026.87
602.478	59061.44
602.836	59150.25
603.194	58922.91
603.552	58999.07
603.91	58960.65
604.268	59023.48
604.625	58990.03
604.983	59104.83
605.341	58935.79
605.698	59164.72
606.056	59178.05
606.413	59136.02
606.771	59173.3
607.128	59229.8
607.485	59097.82
607.843	59133.76
608.2	59258.27
608.557	59266.63
608.914	59182.34
609.272	59289.46
609.629	59352.51
609.986	59423.01
610.343	59373.3
610.7	59520.64
611.057	59478.15
611.414	59483.13
611.771	59484.71
612.127	59507.76
612.484	59528.77
612.841	59634.99
613.198	59496.23
613.554	59538.94
613.911	59605.16
614.267	59659.39
614.624	59647.64
614.98	59695.32
615.337	59800.18
615.693	59756.79
616.05	59739.84
616.406	59872.04
616.762	59749.11
617.118	59743.01
617.475	59749.78
617.831	59842.66
618.187	59790.24
618.543	59802.66
618.899	59890.35
619.255	59957.24
619.611	59882.44
619.967	59971.93
620.323	59989.33
620.678	59950.68
621.034	59833.62
621.39	59814.19
621.746	59775.55
622.101	60043.11
622.457	59872.95
622.812	59855.77
623.168	59974.19
623.523	59920.4
623.879	59934.86
624.234	59782.78
624.589	59849.22
624.945	59870.46
625.3	59863
625.655	59836.11
626.01	59891.48
626.365	59908.88
626.72	59837.24
627.075	59831.36
627.43	59839.95
627.785	59743.68
628.14	59847.41
628.495	59877.24
628.85	59837.01
629.205	59763.57
629.559	59884.24
629.914	59721.99
630.269	59681.54
630.623	59639.73
630.978	59593.18
631.332	59661.65
631.687	59718.6
632.041	59593.63
632.396	59627.98
632.75	59536.23
633.104	59595.89
633.459	59360.64
633.813	59408.32
634.167	59364.03
634.521	59386.18
634.875	59401.32
635.229	59282.68
635.583	59166.75
635.937	59133.98
636.291	59118.16
636.645	59201.32
636.999	59072.51
637.352	59045.85
637.706	59022.35
638.06	59028.67
638.413	58953.87
638.767	58872.97
639.121	58905.97
639.474	58769.7
639.828	58762.69
640.181	58825.29
640.534	58786.87
640.888	58670.94
641.241	58559.99
641.594	58634.79
641.947	58662.36
642.301	58576.26
642.654	58564.05
643.007	58563.83
643.36	58508.01
643.713	58524.73
644.066	58539.87
644.419	58333.1
644.771	58105.08
645.124	57767.46
645.477	57685.66
645.83	57635.04
646.182	57519.56
646.535	57604.98
646.888	57696.73
647.24	57525.44
647.593	57753.45
647.945	57649.28
648.298	57535.61
648.65	57543.29
649.002	57392.33
649.355	57431.43
649.707	57357.08
650.059	57311.88
650.411	57570.63
650.763	57568.6
651.115	57886.33
651.467	57796.84
651.819	57819.44
652.171	57701.93
652.523	57602.72
652.875	57583.97
653.227	57512.33
653.578	57715.04
653.93	57529.05
654.282	57486.12
654.633	57435.5
654.985	57430.75
655.337	57506.45
655.688	57424.87
656.039	57448.15
656.391	57261.26
656.742	57341.03
657.094	57275.5
657.445	57419.9
657.796	57282.96
658.147	57263.52
658.498	57202.96
658.849	57290.64
659.2	57179.68
659.551	57169.06
659.902	57231.43
660.253	57096.07
660.604	57157.31
660.955	57049.97
661.306	57102.4
661.656	57050.42
662.007	56996.86
662.358	56959.58
662.708	56977.2
663.059	57019.46
663.409	56843.87
663.76	56997.54
664.11	57029.18
664.461	56924.32
664.811	56948.95
665.161	56913.25
665.511	56883.19
665.862	56873.7
666.212	56849.52
666.562	56857.66
666.912	56770.2
667.262	56744.67
667.612	56764.55
667.962	56758.68
668.312	56668.28
668.662	56751.22
669.011	56654.27
669.361	56631
669.711	56701.5
670.06	56558
670.41	56577.44
670.76	56447.27
671.109	56539.47
671.459	56484.33
671.808	56451.11
672.157	56463.09
672.507	56216.09
672.856	56280.72
673.205	56414.73
673.554	56492.24
673.904	56365.92
674.253	56433.49
674.602	56379.93
674.951	55886.84
675.3	55823.56
675.649	56205.25
675.998	56201.4
676.346	56210.22
676.695	56202.31
677.044	56033.5
677.393	56059.03
677.741	56031.46
678.09	56028.07
678.438	55888.87
678.787	55926.61
679.135	55989.43
679.484	55803
679.832	55934.29
680.181	55681.42
680.529	55678.93
680.877	55597.58
681.225	55588.09
681.573	55718.03
681.922	55569.33
682.27	55487.07
682.618	55500.86
682.966	55400.29
683.314	55433.29
683.661	55363.46
684.009	55166.63
684.357	55164.82
684.705	55060.42
685.053	55142.22
685.4	55118.95
685.748	54964.83
686.095	54924.83
686.443	54841.89
686.79	54782.91
687.138	54899.29
687.485	54756.02
687.832	54602.12
688.18	54686.19
688.527	54450.49
688.874	54486.42
689.221	54411.39
689.568	54295.24
689.915	54290.72
690.262	54151.97
690.609	54133.66
690.956	53934.34
691.303	53914.91
691.65	53842.6
691.997	53781.13
692.344	53571.64
692.69	53598.99
693.037	53624.52
693.383	53346.56
693.73	53408.71
694.077	53222.5
694.423	53216.4
694.769	53120.58
695.116	52883.98
695.462	52875.39
695.808	52848.95
696.155	52894.37
696.501	52588.39
696.847	52675.62
697.193	52483.76
697.539	52501.61
697.885	52361.05
698.231	52246.03
698.577	52247.38
698.923	52161.06
699.269	52093.04
699.614	51758.13
699.96	51798.13
700.306	51766.72
700.651	51579.38
700.997	51539.38
701.342	51483.79
701.688	51401.3
702.033	51281.76
702.379	51377.35
702.724	51148.88
703.069	51135.1
703.415	50824.82
703.76	50741.66
704.105	50831.15
704.45	50714.77
704.795	50413.31
705.14	50426.19
705.485	50300.99
705.83	50219.19
706.175	50181
706.52	50096.48
706.865	49968.57
707.209	49991.62
707.554	49737.84
707.899	49822.36
708.243	49640.9
708.588	49635.93
708.932	49242.04
709.277	49395.71
709.621	49383.5
709.966	48947.13
710.31	49108.93
710.654	48791.65
710.998	48863.52
711.342	48796.85
711.687	48730.19
712.031	48607.7
712.375	48409.29
712.719	48612.9
713.063	48383.08
713.407	48481.15
713.75	48242.06
714.094	48213.14
714.438	48046.36
714.782	48052.01
715.125	47793.72
715.469	47883.66
715.812	47609.99
716.156	47351.24
716.499	47454.97
716.843	47321.86
717.186	47071.47
717.53	47162.77
717.873	47293.84
718.216	47105.37
718.559	46859.28
718.902	46786.74
719.246	46913.96
719.589	46657.25
719.932	46539.96
720.275	46428.78
720.617	46475.56
720.96	46409.12
721.303	46329.35
721.646	46401.44
721.989	46031.73
722.331	46074.44
722.674	45852.3
723.016	45948.57
723.359	45861.79
723.701	46039.41
724.044	45549.71
724.386	45383.38
724.729	45550.84
725.071	45317.85
725.413	45285.08
725.755	45244.4
726.097	45100.9
726.439	45064.07
726.782	44950.4
727.124	45148.13
727.465	44817.3
727.807	44911.98
728.149	44868.82
728.491	44723.97
728.833	44721.03
729.175	44496.4
729.516	44545.66
729.858	44471.09
730.199	44322.85
730.541	44241.04
730.882	44080.37
731.224	44225.22
731.565	43911.33
731.906	43867.49
732.248	43876.3
732.589	43566.26
732.93	43467.95
733.271	43629.53
733.612	43603.32
733.953	43461.85
734.294	43401.06
734.635	43288.97
734.976	43253.95
735.317	43143.22
735.658	43146.83
735.999	43065.7
736.339	42800.4
736.68	42983.67
737.021	42748.88
737.361	42614.87
737.702	42848.08
738.042	42899.15
738.383	42634.08
738.723	42726.5
739.063	42534.19
739.404	42441.77
739.744	42466.17
740.084	42154.99
740.424	42218.49
740.764	42090.59
741.104	42282.22
741.444	41980.08
741.784	41903.25
742.124	42026.18
742.464	41857.37
742.804	41728.34
743.143	41693.99
743.483	41644.72
743.823	41423.71
744.162	41364.28
744.502	41410.38
744.841	41175.58
745.181	41352.08
745.52	41149.37
745.86	41143.04
746.199	40852.2
746.538	40912.99
746.877	40960
747.216	40951.18
747.556	40780.34
747.895	40721.13
748.234	40620.34
748.573	40464.64
748.911	40302.84
749.25	40373.35
749.589	40217.42
749.928	40242.28
750.267	40129.96
750.605	39945.56
750.944	39883.41
751.283	39895.84
751.621	39970.19
751.96	39640.71
752.298	39534.27
752.636	39553.25
