Data from foil_FLMS001491_073.txt Node
Date: Tue Feb 07 11:36:42 GMT 2017
User: dcchb
Spectrometer: FLMS00149
Trigger mode: 0
Integration Time (sec): 2.000000E-2
Scans to average: 10
Electric dark correction enabled: true
Nonlinearity correction enabled: false
Boxcar width: 0
XAxis mode: Wavelengths
Number of Pixels in Spectrum: 2048
>>>>>Begin Spectral Data<<<<<
341.393	0.1
341.776	0.1
342.16	0.1
342.543	-67.02
342.927	-57.53
343.31	-82.38
343.693	-69.28
344.077	-63.4
344.46	-66.79
344.843	-61.14
345.226	-33.57
345.61	-28.15
345.993	-23.86
346.376	9.82
346.759	12.08
347.142	29.7
347.525	23.83
347.908	58.4
348.291	94.79
348.674	82.13
349.057	117.84
349.44	123.94
349.823	145.41
350.206	197.61
350.588	259.53
350.971	286.87
351.354	261.11
351.737	288
352.119	289.81
352.502	331.84
352.884	337.94
353.267	338.62
353.65	335.91
354.032	358.28
354.414	376.36
354.797	391.05
355.179	387.89
355.562	381.33
355.944	397.38
356.326	401.67
356.709	402.35
357.091	398.28
357.473	430.6
357.855	408.9
358.238	408.22
358.62	426.08
359.002	429.47
359.384	405.06
359.766	420.2
360.148	429.47
360.53	434.21
360.912	423.36
361.294	427.88
361.676	430.82
362.057	417.72
362.439	406.42
362.821	430.14
363.203	422.69
363.584	423.82
363.966	425.4
364.348	434.89
364.729	422.91
365.111	418.84
365.493	431.73
365.874	435.34
366.256	438.73
366.637	424.49
367.019	430.82
367.4	416.13
367.781	418.62
368.163	431.73
368.544	443.93
368.925	439.64
369.306	434.89
369.688	430.6
370.069	442.35
370.45	448.67
370.831	444.15
371.212	459.97
371.593	455.68
371.974	432.4
372.355	468.56
372.736	442.57
373.117	463.82
373.498	455
373.879	448.9
374.26	457.71
374.641	448.45
375.021	471.95
375.402	496.81
375.783	514.44
376.163	503.59
376.544	499.07
376.925	511.5
377.305	497.49
377.686	512.63
378.066	504.27
378.447	529.35
378.827	518.73
379.208	526.19
379.588	541.55
379.968	523.25
380.349	521.67
380.729	532.06
381.109	566.86
381.489	547.2
381.87	540.65
382.25	568.22
382.63	581.1
383.01	563.02
383.39	591.72
383.77	583.36
384.15	594.89
384.53	593.98
384.91	605.73
385.29	631.72
385.67	626.75
386.049	640.08
386.429	618.84
386.809	647.54
387.189	632.62
387.568	638.05
387.948	643.7
388.328	656.8
388.707	653.19
389.087	682.57
389.466	663.36
389.846	656.13
390.225	673.08
390.605	697.03
390.984	725.96
391.363	724.83
391.743	705.17
392.122	728.22
392.501	758.72
392.881	721.89
393.26	755.56
393.639	746.07
394.018	773.19
394.397	773.86
394.776	789
395.155	771.6
395.534	791.72
395.913	765.05
396.292	792.17
396.671	794.88
397.05	811.15
397.429	828.55
397.808	833.3
398.186	839.62
398.565	835.33
398.944	855.9
399.323	874.88
399.701	874.88
400.08	894.54
400.458	913.07
400.837	916.23
401.215	890.02
401.594	887.53
401.972	924.37
402.351	909.23
402.729	961.2
403.107	959.62
403.486	959.4
403.864	961.2
404.242	992.62
404.62	977.47
404.999	1019.28
405.377	983.58
405.755	1020.86
406.133	1027.42
406.511	1045.95
406.889	1039.62
407.267	1068.55
407.645	1105.61
408.023	1119.84
408.401	1131.59
408.779	1137.47
409.156	1157.36
409.534	1171.14
409.912	1170.01
410.29	1202.78
410.667	1208.88
411.045	1232.61
411.422	1224.93
411.8	1249.78
412.178	1263.79
412.555	1303.12
412.933	1300.86
413.31	1297.92
413.687	1304.02
414.065	1332.04
414.442	1372.27
414.819	1370.01
415.197	1396.45
415.574	1398.93
415.951	1417.46
416.328	1437.12
416.705	1452.04
417.082	1435.32
417.46	1475.31
417.837	1494.52
418.214	1520.06
418.591	1508.99
418.967	1521.64
419.344	1516.67
419.721	1567.06
420.098	1542.43
420.475	1579.72
420.852	1591.02
421.228	1614.07
421.605	1625.14
421.982	1627.17
422.358	1647.06
422.735	1684.35
423.111	1688.64
423.488	1739.04
423.864	1714.4
424.241	1737
424.617	1760.96
424.994	1760.28
425.37	1832.14
425.746	1818.58
426.123	1838.24
426.499	1838.92
426.875	1853.38
427.251	1908.75
427.627	1950.56
428.003	1958.69
428.379	1981.97
428.756	1983.55
429.132	2040.27
429.507	2064.9
429.883	2060.38
430.259	2110.33
430.635	2117.56
431.011	2137.44
431.387	2164.56
431.763	2214.5
432.138	2239.36
432.514	2270.77
432.89	2289.53
433.265	2329.3
433.641	2379.92
434.016	2384.89
434.392	2405.69
434.767	2464.21
435.143	2453.82
435.518	2454.27
435.894	2452.01
436.269	2563.2
436.644	2565.91
437.02	2615.62
437.395	2605
437.77	2638
438.145	2657.2
438.52	2678.9
438.895	2724.77
439.271	2723.42
439.646	2757.99
440.021	2819.69
440.395	2781.27
440.77	2825.79
441.145	2847.03
441.52	2887.71
441.895	2903.3
442.27	2920.7
442.645	2870.53
443.019	2984.65
443.394	2976.07
443.769	2984.65
444.143	2979.46
444.518	3052.67
444.892	3015.61
445.267	3065.78
445.641	3084.09
446.016	3109.85
446.39	3149.39
446.764	3109.4
447.139	3128.6
447.513	3212.44
447.887	3232.1
448.262	3235.27
448.636	3240.24
449.01	3294.93
449.384	3289.73
449.758	3316.4
450.132	3373.8
450.506	3400.69
450.88	3401.14
451.254	3434.13
451.628	3476.84
452.002	3517.97
452.376	3542.83
452.75	3554.13
453.123	3614.24
453.497	3628.93
453.871	3693.34
454.244	3764.29
454.618	3774.46
454.992	3820.11
455.365	3866.89
455.739	3911.63
456.112	3975.81
456.486	3996.83
456.859	4044.06
457.232	4159.09
457.606	4162.93
457.979	4148.01
458.352	4224.39
458.725	4297.16
459.099	4350.49
459.472	4364.96
459.845	4454.45
460.218	4466.2
460.591	4514.56
460.964	4514.33
461.337	4632.29
461.71	4702.12
462.083	4756.13
462.456	4757.49
462.829	4830.71
463.201	4891.04
463.574	4919.74
463.947	5028.44
464.32	5122.45
464.692	5124.26
465.065	5149.34
465.438	5187.53
465.81	5317.25
466.183	5412.84
466.555	5470.01
466.928	5514.08
467.3	5509.11
467.672	5621.65
468.045	5755.43
468.417	5723.79
468.789	5758.14
469.161	5917.46
469.534	5977.12
469.906	6151.35
470.278	6145.47
470.65	6156.32
471.022	6292.59
471.394	6412.36
471.766	6484.9
472.138	6530.77
472.51	6691
472.882	6808.28
473.253	6894.15
473.625	7000.59
473.997	7149.74
474.369	7151.1
474.74	7247.37
475.112	7369.62
475.484	7495.04
475.855	7590.18
476.227	7686.68
476.598	7919.44
476.97	7970.51
477.341	8138.87
477.713	8245.98
478.084	8341.57
478.455	8564.17
478.827	8553.32
479.198	8824.05
479.569	8897.72
479.94	9107.66
480.311	9137.94
480.682	9358.72
481.053	9594.2
481.424	9708.32
481.795	9831.7
482.166	10001.87
482.537	10043.45
482.908	10270.56
483.279	10412.25
483.65	10626.26
484.021	10742.19
484.391	10905.8
484.762	10993.26
485.133	11126.81
485.503	11290.42
485.874	11597.76
486.244	11619.68
486.615	11871.43
486.985	11997.98
487.356	12128.82
487.726	12288.14
488.097	12472.77
488.467	12590.73
488.837	12839.99
489.207	12974.9
489.578	13065.07
489.948	13218.96
490.318	13420.76
490.688	13528.56
491.058	13773.3
491.428	13888.1
491.798	13971.93
492.168	14234.53
492.538	14361.3
492.908	14548.42
493.278	14770.78
493.648	14722.88
494.017	14944.56
494.387	15051.23
494.757	15134.84
495.126	15391.56
495.496	15431.33
495.866	15527.83
496.235	15685.79
496.605	15819.8
496.974	15899.34
497.344	16107.25
497.713	16160.35
498.082	16274.25
498.452	16468.14
498.821	16490.29
499.19	16554.47
499.559	16720.11
499.928	16859.77
500.298	16997.39
500.667	17128.24
501.036	17140.67
501.405	17286.65
501.774	17294.11
502.143	17612.52
502.512	17673.98
502.88	17774.77
503.249	17837.82
503.618	18050.7
503.987	18026.97
504.356	18212.5
504.724	18300.86
505.093	18380.63
505.462	18452.27
505.83	18577.92
506.199	18751.92
506.567	18983.33
506.936	18948.3
507.304	19160.73
507.672	19286.6
508.041	19342.19
508.409	19486.59
508.777	19597.32
509.145	19849.75
509.514	19846.36
509.882	19956.64
510.25	20105.78
510.618	20337.19
510.986	20364.99
511.354	20660.57
511.722	20690.4
512.09	20839.32
512.458	20874.58
512.826	21023.05
513.193	21197.06
513.561	21230.95
513.929	21445.41
514.297	21662.58
514.664	21862.57
515.032	21990.26
515.4	22143.02
515.767	22239.97
516.135	22372.17
516.502	22248.1
516.869	22744.59
517.237	22890.34
517.604	22915.65
517.972	23068.87
518.339	23180.73
518.706	23315.64
519.073	23485.36
519.44	23576.2
519.808	23907.94
520.175	23901.17
520.542	24278.56
520.909	24333.47
521.276	24370.76
521.643	24638.77
522.009	24824.53
522.376	24921.03
522.743	25172.54
523.11	25339.77
523.477	25676.71
523.843	25855.24
524.21	26052.3
524.577	26207.09
524.943	26339.97
525.31	26542
525.676	26680.08
526.043	26940.18
526.409	27042.33
526.776	27298.82
527.142	27394.86
527.508	27517.12
527.874	27865.35
528.241	28049.98
528.607	28093.82
528.973	28350.31
529.339	28294.95
529.705	28691.77
530.071	28795.95
530.437	29105.1
530.803	29248.14
531.169	29381.02
531.535	29232.78
531.901	29460.34
532.267	29686.32
532.632	29994.11
532.998	29951.63
533.364	30131.06
533.73	30178.06
534.095	30496.92
534.461	30625.73
534.826	30658.28
535.192	30877.03
535.557	31105.95
535.923	31265.49
536.288	31169.22
536.653	31416.22
537.019	31299.61
537.384	31533.73
537.749	31790.45
538.114	31745.7
538.479	31895.08
538.845	31976.21
539.21	31976.89
539.575	32105.24
539.94	32265.24
540.305	32482.63
540.67	32564.44
541.034	32685.34
541.399	32886.01
541.764	32911.78
542.129	33022.28
542.494	33063.86
542.858	33324.65
543.223	33326.68
543.587	33445.77
543.952	33518.09
544.316	33665.43
544.681	33695.26
545.045	33848.02
545.41	34092.54
545.774	34128.02
546.138	34230.16
546.503	34192.87
546.867	34241.91
547.231	34578.85
547.595	34831.27
547.959	34843.25
548.324	35012.51
548.688	34923.02
549.052	35062
549.416	35301.54
549.779	35229.23
550.143	35416.34
550.507	35605.72
550.871	35731.81
551.235	35751.7
551.599	36037.12
551.962	36195.76
552.326	36219.49
552.689	36454.28
553.053	36293.38
553.417	36511.23
553.78	37089.07
554.143	36798.91
554.507	37016.53
554.87	37129.07
555.234	37566.34
555.597	37373.81
555.96	37561.82
556.323	37723.63
556.686	37767.24
557.05	38038.42
557.413	38207.68
557.776	38110.06
558.139	38542.36
558.502	38687.44
558.865	38760.21
559.228	38916.14
559.59	39188.9
559.953	39204.72
560.316	39616.68
560.679	39623.92
561.041	39870.24
561.404	39894.42
561.767	40434.52
562.129	40295.31
562.492	40653.95
562.854	40646.49
563.217	40633.61
563.579	40998.57
563.941	41102.97
564.304	41302.97
564.666	41505.67
565.028	41587.48
565.39	41938.88
565.753	42228.37
566.115	42291.42
566.477	42372.09
566.839	42538.42
567.201	42681.46
567.563	42737.28
567.925	43113.32
568.287	43072.41
568.648	43184.27
569.01	43444.15
569.372	43691.83
569.734	43638.95
570.095	43758.27
570.457	44111.26
570.819	44024.7
571.18	44168.2
571.542	44338.59
571.903	44395.32
572.265	44596.44
572.626	44657.46
572.987	44793.5
573.349	44923.21
573.71	44978.35
574.071	45178.35
574.432	45187.84
574.794	45508.96
575.155	45518
575.516	45453.37
575.877	45729.07
576.238	45569.52
576.599	45753.02
576.96	45895.39
577.32	45903.75
577.681	46063.52
578.042	46188.26
578.403	46180.13
578.763	46084.08
579.124	46286.34
579.485	46531.76
579.845	46662.83
580.206	46500.8
580.566	46451.53
580.927	46468.93
581.287	46715.25
581.648	46617.63
582.008	46813.11
582.368	46659.44
582.728	46826.89
583.089	46691.98
583.449	46771.07
583.809	46854.91
584.169	46911.86
584.529	46775.82
584.889	47017.62
585.249	46785.99
585.609	46713.45
585.969	46813.78
586.329	46789.15
586.688	46921.13
587.048	46789.38
587.408	46821.47
587.768	46736.27
588.127	46816.72
588.487	46712.32
588.846	47012.65
589.206	46986.21
589.565	46876.83
589.925	47002.93
590.284	46884.52
590.643	46960.22
591.003	47073.66
591.362	47178.07
591.721	47103.95
592.08	47020.11
592.44	47032.31
592.799	47034.79
593.158	46992.08
593.517	47116.6
593.876	47126.09
594.235	46863.95
594.593	47021.46
594.952	47054.23
595.311	47003.38
595.67	47090.84
596.029	47251.51
596.387	47367.21
596.746	47307.56
597.104	47109.82
597.463	47228.24
597.822	47350.94
598.18	47047.45
598.538	47105.07
598.897	47438.17
599.255	47097.84
599.613	47709.58
599.972	47401.56
600.33	47441.79
600.688	47432.98
601.046	47445.63
601.404	47543.93
601.762	47443.82
602.12	47648.34
602.478	47596.81
602.836	47703.7
603.194	47408.8
603.552	47634.78
603.91	47384.84
604.268	47824.83
604.625	47649.69
604.983	47675.46
605.341	47528.57
605.698	47815.34
606.056	47827.09
606.413	47919.52
606.771	48031.83
607.128	48008.55
607.485	47773.08
607.843	47973.98
608.2	48096.01
608.557	48180.07
608.914	48189.79
609.272	48271.37
609.629	48206.74
609.986	48359.73
610.343	48276.34
610.7	48380.3
611.057	48374.42
611.414	48355.44
611.771	48414.42
612.127	48516.56
612.484	48439.05
612.841	48577.35
613.198	48468.65
613.554	48550.46
613.911	48636.33
614.267	48611.7
614.624	48525.83
614.98	48739.83
615.337	48795.2
615.693	48846.72
616.05	48715.88
616.406	49081.07
616.762	48951.35
617.118	48829.55
617.475	49024.35
617.831	49095.31
618.187	49023.44
618.543	48999.49
618.899	49163.78
619.255	48933.5
619.611	48992.93
619.967	49020.96
620.323	49224.57
620.678	49048.07
621.034	48969.66
621.39	49086.04
621.746	48887.18
622.101	49356.32
622.457	48896.67
622.812	49054.18
623.168	49093.95
623.523	49187.51
623.879	49166.26
624.234	49023.67
624.589	49205.36
624.945	49240.61
625.3	49237.9
625.655	49123.55
626.01	49251.23
626.365	49204.23
626.72	49207.62
627.075	49103.89
627.43	49030.45
627.785	48983.22
628.14	49093.05
628.495	49032.93
628.85	49053.5
629.205	48759.72
629.559	49027.96
629.914	48931.92
630.269	48880.62
630.623	48682.43
630.978	48665.71
631.332	48912.03
631.687	48905.93
632.041	48648.99
632.396	48686.05
632.75	48578.48
633.104	48578.71
633.459	48547.52
633.813	48407.19
634.167	48444.25
634.521	48381.2
634.875	48328.32
635.229	48332.61
635.583	48181.2
635.937	48041.32
636.291	47985.05
636.645	48063.69
636.999	47957.03
637.352	47982.11
637.706	47786.41
638.06	47932.62
638.413	47671.39
638.767	47667.55
639.121	47694.89
639.474	47540.77
639.828	47543.26
640.181	47721.33
640.534	47616.7
640.888	47379.87
641.241	47245.18
641.594	47347.1
641.947	47369.93
642.301	47199.76
642.654	47274.11
643.007	47179.88
643.36	47170.61
643.713	47072.31
644.066	47162.25
644.419	46795.25
644.771	46470.97
645.124	45891.1
645.477	45908.27
645.83	45723.19
646.182	45746.47
646.535	45789.18
646.888	45768.84
647.24	45557.77
647.593	45869.18
647.945	45626.7
648.298	45585.34
648.65	45419.24
649.002	45334.27
649.355	45431.9
649.707	45258.12
650.059	45468.96
650.411	45735.17
650.763	45594.61
651.115	46115.72
651.467	46067.81
651.819	45943.3
652.171	45841.83
652.523	45732.91
652.875	45868.5
653.227	45719.35
653.578	45842.74
653.93	45725
654.282	45754.15
654.633	45562.29
654.985	45607.71
655.337	45658.56
655.688	45563.42
656.039	45674.83
656.391	45249.76
656.742	45285.24
657.094	45262.86
657.445	45480.71
657.796	45209.76
658.147	45233.71
658.498	45061.29
658.849	45292.02
659.2	45000.95
659.551	45107.39
659.902	45212.02
660.253	45079.59
660.604	45143.09
660.955	44853.61
661.306	45141.06
661.656	44847.06
662.007	44961.18
662.358	44799.15
662.708	44844.8
663.059	44786.04
663.409	44405.03
663.76	44901.29
664.11	44840.28
664.461	44762.54
664.811	44739.04
665.161	44753.72
665.511	44625.37
665.862	44677.57
666.212	44751.46
666.562	44645.25
666.912	44455.88
667.262	44434.18
667.612	44469.89
667.962	44532.71
668.312	44467.63
668.662	44625.37
669.011	44506.05
669.361	44407.07
669.711	44539.04
670.06	44286.62
670.41	44289.1
670.76	44184.02
671.109	44204.59
671.459	44143.12
671.808	44003.46
672.157	44209.56
672.507	43928.89
672.856	43946.29
673.205	43936.8
673.554	44054.99
673.904	43869.23
674.253	44014.31
674.602	43921.88
674.951	43260.88
675.3	43098.17
675.649	43670.82
675.998	43683.02
676.346	43608.44
676.695	43823.58
677.044	43499.07
677.393	43595.34
677.741	43491.16
678.09	43523.93
678.438	43414.32
678.787	43417.49
679.135	43368
679.484	43015.24
679.832	43255.46
680.181	42939.08
680.529	43117.38
680.877	42984.51
681.225	43005.52
681.573	43204.61
681.922	42810.05
682.27	42664.06
682.618	42787.22
682.966	42659.32
683.314	42585.42
683.661	42534.12
684.009	42361.47
684.357	42179.33
684.705	42143.17
685.053	42289.16
685.4	42238.76
685.748	42024.76
686.095	42040.8
686.443	41856.17
686.79	41622.06
687.138	41862.95
687.485	41789.51
687.832	41523.07
688.18	41642.85
688.527	41406.69
688.874	41330.54
689.221	41168.28
689.568	40881.28
689.915	40845.8
690.262	40891.91
690.609	40842.19
690.956	40677.9
691.303	40659.37
691.65	40507.51
691.997	40342.77
692.344	40079.5
692.69	40148.2
693.037	40171.47
693.383	39837.24
693.73	40008.31
694.077	39625.05
694.423	39748.21
694.769	39672.95
695.116	39468.67
695.462	39556.12
695.808	39351.38
696.155	39387.99
696.501	38963.59
696.847	39041.33
697.193	38820.1
697.539	38802.92
697.885	38763.6
698.231	38548.92
698.577	38565.19
698.923	38336.04
699.269	38146.21
699.614	38051.3
699.96	37931.3
700.306	38079.55
700.651	37711.65
700.997	37634.82
701.342	37725.89
701.688	37564.31
702.033	37406.12
702.379	37393.47
702.724	37405.22
703.069	37271.44
703.415	36805.68
703.76	36861.73
704.105	36829.86
704.45	36860.15
704.795	36599.14
705.14	36382.65
705.485	36448.18
705.83	36414.06
706.175	36353.49
706.52	36146.04
706.865	36061.52
707.209	36115.31
707.554	35854.75
707.899	35899.04
708.243	35668.09
708.588	35574.3
708.932	35548.32
709.277	35483.01
709.621	35394.42
709.966	35177.25
710.31	35391.71
710.654	35001.66
710.998	35060.19
711.342	35042.12
711.687	34866.53
712.031	34775.91
712.375	34653.65
712.719	34595.12
713.063	34441.91
713.407	34638.51
713.75	34266.99
714.094	34411.17
714.438	34255.47
714.782	34257.28
715.125	34145.87
715.469	34162.59
715.812	33998.07
716.156	33737.74
716.499	33778.65
716.843	33871.07
717.186	33575.26
717.53	33754.24
717.873	33700.46
718.216	33642.6
718.559	33300.47
718.902	33257.76
719.246	33311.31
719.589	33095.73
719.932	33012.34
720.275	33062.51
720.617	33031.09
720.96	32854.15
721.303	32874.71
721.646	32808.73
721.989	32647.6
722.331	32792.68
722.674	32641.5
723.016	32676.53
723.359	32560.37
723.701	32470.21
724.044	32225.92
724.386	32197.22
724.729	32410.32
725.071	32249.65
725.413	32206.03
725.755	32051.23
726.097	31897.57
726.439	31831.35
726.782	31839.71
727.124	32011.01
727.465	31794.07
727.807	31737.34
728.149	31640.4
728.491	31526.05
728.833	31521.76
729.175	31395.43
729.516	31431.59
729.858	31282.21
730.199	31344.81
730.541	31205.61
730.882	31183.01
731.224	31296.45
731.565	31023.01
731.906	31090.58
732.248	31059.85
732.589	30847.42
732.93	30806.75
733.271	30793.19
733.612	30851.72
733.953	30786.18
734.294	30654.66
734.635	30436.81
734.976	30653.98
735.317	30345.29
735.658	30305.74
735.999	30471.61
736.339	30267.78
736.68	30367.21
737.021	30238.4
737.361	30171.06
737.702	30219.42
738.042	30225.29
738.383	30039.31
738.723	30147.1
739.063	29953.66
739.404	29937.62
739.744	29800.22
740.084	29711.63
740.424	29792.31
740.764	29795.93
741.104	29720.67
741.444	29615.37
741.784	29478.42
742.124	29487.69
742.464	29488.82
742.804	29276.39
743.143	29367.46
743.483	29335.6
743.823	29158.88
744.162	29089.5
744.502	29144.19
744.841	29145.1
745.181	28974.7
745.52	28854.93
745.86	29093.8
746.199	28764.54
746.538	28842.73
746.877	28800.7
747.216	28804.54
747.556	28647.26
747.895	28705.56
748.234	28409.97
748.573	28481.61
748.911	28475.51
749.25	28376.98
749.589	28183.09
749.928	28190.54
750.267	28271.9
750.605	28204.1
750.944	27992.58
751.283	27861.97
751.621	28097.44
751.96	27894.73
752.298	27942.64
752.636	27842.53
752.975	27599.83
753.313	27460.85
