Data from foil_FLMS001491_097.txt Node
Date: Tue Feb 07 11:37:33 GMT 2017
User: dcchb
Spectrometer: FLMS00149
Trigger mode: 0
Integration Time (sec): 2.000000E-2
Scans to average: 10
Electric dark correction enabled: true
Nonlinearity correction enabled: false
Boxcar width: 0
XAxis mode: Wavelengths
Number of Pixels in Spectrum: 2048
>>>>>Begin Spectral Data<<<<<
341.393	-19.91
341.776	-19.91
342.16	-19.91
342.543	-71.89
342.927	-65.34
343.31	-59.91
343.693	-52.68
344.077	-42.74
344.46	-65.34
344.843	-56.75
345.226	-35.06
345.61	-23.98
345.993	-35.28
346.376	2.01
346.759	25.51
347.142	33.64
347.525	23.02
347.908	64.38
348.291	33.64
348.674	85.85
349.057	103.7
349.44	126.75
349.823	163.36
350.206	180.76
350.588	225.95
350.971	276.8
351.354	271.83
351.737	283.81
352.119	310.02
352.502	324.26
352.884	317.03
353.267	331.04
353.65	356.35
354.032	352.5
354.414	359.28
354.797	383.46
355.179	378.72
355.562	397.7
355.944	371.04
356.326	399.74
356.709	397.48
357.091	410.13
357.473	422.79
357.855	429.11
358.238	403.58
358.62	413.52
359.002	408.55
359.384	423.69
359.766	416.68
360.148	411.94
360.53	437.02
360.912	425.5
361.294	413.07
361.676	392.28
362.057	419.62
362.439	410.36
362.821	430.69
363.203	420.53
363.584	426.4
363.966	418.27
364.348	413.97
364.729	408.1
365.111	424.37
365.493	404.48
365.874	425.05
366.256	435.44
366.637	412.16
367.019	429.34
367.4	433.86
367.781	420.75
368.163	434.99
368.544	424.82
368.925	451.49
369.306	421.66
369.688	436.57
370.069	446.74
370.45	419.17
370.831	454.88
371.212	475.67
371.593	456.68
371.974	445.61
372.355	444.25
372.736	453.75
373.117	460.98
373.498	460.52
373.879	477.47
374.26	460.52
374.641	453.29
375.021	459.85
375.402	481.77
375.783	493.52
376.163	524.93
376.544	519.73
376.925	507.3
377.305	478.83
377.686	493.97
378.066	506.85
378.447	525.16
378.827	520.18
379.208	514.31
379.588	510.01
379.968	529.9
380.349	551.82
380.729	550.92
381.109	554.99
381.489	556.57
381.87	551.14
382.25	573.97
382.63	581.43
383.01	580.52
383.39	583.69
383.77	590.92
384.15	604.02
384.53	594.53
384.91	579.17
385.29	615.1
385.67	620.29
386.049	632.5
386.429	611.71
386.809	617.36
387.189	654.19
387.568	647.64
387.948	641.31
388.328	683.8
388.707	684.02
389.087	683.34
389.466	681.99
389.846	710.46
390.225	683.8
390.605	695.32
390.984	697.13
391.363	727.41
391.743	725.83
392.122	727.86
392.501	743.68
392.881	738.26
393.26	757.24
393.639	764.7
394.018	788.43
394.397	807.41
394.776	782.78
395.155	790.91
395.534	833.62
395.913	805.37
396.292	819.16
396.671	880.4
397.05	851.93
397.429	855.77
397.808	870.68
398.186	872.72
398.565	869.78
398.944	893.96
399.323	883.56
399.701	921.98
400.08	905.26
400.458	932.6
400.837	942.55
401.215	943.22
401.594	952.04
401.972	953.62
402.351	975.99
402.729	981.87
403.107	986.84
403.486	1004.69
403.864	1025.26
404.242	1026.61
404.62	1062.99
404.999	1046.27
405.377	1065.48
405.755	1077.23
406.133	1103.67
406.511	1094.41
406.889	1128.3
407.267	1136.67
407.645	1140.05
408.023	1152.48
408.401	1207.85
408.779	1199.04
409.156	1240.17
409.534	1245.36
409.912	1243.1
410.29	1269.99
410.667	1283.55
411.045	1271.58
411.422	1312.03
411.8	1357.68
412.178	1374.62
412.555	1378.69
412.933	1391.8
413.31	1420.05
413.687	1406.71
414.065	1451.68
414.442	1466.37
414.819	1498.01
415.197	1514.28
415.574	1537.78
415.951	1550.89
416.328	1566.94
416.705	1550.67
417.082	1560.16
417.46	1607.84
417.837	1645.35
418.214	1598.57
418.591	1655.75
418.967	1679.93
419.344	1669.31
419.721	1699.14
420.098	1707.72
420.475	1700.94
420.852	1735.97
421.228	1800.6
421.605	1790.66
421.982	1783.2
422.358	1844.89
422.735	1848.06
423.111	1875.85
423.488	1905.01
423.864	1889.41
424.241	1905.68
424.617	1923.09
424.994	1983.2
425.37	1989.98
425.746	1983.2
426.123	2024.78
426.499	2070.2
426.875	2082.4
427.251	2100.26
427.627	2135.51
428.003	2134.38
428.379	2191.55
428.756	2210.31
429.132	2251.66
429.507	2289.63
429.883	2298.67
430.259	2345.22
430.635	2372.11
431.011	2427.25
431.387	2453.92
431.763	2486.91
432.138	2489.4
432.514	2510.41
432.89	2564.2
433.265	2620.92
433.641	2655.27
434.016	2635.16
434.392	2715.15
434.767	2791.76
435.143	2753.8
435.518	2814.59
435.894	2806.23
436.269	2892.78
436.644	2901.36
437.02	2898.43
437.395	2932.78
437.77	2966.9
438.145	3027.24
438.52	3060.91
438.895	3077.86
439.271	3073.34
439.646	3190.85
440.021	3160.79
440.395	3194.92
440.77	3182.94
441.145	3217.29
441.52	3315.36
441.895	3269.49
442.27	3319.88
442.645	3330.51
443.019	3377.28
443.394	3381.58
443.769	3430.62
444.143	3393.1
444.518	3467.9
444.892	3456.83
445.267	3481.69
445.641	3556.94
446.016	3536.83
446.39	3615.02
446.764	3640.1
447.139	3612.08
447.513	3691.4
447.887	3717.39
448.262	3702.47
448.636	3731.63
449.01	3796.48
449.384	3853.2
449.758	3810.94
450.132	3882.81
450.506	3920.09
450.88	3949.25
451.254	3941.11
451.628	4014.33
452.002	4062.24
452.376	4085.51
452.75	4096.36
453.123	4164.61
453.497	4190.82
453.871	4265.4
454.244	4338.61
454.618	4377.03
454.992	4456.13
455.365	4429.23
455.739	4568.67
456.112	4649.57
456.486	4671.26
456.859	4658.15
457.232	4761.65
457.606	4804.82
457.979	4843.23
458.352	4970.91
458.725	5012.95
459.099	5048.65
459.472	5154.86
459.845	5146.5
460.218	5202.77
460.591	5301.98
460.964	5306.05
461.337	5459.72
461.71	5499.71
462.083	5605.93
462.456	5638.47
462.829	5623.1
463.201	5717.11
463.574	5811.34
463.947	5873.94
464.32	5998.23
464.692	6008.85
465.065	6063.32
465.438	6132.92
465.81	6303.08
466.183	6401.61
466.555	6461.5
466.928	6463.08
467.3	6482.97
467.672	6649.97
468.045	6791.21
468.417	6815.39
468.789	6842.28
469.161	6973.57
469.534	7081.37
469.906	7258.54
470.278	7303.28
470.65	7388.7
471.022	7459.44
471.394	7659.21
471.766	7778.75
472.138	7854
472.51	7987.33
472.882	8091.74
473.253	8184.84
473.625	8272.07
473.997	8512.06
474.369	8568.33
474.74	8620.54
475.112	8807.65
475.484	8988.44
475.855	9152.5
476.227	9179.62
476.598	9460.51
476.97	9585.71
477.341	9761.97
477.713	9905.7
478.084	9958.81
478.455	10263.2
478.827	10320.38
479.198	10608.96
479.569	10610.31
479.94	10930.08
480.311	11014.15
480.682	11248.72
481.053	11519.67
481.424	11634.69
481.795	11798.31
482.166	11994.46
482.537	12160.1
482.908	12450.49
483.279	12542.24
483.65	12832.63
484.021	13010.93
484.391	13113.53
484.762	13335.21
485.133	13403.46
485.503	13624.92
485.874	13913.5
486.244	14072.37
486.615	14339.71
486.985	14480.49
487.356	14742.63
487.726	14869.86
488.097	15178.56
488.467	15282.73
488.837	15459
489.207	15696.28
489.578	16023.28
489.948	16169.26
490.318	16374.68
490.688	16386.43
491.058	16694.45
491.428	16945.29
491.798	17035.23
492.168	17402.23
492.538	17432.06
492.908	17625.95
493.278	17890.57
493.648	17973.74
494.017	18215.54
494.387	18368.08
494.757	18493.95
495.126	18719.48
495.496	18693.49
495.866	18881.06
496.235	19061.62
496.605	19302.29
496.974	19464.77
497.344	19770.75
497.713	19735.5
498.082	19904.99
498.452	20103.62
498.821	20176.16
499.19	20177.75
499.559	20488.02
499.928	20556.72
500.298	20785.64
500.667	21026.09
501.036	20937.05
501.405	21172.75
501.774	21245.51
502.143	21327.32
502.512	21500.88
502.88	21721.21
503.249	21732.96
503.618	21984.25
503.987	22128.2
504.356	22246.84
504.724	22400.96
505.093	22401.19
505.462	22702.43
505.83	22772.25
506.199	22902.19
506.567	23208.85
506.936	23244.33
507.304	23530.2
507.672	23572.23
508.041	23614.94
508.409	23918.21
508.777	24134.48
509.145	24186.91
509.514	24338.31
509.882	24519.55
510.25	24619.44
510.618	24804.97
510.986	24918.19
511.354	25168.58
511.722	25311.85
512.09	25555.46
512.458	25508.23
512.826	25919.52
513.193	25983.7
513.561	26117.48
513.929	26386.17
514.297	26674.52
514.664	26689.44
515.032	26925.37
515.4	27046.94
515.767	27157
516.135	27378.91
516.502	27332.59
516.869	27820.03
517.237	27998.33
517.604	27849.63
517.972	28449.17
518.339	28566.68
518.706	28533.01
519.073	28654.81
519.44	28936.84
519.808	29256.15
520.175	29263.61
520.542	29702.69
520.909	29833.76
521.276	29996.92
521.643	30304.03
522.009	30390.59
522.376	30797.35
522.743	30914.41
523.11	31203.9
523.477	31463.78
523.843	31629.42
524.21	31865.8
524.577	32176.53
524.943	32261.04
525.31	32460.59
525.676	32793.91
526.043	32993.68
526.409	33126.78
526.776	33578.07
527.142	33559.09
527.508	33878.18
527.874	34148.9
528.241	34289.01
528.607	34437.94
528.973	34805.16
529.339	34955.89
529.705	35155.21
530.071	35382.77
530.437	35604.23
530.803	35719.26
531.169	36083.09
531.535	35927.16
531.901	36038.57
532.267	36361.05
532.632	36493.7
532.998	36628.16
533.364	36930.3
533.73	37086.23
534.095	37385.43
534.461	37458.65
534.826	37640.34
535.192	37831.52
535.557	38013.89
535.923	38108.12
536.288	38269.93
536.653	38488.9
537.019	38506.76
537.384	38498.39
537.749	38760.76
538.114	38868.78
538.479	39042.56
538.845	39161.2
539.21	39240.52
539.575	39447.97
539.94	39439.84
540.305	39657.46
540.67	39707.4
541.034	39917.57
541.399	39999.82
541.764	40230.1
542.129	40175.64
542.494	40552.35
542.858	40525.69
543.223	40607.04
543.587	40863.53
543.952	40800.48
544.316	40921.16
544.681	40971.32
545.045	41360.92
545.41	41519.78
545.774	41550.97
546.138	41679.55
546.503	41756.39
546.867	41758.2
547.231	42264.17
547.595	42204.29
547.959	42367.67
548.324	42408.8
548.688	42596.14
549.052	42731.28
549.416	42731.96
549.779	42856.7
550.143	43034.55
550.507	43300.53
550.871	43361.77
551.235	43493.52
551.599	43685.6
551.962	43767.63
552.326	43910.91
552.689	44116.33
553.053	44000.85
553.417	44048.08
553.78	44654.16
554.143	44455.98
554.507	44928.96
554.87	44753.15
555.234	45187.03
555.597	44945
555.96	45347.03
556.323	45509.51
556.686	45467.93
557.05	45803.06
557.413	46048.25
557.776	46065.2
558.139	46366.89
558.502	46503.38
558.865	46590.84
559.228	46918.96
559.59	46984.27
559.953	47037.61
560.316	47407.99
560.679	47456.13
561.041	47616.57
561.404	47874.42
561.767	48064.92
562.129	47959.16
562.492	48405.7
562.854	48327.97
563.217	48493.61
563.579	48605.25
563.941	48933.6
564.304	48992.58
564.666	49286.13
565.028	49256.3
565.39	49403.64
565.753	49568.39
566.115	49788.04
566.477	49885.44
566.839	50018.32
567.201	50168.14
567.563	50235.26
567.925	50434.8
568.287	50462.6
568.648	50536.72
569.01	50697.62
569.372	51046.54
569.734	50972.87
570.095	51185.74
570.457	51360.43
570.819	51401.33
571.18	51409.24
571.542	51654.66
571.903	51690.59
572.265	51790.02
572.626	51845.84
572.987	51917.02
573.349	51997.25
573.71	52116.57
574.071	52198.37
574.432	52328.31
574.794	52487.18
575.155	52549.78
575.516	52471.13
575.877	52498.03
576.238	52583
576.599	52745.93
576.96	52686.95
577.32	52754.52
577.681	52883.33
578.042	52919.48
578.403	52978.47
578.763	53026.6
579.124	53073.83
579.485	53187.05
579.845	53135.98
580.206	53136.65
580.566	53135.98
580.927	53178.46
581.287	53330.55
581.648	53206.48
582.008	53418.68
582.368	53340.49
582.728	53397.66
583.089	53312.47
583.449	53273.37
583.809	53449.64
584.169	53411.9
584.529	53315.86
584.889	53590.2
585.249	53388.85
585.609	53336.65
585.969	53502.29
586.329	53413.71
586.688	53450.54
587.048	53453.93
587.408	53377.1
587.768	53367.38
588.127	53333.48
588.487	53376.87
588.846	53579.81
589.206	53448.28
589.565	53363.31
589.925	53533.48
590.284	53500.26
590.643	53537.77
591.003	53465.91
591.362	53578.22
591.721	53534.61
592.08	53540.03
592.44	53635.85
592.799	53542.74
593.158	53539.13
593.517	53484.44
593.876	53573.7
594.235	53495.74
594.593	53521.05
594.952	53671.1
595.311	53518.79
595.67	53628.62
596.029	53718.79
596.387	53735.06
596.746	53840.59
597.104	53632.23
597.463	53618.67
597.822	53799.24
598.18	53626.81
598.538	53611.9
598.897	53811.44
599.255	53569.18
599.613	53968.5
599.972	53730.31
600.33	53882.85
600.688	53712.68
601.046	53827.93
601.404	53959.91
601.762	53879.23
602.12	53930.08
602.478	54028.61
602.836	53931.66
603.194	53856.86
603.552	53994.26
603.91	53839.46
604.268	53947.03
604.625	53932.79
604.983	54103.41
605.341	53953.81
605.698	54079.91
606.056	54137.08
606.413	54130.75
606.771	54244.2
607.128	54289.62
607.485	54077.42
607.843	54145.44
608.2	54298.88
608.557	54314.7
608.914	54207.13
609.272	54433.79
609.629	54407.13
609.986	54461.59
610.343	54412.33
610.7	54536.16
611.057	54517.18
611.414	54398.32
611.771	54533
612.127	54628.59
612.484	54510.85
612.841	54634.24
613.198	54584.53
613.554	54638.54
613.911	54715.37
614.267	54785.88
614.624	54720.34
614.98	54783.62
615.337	54853.9
615.693	54827
616.05	54770.06
616.406	54963.72
616.762	54814.8
617.118	54868.59
617.475	54849.6
617.831	54856.61
618.187	54860.45
618.543	54984.74
618.899	55038.75
619.255	55008.47
619.611	54915.36
619.967	55098.18
620.323	55129.14
620.678	55022.93
621.034	54989.71
621.39	54859.09
621.746	54869.49
622.101	55231.97
622.457	54994.01
622.812	55025.19
623.168	55037.62
623.523	55061.8
623.879	55102.93
624.234	54949.71
624.589	55007.11
624.945	54988.13
625.3	55059.77
625.655	54990.16
626.01	54966.89
626.365	55139.99
626.72	55032.42
627.075	55005.98
627.43	54944.06
627.785	54793.11
628.14	54897.29
628.495	54947.45
628.85	54939.77
629.205	54833.33
629.559	54950.39
629.914	54805.54
630.269	54813.9
630.623	54785.88
630.978	54685.31
631.332	54749.04
631.687	54830.85
632.041	54651.19
632.396	54747.68
632.75	54544.3
633.104	54649.83
633.459	54543.17
633.813	54460.69
634.167	54495.71
634.521	54443.29
634.875	54461.36
635.229	54353.34
635.583	54236.74
635.937	54291.43
636.291	54274.25
636.645	54241.71
636.999	54137.76
637.352	54163.07
637.706	53935.95
638.06	54138.89
638.413	53970.76
638.767	53976.63
639.121	54019.79
639.474	53902.74
639.828	53851.21
640.181	53891.21
640.534	53810.31
640.888	53704.1
641.241	53547.49
641.594	53608.73
641.947	53637.66
642.301	53489.86
642.654	53528.06
643.007	53573.93
643.36	53446.48
643.713	53422.97
644.066	53561.28
644.419	53241.28
644.771	52960.16
645.124	52753.61
645.477	52640.4
645.83	52426.16
646.182	52338.93
646.535	52281.31
646.888	52304.13
647.24	52135.55
647.593	52344.81
647.945	52286.51
648.298	52154.98
648.65	51981.43
649.002	51931.71
649.355	52009.68
649.707	51873.64
650.059	52013.52
650.411	52372.38
650.763	52395.2
651.115	52688.53
651.467	52554.97
651.819	52443.11
652.171	52359.05
652.523	52446.73
652.875	52472.94
653.227	52252.61
653.578	52494.41
653.93	52378.71
654.282	52277.02
654.633	52162.89
654.985	52138.04
655.337	52193.4
655.688	52096
656.039	52222.1
656.391	51794.09
656.742	52053.52
657.094	52019.85
657.445	52056.91
657.796	51977.14
658.147	51809.23
658.498	51773.75
658.849	51923.13
659.2	51696.47
659.551	51640.42
659.902	51828.44
660.253	51717.93
660.604	51773.75
660.955	51529.01
661.306	51740.98
661.656	51572.4
662.007	51650.37
662.358	51678.16
662.708	51522.68
663.059	51527.43
663.409	51270.71
663.76	51558.16
664.11	51504.61
664.461	51524.27
664.811	51423.7
665.161	51353.2
665.511	51443.82
665.862	51354.33
666.212	51423.25
666.562	51393.42
666.912	51418.28
667.262	51225.07
667.612	51240.66
667.962	51185.97
668.312	51059.19
668.662	51206.76
669.011	51263.48
669.361	51143.49
669.711	51148.91
670.06	51004.96
670.41	50927.22
670.76	50883.83
671.109	50960.89
671.459	50993.89
671.808	50839.76
672.157	50844.96
672.507	50682.93
672.856	50686.32
673.205	50885.19
673.554	50760.67
673.904	50694.01
674.253	50955.92
674.602	50693.33
674.951	50163.17
675.3	50015.15
675.649	50470.74
675.998	50408.82
676.346	50501.92
676.695	50588.47
677.044	50257.18
677.393	50325.65
677.741	50431.87
678.09	50306.45
678.438	50245.43
678.787	50196.62
679.135	50334.47
679.484	50079.11
679.832	50109.84
680.181	49848.38
680.529	49934.93
680.877	49870.98
681.225	49668.5
681.573	49977.19
681.922	49693.13
682.27	49534.71
682.618	49565.67
682.966	49435.51
683.314	49477.99
683.661	49286.81
684.009	49113.48
684.357	49069.87
684.705	49139.92
685.053	49129.75
685.4	49101.96
685.748	48869.42
686.095	48772.93
686.443	48861.96
686.79	48562.99
687.138	48640.73
687.485	48635.76
687.832	48490.45
688.18	48441.41
688.527	48200.74
688.874	48149.89
689.221	48159.61
689.568	48036.22
689.915	47931.59
690.262	47895.21
690.609	47824.93
690.956	47630.36
691.303	47612.05
691.65	47431.94
691.997	47379.29
692.344	47087.77
692.69	47088.23
693.037	47076.47
693.383	46710.16
693.73	46775.24
694.077	46612.76
694.423	46574.34
694.769	46310.62
695.116	46250.96
695.462	46201.69
695.808	46059.1
696.155	46161.92
696.501	45968.48
696.847	45773.23
697.193	45506.8
697.539	45434.03
697.885	45324.2
698.231	45220.03
698.577	45257.09
698.923	45170.76
699.269	45011.22
699.614	44817.32
699.96	44590.21
700.306	44651.45
700.651	44455.53
700.997	44293.95
701.342	44229.77
701.688	44113.39
702.033	44208.98
702.379	44072.71
702.724	43780.06
703.069	43891.25
703.415	43491.71
703.76	43473.86
704.105	43406.51
704.45	43379.17
704.795	43027.54
705.14	42841.78
705.485	42937.6
705.83	42695.35
706.175	42906.87
706.52	42622.13
706.865	42632.75
707.209	42489.48
707.554	42319.31
707.899	42331.74
708.243	42020.11
708.588	42123.61
708.932	41842.71
709.277	41831.41
709.621	41779.44
709.966	41419.9
710.31	41630.52
710.654	41210.87
710.998	41188.04
711.342	41108.04
711.687	41066.91
712.031	41160.25
712.375	40769.97
712.719	40887.94
713.063	40650.43
713.407	40835.28
713.75	40623.76
714.094	40585.8
714.438	40307.61
714.782	40416.99
715.125	40238.24
715.469	40187.62
715.812	39989.88
716.156	39735.65
716.499	39795.76
716.843	39714.18
717.186	39602.09
717.53	39791.47
717.873	39826.72
718.216	39552.15
718.559	39384.02
718.902	39279.16
719.246	39226.51
719.589	39142.45
719.932	38915.78
720.275	39025.61
720.617	38920.3
720.96	38883.92
721.303	38820.19
721.646	38653.64
721.989	38580.65
722.331	38476.7
722.674	38365.29
723.016	38341.56
723.359	38226.09
723.701	38332.75
724.044	38024.96
724.386	37829.26
724.729	38105.18
725.071	37916.71
725.413	37983.38
725.755	37787.45
726.097	37659.09
726.439	37401.47
726.782	37539.32
727.124	37703.84
727.465	37296.39
727.807	37231.08
728.149	37286.67
728.491	36997.87
728.833	37172.33
729.175	36966.91
729.516	36979.11
729.858	36908.15
730.199	36822.73
730.541	36823.18
730.882	36660.25
731.224	36763.07
731.565	36476.75
731.906	36556.07
732.248	36456.41
732.589	36279.7
732.93	36088.29
733.271	36262.75
733.612	36102.3
733.953	36229.98
734.294	35915.19
734.635	35893.94
734.976	36005.35
735.317	35637.68
735.658	35725.81
735.999	35671.35
736.339	35598.81
736.68	35521.3
737.021	35457.57
737.361	35268.2
737.702	35449.66
738.042	35490.34
738.383	35244.69
738.723	35275.2
739.063	35057.58
739.404	35211.7
739.744	34846.97
740.084	34838.6
740.424	34894.65
740.764	34664.37
741.104	34917.02
741.444	34659.85
741.784	34577.37
742.124	34545.28
742.464	34546.63
742.804	34435
743.143	34388.9
743.483	34419.18
743.823	34067.1
744.162	34204.72
744.502	34110.49
744.841	33968.8
745.181	33947.55
745.52	33821
745.86	33978.06
746.199	33734.9
746.538	33616.71
746.877	33626.88
747.216	33591.4
747.556	33503.72
747.895	33360
748.234	33338.08
748.573	33147.57
748.911	33159.33
749.25	33215.37
749.589	32976.28
749.928	33189.61
750.267	32934.02
750.605	32996.39
750.944	32877.53
751.283	32767.25
751.621	32738.55
751.96	32545.33
752.298	32551.43
752.636	32529.96
752.975	32330.87
