Data from foil_FLMS001491_012.txt Node
Date: Tue Feb 07 11:25:27 GMT 2017
User: dcchb
Spectrometer: FLMS00149
Trigger mode: 0
Integration Time (sec): 2.000000E-2
Scans to average: 10
Electric dark correction enabled: true
Nonlinearity correction enabled: false
Boxcar width: 0
XAxis mode: Wavelengths
Number of Pixels in Spectrum: 2048
>>>>>Begin Spectral Data<<<<<
341.393	21.5
341.776	21.5
342.16	21.5
342.543	-54.43
342.927	-60.31
343.31	-54.43
343.693	-72.74
344.077	-66.64
344.46	-79.97
344.843	-43.59
345.226	-44.94
345.61	-46.98
345.993	-5.17
346.376	3.42
346.759	17.88
347.142	21.04
347.525	48.84
347.908	77.99
348.291	66.47
348.674	86.58
349.057	92.23
349.44	123.41
349.823	144.21
350.206	169.29
350.588	242.51
350.971	252.45
351.354	266.01
351.737	289.29
352.119	277.54
352.502	318.89
352.884	330.42
353.267	304.2
353.65	366.8
354.032	384.42
354.414	359.57
354.797	358.21
355.179	379.68
355.562	383.97
355.944	396.4
356.326	408.83
356.709	372
357.091	387.36
357.473	393.24
357.855	400.7
358.238	403.63
358.62	387.36
359.002	413.58
359.384	417.64
359.766	388.49
360.148	431.66
360.53	407.7
360.912	394.37
361.294	418.32
361.676	405.67
362.057	427.81
362.439	413.12
362.821	399.57
363.203	389.4
363.584	402.28
363.966	414.71
364.348	413.58
364.729	433.46
365.111	414.93
365.493	430.53
365.874	439.34
366.256	414.03
366.637	414.25
367.019	420.13
367.4	415.84
367.781	436.4
368.163	444.31
368.544	429.17
368.925	441.37
369.306	435.95
369.688	436.17
370.069	446.12
370.45	451.77
370.831	437.98
371.212	451.54
371.593	437.76
371.974	453.58
372.355	449.73
372.736	465.1
373.117	473.01
373.498	467.81
373.879	463.74
374.26	456.29
374.641	414.25
375.021	434.59
375.402	476.4
375.783	482.05
376.163	515.95
376.544	525.66
376.925	493.12
377.305	491.99
377.686	492.22
378.066	482.28
378.447	513.01
378.827	514.59
379.208	504.2
379.588	537.64
379.968	541.71
380.349	536.96
380.729	515.04
381.109	552.78
381.489	552.56
381.87	576.06
382.25	581.48
382.63	569.28
383.01	565.89
383.39	583.06
383.77	588.04
384.15	584.65
384.53	597.75
384.91	614.48
385.29	585.32
385.67	618.09
386.049	622.16
386.429	628.49
386.809	607.47
387.189	654.02
387.568	637.3
387.948	663.06
388.328	659.67
388.707	666.68
389.087	666.45
389.466	668.03
389.846	683.4
390.225	689.95
390.605	696.51
390.984	700.35
391.363	744.42
391.743	740.8
392.122	755.71
392.501	738.09
392.881	772.89
393.26	746.68
393.639	767.47
394.018	802.04
394.397	758.2
394.776	799.1
395.155	818.09
395.534	793.23
395.913	805.88
396.292	831.42
396.671	851.53
397.05	858.08
397.429	856.5
397.808	854.7
398.186	867.12
398.565	844.07
398.944	853.57
399.323	891.76
399.701	892.66
400.08	905.99
400.458	942.38
400.837	929.04
401.215	978.76
401.594	946.67
401.972	948.48
402.351	964.07
402.729	955.48
403.107	985.99
403.486	1007.01
403.864	1012.43
404.242	1038.87
404.62	1020.57
404.999	1049.72
405.377	1071.19
405.755	1075.25
406.133	1072.77
406.511	1063.28
406.889	1087.91
407.267	1113.67
407.645	1135.37
408.023	1163.84
408.401	1173.56
408.779	1169.94
409.156	1213.56
409.534	1202.93
409.912	1247.45
410.29	1246.78
410.667	1283.61
411.045	1282.25
411.422	1319.99
411.8	1308.69
412.178	1336.72
412.555	1320.9
412.933	1376.04
413.31	1408.8
413.687	1396.15
414.065	1456.49
414.442	1418.07
414.819	1460.33
415.197	1458.29
415.574	1495.13
415.951	1511.4
416.328	1509.37
416.705	1529.03
417.082	1537.16
417.46	1531.97
417.837	1616.48
418.214	1593.21
418.591	1641.12
418.967	1602.7
419.344	1619.65
419.721	1644.05
420.098	1668.23
420.475	1710.72
420.852	1714.56
421.228	1734.9
421.605	1773.99
421.982	1769.47
422.358	1781
422.735	1849.02
423.111	1834.78
423.488	1862.8
423.864	1899.19
424.241	1889.47
424.617	1901.67
424.994	1904.38
425.37	1984.83
425.746	1973.08
426.123	1974.21
426.499	1983.48
426.875	1998.62
427.251	2041.56
427.627	2110.71
428.003	2130.59
428.379	2182.8
428.756	2190.25
429.132	2203.59
429.507	2270.7
429.883	2263.7
430.259	2287.88
430.635	2314.77
431.011	2383.02
431.387	2409.46
431.763	2465.27
432.138	2467.53
432.514	2504.14
432.89	2475.67
433.265	2557.7
433.641	2616.23
434.016	2608.1
434.392	2651.71
434.767	2751.37
435.143	2733.97
435.518	2778.49
435.894	2780.52
436.269	2837.24
436.644	2886.73
437.02	2904.58
437.395	2895.32
437.77	2953.62
438.145	2967.18
438.52	3054.41
438.895	3035.88
439.271	3133.73
439.646	3143.22
440.021	3178.48
440.395	3216.89
440.77	3171.02
441.145	3210.11
441.52	3293.95
441.895	3283.33
442.27	3303.22
442.645	3330.34
443.019	3391.8
443.394	3402.42
443.769	3462.08
444.143	3407.4
444.518	3518.58
444.892	3479.71
445.267	3545.7
445.641	3594.06
446.016	3561.74
446.39	3627.05
446.764	3665.69
447.139	3658.46
447.513	3734.62
447.887	3782.53
448.262	3755.41
448.636	3793.15
449.01	3901.85
449.384	3924.22
449.758	3928.06
450.132	3986.36
450.506	4017.78
450.88	3993.14
451.254	4038.11
451.628	4088.06
452.002	4142.74
452.376	4173.03
452.75	4244.66
453.123	4296.19
453.497	4326.47
453.871	4352.23
454.244	4451.89
454.618	4467.48
454.992	4502.51
455.365	4530.76
455.739	4639.23
456.112	4692.79
456.486	4670.64
456.859	4781.37
457.232	4857.98
457.606	4829.28
457.979	4847.81
458.352	4979.56
458.725	5060.01
459.099	5061.36
459.472	5201.25
459.845	5198.08
460.218	5214.58
460.591	5258.65
460.964	5342.26
461.337	5422.26
461.71	5495.03
462.083	5541.8
462.456	5573.67
462.829	5614.57
463.201	5717.84
463.574	5763.49
463.947	5771.85
464.32	5928.23
464.692	5973.2
465.065	6045.52
465.438	6097.95
465.81	6217.04
466.183	6254.55
466.555	6397.37
466.928	6432.4
467.3	6388.56
467.672	6526.41
468.045	6774.99
468.417	6713.75
468.789	6760.75
469.161	6839.4
469.534	6965.27
469.906	7089.33
470.278	7068.32
470.65	7237.13
471.022	7390.12
471.394	7495.88
471.766	7526.84
472.138	7673.72
472.51	7855.19
472.882	7884.34
473.253	7946.49
473.625	8095.63
473.997	8327.49
474.369	8302.63
474.74	8448.62
475.112	8568.84
475.484	8776.29
475.855	8866.69
476.227	8926.57
476.598	9190.3
476.97	9244.08
477.341	9491.3
477.713	9588.93
478.084	9693.56
478.455	9950.5
478.827	10015.13
479.198	10301.68
479.569	10310.04
479.94	10630.03
480.311	10652.86
480.682	10955.45
481.053	11182.79
481.424	11375.1
481.795	11547.07
482.166	11664.35
482.537	11820.06
482.908	12076.32
483.279	12184.79
483.65	12436.99
484.021	12634.05
484.391	12814.15
484.762	12998.78
485.133	13117.2
485.503	13234.93
485.874	13591.76
486.244	13679.67
486.615	13967.34
486.985	14048.7
487.356	14305.64
487.726	14397.39
488.097	14742.24
488.467	14822.01
488.837	15176.35
489.207	15228.33
489.578	15441.2
489.948	15697.47
490.318	15867.18
490.688	15962.55
491.058	16288.19
491.428	16412.7
491.798	16628.97
492.168	16889.75
492.538	16954.61
492.908	17191.67
493.278	17456.07
493.648	17435.28
494.017	17690.64
494.387	17935.38
494.757	17962.49
495.126	18170.62
495.496	18274.12
495.866	18421.69
496.235	18716.82
496.605	18765.18
496.974	18842.02
497.344	19149.81
497.713	19164.95
498.082	19381.44
498.452	19579.63
498.821	19712.96
499.19	19764.25
499.559	19905.72
499.928	20107.97
500.298	20334.63
500.667	20484.69
501.036	20470.22
501.405	20688.07
501.774	20704.57
502.143	21005.35
502.512	20986.6
502.88	21199.47
503.249	21252.58
503.618	21434.49
503.987	21579.8
504.356	21754.03
504.724	21870.64
505.093	22044.87
505.462	22151.08
505.83	22257.97
506.199	22478.99
506.567	22640.11
506.936	22780.45
507.304	22968.69
507.672	23126.2
508.041	23163.94
508.409	23404.84
508.777	23627.66
509.145	23819.51
509.514	23810.25
509.882	24112.84
510.25	24157.81
510.618	24413.85
510.986	24366.17
511.354	24732.26
511.722	24927.96
512.09	25086.37
512.458	25046.15
512.826	25360.49
513.193	25487.04
513.561	25583.08
513.929	25870.31
514.297	26109.62
514.664	26249.96
515.032	26291.99
515.4	26650.63
515.767	26594.13
516.135	26891.52
516.502	26835.25
516.869	27301.46
517.237	27472.75
517.604	27432.3
517.972	27779.18
518.339	28097.37
518.706	28046.75
519.073	28231.15
519.44	28491.71
519.808	28819.16
520.175	28720.18
520.542	29204.23
520.909	29265.93
521.276	29392.7
521.643	29665.46
522.009	29960.14
522.376	30171.44
522.743	30254.15
523.11	30622.73
523.477	30868.6
523.843	31110.17
524.21	31362.82
524.577	31641.68
524.943	31806.42
525.31	31920.32
525.676	32282.8
526.043	32470.36
526.409	32692.73
526.776	33068.54
527.142	33001.87
527.508	33291.81
527.874	33448.41
528.241	33687.5
528.607	33905.58
528.973	34336.3
529.339	34182.86
529.705	34470.08
530.071	34821.03
530.437	35003.63
530.803	35214.92
531.169	35353.45
531.535	35383.05
531.901	35482.71
532.267	35788.92
532.632	35995.01
532.998	36145.97
533.364	36389.58
533.73	36427.55
534.095	36862.11
534.461	36763.13
534.826	37016
535.192	37290.12
535.557	37378.48
535.923	37539.38
536.288	37682.88
536.653	37810.33
537.019	37794.29
537.384	37900.73
537.749	38072.02
538.114	38257.1
538.479	38249.64
538.845	38429.98
539.21	38470.66
539.575	38610.99
539.94	38830.19
540.305	39205.78
540.67	39051.88
541.034	39236.96
541.399	39529.61
541.764	39599.66
542.129	39673.56
542.494	39701.58
542.858	40032.2
543.223	40009.6
543.587	40248.01
543.952	40236.03
544.316	40461.56
544.681	40370.49
545.045	40656.36
545.41	40837.15
545.774	40974.54
546.138	40982.23
546.503	41184.26
546.867	41184.71
547.231	41562.78
547.595	41554.19
547.959	41657.69
548.324	41752.15
548.688	41875.54
549.052	42040.73
549.416	42085.25
549.779	42154.63
550.143	42311.91
550.507	42656.08
550.871	42688.4
551.235	42681.84
551.599	43047.26
551.962	43096.07
552.326	43189.18
552.689	43579.22
553.053	43422.84
553.417	43470.3
553.78	43986.22
554.143	43807.92
554.507	44036.16
554.87	44104.41
555.234	44661.9
555.597	44298.52
555.96	44589.14
556.323	44937.83
556.686	44982.12
557.05	45210.14
557.413	45358.61
557.776	45360.64
558.139	45775.77
558.502	45905.94
558.865	45901.42
559.228	46172.37
559.59	46402.42
559.953	46515.64
560.316	46836.76
560.679	46766.48
561.041	47029.07
561.404	47229.29
561.767	47380.03
562.129	47250.09
562.492	47691.2
562.854	47678.77
563.217	47902.5
563.579	47984.76
563.941	48248.7
564.304	48473.78
564.666	48653.21
565.028	48615.93
565.39	48900.21
565.753	49086.2
566.115	49147.21
566.477	49338.17
566.839	49437.82
567.201	49592.4
567.563	49723.47
567.925	49925.27
568.287	49893.18
568.648	49999.17
569.01	50193.28
569.372	50525.71
569.734	50206.17
570.095	50635.31
570.457	50649.77
570.819	50785.81
571.18	50779.71
571.542	50989.87
571.903	50973.83
572.265	51114.39
572.626	51260.83
572.987	51276.42
573.349	51261.05
573.71	51405.46
574.071	51636.64
574.432	51673.02
574.794	51912.56
575.155	51876.4
575.516	51814.71
575.877	52011.77
576.238	52132.89
576.599	52087.02
576.96	52177.87
577.32	52062.39
577.681	52283.63
578.042	52288.6
578.403	52312.33
578.763	52315.94
579.124	52474.13
579.485	52499.89
579.845	52672.77
580.206	52513.9
580.566	52608.36
580.927	52578.98
581.287	52787.34
581.648	52554.35
582.008	52850.39
582.368	52663.05
582.728	52646.1
583.089	52730.39
583.449	52630.96
583.809	52707.79
584.169	52786.44
584.529	52767
584.889	52983.49
585.249	52720.22
585.609	52730.62
585.969	52858.53
586.329	52760.45
586.688	52867.79
587.048	52793.22
587.408	52680.9
587.768	52733.56
588.127	52770.84
588.487	52642.94
588.846	52911.18
589.206	52761.35
589.565	52770.17
589.925	52881.35
590.284	52723.84
590.643	52821.01
591.003	52893.55
591.362	52926.77
591.721	52841.12
592.08	52802.93
592.44	52931.74
592.799	52898.75
593.158	52769.71
593.517	52861.01
593.876	52837.51
594.235	52838.19
594.593	52807.68
594.952	52819.43
595.311	52760
595.67	52745.53
596.029	53016.49
596.387	52937.17
596.746	53008.13
597.104	52949.37
597.463	52877.28
597.822	52963.83
598.18	52901.91
598.538	52925.64
598.897	53041.12
599.255	52785.76
599.613	53228.01
599.972	52982.59
600.33	53015.36
600.688	52881.35
601.046	53012.87
601.404	53232.07
601.762	53043.61
602.12	53289.93
602.478	53197.95
602.836	53235.01
603.194	53059.2
603.552	53182.81
603.91	53101.23
604.268	53176.26
604.625	53138.74
604.983	53275.46
605.341	53102.36
605.698	53325.86
606.056	53285.18
606.413	53232.3
606.771	53394.1
607.128	53366.99
607.485	53266.2
607.843	53232.07
608.2	53432.52
608.557	53460.09
608.914	53349.81
609.272	53561.11
609.629	53588
609.986	53653.98
610.343	53445.85
610.7	53723.81
611.057	53563.37
611.414	53621.22
611.771	53664.83
612.127	53703.7
612.484	53689.46
612.841	53731.04
613.198	53672.74
613.554	53669.8
613.911	53876.13
614.267	53862.57
614.624	53832.06
614.98	53799.52
615.337	54009.23
615.693	53880.19
616.05	53904.37
616.406	54100.53
616.762	53965.16
617.118	53897.37
617.475	53918.38
617.831	53999.29
618.187	53966.29
618.543	54011.26
618.899	54167.64
619.255	54074.31
619.611	54008.55
619.967	54202.44
620.323	54118.61
620.678	54039.74
621.034	53910.02
621.39	53979.17
621.746	53930.59
622.101	54286.74
622.457	54015.11
622.812	54035.67
623.168	54037.48
623.523	54060.53
623.879	54142.11
624.234	53866.41
624.589	54010.59
624.945	53990.47
625.3	54003.81
625.655	53960.64
626.01	54049.68
626.365	53970.13
626.72	53980.53
627.075	53859.18
627.43	53888.55
627.785	53802.23
628.14	53857.37
628.495	53938.27
628.85	53867.76
629.205	53774.89
629.559	53940.76
629.914	53716.13
630.269	53750.48
630.623	53660.99
630.978	53617.15
631.332	53676.81
631.687	53797.94
632.041	53507.77
632.396	53642.46
632.75	53449.47
633.104	53489.02
633.459	53433.2
633.813	53319.53
634.167	53335.12
634.521	53343.94
634.875	53353.2
635.229	53310.26
635.583	52979.43
635.937	53122.47
636.291	53022.14
636.645	53064.17
636.999	52968.13
637.352	53016.04
637.706	52762.03
638.06	52875.7
638.413	52793.89
638.767	52730.62
639.121	52791.63
639.474	52552.09
639.828	52585.99
640.181	52581.02
640.534	52493.79
640.888	52438.88
641.241	52208.15
641.594	52396.39
641.947	52337.64
642.301	52185.77
642.654	52228.71
643.007	52167.47
643.36	52181.26
643.713	52111.65
644.066	52229.62
644.419	51976.51
644.771	51760.48
645.124	51484.32
645.477	51289.98
645.83	51028.74
646.182	50921.18
646.535	50861.52
646.888	50994.17
647.24	50713.05
647.593	51059.7
647.945	50919.14
648.298	50805.7
648.65	50508.53
649.002	50359.61
649.355	50586.27
649.707	50372.26
650.059	50551.92
650.411	50946.71
650.763	50988.97
651.115	51301.96
651.467	51052.47
651.819	51007.95
652.171	50892.93
652.523	50956.65
652.875	50920.95
653.227	50718.02
653.578	50959.82
653.93	50826.49
654.282	50667.85
654.633	50594.4
654.985	50507.63
655.337	50632.82
655.688	50533.61
656.039	50742.42
656.391	50318.25
656.742	50425.14
657.094	50406.39
657.445	50509.89
657.796	50295.65
658.147	50227.86
658.498	50244.58
658.849	50284.81
659.2	50248.42
659.551	50096.56
659.902	50255.2
660.253	50136.79
660.604	50178.6
660.955	50012.95
661.306	50096.56
661.656	50028.32
662.007	49997.58
662.358	49925.5
662.708	49819.28
663.059	49946.74
663.409	49814.31
663.76	49913.74
664.11	49814.99
664.461	49826.29
664.811	49765.5
665.161	49669
665.511	49646.63
665.862	49653.64
666.212	49701.09
666.562	49599.4
666.912	49552.17
667.262	49514.66
667.612	49582.91
667.962	49536.13
668.312	49471.27
668.662	49719.17
669.011	49522.57
669.361	49355.11
669.711	49290.71
670.06	49348.79
670.41	49184.72
670.76	49049.59
671.109	49226.98
671.459	49058.85
671.808	49167.55
672.157	49090.71
672.507	48796.71
672.856	48826.99
673.205	48870.61
673.554	49000.32
673.904	48802.13
674.253	49022.47
674.602	48991.73
674.951	48386.1
675.3	48264.97
675.649	48787.45
675.998	48622.7
676.346	48670.84
676.695	48679.65
677.044	48572.08
677.393	48644.85
677.741	48652.31
678.09	48407.12
678.438	48316.5
678.787	48398.3
679.135	48380.68
679.484	48013.46
679.832	48272.21
680.181	47870.63
680.529	48008.26
680.877	47891.42
681.225	47818.88
681.573	48057.75
681.922	47792.44
682.27	47600.36
682.618	47840.13
682.966	47691.2
683.314	47737.76
683.661	47546.35
684.009	47426.35
684.357	47293.25
684.705	47118.56
685.053	47136.42
685.4	47154.04
685.748	46900.26
686.095	46953.37
686.443	46871.34
686.79	46735.97
687.138	46754.05
687.485	46719.93
687.832	46561.06
688.18	46552.93
688.527	46417.79
688.874	46233.84
689.221	46215.31
689.568	46017.12
689.915	45940.97
690.262	45889.9
690.609	45726.96
690.956	45734.64
691.303	45678.15
691.65	45572.39
691.997	45387.76
692.344	44963.82
692.69	45075
693.037	44978.05
693.383	44733.09
693.73	44876.81
694.077	44550.27
694.423	44350.95
694.769	44335.81
695.116	44220.11
695.462	44130.62
695.808	43961.58
696.155	44012.88
696.501	43934.47
696.847	43891.08
697.193	43443.41
697.539	43627.58
697.885	43468.04
698.231	43318.89
698.577	43333.58
698.923	43040.7
699.269	42870.09
699.614	42713.93
699.96	42758.23
700.306	42576.08
700.651	42409.31
700.997	42297.22
701.342	42400.72
701.688	42084.8
702.033	42142.65
702.379	42028.08
702.724	41828.08
703.069	41937.91
703.415	41345.16
703.76	41319.17
704.105	41396.23
704.45	41372.73
704.795	41135.44
705.14	41113.3
705.485	40880.08
705.83	40774.55
706.175	40783.14
706.52	40434.67
706.865	40556.93
707.209	40509.02
707.554	40406.42
707.899	40446.87
708.243	40174.11
708.588	40050.27
708.932	39990.16
709.277	39794.01
709.621	39751.98
709.966	39459.33
710.31	39544.07
710.654	39181.6
710.998	39321.71
711.342	39263.85
711.687	39182.27
712.031	39035.61
712.375	39001.94
712.719	38834.49
713.063	38904.09
713.407	38865.9
713.75	38771.89
714.094	38616.87
714.438	38420.26
714.782	38501.61
715.125	38495.29
715.469	38412.58
715.812	38015.53
716.156	37869.54
716.499	37745.02
716.843	37833.38
717.186	37602.88
717.53	37763.56
717.873	37692.37
718.216	37581.19
718.559	37444.92
718.902	37332.61
719.246	37378.93
719.589	37208.77
719.932	37144.36
720.275	36959.51
720.617	37012.16
720.96	36877.93
721.303	36937.36
721.646	36822.11
721.989	36704.37
722.331	36796.12
722.674	36502.35
723.016	36525.85
723.359	36427.09
723.701	36479.07
724.044	36210.38
724.386	35988.01
724.729	36105.52
725.071	36003.38
725.413	36044.05
725.755	35907.11
726.097	35620.11
726.439	35602.93
726.782	35593.67
727.124	35787.11
727.465	35422.83
727.807	35476.84
728.149	35426.22
728.491	35400.23
728.833	35330.4
729.175	35260.12
729.516	35148.26
729.858	35096.05
730.199	35103.29
730.541	35009.5
730.882	34930.18
731.224	34889.05
731.565	34738.78
731.906	34706.01
732.248	34761.6
732.589	34526.35
732.93	34377.2
733.271	34417.43
733.612	34430.99
733.953	34394.38
734.294	34259.01
734.635	34233.7
734.976	34343.53
735.317	34110.32
735.658	34096.76
735.999	33983.54
736.339	33865.58
736.68	34040.26
737.021	33806.6
737.361	33550.78
737.702	33760.27
738.042	33540.16
738.383	33723.66
738.723	33615.64
739.063	33345.37
739.404	33555.53
739.744	33297.46
740.084	33266.27
740.424	33279.61
740.764	33306.72
741.104	33276.22
741.444	33080.51
741.784	32910.8
742.124	33086.16
742.464	32993.06
742.804	32927.75
743.143	32772.27
743.483	32818.6
743.823	32593.52
744.162	32545.39
744.502	32553.75
744.841	32452.06
745.181	32472.39
745.52	32340.87
745.86	32265.39
746.199	32305.85
746.538	32084.38
746.877	32242.57
747.216	32172.52
747.556	32093.42
747.895	31965.29
748.234	31829.7
748.573	31786.54
748.911	31785.86
749.25	31626.54
749.589	31349.71
749.928	31505.19
750.267	31553.1
750.605	31564.4
750.944	31349.49
751.283	31261.13
751.621	31257.29
751.96	31081.47
752.298	31171.86
752.636	31033.34
752.975	30991.98
