Data from foil_FLMS001491_004.txt Node
Date: Tue Feb 07 11:25:16 GMT 2017
User: dcchb
Spectrometer: FLMS00149
Trigger mode: 0
Integration Time (sec): 2.000000E-2
Scans to average: 10
Electric dark correction enabled: true
Nonlinearity correction enabled: false
Boxcar width: 0
XAxis mode: Wavelengths
Number of Pixels in Spectrum: 2048
>>>>>Begin Spectral Data<<<<<
341.393	-18.02
341.776	-18.02
342.16	-18.02
342.543	-72.03
342.927	-61.86
343.31	-73.84
343.693	-66.61
344.077	-69.32
344.46	-67.29
344.843	-64.57
345.226	-32.94
345.61	-32.49
345.993	-32.71
346.376	3.67
346.759	19.04
347.142	22.43
347.525	57.91
347.908	48.87
348.291	73.27
348.674	91.13
349.057	123.44
349.44	148.98
349.823	145.14
350.206	201.18
350.588	264.68
350.971	297
351.354	320.95
351.737	315.98
352.119	341.06
352.502	361.63
352.884	383.32
353.267	351.69
353.65	397.79
354.032	404.34
354.414	404.57
354.797	415.64
355.179	432.81
355.562	428.29
355.944	431.91
356.326	430.1
356.709	456.09
357.091	438.92
357.473	458.58
357.855	461.97
358.238	464.68
358.62	470.33
359.002	447.73
359.384	470.33
359.766	451.34
360.148	443.89
360.53	459.25
360.912	482.08
361.294	477.11
361.676	466.94
362.057	467.61
362.439	459.71
362.821	488.41
363.203	456.09
363.584	481.17
363.966	492.25
364.348	468.52
364.729	467.61
365.111	472.81
365.493	493.6
365.874	485.69
366.256	486.15
366.637	474.39
367.019	504.68
367.4	478.24
367.781	482.76
368.163	525.01
368.544	507.61
368.925	512.59
369.306	530.44
369.688	518.46
370.069	517.78
370.45	527.27
370.831	517.56
371.212	515.75
371.593	523.43
371.974	530.21
372.355	539.25
372.736	557.78
373.117	551.23
373.498	546.26
373.879	536.54
374.26	534.51
374.641	535.18
375.021	566.82
375.402	580.61
375.783	583.09
376.163	612.92
376.544	617.22
376.925	585.58
377.305	589.65
377.686	606.37
378.066	591.91
378.447	612.92
378.827	623.99
379.208	627.16
379.588	638.68
379.968	639.14
380.349	639.36
380.729	645.69
381.109	661.51
381.489	670.32
381.87	688.85
382.25	669.64
382.63	706.7
383.01	678.46
383.39	704.44
383.77	704.44
384.15	726.14
384.53	718.91
384.91	741.05
385.29	744.44
385.67	758.91
386.049	781.73
386.429	756.42
386.809	790.09
387.189	796.19
387.568	813.82
387.948	793.48
388.328	835.74
388.707	827.38
389.087	819.92
389.466	823.09
389.846	858.79
390.225	854.27
390.605	863.54
390.984	869.19
391.363	877.55
391.743	902.41
392.122	943.99
392.501	917.55
392.881	952.12
393.26	958.9
393.639	952.35
394.018	979.92
394.397	1003.19
394.776	1011.1
395.155	1005.45
395.534	988.28
395.913	1030.76
396.292	1039.58
396.671	1075.73
397.05	1068.28
397.429	1081.61
397.808	1050.65
398.186	1093.36
398.565	1088.16
398.944	1123.19
399.323	1126.58
399.701	1115.51
400.08	1167.71
400.458	1187.82
400.837	1175.62
401.215	1180.82
401.594	1197.54
401.972	1200.7
402.351	1247.03
402.729	1267.59
403.107	1250.87
403.486	1265.11
403.864	1260.36
404.242	1317.08
404.62	1299.01
404.999	1332
405.377	1310.98
405.755	1390.08
406.133	1375.39
406.511	1413.35
406.889	1407.48
407.267	1444.99
407.645	1437.76
408.023	1497.42
408.401	1493.35
408.779	1518.21
409.156	1541.48
409.534	1557.3
409.912	1599.11
410.29	1597.3
410.667	1632.1
411.045	1652.22
411.422	1683.85
411.8	1678.88
412.178	1700.58
412.555	1745.1
412.933	1743.06
413.31	1775.38
413.687	1815.6
414.065	1814.7
414.442	1847.01
414.819	1902.83
415.197	1889.72
415.574	1944.64
415.951	1955.49
416.328	1971.76
416.705	1989.83
417.082	1986.22
417.46	1990.06
417.837	2019.44
418.214	2042.71
418.591	2049.72
418.967	2108.02
419.344	2142.37
419.721	2127.91
420.098	2148.25
420.475	2171.98
420.852	2183.05
421.228	2229.83
421.605	2230.96
421.982	2256.49
422.358	2315.93
422.735	2326.32
423.111	2347.34
423.488	2367.68
423.864	2419.2
424.241	2432.53
424.617	2497.62
424.994	2458.07
425.37	2509.6
425.746	2524.74
426.123	2551.85
426.499	2570.61
426.875	2592.3
427.251	2676.37
427.627	2674.34
428.003	2709.36
428.379	2754.11
428.756	2745.3
429.132	2858.96
429.507	2887.21
429.883	2955.01
430.259	2974.89
430.635	2973.54
431.011	3028.45
431.387	3119.75
431.763	3133.08
432.138	3140.31
432.514	3190.03
432.89	3230.25
433.265	3295.56
433.641	3340.53
434.016	3343.47
434.392	3402
434.767	3498.95
435.143	3488.33
435.518	3527.65
435.894	3564.26
436.269	3638.15
436.644	3670.24
437.02	3679.28
437.395	3688.32
437.77	3781.2
438.145	3800.86
438.52	3905.04
438.895	3905.72
439.271	3895.55
439.646	3996.34
440.021	4011.02
440.395	4074.07
440.77	4010.35
441.145	4095.54
441.52	4215.54
441.895	4195.88
442.27	4192.94
442.645	4242.66
443.019	4248.08
443.394	4244.01
443.769	4334.18
444.143	4320.39
444.518	4432.03
444.892	4432.93
445.267	4462.31
445.641	4469.77
446.016	4516.55
446.39	4564.68
446.764	4560.39
447.139	4567.62
447.513	4650.33
447.887	4702.53
448.262	4676.77
448.636	4739.59
449.01	4756.77
449.384	4856.65
449.758	4853.49
450.132	4964.45
450.506	4949.08
450.88	4977.33
451.254	4973.94
451.628	5129.64
452.002	5158.79
452.376	5198.34
452.75	5227.72
453.123	5260.94
453.497	5370.08
453.871	5394.26
454.244	5524.66
454.618	5527.59
454.992	5648.72
455.365	5650.3
455.739	5746.8
456.112	5801.94
456.486	5875.61
456.859	5914.03
457.232	6063.85
457.606	6025.89
457.979	6057.98
458.352	6202.38
458.725	6305.88
459.099	6275.37
459.472	6422.26
459.845	6494.8
460.218	6556.27
460.591	6620
460.964	6658.64
461.337	6826.77
461.71	6870.61
462.083	7030.83
462.456	6971.62
462.829	7029.02
463.201	7231.28
463.574	7180.21
463.947	7334.78
464.32	7492.51
464.692	7552.85
465.065	7581.1
465.438	7696.13
465.81	7845.73
466.183	7876.01
466.555	8057.7
466.928	8082.56
467.3	8116.23
467.672	8219.05
468.045	8473.73
468.417	8435.99
468.789	8523.22
469.161	8650.68
469.534	8726.15
469.906	8974.28
470.278	9074.62
470.65	9099.93
471.022	9315.97
471.394	9519.35
471.766	9524.78
472.138	9603.42
472.51	9872.57
472.882	9943.75
473.253	10101.71
473.625	10248.83
473.997	10479.1
474.369	10494.24
474.74	10581.7
475.112	10808.59
475.484	10983.72
475.855	11173.77
476.227	11348.01
476.598	11619.19
476.97	11697.6
477.341	11978.95
477.713	12113.41
478.084	12111.15
478.455	12540.52
478.827	12629.55
479.198	13039.49
479.569	13053.5
479.94	13384.79
480.311	13503.66
480.682	13806.25
481.053	14102.51
481.424	14232.45
481.795	14452.56
482.166	14630.63
482.537	14832.21
482.908	15166.21
483.279	15229.26
483.65	15500.44
484.021	15851.62
484.391	16017.71
484.762	16198.27
485.133	16354.2
485.503	16567.53
485.874	16987.18
486.244	17150.11
486.615	17433.27
486.985	17570.89
487.356	17974.5
487.726	18112.35
488.097	18442.28
488.467	18501.94
488.837	18888.6
489.207	19213.34
489.578	19397.96
489.948	19585.3
490.318	19862.59
490.688	19917.05
491.058	20231.16
491.428	20482.68
491.798	20565.84
492.168	21159.27
492.538	21225.71
492.908	21437.01
493.278	21680.62
493.648	21733.72
494.017	22056.43
494.387	22338.68
494.757	22476.75
495.126	22786.8
495.496	22742.74
495.866	22803.07
496.235	23134.59
496.605	23312.21
496.974	23447.12
497.344	23741.13
497.713	23743.61
498.082	24124.17
498.452	24276.48
498.821	24405.74
499.19	24466.53
499.559	24653.19
499.928	24866.3
500.298	25064.26
500.667	25268.77
501.036	25177.25
501.405	25563.68
501.774	25505.6
502.143	25837.12
502.512	25972.48
502.88	26296.99
503.249	26211.12
503.618	26557.78
503.987	26629.64
504.356	26869.41
504.724	26899.46
505.093	27082.51
505.462	27179.68
505.83	27382.84
506.199	27582.38
506.567	28079.77
506.936	28038.87
507.304	28323.38
507.672	28432.3
508.041	28647.21
508.409	28731.5
508.777	29034.55
509.145	29213.07
509.514	29329.23
509.882	29535.78
510.25	29559.73
510.618	29891.7
510.986	29977.8
511.354	30250.11
511.722	30436.54
512.09	30701.4
512.458	30685.35
512.826	31042.18
513.193	31255.51
513.561	31403.07
513.929	31542.73
514.297	31894.13
514.664	32106.33
515.032	32212.99
515.4	32450.28
515.767	32694.11
516.135	32832.41
516.502	32689.59
516.869	33456.35
517.237	33609.79
517.604	33513.75
517.972	33987.19
518.339	34283.22
518.706	34242.77
519.073	34340.62
519.44	34728.63
519.808	35129.08
520.175	35013.6
520.542	35511.21
520.909	35756.18
521.276	35850.19
521.643	36278.2
522.009	36403.17
522.376	36636.61
522.743	36907.33
523.11	37325.85
523.477	37598.16
523.843	37874.77
524.21	38100.3
524.577	38487.18
524.943	38648.98
525.31	38856.66
525.676	39215.3
526.043	39415.52
526.409	39608.73
526.776	39963.07
527.142	40130.75
527.508	40377.3
527.874	40655.03
528.241	40923.5
528.607	40979.77
528.973	41243.27
529.339	41432.41
529.705	41750.15
530.071	42303.58
530.437	42310.13
530.803	42659.5
531.169	42812.04
531.535	42896.56
531.901	43004.12
532.267	43279.37
532.632	43560.72
532.998	43631.68
533.364	43926.13
533.73	43943.53
534.095	44263.53
534.461	44397.76
534.826	44673.68
535.192	44898.76
535.557	45121.58
535.923	45172.88
536.288	45422.36
536.653	45698.97
537.019	45519.76
537.384	45734.67
537.749	45904.84
538.114	45916.36
538.479	45838.17
538.845	46064.61
539.21	46101.67
539.575	46411.04
539.94	46717.02
540.305	46836.11
540.67	46870.24
541.034	47064.58
541.399	47231.58
541.764	47267.29
542.129	47509.99
542.494	47576.66
542.858	47671.12
543.223	47817.1
543.587	48049.87
543.952	48002.86
544.316	48161.5
544.681	48195.85
545.045	48503.19
545.41	48739.79
545.774	48811.43
546.138	48697.99
546.503	48965.77
546.867	48997.64
547.231	49278.99
547.595	49381.81
547.959	49473.56
548.324	49532.99
548.688	49662.25
549.052	49923.94
549.416	50047.78
549.779	50057.95
550.143	50102.69
550.507	50414.55
550.871	50676.69
551.235	50487.77
551.599	50787.65
551.962	50834.65
552.326	50873.52
552.689	51189.9
553.053	51020.86
553.417	51109.67
553.78	51482.32
554.143	51543.79
554.507	51646.83
554.87	51773.84
555.234	52076.88
555.597	51936.77
555.96	52210.44
556.323	52311.22
556.686	52371.11
557.05	52565.45
557.413	52773.58
557.776	52823.07
558.139	52980.81
558.502	53099.23
558.865	53109.39
559.228	53336.73
559.59	53407.01
559.953	53518.2
560.316	53863.05
560.679	53811.3
561.041	54091.52
561.404	54141.91
561.767	54429.13
562.129	54294
562.492	54587.55
562.854	54642.91
563.217	54696.02
563.579	54810.82
563.941	54929.46
564.304	55139.85
564.666	55276.57
565.028	55289.9
565.39	55451.93
565.753	55568.99
566.115	55637.24
566.477	55750.46
566.839	55797.91
567.201	56112.48
567.563	56033.61
567.925	56270.22
568.287	56281.51
568.648	56403.09
569.01	56524.67
569.372	56651
569.734	56643.76
570.095	56815.51
570.457	57025.68
570.819	57017.99
571.18	56976.19
571.542	57164.43
571.903	57113.81
572.265	57217.76
572.626	57250.98
572.987	57320.58
573.349	57480.58
573.71	57592.44
574.071	57617.98
574.432	57718.76
574.794	57943.39
575.155	57853
575.516	57853
575.877	58000.11
576.238	58022.71
576.599	58042.82
576.96	58112.2
577.32	58132.77
577.681	58234.91
578.042	58238.07
578.403	58333.21
578.763	58266.77
579.124	58340.22
579.485	58460.21
579.845	58510.38
580.206	58446.43
580.566	58407.11
580.927	58422.93
581.287	58568.46
581.648	58493.43
582.008	58591.74
582.368	58480.55
582.728	58541.34
583.089	58559.65
583.449	58542.02
583.809	58536.82
584.169	58671.96
584.529	58626.99
584.889	58743.14
585.249	58608.68
585.609	58649.14
585.969	58801.22
586.329	58656.14
586.688	58737.04
587.048	58729.59
587.408	58610.27
587.768	58660.89
588.127	58632.87
588.487	58609.59
588.846	58751.05
589.206	58669.93
589.565	58648.23
589.925	58701.79
590.284	58600.1
590.643	58704.28
591.003	58815.01
591.362	58784.73
591.721	58712.86
592.08	58709.93
592.44	58784.73
592.799	58786.76
593.158	58757.16
593.517	58787.44
593.876	58802.58
594.235	58711.96
594.593	58850.49
594.952	58838.28
595.311	58748.79
595.67	58840.09
596.029	58986.3
596.387	58840.54
596.746	58877.15
597.104	58769.36
597.463	58810.71
597.822	58954.21
598.18	58819.3
598.538	58832.18
598.897	58980.65
599.255	58798.51
599.613	59144.49
599.972	58928.22
600.33	58938.85
600.688	58888.9
601.046	58977.49
601.404	59068.11
601.762	58979.52
602.12	59197.37
602.478	59132.96
602.836	59213.64
603.194	59074.66
603.552	59132.29
603.91	59004.15
604.268	59156.24
604.625	59064.49
604.983	59187.43
605.341	59035.11
605.698	59173.64
606.056	59308.78
606.413	59266.29
606.771	59258.16
607.128	59338.84
607.485	59168.44
607.843	59202.79
608.2	59334.54
608.557	59321.89
608.914	59235.79
609.272	59404.82
609.629	59452.05
609.986	59530.24
610.343	59403.24
610.7	59561.65
611.057	59530.69
611.414	59517.59
611.771	59576.8
612.127	59626.06
612.484	59655.66
612.841	59688.43
613.198	59595.1
613.554	59672.61
613.911	59761.65
614.267	59711.03
614.624	59731.59
614.98	59779.73
615.337	59910.35
615.693	59836.68
616.05	59829.44
616.406	59974.07
616.762	59863.57
617.118	59854.75
617.475	59897.92
617.831	59902.66
618.187	59904.02
618.543	59886.84
618.899	60047.07
619.255	59992.38
619.611	59913.96
619.967	59974.75
620.323	60123.67
620.678	59943.57
621.034	59941.98
621.39	59930.23
621.746	59884.36
622.101	60195.99
622.457	59929.78
622.812	59979.72
623.168	60001.42
623.523	59967.75
623.879	60024.01
624.234	59835.55
624.589	59968.2
624.945	59931.36
625.3	59957.35
625.655	59943.79
626.01	59933.62
626.365	59982.21
626.72	59932.94
627.075	59938.37
627.43	59874.41
627.785	59888.43
628.14	59974.98
628.495	59970.46
628.85	59871.93
629.205	59854.53
629.559	59988.76
629.914	59766.85
630.269	59817.47
630.623	59707.64
630.978	59713.29
631.332	59808.43
631.687	59831.48
632.041	59708.09
632.396	59687.3
632.75	59639.39
633.104	59675.78
633.459	59511.03
633.813	59470.81
634.167	59489.34
634.521	59477.14
634.875	59470.13
635.229	59382.9
635.583	59237.82
635.937	59281.89
636.291	59204.38
636.645	59263.58
636.999	59230.59
637.352	59247.76
637.706	58993.31
638.06	59117.82
638.413	59019.75
638.767	59019.07
639.121	58994.89
639.474	58898.17
639.828	58861.79
640.181	58816.36
640.534	58963.25
640.888	58782.24
641.241	58692.52
641.594	58682.58
641.947	58791.73
642.301	58584.96
642.654	58681.45
643.007	58647.55
643.36	58582.47
643.713	58587.89
644.066	58677.16
644.419	58401.46
644.771	58155.82
645.124	57825.65
645.477	57862.72
645.83	57681.25
646.182	57694.36
646.535	57685.09
646.888	57741.14
647.24	57651.65
647.593	57889.38
647.945	57826.56
648.298	57634.93
648.65	57641.25
649.002	57502.95
649.355	57533.23
649.707	57417.98
650.059	57414.37
650.411	57651.42
650.763	57612.33
651.115	58035.59
651.467	57950.85
651.819	57849.83
652.171	57763.06
652.523	57777.75
652.875	57700.46
653.227	57610.07
653.578	57783.62
653.93	57696.17
654.282	57617.75
654.633	57458.88
654.985	57577.75
655.337	57588.37
655.688	57548.6
656.039	57604.64
656.391	57397.19
656.742	57361.03
657.094	57389.06
657.445	57517.41
657.796	57365.1
658.147	57334.59
658.498	57309.06
658.849	57427.25
659.2	57272.67
659.551	57209.4
659.902	57305.89
660.253	57183.41
660.604	57227.93
660.955	57090.08
661.306	57214.15
661.656	57186.35
662.007	57180.7
662.358	57087.37
662.708	57096.63
663.059	57029.74
663.409	56858.67
663.76	57063.41
664.11	57005.34
664.461	57103.41
664.811	57099.8
665.161	57043.75
665.511	56887.37
665.862	56921.5
666.212	57022.06
666.562	56949.07
666.912	56895.51
667.262	56836.08
667.612	56839.69
667.962	56862.29
668.312	56739.13
668.662	56855.06
669.011	56786.13
669.361	56725.57
669.711	56793.59
670.06	56609.19
670.41	56507.5
670.76	56566.93
671.109	56655.97
671.459	56598.79
671.808	56604.44
672.157	56628.17
672.507	56390.44
672.856	56359.48
673.205	56412.36
673.554	56531.45
673.904	56368.52
674.253	56589.75
674.602	56400.83
674.951	56055.53
675.3	55896.21
675.649	56296.88
675.998	56192.03
676.346	56379.37
676.695	56360.61
677.044	56092.82
677.393	56164.23
677.741	56150.44
678.09	56055.98
678.438	56012.6
678.787	56174.4
679.135	56056.66
679.484	55884.46
679.832	56019.37
680.181	55745.26
680.529	55882.65
680.877	55663.68
681.225	55621.87
681.573	55765.14
681.922	55592.72
682.27	55539.16
682.618	55606.73
682.966	55463.46
683.314	55539.61
683.661	55447.41
684.009	55296.91
684.357	55248.55
684.705	55209
685.053	55245.84
685.4	55173.97
685.748	55006.97
686.095	54991.15
686.443	54878.84
686.79	54880.87
687.138	54956.8
687.485	54822.8
687.832	54817.82
688.18	54672.29
688.527	54537.15
688.874	54562.92
689.221	54500.09
689.568	54446.76
689.915	54381.68
690.262	54347.1
690.609	54215.81
690.956	54110.5
691.303	54053.32
691.65	53993.21
691.997	53933.78
692.344	53708.02
692.69	53658.08
693.037	53726.78
693.383	53426.22
693.73	53455.37
694.077	53359.78
694.423	53261.71
694.769	53123.41
695.116	53148.72
695.462	52975.84
695.808	52870.08
696.155	52972.9
696.501	52717.54
696.847	52740.14
697.193	52598.22
697.539	52688.61
697.885	52465.57
698.231	52279.59
698.577	52448.17
698.923	52362.3
699.269	52136.99
699.614	52023.32
699.96	51868.3
700.306	51863.55
700.651	51770.22
700.997	51683.22
701.342	51520.96
701.688	51579.49
702.033	51414.98
702.379	51373.17
702.724	51298.82
703.069	51369.1
703.415	50880.07
703.76	50879.4
704.105	50876.46
704.45	50729.12
704.795	50551.72
705.14	50501.55
705.485	50414.55
705.83	50262.92
706.175	50356.47
706.52	50293.88
706.865	50115.8
707.209	50055.01
707.554	49875.58
707.899	50008.01
708.243	49841.23
708.588	49711.74
708.932	49434.01
709.277	49454.35
709.621	49412.99
709.966	49131.65
710.31	49458.42
710.654	49087.58
710.998	49002.38
711.342	49051.65
711.687	48784.54
712.031	48693.24
712.375	48618.67
712.719	48629.74
713.063	48466.35
713.407	48566.24
713.75	48261.16
714.094	48332.57
714.438	48171.9
714.782	48140.94
715.125	47982.07
715.469	47931
715.812	47607.62
716.156	47470.45
716.499	47509.99
716.843	47512.71
717.186	47197.23
717.53	47378.02
717.873	47413.73
718.216	47284.46
718.559	47124.47
718.902	46752.5
719.246	47017.58
719.589	46826.17
719.932	46577.59
720.275	46602.22
720.617	46473.64
720.96	46469.57
721.303	46431.83
721.646	46432.96
721.989	46242.46
722.331	46254.43
722.674	45974.44
723.016	46060.99
723.359	45990.49
723.701	46090.82
724.044	45617.84
724.386	45496.49
724.729	45699.19
725.071	45425.53
725.413	45488.35
725.755	45531.74
726.097	45228.92
726.439	45030.51
726.782	45074.58
727.124	45286.78
727.465	45090.17
727.807	44965.88
728.149	44884.07
728.491	44896.28
728.833	45002.04
729.175	44589.39
729.516	44539.9
729.858	44529.06
730.199	44553.46
730.541	44329.29
730.882	44306.01
731.224	44301.26
731.565	44079.8
731.906	44080.93
732.248	43889.07
732.589	43803.65
732.93	43694.05
733.271	43627.38
733.612	43699.92
733.953	43602.75
734.294	43513.94
734.635	43360.5
734.976	43453.15
735.317	43287.05
735.658	43265.13
735.999	43154.85
736.339	43042.31
736.68	43261.07
737.021	42884.8
737.361	42779.04
737.702	43048.87
738.042	42871.47
738.383	42770.46
738.723	42749.89
739.063	42547.41
739.404	42552.84
739.744	42526.62
740.084	42330.02
740.424	42273.97
740.764	42234.2
741.104	42347.42
741.444	42194.88
741.784	42040.76
742.124	42041.66
742.464	42043.47
742.804	41949.01
743.143	41718.51
743.483	41770.03
743.823	41589.02
744.162	41576.59
744.502	41612.97
744.841	41458.4
745.181	41515.8
745.52	41220.22
745.86	41094.34
746.199	41051.18
746.538	40949.71
746.877	41096.38
747.216	41053.67
747.556	40909.94
747.895	40759.44
748.234	40585.88
748.573	40456.39
748.911	40537.97
749.25	40410.97
749.589	40354.25
749.928	40345.44
750.267	40245.1
750.605	40019.12
750.944	40010.08
751.283	39904.09
751.621	39873.13
751.96	39650.54
