Data from foil_FLMS001491_045.txt Node
Date: Tue Feb 07 11:26:57 GMT 2017
User: dcchb
Spectrometer: FLMS00149
Trigger mode: 0
Integration Time (sec): 2.000000E-2
Scans to average: 10
Electric dark correction enabled: true
Nonlinearity correction enabled: false
Boxcar width: 0
XAxis mode: Wavelengths
Number of Pixels in Spectrum: 2048
>>>>>Begin Spectral Data<<<<<
341.393	-17.94
341.776	-17.94
342.16	-17.94
342.543	-45.28
342.927	-68.11
343.31	-66.98
343.693	-68.33
344.077	-48.67
344.46	-54.55
344.843	-59.29
345.226	-49.57
345.61	-38.05
345.993	-13.87
346.376	-3.47
346.759	6.24
347.142	39.69
347.525	47.82
347.908	46.92
348.291	66.13
348.674	92.12
349.057	103.87
349.44	122.17
349.823	132.34
350.206	185.9
350.588	242.62
350.971	265.9
351.354	269.06
351.737	298.89
352.119	296.86
352.502	319.45
352.884	333.69
353.267	347.48
353.65	344.76
354.032	351.77
354.414	380.24
354.797	367.82
355.179	380.02
355.562	395.61
355.944	370.3
356.326	413.01
356.709	403.75
357.091	414.37
357.473	431.09
357.855	417.08
358.238	409.85
358.62	446.68
359.002	433.12
359.384	432.67
359.766	410.75
360.148	439.9
360.53	405.1
360.912	423.18
361.294	411.2
361.676	431.99
362.057	438.77
362.439	411.66
362.821	415.5
363.203	415.27
363.584	429.51
363.966	418.89
364.348	422.28
364.729	411.66
365.111	436.51
365.493	436.29
365.874	436.06
366.256	419.11
366.637	407.59
367.019	429.06
367.4	459.79
367.781	453.01
368.163	436.29
368.544	434.25
368.925	428.83
369.306	439
369.688	440.81
370.069	451.65
370.45	448.94
370.831	434.25
371.212	443.97
371.593	463.18
371.974	457.98
372.355	466.12
372.736	463.86
373.117	471.54
373.498	471.32
373.879	452.78
374.26	465.89
374.641	441.26
375.021	456.63
375.402	472.9
375.783	499.34
376.163	523.52
376.544	515.16
376.925	514.03
377.305	511.31
377.686	519.68
378.066	519.9
378.447	518.09
378.827	498.89
379.208	523.52
379.588	532.33
379.968	523.07
380.349	540.24
380.729	532.78
381.109	566.91
381.489	556.28
381.87	538.43
382.25	561.03
382.63	554.25
383.01	575.04
383.39	573.69
383.77	575.04
384.15	579.11
384.53	595.61
384.91	598.09
385.29	618.43
385.67	612.33
386.049	625.44
386.429	641.71
386.809	634.47
387.189	632.67
387.568	637.64
387.948	648.26
388.328	646.45
388.707	674.7
389.087	673.8
389.466	683.74
389.846	690.74
390.225	693.46
390.605	687.81
390.984	694.81
391.363	711.31
391.743	714.92
392.122	750.18
392.501	740.69
392.881	748.14
393.26	749.27
393.639	749.27
394.018	758.31
394.397	769.39
394.776	804.64
395.155	786.79
395.534	795.83
395.913	827.92
396.292	817.29
396.671	827.24
397.05	823.85
397.429	824.53
397.808	859.33
398.186	862.49
398.565	873.34
398.944	866.33
399.323	869.5
399.701	881.02
400.08	885.77
400.458	903.17
400.837	931.87
401.215	923.51
401.594	957.18
401.972	946.33
402.351	926.67
402.729	970.51
403.107	951.53
403.486	995.14
403.864	985.43
404.242	1009.83
404.62	1018.87
404.999	994.47
405.377	1035.37
405.755	1048.93
406.133	1041.7
406.511	1060.45
406.889	1063.39
407.267	1113.78
407.645	1093.9
408.023	1137.96
408.401	1153.78
408.779	1157.62
409.156	1178.42
409.534	1182.48
409.912	1210.96
410.29	1221.13
410.667	1265.87
411.045	1239.88
411.422	1230.84
411.8	1270.62
412.178	1297.96
412.555	1302.03
412.933	1334.34
413.31	1338.64
413.687	1342.03
414.065	1374.57
414.442	1375.92
414.819	1412.08
415.197	1420.44
415.574	1454.11
415.951	1446.66
416.328	1473.77
416.705	1471.29
417.082	1501.8
417.46	1523.27
417.837	1515.58
418.214	1525.3
418.591	1555.81
418.967	1586.99
419.344	1593.55
419.721	1608.69
420.098	1635.8
420.475	1643.04
420.852	1625.86
421.228	1662.7
421.605	1665.86
421.982	1677.84
422.358	1730.04
422.735	1741.11
423.111	1725.07
423.488	1784.5
423.864	1812.3
424.241	1822.01
424.617	1846.65
424.994	1866.98
425.37	1833.99
425.746	1849.58
426.123	1895.46
426.499	1899.98
426.875	1980.43
427.251	1982.24
427.627	2002.57
428.003	2047.32
428.379	2056.81
428.756	2064.27
429.132	2126.41
429.507	2131.16
429.883	2132.97
430.259	2222.68
430.635	2203.7
431.011	2229.24
431.387	2284.37
431.763	2276.69
432.138	2338.61
432.514	2322.34
432.89	2372.96
433.265	2424.26
433.641	2447.53
434.016	2468.78
434.392	2516.46
434.767	2545.39
435.143	2569.11
435.518	2619.96
435.894	2592.39
436.269	2655.21
436.644	2674.2
437.02	2715.1
437.395	2740.18
437.77	2745.38
438.145	2807.07
438.52	2850.01
438.895	2866.51
439.271	2874.87
439.646	2933.85
440.021	2959.61
440.395	3011.36
440.77	2945.37
441.145	2967.97
441.52	3036.9
441.895	3042.1
442.27	3101.75
442.645	3077.35
443.019	3122.77
443.394	3129.32
443.769	3185.82
444.143	3179.04
444.518	3260.62
444.892	3265.37
445.267	3277.34
445.641	3289.77
446.016	3308.98
446.39	3367.74
446.764	3362.54
447.139	3358.02
447.513	3430.79
447.887	3431.01
448.262	3434.4
448.636	3436.66
449.01	3497
449.384	3558.01
449.758	3581.06
450.132	3642.31
450.506	3654.96
450.88	3664.23
451.254	3653.38
451.628	3720.95
452.002	3791.45
452.376	3769.99
452.75	3854.05
453.123	3889.53
453.497	3904.67
453.871	3939.47
454.244	4007.27
454.618	4046.36
454.992	4098.79
455.365	4094.04
455.739	4231.89
456.112	4235.51
456.486	4258.79
456.859	4296.75
457.232	4427.82
457.606	4396.41
457.979	4471.89
458.352	4548.27
458.725	4593.92
459.099	4565.22
459.472	4681.15
459.845	4739.68
460.218	4764.31
460.591	4838.66
460.964	4830.75
461.337	4943.06
461.71	5043.4
462.083	5096.28
462.456	5095.6
462.829	5116.39
463.201	5213.56
463.574	5187.58
463.947	5312.09
464.32	5449.49
464.692	5488.36
465.065	5520.45
465.438	5603.16
465.81	5641.57
466.183	5689.03
466.555	5858.07
466.928	5865.07
467.3	5856.26
467.672	5965.41
468.045	6107.55
468.417	6137.38
468.789	6157.27
469.161	6264.84
469.534	6338.05
469.906	6496.92
470.278	6508.44
470.65	6573.98
471.022	6778.27
471.394	6889
471.766	6920.19
472.138	6983.23
472.51	7119.73
472.882	7218.93
473.253	7309.1
473.625	7407.18
473.997	7588.42
474.369	7625.48
474.74	7663.44
475.112	7843.55
475.484	7949.08
475.855	8005.81
476.227	8181.62
476.598	8445.34
476.97	8456.87
477.341	8621.16
477.713	8730.08
478.084	8760.14
478.455	9056.4
478.827	9107.47
479.198	9340.91
479.569	9395.83
479.94	9658.42
480.311	9756.72
480.682	9985.42
481.053	10188.12
481.424	10348.12
481.795	10462.01
482.166	10646.64
482.537	10688.45
482.908	10942.9
483.279	11014.99
483.65	11257.02
484.021	11400.97
484.391	11650.68
484.762	11711.25
485.133	11911.01
485.503	11976.32
485.874	12275.75
486.244	12443.43
486.615	12627.83
486.985	12762.52
487.356	12995.28
487.726	13106.92
488.097	13319.34
488.467	13374.03
488.837	13641.82
489.207	13842.72
489.578	14042.26
489.948	14155.7
490.318	14387.11
490.688	14503.94
491.058	14742.58
491.428	14893.99
491.798	14949.58
492.168	15226.86
492.538	15356.57
492.908	15506.85
493.278	15746.62
493.648	15742.55
494.017	15962.43
494.387	16055.09
494.757	16231.13
495.126	16482.65
495.496	16498.46
495.866	16682.87
496.235	16797.67
496.605	17023.2
496.974	17204.21
497.344	17217.99
497.713	17308.61
498.082	17433.13
498.452	17610.98
498.821	17723.97
499.19	17785.89
499.559	17940.01
499.928	18107.46
500.298	18286.67
500.667	18436.72
501.036	18443.27
501.405	18615.92
501.774	18738.41
502.143	18792.64
502.512	18936.59
502.88	19201.22
503.249	19111.28
503.618	19311.05
503.987	19425.62
504.356	19479.18
504.724	19640.08
505.093	19736.12
505.462	19925.27
505.83	20062.89
506.199	20231.02
506.567	20480.51
506.936	20401.64
507.304	20680.73
507.672	20837.79
508.041	20902.64
508.409	21065.58
508.777	21216.08
509.145	21451.55
509.514	21372.23
509.882	21565.22
510.25	21662.17
510.618	21927.7
510.986	21983.52
511.354	22262.83
511.722	22393.68
512.09	22574.46
512.458	22689.04
512.826	22850.39
513.193	22999.99
513.561	23137.39
513.929	23185.52
514.297	23409.47
514.664	23708.44
515.032	23729.23
515.4	23886.29
515.767	24117.93
516.135	24157.7
516.502	24096.68
516.869	24604.47
517.237	24641.75
517.604	24588.42
517.972	24961.74
518.339	25262.98
518.706	25206.94
519.073	25421.85
519.44	25634.04
519.808	25962.62
520.175	25980.93
520.542	26261.82
520.909	26548.14
521.276	26596.96
521.643	26890.51
522.009	27000.11
522.376	27143.16
522.743	27323.26
523.11	27640.32
523.477	27933.19
523.843	28149.23
524.21	28302.45
524.577	28599.16
524.943	28712.61
525.31	28855.2
525.676	29240.28
526.043	29334.06
526.409	29413.15
526.776	29843.88
527.142	29914.61
527.508	30122.97
527.874	30268.05
528.241	30428.49
528.607	30580.81
528.973	30976.5
529.339	30863.74
529.705	31329.26
530.071	31523.15
530.437	31692.87
530.803	31842.02
531.169	31968.11
531.535	32053.76
531.901	32167.43
532.267	32481.32
532.632	32655.55
532.998	32737.81
533.364	33040.85
533.73	33067.29
534.095	33302.99
534.461	33465.48
534.826	33641.29
535.192	33762.87
535.557	34115.85
535.923	33958.57
536.288	34353.81
536.653	34401.27
537.019	34373.02
537.384	34670.64
537.749	34666.57
538.114	34891.88
538.479	34897.75
538.845	35017.98
539.21	35010.29
539.575	35324.41
539.94	35414.13
540.305	35595.59
540.67	35559.88
541.034	35827.67
541.399	35886.43
541.764	36120.1
542.129	36276.7
542.494	36372.07
542.858	36481.22
543.223	36626.07
543.587	36798.04
543.952	36863.58
544.316	36958.27
544.681	37027.87
545.045	37321.87
545.41	37357.58
545.774	37584.01
546.138	37459.72
546.503	37663.78
546.867	37665.14
547.231	38025.13
547.595	38149.42
547.959	38306.48
548.324	38344.22
548.688	38654.72
549.052	38755.96
549.416	38811.32
549.779	38995.27
550.143	39154.37
550.507	39364.53
550.871	39404.08
551.235	39471.87
551.599	39703.96
551.962	39809.49
552.326	39999.77
552.689	40211.06
553.053	40150.72
553.417	40211.97
553.78	40832.97
554.143	40613.08
554.507	40876.81
554.87	40905.28
555.234	41305.04
555.597	41162
555.96	41339.39
556.323	41743.9
556.686	41772.83
557.05	42044.69
557.413	42052.37
557.776	42359.71
558.139	42563.99
558.502	42641.51
558.865	42749.75
559.228	43166.46
559.59	43145.45
559.953	43187.03
560.316	43747.92
560.679	43695.49
561.041	44017.74
561.404	44275.14
561.767	44508.12
562.129	44348.58
562.492	44832.63
562.854	44752.64
563.217	45011.16
563.579	45126.86
563.941	45467.42
564.304	45597.36
564.666	45872.38
565.028	45959.16
565.39	46000.29
565.753	46271.92
566.115	46312.37
566.477	46585.58
566.839	46750.78
567.201	46937.44
567.563	47093.82
567.925	47328.16
568.287	47335.85
568.648	47451.77
569.01	47703.52
569.372	48059.89
569.734	47802.5
570.095	48156.39
570.457	48263.73
570.819	48445.65
571.18	48478.19
571.542	48637.73
571.903	48687.67
572.265	48884.51
572.626	48893.77
572.987	49147.55
573.349	49176.7
573.71	49371.72
574.071	49455.11
574.432	49577.37
574.794	49795.89
575.155	49685.84
575.516	49765.61
575.877	49958.6
576.238	49971.71
576.599	50045.61
576.96	50160.63
577.32	50220.06
577.681	50348.87
578.042	50329.44
578.403	50447.85
578.763	50470.9
579.124	50513.39
579.485	50708.86
579.845	50814.62
580.206	50771.91
580.566	50759.94
580.927	50764
581.287	50914.51
581.648	50789.31
582.008	50982.3
582.368	50818.24
582.728	50915.86
583.089	50979.14
583.449	50858.92
583.809	50857.79
584.169	51064.11
584.529	51116.09
584.889	51327.83
585.249	51112.47
585.609	51116.76
585.969	51245.35
586.329	51048.06
586.688	51090.1
587.048	51121.73
587.408	51064.56
587.768	51140.49
588.127	51038.57
588.487	50994.28
588.846	51260.49
589.206	51005.35
589.565	51087.84
589.925	51353.14
590.284	51207.61
590.643	51229.3
591.003	51206.7
591.362	51282.18
591.721	51217.78
592.08	51298
592.44	51394.72
592.799	51452.57
593.158	51259.58
593.517	51218.68
593.876	51339.36
594.235	51206.48
594.593	51275.4
594.952	51411.67
595.311	51271.56
595.67	51355.63
596.029	51545.68
596.387	51568.5
596.746	51540.93
597.104	51535.96
597.463	51463.42
597.822	51566.47
598.18	51549.52
598.538	51400.6
598.897	51601.72
599.255	51412.35
599.613	51867.7
599.972	51636.98
600.33	51647.82
600.688	51597.88
601.046	51722.85
601.404	51820.7
601.762	51730.76
602.12	51844.65
602.478	51909.74
602.836	51876.52
603.194	51709.29
603.552	51785.9
603.91	51788.61
604.268	51942.96
604.625	51761.72
604.983	51957.65
605.341	51774.15
605.698	51954.48
606.056	52209.62
606.413	52128.26
606.771	52115.16
607.128	52132.1
607.485	52122.61
607.843	52123.74
608.2	52162.16
608.557	52436.95
608.914	52161.26
609.272	52300.23
609.629	52401.7
609.986	52472.89
610.343	52345.21
610.7	52559.21
611.057	52522.15
611.414	52608.7
611.771	52502.26
612.127	52697.74
612.484	52598.53
612.841	52659.77
613.198	52649.6
613.554	52715.59
613.911	52790.62
614.267	52774.35
614.624	52792.88
614.98	52886.89
615.337	52948.35
615.693	52931.4
616.05	52963.72
616.406	53141.79
616.762	52965.3
617.118	53022.48
617.475	52956.71
617.831	53088.01
618.187	53090.27
618.543	53035.13
618.899	53150.61
619.255	53114.9
619.611	53125.3
619.967	53198.29
620.323	53296.37
620.678	53153.55
621.034	53125.07
621.39	53101.34
621.746	53052.76
622.101	53447.55
622.457	53202.13
622.812	53230.61
623.168	53258.18
623.523	53288.68
623.879	53259.53
624.234	53106.32
624.589	53161
624.945	53239.65
625.3	53306.76
625.655	53244.39
626.01	53217.05
626.365	53239.42
626.72	53246.2
627.075	53208.23
627.43	53240.78
627.785	53102.93
628.14	53161.68
628.495	53191.06
628.85	53217.05
629.205	52953.33
629.559	53114
629.914	52984.51
630.269	53023.61
630.623	52962.82
630.978	52886.66
631.332	52956.49
631.687	52997.39
632.041	52847.79
632.396	52908.58
632.75	52734.8
633.104	52843.05
633.459	52687.12
633.813	52701.81
634.167	52752.43
634.521	52644.41
634.875	52708.36
635.229	52647.12
635.583	52507.01
635.937	52495.71
636.291	52382.27
636.645	52348.6
636.999	52322.61
637.352	52415.03
637.706	52151.09
638.06	52374.36
638.413	52236.06
638.767	52132.56
639.121	52209.84
639.474	52002.39
639.828	52027.47
640.181	52050.52
640.534	51988.15
640.888	51949.96
641.241	51802.85
641.594	51756.29
641.947	51945.44
642.301	51695.51
642.654	51786.8
643.007	51719.23
643.36	51719.69
643.713	51700.93
644.066	51776.63
644.419	51403.08
644.771	51011
645.124	50558.81
645.477	50525.14
645.83	50374.41
646.182	50445.14
646.535	50431.58
646.888	50573.05
647.24	50471.36
647.593	50681.29
647.945	50698.47
648.298	50410.57
648.65	50277.69
649.002	50078.6
649.355	50352.04
649.707	50173.06
650.059	50204.92
650.411	50542.54
650.763	50595.87
651.115	50978.69
651.467	50781.86
651.819	50836.54
652.171	50697.11
652.523	50535.31
652.875	50561.07
653.227	50495.54
653.578	50633.84
653.93	50688.07
654.282	50460.51
654.633	50416.44
654.985	50310.91
655.337	50423.22
655.688	50373.96
656.039	50464.35
656.391	50087.64
656.742	50323.79
657.094	50202.21
657.445	50250.57
657.796	50279.5
658.147	50016.91
658.498	50083.8
658.849	50194.75
659.2	50219.39
659.551	49997.47
659.902	50063.23
660.253	49963.57
660.604	49956.79
660.955	49957.02
661.306	50067.75
661.656	49926.74
662.007	49866.4
662.358	49773.97
662.708	49890.81
663.059	49795.89
663.409	49636.58
663.76	49994.31
664.11	49795.44
664.461	49904.59
664.811	49890.13
665.161	49708.21
665.511	49660.08
665.862	49604.03
666.212	49720.64
666.562	49719.96
666.912	49554.32
667.262	49505.96
667.612	49495.11
667.962	49456.69
668.312	49373.98
668.662	49644.26
669.011	49484.49
669.361	49436.13
669.711	49368.33
670.06	49250.6
670.41	49209.69
670.76	49255.57
671.109	49319.3
671.459	49135.8
671.808	49254.21
672.157	49185.06
672.507	48982.36
672.856	48908.91
673.205	49028.68
673.554	49152.52
673.904	49097.61
674.253	49242.24
674.602	49067.1
674.951	48458.75
675.3	48200
675.649	48847.9
675.998	48791.85
676.346	48728.13
676.695	48853.55
677.044	48597.73
677.393	48741.01
677.741	48778.52
678.09	48602.03
678.438	48447.68
678.787	48650.39
679.135	48637.05
679.484	48347.57
679.832	48453.33
680.181	48225.77
680.529	48383.73
680.877	48202.04
681.225	48038.2
681.573	48352.77
681.922	48041.36
682.27	47892.89
682.618	48086.56
682.966	47930.86
683.314	47964.3
683.661	47802.5
684.009	47771.54
684.357	47643.18
684.705	47504.88
685.053	47635.05
685.4	47455.84
685.748	47190.31
686.095	47299.01
686.443	47051.56
686.79	46921.39
687.138	47034.38
687.485	46991.22
687.832	46973.6
688.18	46949.64
688.527	46592.14
688.874	46611.12
689.221	46489.77
689.568	46248.87
689.915	46206.84
690.262	46228.76
690.609	46054.07
690.956	46108.08
691.303	46109.66
691.65	45842.55
691.997	45849.33
692.344	45568.66
692.69	45446.86
693.037	45561.88
693.383	45295.45
693.73	45279.4
694.077	44945.4
694.423	45158.95
694.769	44842.8
695.116	44735.24
695.462	44753.31
695.808	44533.66
696.155	44535.69
696.501	44362.59
696.847	44362.36
697.193	44042.82
697.539	44308.13
697.885	43805.09
698.231	43933.68
698.577	43844.41
698.923	43652.78
699.269	43559.45
699.614	43499.11
699.96	43170.31
700.306	43316.97
700.651	43090.31
700.997	43068.84
701.342	42862.74
701.688	42837.21
702.033	42825.46
702.379	42542.98
702.724	42419.14
703.069	42545.01
703.415	41975.31
703.76	42071.8
704.105	42129.65
704.45	42058.02
704.795	41664.58
705.14	41594.08
705.485	41760.63
705.83	41389.34
706.175	41488.99
706.52	41347.08
706.865	41309.11
707.209	41333.97
707.554	40970.82
707.899	41159.74
708.243	40609.24
708.588	40760.2
708.932	40524.5
709.277	40558.4
709.621	40392.3
709.966	40303.71
710.31	40257.84
710.654	39930.84
710.998	39999.77
711.342	40089.03
711.687	39875.93
712.031	39638.2
712.375	39660.79
712.719	39682.94
713.063	39486.33
713.407	39660.34
713.75	39351.42
714.094	39381.93
714.438	39255.61
714.782	39234.59
715.125	39060.36
715.469	39080.24
715.812	38845.67
716.156	38578.34
716.499	38663.08
716.843	38669.41
717.186	38509.64
717.53	38648.16
717.873	38566.58
718.216	38455.4
718.559	38324.11
718.902	37934.51
719.246	38168.63
719.589	38054.51
719.932	37885.7
720.275	37796.89
720.617	37901.74
720.96	37703.78
721.303	37732.48
721.646	37682.54
721.989	37489.78
722.331	37602.32
722.674	37492.94
723.016	37508.99
723.359	37390.34
723.701	37454.52
724.044	37073.74
724.386	36919.62
724.729	37084.59
725.071	36988.32
725.413	36943.8
725.755	36958.04
726.097	36750.14
726.439	36545.17
726.782	36528.9
727.124	36684.37
727.465	36474.44
727.807	36468.33
728.149	36459.97
728.491	36300.2
728.833	36441.22
729.175	36304.05
729.516	36189.02
729.858	36055.46
730.199	36119.42
730.541	35912.87
730.882	35907.67
731.224	35949.25
731.565	35690.28
731.906	35481.69
732.248	35611.41
732.589	35485.54
732.93	35513.33
733.271	35438.53
733.612	35394.69
733.953	35526.21
734.294	35189.27
734.635	35067.24
734.976	35248.93
735.317	35096.85
735.658	35072.21
735.999	35003.51
736.339	34944.99
736.68	34950.41
737.021	34932.33
737.361	34682.17
737.702	34772.11
738.042	34700.47
738.383	34569.85
738.723	34691.21
739.063	34546.13
739.404	34467.94
739.744	34490.08
740.084	34375.51
740.424	34339.8
740.764	34142.97
741.104	34241.27
741.444	34118.57
741.784	33927.84
742.124	34069.3
742.464	33907.5
742.804	33746.6
743.143	33713.83
743.483	33847.16
743.823	33597.68
744.162	33632.25
744.502	33679.26
744.841	33487.62
745.181	33574.4
745.52	33482.42
745.86	33411.69
746.199	33355.42
746.538	33343.45
746.877	33277.46
747.216	33229.78
747.556	33106.62
747.895	32993.62
748.234	32912.5
748.573	32914.76
748.911	32811.03
749.25	32687.42
749.589	32563.35
749.928	32576.69
750.267	32545.95
750.605	32415.11
750.944	32321.1
751.283	32275.45
751.621	32385.73
751.96	32092.4
752.298	32170.59
752.636	32236.81
752.975	31960.88
