Data from foil_FLMS001491_032.txt Node
Date: Tue Feb 07 11:26:14 GMT 2017
User: dcchb
Spectrometer: FLMS00149
Trigger mode: 0
Integration Time (sec): 2.000000E-2
Scans to average: 10
Electric dark correction enabled: true
Nonlinearity correction enabled: false
Boxcar width: 0
XAxis mode: Wavelengths
Number of Pixels in Spectrum: 2048
>>>>>Begin Spectral Data<<<<<
341.393	-8.69
341.776	-8.69
342.16	-8.69
342.543	-85.52
342.927	-59.98
343.31	-69.02
343.693	-66.31
344.077	-82.13
344.46	-66.09
344.843	-52.98
345.226	-32.41
345.61	-31.28
345.993	-34
346.376	17.08
346.759	1.03
347.142	45.1
347.525	21.82
347.908	67.02
348.291	63.85
348.674	92.1
349.057	126.23
349.44	126
349.823	139.56
350.206	176.17
350.588	272.21
350.971	296.39
351.354	292.55
351.737	324.19
352.119	335.03
352.502	324.86
352.884	353.11
353.267	373.9
353.65	355.6
354.032	375.94
354.414	412.09
354.797	401.92
355.179	406.9
355.562	394.92
355.944	408.7
356.326	411.64
356.709	394.69
357.091	437.63
357.473	439.21
357.855	429.95
358.238	438.76
358.62	460.68
359.002	436.73
359.384	435.6
359.766	448.93
360.148	441.92
360.53	440.34
360.912	461.58
361.294	444.64
361.676	446.9
362.057	472.21
362.439	477.85
362.821	473.34
363.203	453
363.584	475.59
363.966	468.14
364.348	450.51
364.729	444.86
365.111	453.9
365.493	464.52
365.874	464.97
366.256	450.51
366.637	462.49
367.019	469.27
367.4	465.88
367.781	484.41
368.163	490.74
368.544	490.06
368.925	481.02
369.306	490.74
369.688	482.15
370.069	497.74
370.45	488.7
370.831	504.52
371.212	515.82
371.593	490.06
371.974	511.07
372.355	520.79
372.736	512.66
373.117	509.72
373.498	523.96
373.879	502.94
374.26	517.63
374.641	506.33
375.021	537.06
375.402	550.17
375.783	564.86
376.163	586.78
376.544	569.15
376.925	572.32
377.305	577.29
377.686	566.67
378.066	578.19
378.447	589.72
378.827	579.09
379.208	597.63
379.588	603.73
379.968	615.48
380.349	612.09
380.729	627.23
381.109	610.51
381.489	625.87
381.87	646.21
382.25	620.22
382.63	617.51
383.01	686.44
383.39	673.56
383.77	660.67
384.15	668.13
384.53	690.96
384.91	685.98
385.29	713.78
385.67	717.62
386.049	725.08
386.429	726.66
386.809	755.36
387.189	754.91
387.568	758.75
387.948	752.42
388.328	752.2
388.707	777.73
389.087	798.98
389.466	792.65
389.846	791.52
390.225	787.23
390.605	793.78
390.984	812.76
391.363	850.95
391.743	859.99
392.122	857.96
392.501	895.92
392.881	894.11
393.26	884.4
393.639	905.64
394.018	923.72
394.397	914.45
394.776	939.76
395.155	917.17
395.534	963.49
395.913	953.1
396.292	993.1
396.671	984.28
397.05	1006.88
397.429	994.68
397.808	1029.25
398.186	1015.24
398.565	1038.07
398.944	1027.44
399.323	1090.04
399.701	1052.08
400.08	1094.34
400.458	1074.22
400.837	1092.98
401.215	1104.73
401.594	1102.02
401.972	1134.56
402.351	1152.19
402.729	1168.01
403.107	1166.2
403.486	1188.34
403.864	1206.88
404.242	1225.41
404.62	1233.32
404.999	1258.63
405.377	1267.21
405.755	1284.61
406.133	1291.39
406.511	1314.44
406.889	1325.06
407.267	1331.84
407.645	1356.93
408.023	1361.22
408.401	1403.71
408.779	1418.17
409.156	1421.11
409.534	1426.3
409.912	1470.82
410.29	1490.03
410.667	1509.01
411.045	1571.39
411.422	1568.67
411.8	1568.67
412.178	1591.27
412.555	1618.39
412.933	1644.38
413.31	1685.51
413.687	1695.9
414.065	1727.09
414.442	1735.67
414.819	1760.08
415.197	1754.21
415.574	1816.12
415.951	1810.93
416.328	1837.59
416.705	1842.56
417.082	1862.23
417.46	1922.34
417.837	1908.1
418.214	1936.8
418.591	1959.4
418.967	1954.65
419.344	1997.81
419.721	2010.24
420.098	2019.74
420.475	2065.84
420.852	2037.36
421.228	2099.96
421.605	2083.69
421.982	2119.39
422.358	2174.76
422.735	2184.25
423.111	2172.95
423.488	2229.45
423.864	2257.92
424.241	2268.99
424.617	2299.73
424.994	2337.24
425.37	2352.16
425.746	2323.23
426.123	2376.34
426.499	2374.53
426.875	2419.27
427.251	2454.53
427.627	2543.56
428.003	2570.91
428.379	2614.52
428.756	2628.76
429.132	2680.06
429.507	2700.62
429.883	2731.81
430.259	2768.87
430.635	2804.12
431.011	2824.91
431.387	2915.76
431.763	2904.23
432.138	2928.64
432.514	3011.12
432.89	3009.77
433.265	3064
433.641	3135.64
434.016	3138.8
434.392	3225.35
434.767	3292.24
435.143	3266.03
435.518	3301.06
435.894	3328.18
436.269	3401.17
436.644	3442.97
437.02	3463.09
437.395	3486.59
437.77	3576.53
438.145	3597.09
438.52	3627.15
438.895	3684.32
439.271	3639.58
439.646	3771.55
440.021	3750.99
440.395	3801.61
440.77	3777.43
441.145	3804.77
441.52	3908.72
441.895	3887.03
442.27	3954.83
442.645	3936.97
443.019	4021.26
443.394	3986.46
443.769	4040.7
444.143	4052.45
444.518	4141.71
444.892	4080.7
445.267	4133.8
445.641	4195.95
446.016	4202.95
446.39	4216.97
446.764	4270.98
447.139	4268.49
447.513	4300.8
447.887	4356.17
448.262	4351.2
448.636	4384.64
449.01	4413.8
449.384	4501.03
449.758	4552.1
450.132	4586.22
450.506	4647.01
450.88	4683.39
451.254	4670.51
451.628	4756.39
452.002	4777.85
452.376	4857.17
452.75	4901.24
453.123	4913.44
453.497	4987.79
453.871	5028.92
454.244	5115.02
454.618	5149.14
454.992	5258.52
455.365	5261.68
455.739	5381.23
456.112	5435.46
456.486	5409.48
456.859	5504.62
457.232	5703.93
457.606	5651.5
457.979	5676.81
458.352	5837.26
458.725	5914.32
459.099	5907.77
459.472	6070.93
459.845	6120.42
460.218	6150.25
460.591	6233.86
460.964	6262.56
461.337	6364.93
461.71	6505.94
462.083	6598.37
462.456	6546.17
462.829	6634.75
463.201	6773.06
463.574	6813.96
463.947	6906.61
464.32	7005.14
464.692	7090.79
465.065	7161.75
465.438	7216.89
465.81	7403.32
466.183	7414.85
466.555	7557.22
466.928	7688.51
467.3	7670.21
467.672	7817.1
468.045	7994.27
468.417	7968.28
468.789	8065.9
469.161	8212.79
469.534	8323.75
469.906	8577.75
470.278	8503.18
470.65	8703.85
471.022	8813.68
471.394	8973.45
471.766	9043.96
472.138	9163.28
472.51	9284.4
472.882	9490.05
473.253	9647.78
473.625	9760.32
473.997	9982.24
474.369	10083.7
474.74	10212.97
475.112	10366.18
475.484	10532.96
475.855	10621.99
476.227	10813.85
476.598	11173.17
476.97	11195.76
477.341	11440.73
477.713	11660.84
478.084	11657.67
478.455	12052.24
478.827	12087.27
479.198	12497.2
479.569	12442.29
479.94	12875.72
480.311	12957.53
480.682	13254.24
481.053	13501.02
481.424	13736.49
481.795	13855.36
482.166	14108
482.537	14189.13
482.908	14571.5
483.279	14642
483.65	15020.07
484.021	15251.03
484.391	15392.72
484.762	15535.54
485.133	15684.23
485.503	15993.15
485.874	16315.86
486.244	16460.94
486.615	16891.66
486.985	16969.62
487.356	17245.78
487.726	17429.5
488.097	17798.08
488.467	17860.9
488.837	18140.67
489.207	18414.11
489.578	18763.48
489.948	18894.77
490.318	19094.54
490.688	19250.24
491.058	19533.62
491.428	19794.41
491.798	19965.7
492.168	20356.2
492.538	20462.64
492.908	20656.31
493.278	20922.51
493.648	21024.66
494.017	21242.05
494.387	21570.63
494.757	21638.65
495.126	21857.18
495.496	21949.83
495.866	22045.42
496.235	22340.1
496.605	22494.68
496.974	22811.28
497.344	22850.83
497.713	23076.36
498.082	23175.11
498.452	23565.16
498.821	23569.9
499.19	23540.3
499.559	23991.81
499.928	24099.15
500.298	24252.37
500.667	24515.19
501.036	24487.39
501.405	24662.76
501.774	24745.69
502.143	25093.48
502.512	25127.83
502.88	25395.62
503.249	25468.16
503.618	25723.97
503.987	25950.41
504.356	25942.5
504.724	26092.1
505.093	26364.63
505.462	26457.51
505.83	26585.42
506.199	26804.62
506.567	27137.04
506.936	27083.93
507.304	27427.88
507.672	27502
508.041	27751.49
508.409	27953.29
508.777	28171.36
509.145	28330.46
509.514	28400.51
509.882	28763.44
510.25	28753.95
510.618	29120.49
510.986	29142.19
511.354	29483.87
511.722	29646.58
512.09	30017.87
512.458	29954.14
512.826	30263.29
513.193	30332.44
513.561	30589.15
513.929	30825.53
514.297	31154.56
514.664	31284.73
515.032	31425.06
515.4	31664.61
515.767	31808.56
516.135	32117.02
516.502	31948.21
516.869	32719.04
517.237	32709.55
517.604	32724.69
517.972	33291.23
518.339	33467.04
518.706	33412.81
519.073	33707.94
519.44	33959.69
519.808	34278.32
520.175	34392.44
520.542	34842.15
520.909	34987.68
521.276	35057.96
521.643	35351.74
522.009	35690.26
522.376	35916.24
522.743	36145.84
523.11	36492.27
523.477	36836.22
523.843	37057.01
524.21	37476.43
524.577	37756.87
524.943	37896.08
525.31	37993.48
525.676	38471.66
526.043	38691.77
526.409	38857.18
526.776	39284.52
527.142	39431.18
527.508	39633.21
527.874	40013.31
528.241	40277.03
528.607	40363.36
528.973	40824.82
529.339	40926.51
529.705	41289.89
530.071	41589.99
530.437	41771.91
530.803	41857.78
531.169	42155.4
531.535	42148.62
531.901	42407.37
532.267	42517.88
532.632	42903.18
532.998	42959.45
533.364	43260.68
533.73	43312.43
534.095	43916.26
534.461	43728.47
534.826	44098.4
535.192	44268.57
535.557	44575
535.923	44652.06
536.288	44853.19
536.653	44943.13
537.019	45017.7
537.384	45163.91
537.749	45479.38
538.114	45454.98
538.479	45544.69
538.845	45902.65
539.21	45849.54
539.575	46291.34
539.94	46318.68
540.305	46612.01
540.67	46630.77
541.034	46748.28
541.399	47026.69
541.764	46990.53
542.129	47299.9
542.494	47341.48
542.858	47554.36
543.223	47593
543.587	47857.63
543.952	47826.44
544.316	47972.2
544.681	47935.59
545.045	48247.67
545.41	48493.32
545.774	48542.13
546.138	48599.53
546.503	48757.72
546.867	48885.17
547.231	49212.62
547.595	49207.19
547.959	49378.72
548.324	49387.53
548.688	49476.57
549.052	49709.1
549.416	49876.33
549.779	49839.95
550.143	50004.24
550.507	50344.11
550.871	50415.98
551.235	50475.64
551.599	50746.14
551.962	50788.17
552.326	50904.33
552.689	51124.21
553.053	51113.59
553.417	51214.37
553.78	51675.38
554.143	51441.94
554.507	51769.39
554.87	51741.37
555.234	51978.42
555.597	51967.12
555.96	52205.53
556.323	52260.67
556.686	52313.1
557.05	52718.06
557.413	52744.95
557.776	52777.27
558.139	53090.03
558.502	53161.44
558.865	53302.23
559.228	53507.65
559.59	53581.09
559.953	53577.93
560.316	53941.76
560.679	53943.12
561.041	54143.11
561.404	54365.93
561.767	54470.11
562.129	54390.11
562.492	54772.7
562.854	54757.33
563.217	54797.1
563.579	54935.63
563.941	55152.8
564.304	55194.61
564.666	55447.26
565.028	55481.38
565.39	55626.69
565.753	55844.31
566.115	55924.76
566.477	56009.5
566.839	56024.42
567.201	56310.74
567.563	56296.95
567.925	56504.63
568.287	56481.35
568.648	56628.02
569.01	56724.06
569.372	56894.9
569.734	56880.21
570.095	57010.61
570.457	57112.07
570.819	57163.37
571.18	57288.56
571.542	57354.1
571.903	57410.82
572.265	57479.75
572.626	57613.3
572.987	57681.1
573.349	57785.5
573.71	57849.91
574.071	57937.36
574.432	58055.32
574.794	58201.53
575.155	58115.89
575.516	58120.86
575.877	58233.17
576.238	58269.33
576.599	58369.21
576.96	58384.13
577.32	58485.59
577.681	58529.44
578.042	58595.87
578.403	58541.86
578.763	58597.91
579.124	58609.89
579.485	58763.78
579.845	58833.83
580.206	58792.93
580.566	58784.12
580.927	58782.54
581.287	58929.65
581.648	58841.97
582.008	58941.18
582.368	58904.12
582.728	58935.75
583.089	59004
583.449	58960.16
583.809	59052.81
584.169	59060.72
584.529	59018.69
584.889	59234.05
585.249	59074.28
585.609	58981.18
585.969	59068.4
586.329	59103.66
586.688	59119.48
587.048	59110.66
587.408	58990.44
587.768	58988.63
588.127	59055.98
588.487	59066.37
588.846	59176.88
589.206	59075.64
589.565	59122.41
589.925	59225.01
590.284	59075.64
590.643	59154.73
591.003	59214.16
591.362	59306.36
591.721	59210.55
592.08	59234.28
592.44	59269.53
592.799	59265.69
593.158	59231.79
593.517	59218.23
593.876	59258.23
594.235	59169.42
594.593	59237.21
594.952	59263.2
595.311	59179.59
595.67	59271.79
596.029	59369.19
596.387	59373.71
596.746	59470.2
597.104	59325.12
597.463	59324.44
597.822	59489.64
598.18	59369.19
598.538	59432.69
598.897	59612.8
599.255	59446.7
599.613	59719.69
599.972	59577.32
600.33	59526.7
600.688	59508.84
601.046	59569.63
601.404	59540.71
601.762	59545.23
602.12	59658.9
602.478	59659.8
602.836	59686.02
603.194	59535.28
603.552	59591.78
603.91	59566.92
604.268	59672.23
604.625	59614.6
604.983	59680.37
605.341	59605.57
605.698	59790.87
606.056	59844.88
606.413	59797.42
606.771	59886.46
607.128	59897.31
607.485	59848.72
607.843	59904.99
608.2	59978.89
608.557	60122.84
608.914	59975.73
609.272	60074.25
609.629	60126.91
609.986	60231.76
610.343	60095.72
610.7	60287.81
611.057	60192.44
611.414	60210.97
611.771	60217.3
612.127	60303.4
612.484	60197.87
612.841	60380.69
613.198	60308.6
613.554	60316.51
613.911	60403.28
614.267	60424.75
614.624	60435.6
614.98	60443.06
615.337	60598.76
615.693	60544.75
616.05	60535.94
616.406	60688.25
616.762	60531.42
617.118	60537.52
617.475	60588.14
617.831	60570.29
618.187	60613.67
618.543	60643.28
618.899	60790.17
619.255	60739.1
619.611	60677.18
619.967	60739.32
620.323	60784.29
620.678	60765.08
621.034	60730.28
621.39	60667.91
621.746	60645.54
622.101	60892.76
622.457	60707.68
622.812	60744.97
623.168	60872.42
623.523	60829.26
623.879	60911.07
624.234	60717.85
624.589	60847.34
624.945	60806.21
625.3	60830.17
625.655	60847.57
626.01	60855.48
626.365	60864.74
626.72	60822.48
627.075	60704.97
627.43	60762.15
627.785	60732.99
628.14	60740.9
628.495	60809.38
628.85	60692.09
629.205	60630.85
629.559	60755.59
629.914	60579.33
630.269	60711.98
630.623	60606.22
630.978	60547.91
631.332	60666.33
631.687	60778.64
632.041	60627.01
632.396	60603.96
632.75	60563.28
633.104	60582.49
633.459	60433.79
633.813	60421.36
634.167	60459.1
634.521	60358.31
634.875	60365.77
635.229	60276.73
635.583	60206.68
635.937	60298.65
636.291	60209.62
636.645	60216.4
636.999	60115.16
637.352	60150.18
637.706	60036.97
638.06	60084.87
638.413	60019.34
638.767	59967.36
639.121	60063.86
639.474	59966.91
639.828	59938.66
640.181	59990.19
640.534	60020.7
640.888	59864.32
641.241	59815.05
641.594	59837.42
641.947	59922.85
642.301	59841.04
642.654	59777.31
643.007	59752.68
643.36	59843.07
643.713	59701.16
644.066	59777.09
644.419	59536.64
644.771	59309.98
645.124	59003.77
645.477	58859.37
645.83	58740.96
646.182	58789.54
646.535	58806.49
646.888	58884.45
647.24	58840.84
647.593	59016.88
647.945	58978.24
648.298	58782.08
648.65	58707.28
649.002	58623.67
649.355	58678.36
649.707	58544.58
650.059	58538.25
650.411	58811.01
650.763	58869.09
651.115	59184.11
651.467	59059.37
651.819	59175.29
652.171	58971.01
652.523	58944.57
652.875	58957.45
653.227	58817.56
653.578	59046.48
653.93	58890.56
654.282	58805.13
654.633	58756.55
654.985	58807.17
655.337	58834.29
655.688	58814.85
656.039	58829.09
656.391	58707.96
656.742	58708.64
657.094	58717.23
657.445	58714.74
657.796	58650.56
658.147	58638.13
658.498	58565.14
658.849	58654.18
659.2	58630.45
659.551	58524.24
659.902	58656.66
660.253	58578.25
660.604	58590.9
660.955	58524.24
661.306	58553.16
661.656	58541.19
662.007	58484.47
662.358	58460.51
662.708	58452.83
663.059	58425.26
663.409	58335.09
663.76	58435.2
664.11	58408.99
664.461	58536.22
664.811	58376.45
665.161	58363.11
665.511	58269.33
665.862	58320.18
666.212	58291.25
666.562	58388.87
666.912	58199.5
667.262	58189.78
667.612	58257.13
667.962	58218.71
668.312	58170.35
668.662	58310.23
669.011	58191.59
669.361	58168.32
669.711	58227.07
670.06	58130.35
670.41	58077.7
670.76	58087.87
671.109	58213.74
671.459	58058.04
671.808	58030.01
672.157	58119.95
672.507	57893.52
672.856	57861.2
673.205	58046.96
673.554	58112.5
673.904	57985.27
674.253	58158.6
674.602	58020.97
674.951	57683.13
675.3	57450.37
675.649	57916.8
675.998	57888.1
676.346	57863.46
676.695	57854.2
677.044	57723.81
677.393	57792.73
677.741	57786.18
678.09	57695.79
678.438	57588.44
678.787	57654.66
679.135	57644.71
679.484	57525.62
679.832	57628.44
680.181	57395.91
680.529	57459.86
680.877	57386.64
681.225	57386.64
681.573	57439.52
681.922	57292.86
682.27	57217.15
682.618	57197.27
682.966	57162.69
683.314	57162.01
683.661	56983.94
684.009	56985.07
684.357	56903.49
684.705	56859.65
685.053	56913.88
685.4	56909.37
685.748	56689.48
686.095	56706.66
686.443	56640.67
686.79	56637.96
687.138	56677.73
687.485	56637.51
687.832	56481.81
688.18	56533.33
688.527	56406.55
688.874	56357.06
689.221	56289.95
689.568	56240
689.915	56131.76
690.262	56135.37
690.609	56081.59
690.956	56030.97
691.303	55989.84
691.65	55880.92
691.997	55712.33
692.344	55679.79
692.69	55614.94
693.037	55604.31
693.383	55291.78
693.73	55346.92
694.077	55242.97
694.423	55279.8
694.769	55202.07
695.116	55096.31
695.462	55018.79
695.808	54935.18
696.155	55032.58
696.501	54806.14
696.847	54808.63
697.193	54549.65
697.539	54614.28
697.885	54453.16
698.231	54413.61
698.577	54413.84
698.923	54250.68
699.269	54112.83
699.614	53945.15
699.96	53981.31
700.306	53963.45
700.651	53825.83
700.997	53666.06
701.342	53729.56
701.688	53702.67
702.033	53620.86
702.379	53632.16
702.724	53446.86
703.069	53545.84
703.415	53162.12
703.76	53264.04
704.105	53182.01
704.45	53032.63
704.795	52866.08
705.14	52823.14
705.485	52799.19
705.83	52691.4
706.175	52743.6
706.52	52523.27
706.865	52363.04
707.209	52327.11
707.554	52244.4
707.899	52417.28
708.243	52138.19
708.588	52127.57
708.932	51849.61
709.277	51904.3
709.621	51892.77
709.966	51641.71
710.31	51780.69
710.654	51483.75
710.998	51603.06
711.342	51509.73
711.687	51340.02
712.031	51102.06
712.375	51093.92
712.719	51193.58
713.063	50927.6
713.407	51102.06
713.75	50855.97
714.094	50925.34
714.438	50862.52
714.782	50806.02
715.125	50578.01
715.469	50656.65
715.812	50347.96
716.156	50342.31
716.499	50327.17
716.843	50243.33
717.186	50047.62
717.53	50116.55
717.873	50221.18
718.216	50129.66
718.559	49984.8
718.902	49714.53
719.246	49693.51
719.589	49631.82
719.932	49481.09
720.275	49509.11
720.617	49586.39
720.96	49413.74
721.303	49368.09
721.646	49342.78
721.989	49095.11
722.331	49305.05
722.674	49108.44
723.016	49049.68
723.359	48829.13
723.701	48987.31
724.044	48679.3
724.386	48548.91
724.729	48738.51
725.071	48607.44
725.413	48607.89
725.755	48518.17
726.097	48223.49
726.439	48113.44
726.782	48150.95
727.124	48225.53
727.465	47904.86
727.807	47948.02
728.149	47908.47
728.491	47728.82
728.833	47717.97
729.175	47542.61
729.516	47573.79
729.858	47516.17
730.199	47415.38
730.541	47317.75
730.882	47289.96
731.224	47497.41
731.565	47090.41
731.906	47281.37
732.248	47141.49
732.589	46973.58
732.93	46723.87
733.271	46981.04
733.612	46994.6
733.953	46960.02
734.294	46677.77
734.635	46544.89
734.976	46757.32
735.317	46483.2
735.658	46568.85
735.999	46628.05
736.339	46422.18
736.68	46413.82
737.021	46298.34
737.361	46133.6
737.702	46256.54
738.042	45993.04
738.383	45880.5
738.723	45971.8
739.063	45785.36
739.404	45854.51
739.744	45627.85
740.084	45535.2
740.424	45682.99
740.764	45539.04
741.104	45603
741.444	45299.73
741.784	45305.38
742.124	45311.7
742.464	45240.52
742.804	45108.09
743.143	45045.5
743.483	45176.57
743.823	44891.83
744.162	44862.9
744.502	44865.39
744.841	44562.12
745.181	44797.82
745.52	44497.49
745.86	44695.68
746.199	44362.12
746.538	44298.17
746.877	44396.25
747.216	44356.25
747.556	44096.59
747.895	44090.27
748.234	43866.54
748.573	43997.84
748.911	43833.32
749.25	43789.94
749.589	43762.14
749.928	43791.29
750.267	43796.94
750.605	43590.17
750.944	43455.71
751.283	43420.45
751.621	43503.39
751.96	43100.01
752.298	42942.27
