Data from foil_FLMS001491_069.txt Node
Date: Tue Feb 07 11:36:27 GMT 2017
User: dcchb
Spectrometer: FLMS00149
Trigger mode: 0
Integration Time (sec): 2.000000E-2
Scans to average: 10
Electric dark correction enabled: true
Nonlinearity correction enabled: false
Boxcar width: 0
XAxis mode: Wavelengths
Number of Pixels in Spectrum: 2048
>>>>>Begin Spectral Data<<<<<
341.393	-4.83
341.776	-4.83
342.16	-4.83
342.543	-69.01
342.927	-65.62
343.31	-75.11
343.693	-69.91
344.077	-50.93
344.46	-72.85
344.843	-46.64
345.226	-29.91
345.61	-45.28
345.993	-5.28
346.376	-5.51
346.759	35.17
347.142	19.58
347.525	34.26
347.908	44.66
348.291	84.21
348.674	69.07
349.057	114.49
349.44	106.35
349.823	171.66
350.206	170.76
350.588	257.99
350.971	294.82
351.354	275.84
351.737	326.91
352.119	350.41
352.502	338.44
352.884	354.03
353.267	355.61
353.65	389.96
354.032	378.89
354.414	391.32
354.797	407.36
355.179	410.98
355.562	425.44
355.944	432.67
356.326	396.51
356.709	431.32
357.091	442.62
357.473	429.28
357.855	435.84
358.238	446.68
358.62	432.45
359.002	438.32
359.384	446.91
359.766	470.41
360.148	458.21
360.53	442.62
360.912	436.06
361.294	448.04
361.676	432.9
362.057	445.33
362.439	429.06
362.821	445.78
363.203	466.34
363.584	433.12
363.966	437.42
364.348	447.14
364.729	449.85
365.111	451.2
365.493	450.75
365.874	457.76
366.256	441.71
366.637	451.65
367.019	476.51
367.4	473.58
367.781	455.95
368.163	455.72
368.544	468.83
368.925	464.54
369.306	485.55
369.688	488.94
370.069	476.74
370.45	487.13
370.831	492.33
371.212	490.75
371.593	499.79
371.974	503.18
372.355	481.71
372.736	485.33
373.117	521.71
373.498	494.82
373.879	520.81
374.26	521.94
374.641	452.56
375.021	510.86
375.402	536.85
375.783	532.33
376.163	584.31
376.544	557.87
376.925	551.31
377.305	559.67
377.686	558.32
378.066	577.53
378.447	570.52
378.827	573.91
379.208	577.98
379.588	572.78
379.968	582.72
380.349	594.02
380.729	605.32
381.109	595.83
381.489	623.4
381.87	619.33
382.25	618.66
382.63	618.66
383.01	636.73
383.39	640.12
383.77	646.9
384.15	638.09
384.53	649.39
384.91	657.07
385.29	651.42
385.67	708.15
386.049	698.88
386.429	688.48
386.809	702.5
387.189	699.56
387.568	696.17
387.948	709.73
388.328	734.81
388.707	754.7
389.087	733.23
389.466	756.28
389.846	768.93
390.225	755.83
390.605	773.68
390.984	788.14
391.363	795.37
391.743	795.83
392.122	795.83
392.501	803.28
392.881	858.65
393.26	861.81
393.639	866.33
394.018	839.89
394.397	851.42
394.776	856.16
395.155	870.85
395.534	884.86
395.913	894.58
396.292	922.15
396.671	937.52
397.05	937.74
397.429	956.5
397.808	956.27
398.186	943.62
398.565	965.54
398.944	966.67
399.323	971.19
399.701	989.72
400.08	1032.43
400.458	1008.93
400.837	1010.06
401.215	1032.88
401.594	1030.62
401.972	1067.46
402.351	1071.98
402.729	1071.75
403.107	1086.89
403.486	1084.18
403.864	1105.65
404.242	1153.11
404.62	1121.24
404.999	1157.4
405.377	1158.3
405.755	1176.61
406.133	1161.01
406.511	1211.41
406.889	1229.04
407.267	1266.1
407.645	1270.16
408.023	1287.11
408.401	1282.14
408.779	1297.96
409.156	1319.88
409.534	1332.54
409.912	1324.4
410.29	1371.86
410.667	1437.17
411.045	1429.26
411.422	1456.83
411.8	1433.78
412.178	1510.16
412.555	1527.56
412.933	1520.1
413.31	1513.1
413.687	1562.36
414.065	1577.27
414.442	1574.34
414.819	1617.05
415.197	1644.39
415.574	1648.69
415.951	1664.28
416.328	1699.76
416.705	1693.88
417.082	1668.57
417.46	1701.11
417.837	1719.64
418.214	1776.59
418.591	1772.75
418.967	1799.19
419.344	1828.79
419.721	1824.27
420.098	1872.86
420.475	1874.44
420.852	1905.85
421.228	1916.48
421.605	1913.09
421.982	1963.48
422.358	1979.07
422.735	2011.61
423.111	2009.58
423.488	2049.13
423.864	2046.42
424.241	2075.34
424.617	2096.58
424.994	2103.59
425.37	2148.11
425.746	2157.82
426.123	2189.01
426.499	2217.03
426.875	2215.9
427.251	2273.08
427.627	2342.9
428.003	2344.03
428.379	2382.9
428.756	2414.09
429.132	2408.44
429.507	2448.66
429.883	2482.56
430.259	2524.14
430.635	2559.85
431.011	2550.13
431.387	2629.22
431.763	2683.46
432.138	2682.1
432.514	2749.67
432.89	2755.32
433.265	2810.24
433.641	2832.61
434.016	2851.37
434.392	2929.78
434.767	2974.3
435.143	2949.89
435.518	3002.55
435.894	3027.63
436.269	3071.92
436.644	3142.21
437.02	3145.6
437.395	3160.06
437.77	3208.87
438.145	3255.42
438.52	3299.94
438.895	3340.17
439.271	3328.19
439.646	3412.71
440.021	3414.06
440.395	3411.58
440.77	3431.24
441.145	3466.26
441.52	3549.2
441.895	3559.14
442.27	3574.51
442.645	3559.14
443.019	3618.35
443.394	3661.51
443.769	3693.6
444.143	3645.7
444.518	3714.39
444.892	3736.99
445.267	3789.42
445.641	3807.95
446.016	3821.74
446.39	3863.09
446.764	3861.96
447.139	3870.1
447.513	3915.52
447.887	3921.62
448.262	3975.4
448.636	3947.83
449.01	4036.65
449.384	4077.1
449.758	4087.49
450.132	4202.52
450.506	4178.34
450.88	4210.65
451.254	4234.61
451.628	4295.85
452.002	4371.33
452.376	4375.85
452.75	4450.19
453.123	4468.27
453.497	4516.63
453.871	4555.5
454.244	4661.04
454.618	4659
454.992	4764.08
455.365	4784.2
455.739	4889.5
456.112	4916.17
456.486	4939.67
456.859	5020.8
457.232	5135.6
457.606	5071.19
457.979	5195.94
458.352	5313.45
458.725	5352.77
459.099	5361.58
459.472	5496.95
459.845	5565.64
460.218	5549.6
460.591	5663.04
460.964	5631.41
461.337	5816.71
461.71	5928.8
462.083	5968.8
462.456	5979.87
462.829	5990.49
463.201	6096.93
463.574	6123.6
463.947	6253.54
464.32	6374.44
464.692	6391.84
465.065	6483.81
465.438	6581.89
465.81	6617.82
466.183	6687.65
466.555	6887.87
466.928	6901.65
467.3	6884.71
467.672	7084.25
468.045	7215.32
468.417	7248.31
468.789	7309.1
469.161	7372.38
469.534	7578.25
469.906	7707.96
470.278	7758.81
470.65	7880.61
471.022	7978.91
471.394	8120.38
471.766	8249.42
472.138	8340.71
472.51	8418
472.882	8563.76
473.253	8636.52
473.625	8729.86
473.997	9003.29
474.369	9042.62
474.74	9177.3
475.112	9311.99
475.484	9451.19
475.855	9667.01
476.227	9699.77
476.598	10050.72
476.97	10096.82
477.341	10367.1
477.713	10492.97
478.084	10507.66
478.455	10811.16
478.827	10866.3
479.198	11239.85
479.569	11295.66
479.94	11508.09
480.311	11581.08
480.682	11967.06
481.053	12133.83
481.424	12358.01
481.795	12557.55
482.166	12737.66
482.537	12839.8
482.908	13140.13
483.279	13298.77
483.65	13543.29
484.021	13795.26
484.391	13894.92
484.762	13993.67
485.133	14164.29
485.503	14395.47
485.874	14686.53
486.244	14858.06
486.615	15215.33
486.985	15278.38
487.356	15517.47
487.726	15748.43
488.097	16065.71
488.467	16079.27
488.837	16468.18
489.207	16584.79
489.578	16836.76
489.948	17061.61
490.318	17345.22
490.688	17310.87
491.058	17597.87
491.428	17848.49
491.798	17982.27
492.168	18376.38
492.538	18260
492.908	18610.95
493.278	18863.6
493.648	18948.57
494.017	19131.39
494.387	19369.58
494.757	19487.99
495.126	19645.5
495.496	19753.75
495.866	19971.82
496.235	20119.39
496.605	20328.19
496.974	20460.85
497.344	20621.29
497.713	20810.44
498.082	20949.65
498.452	21065.58
498.821	21378.56
499.19	21339.02
499.559	21560.48
499.928	21689.29
500.298	21788.27
500.667	22048.15
501.036	22052.44
501.405	22330.4
501.774	22342.38
502.143	22524.07
502.512	22685.42
502.88	22936.71
503.249	22824.17
503.618	23101
503.987	23169.93
504.356	23420.77
504.724	23504.16
505.093	23563.36
505.462	23723.13
505.83	24012.17
506.199	24144.82
506.567	24345.72
506.936	24295.55
507.304	24669.55
507.672	24786.83
508.041	24886.49
508.409	25120.84
508.777	25273.6
509.145	25553.14
509.514	25518.34
509.882	25716.98
510.25	25925.56
510.618	26147.02
510.986	26271.09
511.354	26447.81
511.722	26673.11
512.09	26985.19
512.458	26853.67
512.826	27159.65
513.193	27294.11
513.561	27388.35
513.929	27711.95
514.297	27927.32
514.664	28087.76
515.032	28124.15
515.4	28394.42
515.767	28655.21
516.135	28706.05
516.502	28699.27
516.869	29287.51
517.237	29360.73
517.604	29238.47
517.972	29644.56
518.339	29963.2
518.706	29979.92
519.073	30139.46
519.44	30403.18
519.808	30804.75
520.175	30727.47
520.542	31324.97
520.909	31362.71
521.276	31324.74
521.643	31729.93
522.009	31942.8
522.376	32230.71
522.743	32328.56
523.11	32776.23
523.477	32992.04
523.843	33126.73
524.21	33506.83
524.577	33825.47
524.943	33916.99
525.31	34226.81
525.676	34363.08
526.043	34567.82
526.409	34795.61
526.776	35133.91
527.142	35287.35
527.508	35496.84
527.874	35642.59
528.241	36062.92
528.607	36012.08
528.973	36402.12
529.339	36370.03
529.705	36932.96
530.071	37148.77
530.437	37195.77
530.803	37604.35
531.169	37645.25
531.535	37711.47
531.901	37929.99
532.267	37969.99
532.632	38288.85
532.998	38539.92
533.364	38673.02
533.73	38768.16
534.095	39096.97
534.461	39326.34
534.826	39373.8
535.192	39599.1
535.557	39885.87
535.923	39909.83
536.288	40078.18
536.653	40127.9
537.019	40256.03
537.384	40565.63
537.749	40676.36
538.114	40648.56
538.479	40972.62
538.845	40999.06
539.21	40889.69
539.575	41132.62
539.94	41298.72
540.305	41642.21
540.67	41450.12
541.034	41777.8
541.399	41808.53
541.764	41985.7
542.129	42201.74
542.494	42276.32
542.858	42486.71
543.223	42576.65
543.587	42776.87
543.952	42799.92
544.316	43135.73
544.681	42999.01
545.045	43373.46
545.41	43511.54
545.774	43482.16
546.138	43693.23
546.503	43780.46
546.867	43860.68
547.231	44156.49
547.595	44140.45
547.959	44356.49
548.324	44373.21
548.688	44431.29
549.052	44652.98
549.416	44842.8
549.779	44936.36
550.143	45014.55
550.507	45321.89
550.871	45498.38
551.235	45541.77
551.599	45862.21
551.962	45900.86
552.326	46025.15
552.689	46287.06
553.053	46233.5
553.417	46401.86
553.78	46843.2
554.143	46611.57
554.507	46816.09
554.87	47085.23
555.234	47414.49
555.597	47274.15
555.96	47426.69
556.323	47605.9
556.686	47713.91
557.05	48047.24
557.413	48120.01
557.776	48197.52
558.139	48322.94
558.502	48570.16
558.865	48615.59
559.228	48884.51
559.59	49114.1
559.953	49201.79
560.316	49599.52
560.679	49501.21
561.041	49804.48
561.404	49995.89
561.767	50276.56
562.129	50131.03
562.492	50507.51
562.854	50469.55
563.217	50531.47
563.579	50696.89
563.941	50926.49
564.304	51069.31
564.666	51226.36
565.028	51284.67
565.39	51448.96
565.753	51681.49
566.115	51770.53
566.477	51908.38
566.839	52035.38
567.201	52209.16
567.563	52301.82
567.925	52552.43
568.287	52538.42
568.648	52537.74
569.01	52835.59
569.372	52969.6
569.734	52914.23
570.095	53199.42
570.457	53287.78
570.819	53455.46
571.18	53361.9
571.542	53572.07
571.903	53606.42
572.265	53637.15
572.626	53820.87
572.987	53869.23
573.349	53985.61
573.71	54098.15
574.071	54091.83
574.432	54236.68
574.794	54477.35
575.155	54417.47
575.516	54288.66
575.877	54476.9
576.238	54502.89
576.599	54701.98
576.96	54681.87
577.32	54746.27
577.681	54803.67
578.042	54920.28
578.403	54892.71
578.763	54983.33
579.124	54983.78
579.485	55110.1
579.845	55200.5
580.206	55132.7
580.566	55107.62
580.927	55214.73
581.287	55331.57
581.648	55173.61
582.008	55329.53
582.368	55210.67
582.728	55329.31
583.089	55229.65
583.449	55287.28
583.809	55323.88
584.169	55348.74
584.529	55380.61
584.889	55573.6
585.249	55406.37
585.609	55335.64
585.969	55509.87
586.329	55398.46
586.688	55499.47
587.048	55410.89
587.408	55372.24
587.768	55445.24
588.127	55406.37
588.487	55365.24
588.846	55551
589.206	55389.87
589.565	55453.15
589.925	55553.03
590.284	55468.74
590.643	55565.91
591.003	55592.8
591.362	55635.51
591.721	55635.29
592.08	55581.73
592.44	55661.73
592.799	55658.11
593.158	55613.37
593.517	55546.03
593.876	55657.89
594.235	55507.16
594.593	55593.48
594.952	55608.17
595.311	55479.81
595.67	55628.96
596.029	55755.06
596.387	55729.52
596.746	55783.53
597.104	55659.02
597.463	55665.8
597.822	55758
598.18	55679.36
598.538	55621.05
598.897	55870.31
599.255	55670.54
599.613	56022.85
599.972	55958.22
600.33	55973.36
600.688	55861.05
601.046	55982.4
601.404	56062.85
601.762	55909.86
602.12	56087.25
602.478	56080.02
602.836	56026.69
603.194	55855.17
603.552	55937.88
603.91	55911.44
604.268	56142.62
604.625	55996.86
604.983	56129.96
605.341	55918.67
605.698	56125.9
606.056	56189.4
606.413	56215.16
606.771	56303.52
607.128	56318.89
607.485	56169.96
607.843	56250.64
608.2	56390.97
608.557	56480.46
608.914	56352.33
609.272	56492.22
609.629	56496.28
609.986	56619.67
610.343	56528.37
610.7	56687.24
611.057	56637.97
611.414	56581.03
611.771	56624.19
612.127	56696.05
612.484	56693.11
612.841	56764.52
613.198	56664.64
613.554	56703.06
613.911	56885.65
614.267	56829.83
614.624	56805.88
614.98	56961.58
615.337	56987.57
615.693	56892.2
616.05	56935.37
616.406	57098.3
616.762	56912.09
617.118	56947.8
617.475	56972.2
617.831	57102.14
618.187	57002.03
618.543	57104.85
618.899	57154.57
619.255	57116.61
619.611	57096.27
619.967	57242.7
620.323	57229.82
620.678	57155.47
621.034	56999.09
621.39	57037.29
621.746	57044.52
622.101	57381.46
622.457	57114.35
622.812	57177.39
623.168	57229.37
623.523	57225.76
623.879	57234.34
624.234	57067.12
624.589	57201.8
624.945	57194.8
625.3	57229.37
625.655	57263.49
626.01	57324.74
626.365	57281.57
626.72	57176.49
627.075	57204.74
627.43	57155.7
627.785	57038.64
628.14	57198.41
628.495	57208.58
628.85	57083.39
629.205	57056.72
629.559	57194.8
629.914	57102.82
630.269	57022.14
630.623	56911.19
630.978	56937.63
631.332	57074.57
631.687	56997.96
632.041	56804.98
632.396	56901.7
632.75	56831.42
633.104	56845.2
633.459	56713.45
633.813	56704.41
634.167	56712.1
634.521	56777.18
634.875	56737.86
635.229	56642.04
635.583	56494.47
635.937	56539.22
636.291	56523.85
636.645	56530.18
636.999	56477.98
637.352	56609.05
637.706	56367.92
638.06	56466.68
638.413	56354.14
638.767	56275.5
639.121	56293.35
639.474	56268.94
639.828	56263.29
640.181	56171.09
640.534	56206.35
640.888	56138.78
641.241	56001.15
641.594	56076.41
641.947	56122.73
642.301	56041.15
642.654	56126.58
643.007	56029.4
643.36	55990.31
643.713	55922.51
644.066	56073.02
644.419	55680.94
644.771	55445.24
645.124	55087.73
645.477	55069.88
645.83	54954.63
646.182	54989.88
646.535	54890.68
646.888	55095.87
647.24	54941.75
647.593	55117.34
647.945	54905.14
648.298	54758.7
648.65	54710.79
649.002	54785.59
649.355	54779.04
649.707	54708.08
650.059	54694.07
650.411	54989.88
650.763	55003.21
651.115	55278.46
651.467	55272.59
651.819	55230.1
652.171	55078.69
652.523	55082.99
652.875	55094.29
653.227	54988.07
653.578	55156.88
653.93	55050.67
654.282	54882.54
654.633	54871.24
654.985	54943.1
655.337	54996.44
655.688	54854.29
656.039	54966.83
656.391	54696.78
656.742	54792.15
657.094	54786.5
657.445	54851.13
657.796	54741.98
658.147	54676.9
658.498	54678.93
658.849	54675.77
659.2	54646.16
659.551	54579.95
659.902	54652.26
660.253	54636.67
660.604	54595.09
660.955	54432.38
661.306	54578.37
661.656	54527.3
662.007	54428.77
662.358	54504.02
662.708	54463.79
663.059	54431.25
663.409	54224.93
663.76	54446.85
664.11	54404.59
664.461	54450.01
664.811	54386.96
665.161	54395.32
665.511	54267.19
665.862	54333.85
666.212	54316.91
666.562	54421.54
666.912	54288.88
667.262	54226.96
667.612	54184.03
667.962	54269
668.312	54102.9
668.662	54286.4
669.011	54136.12
669.361	54128.44
669.711	54052.96
670.06	54094.76
670.41	54009.34
670.76	54028.33
671.109	54116.46
671.459	54028.78
671.808	53913.3
672.157	53977.48
672.507	53800.08
672.856	53784.72
673.205	53800.99
673.554	53906.75
673.904	53812.29
674.253	53879.63
674.602	53792.85
674.951	53452.75
675.3	53262.7
675.649	53766.86
675.998	53584.5
676.346	53701.55
676.695	53796.69
677.044	53501.33
677.393	53571.39
677.741	53629.69
678.09	53440.77
678.438	53547.43
678.787	53522.8
679.135	53554.89
679.484	53333.65
679.832	53457.49
680.181	53246.65
680.529	53295.24
680.877	53198.97
681.225	53176.14
681.573	53333.43
681.922	53127.78
682.27	53021.12
682.618	53093.21
682.966	53031.52
683.314	52971.18
683.661	52997.39
684.009	52674.91
684.357	52709.26
684.705	52601.7
685.053	52634.24
685.4	52544.52
685.748	52507.24
686.095	52295.26
686.443	52276.96
686.79	52182.05
687.138	52278.54
687.485	52212.78
687.832	52072.44
688.18	52140.69
688.527	51920.13
688.874	51946.8
689.221	51777.54
689.568	51731.89
689.915	51690.08
690.262	51567.82
690.609	51519.24
690.956	51475.17
691.303	51449.64
691.65	51181.17
691.997	51199.92
692.344	51036.31
692.69	51051.91
693.037	51046.71
693.383	50678.58
693.73	50802.42
694.077	50618.02
694.423	50670.22
694.769	50451.7
695.116	50493.73
695.462	50381.87
695.808	50218.48
696.155	50323.11
696.501	49964.93
696.847	49956.12
697.193	49709.79
697.539	49874.54
697.885	49578.05
698.231	49472.06
698.577	49609.46
698.923	49401.1
699.269	49221.9
699.614	48935.35
699.96	48923.83
700.306	49030.26
700.651	48754.57
700.997	48579.43
701.342	48538.53
701.688	48523.39
702.033	48422.14
702.379	48419.66
702.724	48198.65
703.069	48242.94
703.415	47745.78
703.76	47953.91
704.105	47827.36
704.45	47647.48
704.795	47465.56
705.14	47388.73
705.485	47396.18
705.83	47157.32
706.175	47275.06
706.52	47127.72
706.865	46916.65
707.209	46868.74
707.554	46743.77
707.899	46854.5
708.243	46476.21
708.588	46642.08
708.932	46299.04
709.277	46242.32
709.621	46270.11
709.966	45902.66
710.31	46191.7
710.654	45757.81
710.998	45793.29
711.342	45797.58
711.687	45580.19
712.031	45369.57
712.375	45412.96
712.719	45325.28
713.063	45320.08
713.407	45306.07
713.75	45077.6
714.094	45052.06
714.438	44931.16
714.782	44967.55
715.125	44703.82
715.469	44842.13
715.812	44553.77
716.156	44440.1
716.499	44335.7
716.843	44462.02
717.186	44172.54
717.53	44263.84
717.873	44254.34
718.216	44184.06
718.559	43879.21
718.902	43707.47
719.246	43674.02
719.589	43665.21
719.932	43466.57
720.275	43410.53
720.617	43441.03
720.96	43287.82
721.303	43445.78
721.646	43314.26
721.989	42988.16
722.331	43133.7
722.674	42881.5
723.016	42903.87
723.359	42914.49
723.701	42802.86
724.044	42656.87
724.386	42396.77
724.729	42461.4
725.071	42525.58
725.413	42484.22
725.755	42346.37
726.097	42147.73
726.439	41895.08
726.782	41957.23
727.124	42165.13
727.465	41929.43
727.807	41927.63
728.149	41893.73
728.491	41752.94
728.833	41801.53
729.175	41495.77
729.516	41634.75
729.858	41441.54
730.199	41358.83
730.541	41481.31
730.882	41213.97
731.224	41484.25
731.565	41111.15
731.906	41045.16
732.248	41097.59
732.589	40820.08
732.93	40707.55
733.271	40697.15
733.612	40832.51
733.953	40775.34
734.294	40652.63
734.635	40636.13
734.976	40489.47
735.317	40378.51
735.658	40183.27
735.999	40243.38
736.339	40104.4
736.68	40331.51
737.021	40076.15
737.361	39939.2
737.702	40040.67
738.042	39935.14
738.383	39805.87
738.723	39841.58
739.063	39773.56
739.404	39809.04
739.744	39705.09
740.084	39563.39
740.424	39419.22
740.764	39365.43
741.104	39461.02
741.444	39162.95
741.784	39038.44
742.124	39277.07
742.464	39073.69
742.804	38933.58
743.143	38927.93
743.483	38853.13
743.823	38696.75
744.162	38690.2
744.502	38681.61
744.841	38514.16
745.181	38537.21
745.52	38489.07
745.86	38403.65
746.199	38362.3
746.538	38233.49
746.877	38246.82
747.216	38342.18
747.556	38204.79
747.895	38260.15
748.234	37964.57
748.573	37873.27
748.911	37749.66
749.25	37760.73
749.589	37559.83
749.928	37626.04
750.267	37563
750.605	37418.14
750.944	37346.96
751.283	37228.99
751.621	37293.17
751.96	36943.58
752.298	37023.8
752.636	37019.05
