Data from foil_FLMS001491_057.txt Node
Date: Tue Feb 07 11:27:11 GMT 2017
User: dcchb
Spectrometer: FLMS00149
Trigger mode: 0
Integration Time (sec): 2.000000E-2
Scans to average: 10
Electric dark correction enabled: true
Nonlinearity correction enabled: false
Boxcar width: 0
XAxis mode: Wavelengths
Number of Pixels in Spectrum: 2048
>>>>>Begin Spectral Data<<<<<
341.393	-26.04
341.776	-26.04
342.16	-26.04
342.543	-71.02
342.927	-66.95
343.31	-77.34
343.693	-79.6
344.077	-59.26
344.46	-59.72
344.843	-57.91
345.226	-46.61
345.61	-34.18
345.993	-38.7
346.376	-8.87
346.759	9.43
347.142	33.61
347.525	53.05
347.908	57.8
348.291	82.43
348.674	99.6
349.057	126.27
349.44	128.98
349.823	149.09
350.206	170.56
350.588	228.41
350.971	270.67
351.354	257.56
351.737	286.94
352.119	296.21
352.502	320.16
352.884	326.49
353.267	320.16
353.65	341.4
354.032	361.06
354.414	356.09
354.797	364.23
355.179	383.66
355.562	388.86
355.944	366.71
356.326	405.13
356.709	393.38
357.091	402.42
357.473	397.22
357.855	423.21
358.238	412.14
358.62	415.07
359.002	405.13
359.384	404.68
359.766	397.22
360.148	415.75
360.53	418.46
360.912	409.42
361.294	418.92
361.676	427.28
362.057	413.72
362.439	420.27
362.821	410.78
363.203	418.92
363.584	417.33
363.966	396.32
364.348	411.68
364.729	420.72
365.111	411.46
365.493	412.81
365.874	430.21
366.256	420.05
366.637	422.98
367.019	405.81
367.4	410.1
367.781	446.03
368.163	414.85
368.544	445.13
368.925	433.83
369.306	462.53
369.688	439.48
370.069	463.66
370.45	413.94
370.831	440.38
371.212	441.06
371.593	466.37
371.974	456.43
372.355	449.88
372.736	449.88
373.117	455.98
373.498	469.08
373.879	452.36
374.26	461.63
374.641	456.2
375.021	441.97
375.402	446.71
375.783	469.76
376.163	496.88
376.544	523.09
376.925	505.69
377.305	515.41
377.686	497.56
378.066	518.35
378.447	509.99
378.827	509.31
379.208	512.7
379.588	528.97
379.968	506.82
380.349	540.49
380.729	553.15
381.109	552.25
381.489	575.07
381.87	555.86
382.25	572.13
382.63	569.87
383.01	571.23
383.39	572.36
383.77	570.1
384.15	587.27
384.53	613.26
384.91	608.52
385.29	588.85
385.67	616.65
386.049	623.2
386.429	592.7
386.809	628.85
387.189	644.22
387.568	656.2
387.948	649.64
388.328	663.43
388.707	681.06
389.087	660.27
389.466	663.43
389.846	683.32
390.225	698.91
390.605	715.63
390.984	700.49
391.363	698.46
391.743	725.35
392.122	735.29
392.501	729.42
392.881	773.71
393.26	741.84
393.639	766.48
394.018	751.56
394.397	786.82
394.776	776.87
395.155	776.19
395.534	808.51
395.913	833.37
396.292	822.75
396.671	855.51
397.05	829.98
397.429	883.54
397.808	872.91
398.186	865.23
398.565	860.03
398.944	862.29
399.323	890.54
399.701	900.48
400.08	912.46
400.458	900.48
400.837	946.36
401.215	956.53
401.594	920.6
401.972	979.58
402.351	971.44
402.729	982.52
403.107	993.14
403.486	1025.91
403.864	1025.68
404.242	1041.5
404.62	1024.32
404.999	1055.51
405.377	1064.32
405.755	1072.46
406.133	1090.54
406.511	1109.74
406.889	1131.44
407.267	1129.86
407.645	1171.66
408.023	1192.23
408.401	1183.42
408.779	1204.66
409.156	1227.48
409.534	1229.29
409.912	1233.36
410.29	1281.72
410.667	1287.37
411.045	1313.58
411.422	1340.25
411.8	1345.9
412.178	1353.13
412.555	1386.8
412.933	1396.52
413.31	1404.88
413.687	1440.81
414.065	1448.49
414.442	1493.24
414.819	1490.53
415.197	1506.8
415.574	1547.7
415.951	1581.6
416.328	1571.88
416.705	1580.92
417.082	1595.61
417.46	1626.79
417.837	1657.75
418.214	1652.33
418.591	1668.37
418.967	1672.22
419.344	1714.7
419.721	1726
420.098	1753.57
420.475	1772.1
420.852	1796.28
421.228	1836.96
421.605	1836.28
421.982	1820.46
422.358	1887.58
422.735	1858.43
423.111	1892.1
423.488	1928.25
423.864	1933
424.241	2012.55
424.617	2005.99
424.994	2002.15
425.37	2089.61
425.746	2081.7
426.123	2113.11
426.499	2124.18
426.875	2142.49
427.251	2157.4
427.627	2195.37
428.003	2258.87
428.379	2271.3
428.756	2264.52
429.132	2327.57
429.507	2367.34
429.883	2401.01
430.259	2435.59
430.635	2472.87
431.011	2471.97
431.387	2555.36
431.763	2606.2
432.138	2627.45
432.514	2662.47
432.89	2651.4
433.265	2730.95
433.641	2749.25
434.016	2779.08
434.392	2846.42
434.767	2892.52
435.143	2857.72
435.518	2934.33
435.894	2965.74
436.269	2996.02
436.644	3087.55
437.02	3109.69
437.395	3100.65
437.77	3148.34
438.145	3233.53
438.52	3265.62
438.895	3300.65
439.271	3298.16
439.646	3364.15
440.021	3428.78
440.395	3407.54
440.77	3404.83
441.145	3440.08
441.52	3534.09
441.895	3548.55
442.27	3585.39
442.645	3581.32
443.019	3702.22
443.394	3680.52
443.769	3689.79
444.143	3746.96
444.518	3767.75
444.892	3784.93
445.267	3851.14
445.641	3861.99
446.016	3883.23
446.39	3961.65
446.764	4002.78
447.139	3967.52
447.513	4013.17
447.887	4045.71
448.262	4124.58
448.636	4111.7
449.01	4234.63
449.384	4246.84
449.758	4286.61
450.132	4351.24
450.506	4371.81
450.88	4426.95
451.254	4448.87
451.628	4452.71
452.002	4549.65
452.376	4594.85
452.75	4607.96
453.123	4674.17
453.497	4700.84
453.871	4760.04
454.244	4861.74
454.618	4911.45
454.992	4980.15
455.365	4971.11
455.739	5139.47
456.112	5139.47
456.486	5154.61
456.859	5193.71
457.232	5334.27
457.606	5333.59
457.979	5479.8
458.352	5585.11
458.725	5575.84
459.099	5646.8
459.472	5729.28
459.845	5793.46
460.218	5773.35
460.591	5857.64
460.964	5974.02
461.337	6063.96
461.71	6124.98
462.083	6180.12
462.456	6251.3
462.829	6250.4
463.201	6380.11
463.574	6385.54
463.947	6550.28
464.32	6649.26
464.692	6656.27
465.065	6736.26
465.438	6851.06
465.81	6921.12
466.183	7024.17
466.555	7167.44
466.928	7123.6
467.3	7234.1
467.672	7336.02
468.045	7602.46
468.417	7518.62
468.789	7627.09
469.161	7693.75
469.534	7851.26
469.906	7989.34
470.278	8056
470.65	8241.99
471.022	8299.84
471.394	8497.35
471.766	8538.7
472.138	8663.22
472.51	8819.15
472.882	8948.18
473.253	9051.46
473.625	9153.15
473.997	9360.83
474.369	9428.17
474.74	9626.13
475.112	9745
475.484	9938.21
475.855	10074.48
476.227	10129.85
476.598	10475.15
476.97	10584.75
477.341	10752.88
477.713	10928.7
478.084	11054.12
478.455	11283.71
478.827	11394.9
479.198	11802.8
479.569	11790.37
479.94	12134.77
480.311	12160.75
480.682	12482.1
481.053	12788.99
481.424	13029.88
481.795	13156.43
482.166	13399.59
482.537	13470.78
482.908	13830.54
483.279	13919.35
483.65	14275.27
484.021	14460.81
484.391	14619.67
484.762	14806.11
485.133	14940.79
485.503	15173.33
485.874	15665.97
486.244	15673.66
486.615	15962.01
486.985	16204.72
487.356	16441.09
487.726	16648.77
488.097	17017.58
488.467	17066.84
488.837	17440.84
489.207	17648.74
489.578	17862.75
489.948	18025.91
490.318	18319.24
490.688	18342.06
491.058	18715.84
491.428	18888.71
491.798	19152.21
492.168	19473.33
492.538	19578.19
492.908	19705.64
493.278	20206.19
493.648	20205.74
494.017	20445.96
494.387	20590.59
494.757	20711.49
495.126	21018.83
495.496	21041.88
495.866	21246.84
496.235	21423.11
496.605	21739.94
496.974	21841.63
497.344	22075.3
497.713	22174.5
498.082	22502.85
498.452	22644.77
498.821	22760.02
499.19	22683.64
499.559	23019.68
499.928	23278.43
500.298	23449.04
500.667	23687.46
501.036	23686.1
501.405	23940.56
501.774	23939.65
502.143	24185.3
502.512	24313.88
502.88	24600.65
503.249	24690.37
503.618	24893.75
503.987	24990.92
504.356	25112.05
504.724	25282.44
505.093	25303.46
505.462	25542.1
505.83	25747.52
506.199	26120.61
506.567	26317.22
506.936	26337.78
507.304	26740.26
507.672	26724.66
508.041	26854.6
508.409	27210.53
508.777	27386.34
509.145	27658.65
509.514	27542.27
509.882	27857.97
510.25	28034.91
510.618	28147.23
510.986	28321.46
511.354	28593.09
511.722	28733.43
512.09	29018.84
512.458	29077.37
512.826	29297.93
513.193	29529.11
513.561	29652.05
513.929	29917.12
514.297	30185.59
514.664	30389.43
515.032	30553.49
515.4	30786.25
515.767	30816.31
516.135	31179.24
516.502	30992.57
516.869	31618.32
517.237	31686.12
517.604	31729.5
517.972	32081.81
518.339	32475.93
518.706	32501.24
519.073	32568.13
519.44	32890.6
519.808	33270.71
520.175	33229.58
520.542	33721.99
520.909	33898.94
521.276	33862.78
521.643	34362.88
522.009	34500.05
522.376	34629.54
522.743	35043.54
523.11	35431.55
523.477	35582.96
523.843	35866.57
524.21	36368.7
524.577	36458.19
524.943	36667.91
525.31	36879.43
525.676	37179.53
526.043	37261.34
526.409	37561.89
526.776	37994.88
527.142	38076
527.508	38394.41
527.874	38693.16
528.241	38912.37
528.607	38860.39
528.973	39266.93
529.339	39330.66
529.705	39836.86
530.071	40031.66
530.437	40190.53
530.803	40433.91
531.169	40599.78
531.535	40485.66
531.901	40767.46
532.267	41007.68
532.632	41324.05
532.998	41594.1
533.364	41688.11
533.73	41647.89
534.095	42156.35
534.461	42143.69
534.826	42446.96
535.192	42602.21
535.557	42871.36
535.923	42874.07
536.288	43045.14
536.653	43198.58
537.019	43306.38
537.384	43525.13
537.749	43581.17
538.114	43721.05
538.479	43774.16
538.845	43947.49
539.21	43891.44
539.575	44251.21
539.94	44295.95
540.305	44514.03
540.67	44553.12
541.034	44691.42
541.399	45033.79
541.764	45027.91
542.129	45234.69
542.494	45327.79
542.858	45409.15
543.223	45603.26
543.587	45879.19
543.952	45712.87
544.316	45899.98
544.681	45977.27
545.045	46058.39
545.41	46492.05
545.774	46329.57
546.138	46504.03
546.503	46646.17
546.867	46762.56
547.231	47081.87
547.595	47017.46
547.959	47226.5
548.324	47169.32
548.688	47364.35
549.052	47553.27
549.416	47707.84
549.779	47651.57
550.143	47831.23
550.507	48055.63
550.871	48018.12
551.235	48082.3
551.599	48379.01
551.962	48416.98
552.326	48625.11
552.689	48677.31
553.053	48747.59
553.417	48700.81
553.78	49146.22
554.143	49083.17
554.507	49399.1
554.87	49493.56
555.234	49937.16
555.597	49684.51
555.96	49896.94
556.323	50012.64
556.686	50051.51
557.05	50312.52
557.413	50512.51
557.776	50499.41
558.139	50782.56
558.502	50879.96
558.865	50944.37
559.228	51099.16
559.59	51298.03
559.953	51278.6
560.316	51655.31
560.679	51548.64
561.041	51787.51
561.404	51870.67
561.767	52084
562.129	52176.65
562.492	52407.38
562.854	52403.54
563.217	52445.12
563.579	52576.19
563.941	52888.95
564.304	52907.25
564.666	53208.26
565.028	53146.12
565.39	53259.79
565.753	53346.56
566.115	53443.74
566.477	53574.81
566.839	53713.33
567.201	53840.79
567.563	53987.45
567.925	54168.91
568.287	54054.12
568.648	54213.21
569.01	54363.03
569.372	54573.88
569.734	54537.72
570.095	54728.22
570.457	54849.12
570.819	54852.51
571.18	54891.83
571.542	54950.82
571.903	54951.49
572.265	55109.91
572.626	55274.87
572.987	55300.86
573.349	55380.41
573.71	55513.29
574.071	55519.39
574.432	55612.72
574.794	55822.66
575.155	55812.71
575.516	55759.61
575.877	55933.61
576.238	55917.34
576.599	56045.02
576.96	56013.84
577.32	56010.9
577.681	56148.3
578.042	56160.95
578.403	56136.55
578.763	56228.07
579.124	56302.42
579.485	56336.77
579.845	56358.46
580.206	56280.5
580.566	56296.99
580.927	56381.96
581.287	56608.17
581.648	56462.64
582.008	56548.97
582.368	56491.79
582.728	56558
583.089	56485.46
583.449	56551.45
583.809	56429.19
584.169	56486.59
584.529	56451.34
584.889	56660.6
585.249	56502.64
585.609	56369.99
585.969	56533.15
586.329	56499.47
586.688	56581.96
587.048	56508.51
587.408	56504.45
587.768	56561.62
588.127	56580.15
588.487	56536.99
588.846	56675.74
589.206	56533.82
589.565	56469.42
589.925	56645.69
590.284	56581.96
590.643	56702.86
591.003	56690.88
591.362	56725.46
591.721	56592.13
592.08	56575.18
592.44	56647.49
592.799	56612.47
593.158	56646.14
593.517	56637.32
593.876	56624.67
594.235	56617.44
594.593	56697.89
594.952	56734.27
595.311	56509.87
595.67	56585.35
596.029	56883.87
596.387	56792.35
596.746	56822.86
597.104	56653.37
597.463	56707.15
597.822	56819.69
598.18	56806.13
598.538	56689.98
598.897	56894.49
599.255	56636.19
599.613	56946.92
599.972	56783.76
600.33	56867.15
600.688	56763.87
601.046	56816.3
601.404	56985.11
601.762	56854.72
602.12	57028.5
602.478	57025.56
602.836	57089.06
603.194	56937.88
603.552	56992.57
603.91	56903.08
604.268	57047.26
604.625	56981.5
604.983	57127.25
605.341	56982.4
605.698	57126.8
606.056	57106.01
606.413	57078.44
606.771	57146.46
607.128	57189.63
607.485	57121.15
607.843	57152.57
608.2	57242.05
608.557	57217.2
608.914	57258.32
609.272	57325.67
609.629	57313.92
609.986	57447.02
610.343	57331.32
610.7	57508.04
611.057	57494.02
611.414	57398.43
611.771	57434.82
612.127	57472.1
612.484	57441.15
612.841	57642.95
613.198	57549.62
613.554	57522.05
613.911	57701.7
614.267	57621.93
614.624	57545.55
614.98	57646.11
615.337	57836.61
615.693	57705.54
616.05	57603.63
616.406	57810.4
616.762	57719.33
617.118	57741.93
617.475	57698.99
617.831	57726.34
618.187	57771.08
618.543	57803.62
618.899	57925.88
619.255	57845.2
619.611	57783.06
619.967	57828.48
620.323	57867.35
620.678	57801.36
621.034	57669.39
621.39	57740.57
621.746	57747.35
622.101	57923.62
622.457	57785.32
622.812	57873.9
623.168	57864.41
623.523	57871.64
623.879	57876.16
624.234	57668.26
624.589	57740.35
624.945	57794.36
625.3	57763.85
625.655	57687.47
626.01	57709.61
626.365	57729.05
626.72	57743.51
627.075	57697.18
627.43	57676.62
627.785	57696.96
628.14	57684.08
628.495	57715.04
628.85	57681.36
629.205	57625.09
629.559	57691.53
629.914	57537.87
630.269	57489.28
630.623	57396.63
630.978	57390.3
631.332	57565.21
631.687	57555.27
632.041	57394.82
632.396	57404.54
632.75	57210.42
633.104	57268.49
633.459	57190.53
633.813	57191.21
634.167	57066.24
634.521	57130.42
634.875	57141.49
635.229	57109.63
635.583	56989.86
635.937	56950.54
636.291	57012.91
636.645	56991.89
636.999	56858.11
637.352	56874.15
637.706	56732.01
638.06	56803.42
638.413	56732.46
638.767	56711.22
639.121	56789.64
639.474	56551.45
639.828	56588.06
640.181	56558.46
640.534	56539.25
640.888	56398.46
641.241	56332.47
641.594	56361.85
641.947	56395.3
642.301	56278.01
642.654	56217.45
643.007	56270.33
643.36	56134.29
643.713	56134.96
644.066	56237.33
644.419	56030.56
644.771	55879.6
645.124	55672.38
645.477	55560.29
645.83	55465.83
646.182	55286.17
646.535	55184.26
646.888	55291.15
647.24	55021.77
647.593	55110.81
647.945	55040.3
648.298	54951.94
648.65	54868.56
649.002	54755.79
649.355	54906.07
649.707	54805.06
650.059	54944.49
650.411	55320.07
650.763	55250.02
651.115	55506.51
651.467	55353.52
651.819	55311.71
652.171	55243.69
652.523	55203.24
652.875	55204.14
653.227	55057.03
653.578	55291.6
653.93	55156.91
654.282	55140.41
654.633	54954.88
654.985	54975
655.337	54896.58
655.688	54947.43
656.039	54986.52
656.391	54711.5
656.742	54778.16
657.094	54833.3
657.445	54940.87
657.796	54774.1
658.147	54673.08
658.498	54715.34
658.849	54744.27
659.2	54693.87
659.551	54572.07
659.902	54680.54
660.253	54591.95
660.604	54610.26
660.955	54420.89
661.306	54520.54
661.656	54348.34
662.007	54408.91
662.358	54438.06
662.708	54437.38
663.059	54379.98
663.409	54135.92
663.76	54356.48
664.11	54262.02
664.461	54312.19
664.811	54372.98
665.161	54251.17
665.511	54133.89
665.862	54158.52
666.212	54248.69
666.562	54236.03
666.912	54136.15
667.262	54202.13
667.612	54111.74
667.962	54188.35
668.312	54063.15
668.662	54239.87
669.011	54081.91
669.361	54021.57
669.711	53989.03
670.06	53989.48
670.41	53822.94
670.76	53781.35
671.109	53881.92
671.459	53728.93
671.808	53703.16
672.157	53800.34
672.507	53598.08
672.856	53619.1
673.205	53595.82
673.554	53655.03
673.904	53460.23
674.253	53683.28
674.602	53522.15
674.951	53171.65
675.3	52990.87
675.649	53351.76
675.998	53273.12
676.346	53394.7
676.695	53433.57
677.044	53196.96
677.393	53167.59
677.741	53260.01
678.09	53155.61
678.438	53111.77
678.787	53141.82
679.135	53212.33
679.484	53032.9
679.832	52993.35
680.181	52825.22
680.529	52836.29
680.877	52737.99
681.225	52742.29
681.573	52889.85
681.922	52641.27
682.27	52487.83
682.618	52521.05
682.966	52479.24
683.314	52487.38
683.661	52362.86
684.009	52158.12
684.357	52139.36
684.705	52109.76
685.053	52126.93
685.4	52057.56
685.748	51867.51
686.095	51853.04
686.443	51712.48
686.79	51711.58
687.138	51740.96
687.485	51657.79
687.832	51425.94
688.18	51557.23
688.527	51330.8
688.874	51245.6
689.221	51145.27
689.568	51087.19
689.915	51063.23
690.262	50967.87
690.609	50927.87
690.956	50878.38
691.303	50691.72
691.65	50564.49
691.997	50521.33
692.344	50333.31
692.69	50241.56
693.037	50241.56
693.383	50018.74
693.73	50130.83
694.077	49839.99
694.423	49759.77
694.769	49656.26
695.116	49419.44
695.462	49457.85
695.808	49249.27
696.155	49364.52
696.501	49127.01
696.847	49106.9
697.193	48821.03
697.539	48991.2
697.885	48765.67
698.231	48366.13
698.577	48406.58
698.923	48387.15
699.269	48136.3
699.614	48084.78
699.96	48032.8
700.306	47953.48
700.651	47713.27
700.997	47731.8
701.342	47669.88
701.688	47489.77
702.033	47349.88
702.379	47448.41
702.724	47265.59
703.069	47441.63
703.415	46997.13
703.76	46954.64
704.105	46843.23
704.45	46602.33
704.795	46516.23
705.14	46371.61
705.485	46327.99
705.83	46107.66
706.175	46261.33
706.52	46093.19
706.865	45882.58
707.209	45984.5
707.554	45863.37
707.899	45768.68
708.243	45575.47
708.588	45574.11
708.932	45197.85
709.277	45113.33
709.621	45083.73
709.966	45035.37
710.31	45112.2
710.654	44862.72
710.998	44881.93
711.342	44812.55
711.687	44522.84
712.031	44210.31
712.375	44109.74
712.719	44303.86
713.063	44131.89
713.407	44122.85
713.75	43954.72
714.094	43822.52
714.438	43705.69
714.782	43724.44
715.125	43446.94
715.469	43511.79
715.812	43265.02
716.156	42939.61
716.499	43187.73
716.843	42987.74
717.186	42803.11
717.53	43003.11
717.873	42923.56
718.216	42917.91
718.559	42615.77
718.902	42360.64
719.246	42427.08
719.589	42384.59
719.932	42220.08
720.275	42107.76
720.617	41977.14
720.96	42069.12
721.303	41949.12
721.646	41881.33
721.989	41705.29
722.331	41715.46
722.674	41583.26
723.016	41642.92
723.359	41694.67
723.701	41652.18
724.044	41294
724.386	41012.65
724.729	41248.8
725.071	41186.66
725.413	41021.01
725.755	40935.14
726.097	40752.09
726.439	40406.56
726.782	40479.11
727.124	40740.12
727.465	40478.65
727.807	40330.18
728.149	40360.01
728.491	40169.96
728.833	40152.79
729.175	40193.01
729.516	40127.48
729.858	39969.74
730.199	39977.65
730.541	39914.15
730.882	39840.48
731.224	39828.05
731.565	39548.06
731.906	39533.14
732.248	39566.81
732.589	39282.98
732.93	39118.91
733.271	39251.11
733.612	39166.37
733.953	39062.87
734.294	38917.56
734.635	38864.01
734.976	38749.21
735.317	38704.91
735.658	38706.5
735.999	38581.3
736.339	38624.46
736.68	38639.38
737.021	38491.36
737.361	38212.5
737.702	38434.64
738.042	38221.99
738.383	38157.81
738.723	38108.55
739.063	37978.83
739.404	37953.97
739.744	37893.86
740.084	37852.96
740.424	37806.41
740.764	37605.28
741.104	37790.36
741.444	37547.66
741.784	37488
742.124	37412.52
742.464	37281.9
742.804	37259.08
743.143	37334.56
743.483	37153.32
743.823	36964.62
744.162	36955.36
744.502	36965.98
744.841	36844.17
745.181	36860.67
745.52	36702.03
745.86	36587.23
746.199	36481.7
746.538	36370.29
746.877	36466.56
747.216	36580.9
747.556	36449.61
747.895	36512.88
748.234	36208.26
748.573	36228.6
748.911	36239.89
749.25	36122.38
749.589	35909.28
749.928	35868.6
750.267	35907.7
750.605	35621.61
750.944	35450.31
751.283	35493.25
751.621	35643.07
751.96	35352.23
752.298	35287.15
752.636	35284.89
