Data from foil_FLMS001491_041.txt Node
Date: Tue Feb 07 11:26:56 GMT 2017
User: dcchb
Spectrometer: FLMS00149
Trigger mode: 0
Integration Time (sec): 2.000000E-2
Scans to average: 10
Electric dark correction enabled: true
Nonlinearity correction enabled: false
Boxcar width: 0
XAxis mode: Wavelengths
Number of Pixels in Spectrum: 2048
>>>>>Begin Spectral Data<<<<<
341.393	-10.49
341.776	-10.49
342.16	-10.49
342.543	-55.46
342.927	-47.1
343.31	-78.51
343.693	-61.57
344.077	-65.63
344.46	-70.83
344.843	-45.97
345.226	-46.88
345.61	-39.42
345.993	-17.5
346.376	2.84
346.759	15.27
347.142	23.4
347.525	42.16
347.908	45.55
348.291	78.77
348.674	101.59
349.057	116.73
349.44	122.38
349.823	152.21
350.206	170.74
350.588	228.6
350.971	254.13
351.354	257.75
351.737	292.77
352.119	317.41
352.502	321.25
352.884	328.93
353.267	330.97
353.65	337.75
354.032	359.44
354.414	373.68
354.797	389.5
355.179	387.69
355.562	370.29
355.944	380
356.326	397.18
356.709	401.02
357.091	416.39
357.473	412.32
357.855	410.06
358.238	435.6
358.62	420.46
359.002	416.61
359.384	418.65
359.766	432.66
360.148	408.03
360.53	418.87
360.912	418.65
361.294	465.88
361.676	402.6
362.057	409.61
362.439	434.47
362.821	423.62
363.203	448.48
363.584	412.32
363.966	430.4
364.348	436.05
364.729	429.72
365.111	425.65
365.493	413.22
365.874	431.75
366.256	434.24
366.637	424.97
367.019	414.81
367.4	436.73
367.781	426.78
368.163	418.42
368.544	427.91
368.925	434.92
369.306	447.35
369.688	450.51
370.069	464.52
370.45	463.17
370.831	459.32
371.212	451.19
371.593	450.51
371.974	457.74
372.355	453.22
372.736	447.12
373.117	455.71
373.498	473.34
373.879	465.65
374.26	442.15
374.641	435.14
375.021	467.69
375.402	483.73
375.783	514.92
376.163	516.95
376.544	511.53
376.925	500.9
377.305	516.95
377.686	511.53
378.066	531.86
378.447	522.15
378.827	535.93
379.208	535.25
379.588	531.19
379.968	530.06
380.349	542.03
380.729	543.84
381.109	546.55
381.489	542.94
381.87	557.85
382.25	559.43
382.63	574.8
383.01	560.11
383.39	581.35
383.77	609.6
384.15	602.6
384.53	604.63
384.91	612.09
385.29	615.48
385.67	617.29
386.049	628.59
386.429	635.14
386.809	622.48
387.189	626.33
387.568	649.15
387.948	651.64
388.328	662.48
388.707	666.1
389.087	673.78
389.466	681.69
389.846	703.61
390.225	699.54
390.605	722.37
390.984	711.97
391.363	712.65
391.743	721.92
392.122	748.36
392.501	713.1
392.881	747.23
393.26	755.36
393.639	744.51
394.018	765.98
394.397	771.63
394.776	785.64
395.155	791.07
395.534	809.37
395.913	805.3
396.292	807.34
396.671	819.77
397.05	850.27
397.429	845.08
397.808	815.47
398.186	849.14
398.565	858.18
398.944	872.65
399.323	883.72
399.701	881.23
400.08	901.12
400.458	919.88
400.837	908.8
401.215	935.02
401.594	923.49
401.972	948.8
402.351	969.59
402.729	969.37
403.107	965.3
403.486	976.82
403.864	987.22
404.242	997.16
404.62	1016.37
404.999	1045.75
405.377	1035.58
405.755	1010.27
406.133	1059.99
406.511	1097.95
406.889	1079.19
407.267	1105.63
407.645	1097.95
408.023	1128.01
408.401	1151.51
408.779	1166.42
409.156	1179.98
409.534	1171.4
409.912	1185.41
410.29	1219.98
410.667	1232.64
411.045	1248
411.422	1248.46
411.8	1282.58
412.178	1295.46
412.555	1308.12
412.933	1333.88
413.31	1344.72
413.687	1377.04
414.065	1376.81
414.442	1421.56
414.819	1429.47
415.197	1431.5
415.574	1452.52
415.951	1475.57
416.328	1481.9
416.705	1507.43
417.082	1511.05
417.46	1508.56
417.837	1514.89
418.214	1555.57
418.591	1532.29
418.967	1565.74
419.344	1575.23
419.721	1614.32
420.098	1606.86
420.475	1617.94
420.852	1654.55
421.228	1663.36
421.605	1684.83
421.982	1686.86
422.358	1730.93
422.735	1734.09
423.111	1758.5
423.488	1775.67
423.864	1770.48
424.241	1833.98
424.617	1831.04
424.994	1830.14
425.37	1860.87
425.746	1874.2
426.123	1891.6
426.499	1899.74
426.875	1928.21
427.251	1950.36
427.627	2028.55
428.003	2054.31
428.379	2056.8
428.756	2091.82
429.132	2064.03
429.507	2128.21
429.883	2177.47
430.259	2185.83
430.635	2221.09
431.011	2241.2
431.387	2286.62
431.763	2323
432.138	2323.68
432.514	2363.68
432.89	2394.19
433.265	2422.89
433.641	2447.97
434.016	2474.64
434.392	2522.32
434.767	2551.25
435.143	2553.73
435.518	2605.48
435.894	2643
436.269	2650.68
436.644	2740.85
437.02	2699.94
437.395	2733.16
437.77	2799.83
438.145	2785.59
438.52	2846.61
438.895	2879.6
439.271	2884.8
439.646	2923.21
440.021	3020.61
440.395	2959.6
440.77	2984
441.145	3016.09
441.52	3052.25
441.895	3058.58
442.27	3113.49
442.645	3095.86
443.019	3147.61
443.394	3151
443.769	3213.38
444.143	3176.31
444.518	3251.57
444.892	3235.75
445.267	3303.32
445.641	3281.4
446.016	3347.84
446.39	3351.45
446.764	3417.66
447.139	3339.25
447.513	3402.07
447.887	3423.31
448.262	3470.54
448.636	3506.48
449.01	3529.98
449.384	3551.45
449.758	3576.3
450.132	3616.98
450.506	3640.26
450.88	3649.75
451.254	3688.39
451.628	3772.01
452.002	3809.52
452.376	3853.13
452.75	3860.36
453.123	3872.57
453.497	3950.98
453.871	3953.7
454.244	4027.82
454.618	4098.55
454.992	4132.9
455.365	4171.54
455.739	4269.17
456.112	4255.38
456.486	4288.83
456.859	4341.48
457.232	4385.32
457.606	4424.19
457.979	4470.07
458.352	4538.76
458.725	4586.22
459.099	4611.98
459.472	4741.92
459.845	4729.49
460.218	4815.37
460.591	4832.54
460.964	4838.87
461.337	4968.13
461.71	5056.27
462.083	5090.16
462.456	5077.96
462.829	5162.93
463.201	5268.69
463.574	5291.51
463.947	5345.07
464.32	5413.54
464.692	5436.82
465.065	5531.51
465.438	5596.36
465.81	5676.36
466.183	5749.58
466.555	5854.44
466.928	5891.95
467.3	5865.51
467.672	6001.33
468.045	6070.25
468.417	6105.5
468.789	6194.77
469.161	6259.17
469.534	6435.89
469.906	6453.52
470.278	6519.96
470.65	6655.09
471.022	6704.36
471.394	6811.93
471.766	6900.74
472.138	7000.4
472.51	7152.03
472.882	7198.13
473.253	7307.96
473.625	7380.72
473.997	7573.94
474.369	7575.52
474.74	7653.94
475.112	7840.6
475.484	7977.77
475.855	8081.95
476.227	8205.11
476.598	8420.47
476.97	8494.14
477.341	8702.05
477.713	8702.95
478.084	8845.09
478.455	9091.64
478.827	9117.4
479.198	9422.93
479.569	9450.95
479.94	9645.07
480.311	9725.3
480.682	9974.55
481.053	10199.41
481.424	10353.3
481.795	10473.3
482.166	10605.5
482.537	10800.97
482.908	11036.67
483.279	11098.37
483.65	11240.74
484.021	11512.37
484.391	11628.3
484.762	11772.47
485.133	11889.31
485.503	11989.87
485.874	12332.68
486.244	12390.76
486.615	12617.87
486.985	12779.23
487.356	13042.95
487.726	13124.08
488.097	13377.85
488.467	13475.25
488.837	13654.01
489.207	13865.53
489.578	14025.07
489.948	14205.86
490.318	14439.07
490.688	14471.61
491.058	14676.8
491.428	14894.65
491.798	14969.9
492.168	15293.28
492.538	15388.65
492.908	15598.81
493.278	15775.31
493.648	15773.5
494.017	16010.55
494.387	16139.82
494.757	16307.95
495.126	16437.89
495.496	16579.8
495.866	16726.69
496.235	16792.91
496.605	17036.06
496.974	17140.02
497.344	17223.86
497.713	17353.34
498.082	17513.56
498.452	17749.04
498.821	17817.29
499.19	17839.43
499.559	18044.17
499.928	18203.04
500.298	18244.39
500.667	18474.44
501.036	18432.64
501.405	18651.39
501.774	18741.33
502.143	18960.76
502.512	18910.82
502.88	19141.32
503.249	19197.36
503.618	19402.55
503.987	19438.26
504.356	19628.54
504.724	19837.8
505.093	19928.19
505.462	19894.75
505.83	20178.35
506.199	20309.2
506.567	20528.17
506.936	20501.28
507.304	20773.59
507.672	20870.76
508.041	21042.29
508.409	21132
508.777	21304.2
509.145	21473.23
509.514	21601.82
509.882	21677.3
510.25	21703.96
510.618	21993.45
510.986	22052.65
511.354	22337.17
511.722	22515.02
512.09	22640.66
512.458	22557.95
512.826	22868
513.193	22995
513.561	23113.87
513.929	23307.08
514.297	23642.67
514.664	23773.51
515.032	23714.31
515.4	24003.11
515.767	24135.31
516.135	24279.94
516.502	24169.66
516.869	24701.17
517.237	24885.8
517.604	24830.21
517.972	25185.91
518.339	25367.14
518.706	25412.79
519.073	25527.14
519.44	25778.21
519.808	26038.54
520.175	26110.4
520.542	26418.87
520.909	26605.76
521.276	26572.31
521.643	26938.4
522.009	27106.76
522.376	27170.71
522.743	27508.1
523.11	27691.38
523.477	28008.43
523.843	28219.05
524.21	28503.78
524.577	28673.27
524.943	28820.39
525.31	28976.09
525.676	29178.57
526.043	29438
526.409	29596.41
526.776	29959.79
527.142	30000.92
527.508	30149.39
527.874	30346
528.241	30684.52
528.607	30792.99
528.973	31067.56
529.339	31002.02
529.705	31435.68
530.071	31592.06
530.437	31763.13
530.803	32087.87
531.169	32179.62
531.535	32141.65
531.901	32312.72
532.267	32541.19
532.632	32824.35
532.998	32796.1
533.364	32926.04
533.73	33279.93
534.095	33532.35
534.461	33593.37
534.826	33700.03
535.192	33967.6
535.557	34155.61
535.923	34041.27
536.288	34408.71
536.653	34553.57
537.019	34435.83
537.384	34649.16
537.749	34813.45
538.114	34937.51
538.479	35129.37
538.845	35224.29
539.21	35015.48
539.575	35464.51
539.94	35499.76
540.305	35901.33
540.67	35881.22
541.034	35950.82
541.399	36217.93
541.764	36181.55
542.129	36421.09
542.494	36551.93
542.858	36595.78
543.223	36619.05
543.587	36909.21
543.952	36827.41
544.316	37047.51
544.681	37113.28
545.045	37475.07
545.41	37484.57
545.774	37703.77
546.138	37796.87
546.503	37779.92
546.867	37921.62
547.231	38161.38
547.595	38170.42
547.959	38506.23
548.324	38427.82
548.688	38615.38
549.052	39014.02
549.416	38967.69
549.779	38894.92
550.143	39267.34
550.507	39492.2
550.871	39549.82
551.235	39524.29
551.599	39828.23
551.962	39984.16
552.326	40079.3
552.689	40292.4
553.053	40248.79
553.417	40456.24
553.78	40896.68
554.143	40833.18
554.507	40911.59
554.87	41200.17
555.234	41456.21
555.597	41228.2
555.96	41522.2
556.323	41834.06
556.686	42009.87
557.05	42175.29
557.413	42351.1
557.776	42475.85
558.139	42648.5
558.502	42795.39
558.865	42807.36
559.228	43173.23
559.59	43220.23
559.953	43556.72
560.316	43808.92
560.679	43957.16
561.041	44188.34
561.404	44438.96
561.767	44622.91
562.129	44481.44
562.492	44960.3
562.854	45016.34
563.217	44976.12
563.579	45185.38
563.941	45571.36
564.304	45763.67
564.666	45941.52
565.028	46044.79
565.39	46248.63
565.753	46426.7
566.115	46536.08
566.477	46710.09
566.839	46855.84
567.201	47260.13
567.563	47230.3
567.925	47397.52
568.287	47664.86
568.648	47587.12
569.01	47877.74
569.372	48097.17
569.734	48089.48
570.095	48354.11
570.457	48458.06
570.819	48531.73
571.18	48554.78
571.542	48788.22
571.903	48787.32
572.265	48926.75
572.626	48997.48
572.987	49216.01
573.349	49300.3
573.71	49460.07
574.071	49654.64
574.432	49712.04
574.794	49872.71
575.155	49906.39
575.516	49770.34
575.877	50164.68
576.238	50155.64
576.599	50325.13
576.96	50368.07
577.32	50268.64
577.681	50439.48
578.042	50485.81
578.403	50486.03
578.763	50542.08
579.124	50622.3
579.485	50756.31
579.845	50846.25
580.206	50776.87
580.566	50865
580.927	50856.19
581.287	51099.35
581.648	50768.51
582.008	51016.64
582.368	50879.47
582.728	51140.25
583.089	51015.51
583.449	51080.14
583.809	51039.01
584.169	51189.29
584.529	51169.86
584.889	51412.33
585.249	51183.19
585.609	51120.36
585.969	51230.42
586.329	51195.39
586.688	51233.36
587.048	51248.27
587.408	51158.33
587.768	51147.03
588.127	51152.45
588.487	51115.62
588.846	51398.78
589.206	51146.8
589.565	51169.86
589.925	51373.47
590.284	51274.26
590.643	51337.99
591.003	51346.12
591.362	51394.26
591.721	51395.16
592.08	51447.36
592.44	51545.89
592.799	51416.85
593.158	51346.12
593.517	51378.21
593.876	51406.69
594.235	51355.84
594.593	51426.8
594.952	51497.98
595.311	51325.11
595.67	51508.15
596.029	51678.54
596.387	51681.48
596.746	51642.39
597.104	51577.53
597.463	51603.52
597.822	51611.2
598.18	51562.84
598.538	51526.23
598.897	51752.89
599.255	51479.45
599.613	51942.72
599.972	51750.86
600.33	51728.48
600.688	51614.36
601.046	51823.17
601.404	51928.48
601.762	51891.64
602.12	51924.19
602.478	51933.22
602.836	51919.89
603.194	51792.44
603.552	51870.63
603.91	51877.63
604.268	52096.84
604.625	51933.9
604.983	52088.7
605.341	51853.68
605.698	52141.35
606.056	52231.97
606.413	52156.72
606.771	52274.01
607.128	52278.07
607.485	52227.91
607.843	52221.58
608.2	52365.53
608.557	52472.87
608.914	52287.34
609.272	52401.91
609.629	52571.4
609.986	52542.47
610.343	52481.91
610.7	52705.18
611.057	52631.51
611.414	52651.85
611.771	52649.59
612.127	52721.45
612.484	52777.27
612.841	52854.1
613.198	52624.05
613.554	52748.34
613.911	52897.49
614.267	52899.53
614.624	52865.63
614.98	53002.35
615.337	53115.11
615.693	52991.95
616.05	52937.04
616.406	53195.34
616.762	53039.64
617.118	52984.04
617.475	53015.46
617.831	53207.32
618.187	53194.89
618.543	53253.64
618.899	53395.56
619.255	53252.29
619.611	53237.82
619.967	53266.3
620.323	53270.59
620.678	53338.84
621.034	53252.06
621.39	53183.59
621.746	53185.4
622.101	53534.09
622.457	53293.19
622.812	53277.6
623.168	53325.96
623.523	53395.79
623.879	53439.17
624.234	53262
624.589	53301.32
624.945	53342.68
625.3	53347.65
625.655	53352.62
626.01	53365.05
626.365	53371.15
626.72	53266.52
627.075	53214.32
627.43	53231.04
627.785	53211.61
628.14	53204.6
628.495	53318.5
628.85	53256.13
629.205	53117.37
629.559	53339.29
629.914	53048.45
630.269	53129.58
630.623	53029.92
630.978	52997.6
631.332	53032.18
631.687	53096.58
632.041	52986.76
632.396	53008.22
632.75	52822.24
633.104	52933.42
633.459	52778.85
633.813	52743.15
634.167	52762.36
634.521	52713.32
634.875	52829.47
635.229	52700.44
635.583	52525.3
635.937	52515.36
636.291	52644.62
636.645	52588.12
636.999	52398.07
637.352	52538.63
637.706	52217.51
638.06	52437.39
638.413	52239.21
638.767	52188.59
639.121	52237.85
639.474	52058.87
639.828	52228.58
640.181	52143.61
640.534	52125.99
640.888	52038.31
641.241	51767.35
641.594	51851.19
641.947	52047.12
642.301	51943.39
642.654	51853.9
643.007	51847.58
643.36	51841.7
643.713	51841.7
644.066	51845.09
644.419	51413.24
644.771	51107.94
645.124	50605.35
645.477	50597.89
645.83	50545.46
646.182	50545.24
646.535	50504.34
646.888	50693.03
647.24	50532.36
647.593	50846.7
647.945	50768.06
648.298	50614.39
648.65	50441.51
649.002	50279.94
649.355	50397.22
649.707	50133.05
650.059	50123.1
650.411	50602.41
650.763	50684.9
651.115	51041.72
651.467	50927.83
651.819	50859.35
652.171	50730.77
652.523	50773.93
652.875	50734.39
653.227	50529.19
653.578	50742.3
653.93	50749.75
654.282	50533.26
654.633	50474.73
654.985	50491.45
655.337	50559.25
655.688	50476.31
656.039	50522.64
656.391	50161.97
656.742	50308.18
657.094	50364.9
657.445	50300.73
657.796	50270.22
658.147	50173.05
658.498	50118.36
658.849	50200.84
659.2	50283.32
659.551	50065.48
659.902	50197.9
660.253	50072.93
660.604	50138.47
660.955	49984.58
661.306	50092.6
661.656	50018.47
662.007	49901.41
662.358	49964.24
662.708	49957.23
663.059	49965.82
663.409	49780.06
663.76	50001.3
664.11	49943.9
664.461	49857.12
664.811	49939.38
665.161	49776.67
665.511	49830.46
665.862	49690.57
666.212	49736.67
666.562	49767.86
666.912	49673.62
667.262	49621.2
667.612	49574.87
667.962	49595.21
668.312	49592.95
668.662	49699.84
669.011	49523.34
669.361	49497.13
669.711	49428.21
670.06	49401.09
670.41	49216.91
670.76	49270.7
671.109	49498.94
671.459	49287.87
671.808	49192.51
672.157	49222.34
672.507	48966.75
672.856	49115.9
673.205	49195.44
673.554	49205.16
673.904	49096.24
674.253	49378.26
674.602	49043.36
674.951	48536.25
675.3	48376.03
675.649	49003.13
675.998	48843.59
676.346	48786.64
676.695	48986.18
677.044	48598.85
677.393	48762.46
677.741	48890.59
678.09	48644.95
678.438	48646.53
678.787	48667.32
679.135	48726.3
679.484	48456.03
679.832	48624.61
680.181	48326.54
680.529	48440.89
680.877	48210.38
681.225	48275.47
681.573	48451.28
681.922	48196.83
682.27	48060.56
682.618	48060.56
682.966	47871.86
683.314	48039.32
683.661	47825.54
684.009	47726.33
684.357	47747.12
684.705	47565.88
685.053	47705.09
685.4	47620.57
685.748	47295.38
686.095	47412.67
686.443	47120.92
686.79	47175.61
687.138	47140.13
687.485	47090.87
687.832	46933.13
688.18	47049.29
688.527	46750.99
688.874	46621.05
689.221	46492.24
689.568	46554.16
689.915	46257.44
690.262	46278.68
690.609	46103.1
690.956	46128.41
691.303	46099.48
691.65	45954.4
691.997	45868.3
692.344	45632.37
692.69	45529.1
693.037	45559.83
693.383	45331.36
693.73	45403.91
694.077	45068.32
694.423	45053.63
694.769	44977.25
695.116	44914.65
695.462	44762.34
695.808	44628.78
696.155	44853.41
696.501	44446.42
696.847	44522.35
697.193	44149.93
697.539	44327.55
697.885	43954.68
698.231	43885.75
698.577	43979.08
698.923	43710.62
699.269	43591.98
699.614	43305.66
699.96	43319.21
700.306	43405.77
700.651	43218.88
700.997	42957.87
701.342	42862.05
701.688	42988.83
702.033	42805.33
702.379	42706.12
702.724	42582.74
703.069	42674.71
703.415	42157.89
703.76	42121.51
704.105	42210.77
704.45	42069.98
704.795	41867.05
705.14	41638.13
705.485	41700.05
705.83	41572.82
706.175	41587.96
706.52	41473.61
706.865	41233.17
707.209	41213.28
707.554	40995.89
707.899	41092.61
708.243	40864.36
708.588	40898.49
708.932	40622.11
709.277	40630.7
709.621	40475
709.966	40288.11
710.31	40476.35
710.654	40074.78
710.998	40119.98
711.342	40178.05
711.687	40006.76
712.031	39842.24
712.375	39720.89
712.719	39733.09
713.063	39681.34
713.407	39778.29
713.75	39290.17
714.094	39536.94
714.438	39234.8
714.782	39319.09
715.125	39151.87
715.469	39299.66
715.812	38941.7
716.156	38757.07
716.499	38712.1
716.843	38719.34
717.186	38600.47
717.53	38766.34
717.873	38528.38
718.216	38696.51
718.559	38264.21
718.902	38113.25
719.246	38188.5
719.589	38127.94
719.932	38032.12
720.275	37923.65
720.617	37838
720.96	37857.44
721.303	37743.09
721.646	37815.63
721.989	37460.39
722.331	37682.53
722.674	37645.92
723.016	37462.64
723.359	37470.55
723.701	37511.01
724.044	37093.62
724.386	36912.83
724.729	37060.4
725.071	37038.48
725.413	37042.32
725.755	36962.32
726.097	36861.3
726.439	36514.87
726.782	36592.84
727.124	36793.28
727.465	36526.62
727.807	36542.67
728.149	36401.43
728.491	36449.79
728.833	36331.38
729.175	36311.94
729.516	36197.14
729.858	36104.71
730.199	36140.65
730.541	35948.79
730.882	35947.43
731.224	36013.64
731.565	35784.04
731.906	35749.47
732.248	35920.31
732.589	35593.54
732.93	35589.25
733.271	35581.79
733.612	35557.84
733.953	35574.56
734.294	35256.15
734.635	35147.23
734.976	35444.39
735.317	35104.97
735.658	35030.39
735.999	35095.02
736.339	35024.74
736.68	35118.07
737.021	34887.12
737.361	34696.62
737.702	34989.26
738.042	34678.09
738.383	34630.4
738.723	34663.85
739.063	34669.05
739.404	34565.77
739.744	34634.7
740.084	34344.08
740.424	34347.7
740.764	34276.06
741.104	34471.76
741.444	34161.04
741.784	34100.93
742.124	34067.03
742.464	34050.08
742.804	34001.04
743.143	33849.63
743.483	33878.33
743.823	33727.6
744.162	33720.6
744.502	33728.28
744.841	33567.38
745.181	33627.04
745.52	33413.49
745.86	33550.88
746.199	33361.74
746.538	33363.09
746.877	33354.96
747.216	33164.45
747.556	33179.59
747.895	33155.41
748.234	32942.54
748.573	32954.29
748.911	32840.62
749.25	32792.49
749.589	32573.73
749.928	32630.23
750.267	32621.42
750.605	32683.34
750.944	32408.54
751.283	32313.63
751.621	32452.61
751.96	32244.93
752.298	32163.8
752.636	32239.96
752.975	32076.12
753.313	32031.83
