Data from foil_FLMS001491_003.txt Node
Date: Tue Feb 07 11:25:16 GMT 2017
User: dcchb
Spectrometer: FLMS00149
Trigger mode: 0
Integration Time (sec): 2.000000E-2
Scans to average: 10
Electric dark correction enabled: true
Nonlinearity correction enabled: false
Boxcar width: 0
XAxis mode: Wavelengths
Number of Pixels in Spectrum: 2048
>>>>>Begin Spectral Data<<<<<
341.393	-21.68
341.776	-21.68
342.16	-21.68
342.543	-66.88
342.927	-66.42
343.31	-79.08
343.693	-80.66
344.077	-56.71
344.46	-57.39
344.843	-40.21
345.226	-49.7
345.61	-31.85
345.993	-20.32
346.376	-4.05
346.759	18.54
347.142	33.69
347.525	30.07
347.908	69.62
348.291	86.34
348.674	92.22
349.057	89.5
349.44	123.85
349.823	138.32
350.206	179.9
350.588	291.31
350.971	301.7
351.354	329.5
351.737	313
352.119	328.14
352.502	355.26
352.884	356.84
353.267	371.53
353.65	387.8
354.032	414.92
354.414	374.92
354.797	388.93
355.179	439.78
355.562	422.15
355.944	432.09
356.326	439.55
356.709	430.29
357.091	432.55
357.473	434.58
357.855	466.67
358.238	457.18
358.62	451.75
359.002	455.6
359.384	455.6
359.766	477.52
360.148	458.53
360.53	470.96
360.912	447.23
361.294	474.35
361.676	445.88
362.057	474.35
362.439	452.88
362.821	472.32
363.203	444.3
363.584	459.44
363.966	482.26
364.348	473.67
364.729	468.25
365.111	469.38
365.493	475.71
365.874	484.75
366.256	469.61
366.637	478.65
367.019	496.5
367.4	483.17
367.781	488.14
368.163	496.5
368.544	484.97
368.925	506.44
369.306	501.47
369.688	505.09
370.069	492.2
370.45	521.36
370.831	540.11
371.212	508.48
371.593	532.43
371.974	529.72
372.355	535.37
372.736	507.35
373.117	521.58
373.498	517.51
373.879	551.86
374.26	519.32
374.641	519.77
375.021	550.51
375.402	564.29
375.783	592.77
376.163	638.42
376.544	618.98
376.925	597.74
377.305	589.38
377.686	608.13
378.066	612.43
378.447	594.35
378.827	622.14
379.208	601.58
379.588	646.55
379.968	636.38
380.349	636.61
380.729	642.71
381.109	675.7
381.489	662.82
381.87	672.54
382.25	674.8
382.63	696.27
383.01	692.65
383.39	698.98
383.77	711.86
384.15	716.83
384.53	729.49
384.91	704.85
385.29	725.64
385.67	749.37
386.049	777.62
386.429	748.92
386.809	774.46
387.189	788.02
387.568	797.06
387.948	812.2
388.328	808.13
388.707	823.95
389.087	854.23
389.466	855.81
389.846	855.81
390.225	864.85
390.605	865.3
390.984	864.85
391.363	898.07
391.743	911.18
392.122	908.46
392.501	926.09
392.881	963.6
393.26	941.46
393.639	931.06
394.018	976.49
394.397	987.78
394.776	1022.36
395.155	997.5
395.534	1014
395.913	998.41
396.292	1025.07
396.671	1058.07
397.05	1039.53
397.429	1069.14
397.808	1069.82
398.186	1077.95
398.565	1105.07
398.944	1076.37
399.323	1126.09
399.701	1096.93
400.08	1145.29
400.458	1171.51
400.837	1157.72
401.215	1185.29
401.594	1220.55
401.972	1220.55
402.351	1230.26
402.729	1252.41
403.107	1248.57
403.486	1248.34
403.864	1268
404.242	1279.75
404.62	1304.16
404.999	1335.12
405.377	1305.97
405.755	1364.05
406.133	1413.99
406.511	1416.7
406.889	1434.55
407.267	1446.76
407.645	1462.57
408.023	1494.89
408.401	1509.58
408.779	1498.28
409.156	1551.16
409.534	1560.65
409.912	1571.5
410.29	1602.91
410.667	1646.07
411.045	1648.33
411.422	1665.73
411.8	1677.03
412.178	1700.31
412.555	1738.5
412.933	1731.95
413.31	1777.14
413.687	1830.7
414.065	1848.55
414.442	1831.83
414.819	1866.86
415.197	1884.48
415.574	1913.64
415.951	1967.87
416.328	1932.17
416.705	1946.4
417.082	1983.46
417.46	2012.16
417.837	2034.08
418.214	2078.83
418.591	2070.47
418.967	2092.39
419.344	2097.36
419.721	2166.51
420.098	2158.15
420.475	2180.97
420.852	2238.37
421.228	2209.22
421.605	2251.48
421.982	2278.15
422.358	2274.53
422.735	2331.93
423.111	2351.36
423.488	2379.61
423.864	2418.26
424.241	2407.63
424.617	2444.7
424.994	2482.21
425.37	2485.82
425.746	2502.77
426.123	2599.49
426.499	2572.83
426.875	2641.53
427.251	2683.11
427.627	2702.54
428.003	2726.27
428.379	2739.38
428.756	2792.94
429.132	2832.26
429.507	2887.85
429.883	2899.15
430.259	2993.16
430.635	2988.41
431.011	3045.13
431.387	3091.68
431.763	3118.12
432.138	3170.78
432.514	3226.6
432.89	3197.44
433.265	3279.93
433.641	3357.44
434.016	3362.64
434.392	3410.55
434.767	3444.44
435.143	3524.67
435.518	3515.18
435.894	3537.32
436.269	3603.99
436.644	3651.44
437.02	3684.21
437.395	3718.79
437.77	3785.23
438.145	3840.59
438.52	3857.77
438.895	3927.59
439.271	3865.9
439.646	3951.32
440.021	4008.27
440.395	4067.48
440.77	3974.15
441.145	4085.78
441.52	4206.46
441.895	4171.66
442.27	4227.7
442.645	4221.15
443.019	4278.77
443.394	4300.92
443.769	4317.64
444.143	4326.68
444.518	4402.16
444.892	4356.51
445.267	4438.99
445.641	4503.62
446.016	4526.67
446.39	4566
446.764	4558.09
447.139	4550.18
447.513	4647.8
447.887	4678.08
448.262	4683.28
448.636	4712.43
449.01	4824.29
449.384	4853.67
449.758	4874.01
450.132	4947.91
450.506	4961.92
450.88	4963.05
451.254	4977.28
451.628	5119.65
452.002	5188.13
452.376	5186.54
452.75	5205.53
453.123	5265.64
453.497	5356.71
453.871	5368.01
454.244	5496.82
454.618	5530.04
454.992	5620.66
455.365	5577.49
455.739	5803.93
456.112	5801.44
456.486	5879.63
456.859	5894.32
457.232	6002.57
457.606	5968.9
457.979	6138.16
458.352	6304.48
458.725	6237.59
459.099	6334.99
459.472	6452.05
459.845	6425.38
460.218	6564.14
460.591	6642.33
460.964	6626.05
461.337	6796.22
461.71	6880.29
462.083	7000.06
462.456	6996.89
462.829	7054.74
463.201	7196.89
463.574	7192.59
463.947	7373.15
464.32	7439.14
464.692	7531.57
465.065	7575.63
465.438	7689.08
465.81	7803.2
466.183	7809.98
466.555	8061.5
466.928	8091.55
467.3	8050.42
467.672	8237.54
468.045	8424.65
468.417	8370.64
468.789	8499.9
469.161	8554.14
469.534	8803.4
469.906	8919.55
470.278	9024.41
470.65	9105.09
471.022	9240.68
471.394	9512.08
471.766	9525.41
472.138	9653.09
472.51	9850.38
472.882	9976.02
473.253	10084.04
473.625	10294.66
473.997	10460.08
474.369	10519.96
474.74	10616.91
475.112	10864.14
475.484	10981.19
475.855	11140.96
476.227	11293.95
476.598	11586.15
476.97	11702.76
477.341	11883.54
477.713	12104.1
478.084	12218
478.455	12542.06
478.827	12627.93
479.198	13034.25
479.569	12992.89
479.94	13333.22
480.311	13435.59
480.682	13796.26
481.053	14040.1
481.424	14255.46
481.795	14387.66
482.166	14718.5
482.537	14806.4
482.908	15164.59
483.279	15363.9
483.65	15593.28
484.021	15908.75
484.391	16026.03
484.762	16202.98
485.133	16413.37
485.503	16636.86
485.874	16990.98
486.244	17181.26
486.615	17460.12
486.985	17603.85
487.356	18021.46
487.726	18141.91
488.097	18532.41
488.467	18516.36
488.837	18885.39
489.207	19154.09
489.578	19393.18
489.948	19636.56
490.318	19860.51
490.688	19874.97
491.058	20167.39
491.428	20508.63
491.798	20655.06
492.168	21100.93
492.538	21199.23
492.908	21445.1
493.278	21657.75
493.648	21791.53
494.017	22091.64
494.387	22223.84
494.757	22342.48
495.126	22662.7
495.496	22703.37
495.866	22977.04
496.235	23205.73
496.605	23445.05
496.974	23470.81
497.344	23692.5
497.713	23826.51
498.082	23976.11
498.452	24264.91
498.821	24368.86
499.19	24496.09
499.559	24798.68
499.928	24863.32
500.298	25108.96
500.667	25313.02
501.036	25285.45
501.405	25544.43
501.774	25544.2
502.143	25824.42
502.512	26019.22
502.88	26222.83
503.249	26127.69
503.618	26413.56
503.987	26605.64
504.356	26870.27
504.724	26998.4
505.093	27091.73
505.462	27190.03
505.83	27440.42
506.199	27622.56
506.567	28030.92
506.936	27998.6
507.304	28399.72
507.672	28443.79
508.041	28772.82
508.409	28765.59
508.777	29060.27
509.145	29124.9
509.514	29206.48
509.882	29471.78
510.25	29647.6
510.618	29817.54
510.986	29879.91
511.354	30284.64
511.722	30501.36
512.09	30748.81
512.458	30791.29
512.826	31188.57
513.193	31215.01
513.561	31343.37
513.929	31681.22
514.297	31872.62
514.664	32180.86
515.032	32267.87
515.4	32520.29
515.767	32683
516.135	32986.94
516.502	32688.42
516.869	33391
517.237	33547.83
517.604	33496.99
517.972	33826.92
518.339	34292.45
518.706	34298.55
519.073	34399.34
519.44	34676.62
519.808	35113.44
520.175	35034.57
520.542	35664.39
520.909	35613.99
521.276	35783.48
521.643	36229.12
522.009	36392.96
522.376	36745.04
522.743	36857.58
523.11	37239.94
523.477	37778.68
523.843	37760.6
524.21	38208.05
524.577	38457.08
524.943	38658.43
525.31	38920.8
525.676	39120.57
526.043	39433.55
526.409	39700.21
526.776	40133.65
527.142	40203.7
527.508	40375.22
527.874	40671.71
528.241	40834.19
528.607	41140.18
528.973	41298.82
529.339	41314.86
529.705	41756.2
530.071	42159.36
530.437	42252.46
530.803	42467.6
531.169	42626.92
531.535	42800.02
531.901	43041.82
532.267	43188.71
532.632	43462.6
532.998	43592.54
533.364	43928.12
533.73	43957.05
534.095	44407.66
534.461	44350.94
534.826	44699.4
535.192	44829.34
535.557	45117.92
535.923	45192.05
536.288	45326.05
536.653	45539.16
537.019	45535.54
537.384	45672.94
537.749	45825.02
538.114	45844.46
538.479	45960.84
538.845	46177.56
539.21	46196.31
539.575	46454.84
539.94	46575.06
540.305	46873.58
540.67	46817.99
541.034	47081.71
541.399	47236.51
541.764	47348.6
542.129	47449.61
542.494	47488.03
542.858	47551.76
543.223	47885.99
543.587	48113.78
543.952	48040.56
544.316	48169.82
544.681	48216.83
545.045	48493.43
545.41	48733.65
545.774	48743.14
546.138	48803.7
546.503	48893.87
546.867	48905.62
547.231	49366.85
547.595	49325.95
547.959	49488.43
548.324	49632.61
548.688	49703.57
549.052	49833.05
549.416	49923.45
549.779	50068.53
550.143	50206.83
550.507	50492.25
550.871	50556.42
551.235	50490.44
551.599	50810.88
551.962	50847.94
552.326	50966.13
552.689	51217.42
553.053	51081.38
553.417	51134.49
553.78	51642.5
554.143	51487.47
554.507	51710.74
554.87	51828.26
555.234	52108.7
555.597	51957.29
555.96	52243.61
556.323	52290.39
556.686	52432.08
557.05	52677.5
557.413	52729.02
557.776	52760.66
558.139	53032.52
558.502	53057.6
558.865	53057.15
559.228	53355.45
559.59	53467.31
559.953	53591.6
560.316	53776.68
560.679	53820.07
561.041	54071.81
561.404	54247.18
561.767	54366.04
562.129	54281.98
562.492	54678.12
562.854	54721.06
563.217	54691.91
563.579	54778.23
563.941	55046.02
564.304	55090.32
564.666	55312.01
565.028	55276.07
565.39	55434.49
565.753	55643.52
566.115	55624.31
566.477	55822.5
566.839	55855.49
567.201	56068.6
567.563	56103.85
567.925	56232.66
568.287	56256.84
568.648	56390.85
569.01	56565.76
569.372	56700.22
569.734	56605.76
570.095	56812.76
570.457	56982.47
570.819	56944.51
571.18	56950.61
571.542	57087.33
571.903	57062.69
572.265	57161.45
572.626	57265.18
572.987	57243.48
573.349	57445.74
573.71	57532.06
574.071	57642.34
574.432	57716.01
574.794	57844.59
575.155	57945.38
575.516	57886.85
575.877	57982.22
576.238	57967.76
576.599	58069.67
576.96	58153.74
577.32	58140.63
577.681	58301.76
578.042	58221.31
578.403	58252.95
578.763	58317.58
579.124	58340.85
579.485	58462.43
579.845	58547.18
580.206	58461.75
580.566	58392.15
580.927	58411.81
581.287	58611.58
581.648	58483.9
582.008	58579.26
582.368	58529.32
582.728	58574.29
583.089	58550.34
583.449	58559.15
583.809	58620.39
584.169	58615.87
584.529	58571.58
584.889	58771.35
585.249	58625.82
585.609	58661.07
585.969	58705.36
586.329	58642.54
586.688	58730.9
587.048	58685.48
587.408	58581.07
587.768	58687.06
588.127	58619.49
588.487	58572.94
588.846	58798.02
589.206	58617.23
589.565	58645.48
589.925	58732.03
590.284	58635.99
590.643	58664.01
591.003	58799.15
591.362	58824.46
591.721	58704.23
592.08	58760.73
592.44	58879.82
592.799	58797.79
593.158	58740.84
593.517	58694.29
593.876	58779.71
594.235	58730
594.593	58832.82
594.952	58837.11
595.311	58748.98
595.67	58839.82
596.029	58943.32
596.387	58897.67
596.746	58909.65
597.104	58728.19
597.463	58843.66
597.822	58921.63
598.18	58826.04
598.538	58795.08
598.897	58929.09
599.255	58754.85
599.613	59119.59
599.972	58954.17
600.33	58967.05
600.688	58902.65
601.046	58976.32
601.404	59020.38
601.762	59042.76
602.12	59102.41
602.478	59167.27
602.836	59154.84
603.194	59066.71
603.552	59089.53
603.91	58983.1
604.268	59181.06
604.625	59099.93
604.983	59202.75
605.341	59042.53
605.698	59221.06
606.056	59265.8
606.413	59231.9
606.771	59322.3
607.128	59304.67
607.485	59227.61
607.843	59188.51
608.2	59285.69
608.557	59357.78
608.914	59223.54
609.272	59401.16
609.629	59408.85
609.986	59490.65
610.343	59394.38
610.7	59592.35
611.057	59604.1
611.414	59567.04
611.771	59555.74
612.127	59658.33
612.484	59645.68
612.841	59650.2
613.198	59608.39
613.554	59657.43
613.911	59728.16
614.267	59732.45
614.624	59746.92
614.98	59811.55
615.337	59822.62
615.693	59854.94
616.05	59840.02
616.406	60023.97
616.762	59842.51
617.118	59869.17
617.475	59855.84
617.831	59976.97
618.187	59883.41
618.543	59886.12
618.899	60043.86
619.255	60006.35
619.611	59920.47
619.967	60010.41
620.323	60049.28
620.678	59960.25
621.034	59932.45
621.39	59873.02
621.746	59853.36
622.101	60137.19
622.457	59984.2
622.812	59913.02
623.168	59967.7
623.523	60012.67
623.879	59983.3
624.234	59871.89
624.589	59941.49
624.945	59927.93
625.3	59983.3
625.655	59949.17
626.01	59978.55
626.365	60017.19
626.72	59978.32
627.075	59910.98
627.43	59941.26
627.785	59820.14
628.14	59922.28
628.495	59904.2
628.85	59867.82
629.205	59839.57
629.559	59919.79
629.914	59798.44
630.269	59779.91
630.623	59675.06
630.978	59648.39
631.332	59797.99
631.687	59809.51
632.041	59653.81
632.396	59655.85
632.75	59596.19
633.104	59635.06
633.459	59568.39
633.813	59500.6
634.167	59517.77
634.521	59497.66
634.875	59493.59
635.229	59388.06
635.583	59272.35
635.937	59227.16
636.291	59223.09
636.645	59209.76
636.999	59191
637.352	59238.23
637.706	59052.47
638.06	59128.18
638.413	59001.85
638.767	58961.85
639.121	58982.64
639.474	58869.43
639.828	58834.4
640.181	58880.73
640.534	58890.44
640.888	58779.03
641.241	58751.46
641.594	58765.93
641.947	58775.42
642.301	58708.07
642.654	58652.03
643.007	58668.53
643.36	58624.91
643.713	58605.48
644.066	58715.98
644.419	58408.42
644.771	58126.17
645.124	57860.64
645.477	57855.44
645.83	57711.27
646.182	57647.54
646.535	57642.79
646.888	57779.96
647.24	57633.08
647.593	57892.5
647.945	57723.69
648.298	57593.98
648.65	57598.5
649.002	57511.5
649.355	57513.08
649.707	57389.01
650.059	57410.26
650.411	57598.73
650.763	57702
651.115	57990.58
651.467	57860.41
651.819	57875.33
652.171	57826.97
652.523	57704.26
652.875	57750.36
653.227	57598.95
653.578	57812.96
653.93	57634.2
654.282	57550.59
654.633	57460.88
654.985	57609.57
655.337	57539.29
655.688	57500.42
656.039	57567.77
656.391	57331.84
656.742	57369.81
657.094	57403.02
657.445	57557.82
657.796	57319.86
658.147	57290.71
658.498	57311.05
658.849	57397.6
659.2	57264.27
659.551	57265.85
659.902	57261.11
660.253	57228.34
660.604	57219.75
660.955	57090.04
661.306	57216.14
661.656	57190.6
662.007	57158.96
662.358	57103.37
662.708	57048.01
663.059	57062.69
663.409	56816.15
663.76	57085.52
664.11	57034.22
664.461	57107.44
664.811	57092.3
665.161	56972.75
665.511	56913.77
665.862	56935.01
666.212	56968.69
666.562	56960.55
666.912	56942.25
667.262	56888.24
667.612	56813.66
667.962	56812.98
668.312	56736.38
668.662	56842.36
669.011	56774.34
669.361	56709.48
669.711	56719.88
670.06	56699.54
670.41	56597.4
670.76	56534.35
671.109	56619.54
671.459	56626.1
671.808	56540.67
672.157	56634.01
672.507	56392.43
672.856	56451.19
673.205	56500.68
673.554	56479.66
673.904	56464.74
674.253	56549.49
674.602	56401.47
674.951	56033.12
675.3	55883.06
675.649	56386.1
675.998	56210.74
676.346	56335.26
676.695	56333
677.044	56110.63
677.393	56149.72
677.741	56119.22
678.09	56065.66
678.438	55960.12
678.787	56005.55
679.135	55980.46
679.484	55816.63
679.832	55934.14
680.181	55762.84
680.529	55816.63
680.877	55681.94
681.225	55660.7
681.573	55831.54
681.922	55606.46
682.27	55420.25
682.618	55643.97
682.966	55423.19
683.314	55501.61
683.661	55480.82
684.009	55303.87
684.357	55235.62
684.705	55208.05
685.053	55192.69
685.4	55190.65
685.748	55026.82
686.095	55036.76
686.443	54907.04
686.79	54835.63
687.138	54888.51
687.485	54837.22
687.832	54798.57
688.18	54730.1
688.527	54616.21
688.874	54581.4
689.221	54453.5
689.568	54446.27
689.915	54280.85
690.262	54299.38
690.609	54287.4
690.956	54096.44
691.303	54092.38
691.65	53999.72
691.997	53884.7
692.344	53802.89
692.69	53686.51
693.037	53662.78
693.383	53436.12
693.73	53545.95
694.077	53350.02
694.423	53230.48
694.769	53120.2
695.116	53092.4
695.462	53044.72
695.808	52938.74
696.155	52912.75
696.501	52755.24
696.847	52753.66
697.193	52535.81
697.539	52688.57
697.885	52451.29
698.231	52346.21
698.577	52302.14
698.923	52271.41
699.269	52157.74
699.614	51806.11
699.96	51911.42
700.306	51876.84
700.651	51713.68
700.997	51600.92
701.342	51494.48
701.688	51555.95
702.033	51466.46
702.379	51439.34
702.724	51333.58
703.069	51363.86
703.415	50874.16
703.76	50911.22
704.105	50864.21
704.45	50723.65
704.795	50648.85
705.14	50457.9
705.485	50412.47
705.83	50293.83
706.175	50220.39
706.52	50239.82
706.865	50080.28
707.209	50119.83
707.554	49949.44
707.899	49946.27
708.243	49712.61
708.588	49668.54
708.932	49461.09
709.277	49381.09
709.621	49485.27
709.966	49154.65
710.31	49379.28
710.654	49069.23
710.998	48961.44
711.342	49010.7
711.687	48821.78
712.031	48610.49
712.375	48490.49
712.719	48636.25
713.063	48517.16
713.407	48634.67
713.75	48277.61
714.094	48290.04
714.438	48080.11
714.782	48046.21
715.125	47892.99
715.469	48029.49
715.812	47749.04
716.156	47600.12
716.499	47542.72
716.843	47535.94
717.186	47242.61
717.53	47274.48
717.873	47331.42
718.216	47246.23
718.559	46941.15
718.902	46797.88
719.246	46935.28
719.589	46725.57
719.932	46530.99
720.275	46535.74
720.617	46518.56
720.96	46508.4
721.303	46420.49
721.646	46342.75
721.989	46171.23
722.331	46363.31
722.674	46098.24
723.016	46062.76
723.359	46068.86
723.701	46124.23
724.044	45594.52
724.386	45389.1
724.729	45561.98
725.071	45394.98
725.413	45385.94
725.755	45467.07
726.097	45202.44
726.439	45063.69
726.782	45153.86
727.124	45342.32
727.465	44951.15
727.807	44910.25
728.149	44870.92
728.491	44809.91
728.833	44875.9
729.175	44540.09
729.516	44711.38
729.858	44555.23
730.199	44534.21
730.541	44368.34
730.882	44304.39
731.224	44342.35
731.565	44114.79
731.906	44144.16
732.248	43955.69
732.589	43725.87
732.93	43587.34
733.271	43680
733.612	43650.62
733.953	43614.91
734.294	43451.75
734.635	43424.86
734.976	43471.64
735.317	43154.36
735.658	43102.38
735.999	43141.03
736.339	43011.09
736.68	43039.56
737.021	42992.1
737.361	42858.1
737.702	42921.6
738.042	42755.27
738.383	42685.22
738.723	42675.5
739.063	42626.01
739.404	42684.54
739.744	42511.44
740.084	42329.3
740.424	42314.61
740.764	42210.2
741.104	42402.97
741.444	42066.48
741.784	41976.54
742.124	42109.64
742.464	41950.32
742.804	41793.49
743.143	41747.62
743.483	41861.96
743.823	41492.48
744.162	41707.17
744.502	41661.29
744.841	41507.62
745.181	41594.63
745.52	41292.71
745.86	41331.81
746.199	41154.64
746.538	40890.01
746.877	41127.52
747.216	41044.58
747.556	40894.31
747.895	40834.19
748.234	40717.59
748.573	40614.31
748.911	40511.27
749.25	40488.67
749.589	40347.65
749.928	40276.24
750.267	40257.71
750.605	40048
750.944	39948.34
751.283	39808.01
751.621	39954.22
751.96	39767.33
752.298	39595.81
