Data from foil_FLMS001491_076.txt Node
Date: Tue Feb 07 11:36:42 GMT 2017
User: dcchb
Spectrometer: FLMS00149
Trigger mode: 0
Integration Time (sec): 2.000000E-2
Scans to average: 10
Electric dark correction enabled: true
Nonlinearity correction enabled: false
Boxcar width: 0
XAxis mode: Wavelengths
Number of Pixels in Spectrum: 2048
>>>>>Begin Spectral Data<<<<<
341.393	-13.69
341.776	-13.69
342.16	-13.69
342.543	-52.1
342.927	-62.95
343.31	-61.37
343.693	-67.47
344.077	-85.77
344.46	-47.58
344.843	-48.26
345.226	-58.2
345.61	-31.99
345.993	-15.04
346.376	-18.43
346.759	32.41
347.142	19.31
347.525	49.36
347.908	47.56
348.291	91.4
348.674	89.14
349.057	104.95
349.44	136.14
349.823	156.48
350.206	182.47
350.588	253.65
350.971	279.41
351.354	280.09
351.737	311.05
352.119	332.29
352.502	343.37
352.884	315.34
353.267	332.97
353.65	352.63
354.032	356.47
354.414	383.59
354.797	379.75
355.179	377.72
355.562	395.12
355.944	406.42
356.326	395.34
356.709	422.01
357.091	389.69
357.473	399.64
357.855	416.81
358.238	434.89
358.62	415.23
359.002	417.26
359.384	415
359.766	413.2
360.148	402.35
360.53	418.17
360.912	431.73
361.294	407.09
361.676	418.84
362.057	429.24
362.439	426.75
362.821	434.44
363.203	432.18
363.584	429.47
363.966	426.98
364.348	423.14
364.729	445.28
365.111	431.95
365.493	437.15
365.874	416.59
366.256	440.09
366.637	417.72
367.019	440.09
367.4	414.55
367.781	459.75
368.163	445.51
368.544	443.93
368.925	429.92
369.306	441.22
369.688	459.97
370.069	430.14
370.45	450.93
370.831	441.9
371.212	456.81
371.593	443.7
371.974	458.84
372.355	446.87
372.736	466.98
373.117	458.84
373.498	482.35
373.879	457.94
374.26	467.66
374.641	455.23
375.021	455.68
375.402	479.63
375.783	511.05
376.163	544.27
376.544	505.85
376.925	511.27
377.305	502.68
377.686	518.28
378.066	517.83
378.447	551.27
378.827	550.82
379.208	531.61
379.588	540.65
379.968	536.58
380.349	536.81
380.729	554.21
381.109	552.17
381.489	571.84
381.87	544.94
382.25	560.99
382.63	551.72
383.01	567.32
383.39	563.7
383.77	577.94
384.15	613.19
384.53	595.79
384.91	636.01
385.29	600.54
385.67	628.33
386.049	638.95
386.429	610.48
386.809	624.04
387.189	641.44
387.568	639.86
387.948	652.51
388.328	647.99
388.707	657.03
389.087	649.12
389.466	671.04
389.846	673.75
390.225	695.9
390.605	679.63
390.984	681.89
391.363	696.35
391.743	719.18
392.122	730.02
392.501	720.76
392.881	756.24
393.26	732.96
393.639	752.17
394.018	778.38
394.397	757.82
394.776	766.18
395.155	803.02
395.534	796.24
395.913	814.99
396.292	797.82
396.671	793.07
397.05	814.99
397.429	803.47
397.808	847.08
398.186	848.89
398.565	837.36
398.944	855.67
399.323	861.09
399.701	882.34
400.08	899.74
400.458	870.81
400.837	899.06
401.215	888.21
401.594	920.53
401.972	923.69
402.351	937.93
402.729	941.09
403.107	930.24
403.486	952.16
403.864	970.47
404.242	966.85
404.62	972.05
404.999	997.59
405.377	1004.82
405.755	1022.67
406.133	1050.69
406.511	1031.03
406.889	1049.11
407.267	1078.49
407.645	1076.68
408.023	1111.71
408.401	1100.86
408.779	1137.47
409.156	1147.19
409.534	1176.79
409.912	1176.11
410.29	1190.8
410.667	1206.39
411.045	1230.12
411.422	1240.97
411.8	1253.17
412.178	1263.79
412.555	1271.48
412.933	1294.98
413.31	1304.02
413.687	1288.2
414.065	1356.45
414.442	1356.67
414.819	1392.6
415.197	1360.74
415.574	1414.98
415.951	1408.42
416.328	1448.42
416.705	1428.99
417.082	1445.26
417.46	1485.03
417.837	1484.35
418.214	1508.53
418.591	1507.18
418.967	1511.7
419.344	1534.75
419.721	1554.41
420.098	1544.24
420.475	1577.68
420.852	1596.22
421.228	1619.27
421.605	1603.22
421.982	1638.93
422.358	1690.9
422.735	1679.38
423.111	1701.3
423.488	1731.8
423.864	1721.64
424.241	1721.18
424.617	1754.18
424.994	1783.55
425.37	1785.14
425.746	1762.31
426.123	1812.71
426.499	1852.25
426.875	1851.35
427.251	1917.56
427.627	1908.3
428.003	1934.74
428.379	1981.52
428.756	2001.85
429.132	2028.29
429.507	2040.27
429.883	2083.89
430.259	2121.4
430.635	2123.21
431.011	2139.48
431.387	2174.96
431.763	2207.27
432.138	2213.15
432.514	2266.71
432.89	2257.89
433.265	2313.71
433.641	2337.89
434.016	2331.79
434.392	2384.89
434.767	2418.34
435.143	2445.23
435.518	2488.17
435.894	2488.17
436.269	2529.98
436.644	2573.36
437.02	2579.92
437.395	2568.17
437.77	2621.5
438.145	2668.73
438.52	2715.51
438.895	2708.05
439.271	2698.33
439.646	2763.64
440.021	2771.55
440.395	2794.6
440.77	2811.78
441.145	2866.92
441.52	2887.48
441.895	2891.1
442.27	2920.93
442.645	2891.1
443.019	2956.41
443.394	2911.21
443.769	2999.57
444.143	2990.53
444.518	3061.04
444.892	3001.38
445.267	3065.33
445.641	3065.1
446.016	3063.75
446.39	3103.52
446.764	3090.19
447.139	3135.61
447.513	3166.8
447.887	3196.62
448.262	3186.23
448.636	3244.31
449.01	3322.27
449.384	3290.41
449.758	3322.72
450.132	3374.25
450.506	3376.51
450.88	3368.15
451.254	3366.56
451.628	3440.23
452.002	3471.19
452.376	3526.56
452.75	3559.1
453.123	3592.77
453.497	3636.84
453.871	3649.27
454.244	3773.11
454.618	3757.97
454.992	3800
455.365	3835.03
455.739	3908.7
456.112	3926.1
456.486	3971.97
456.859	4027.34
457.232	4119.31
457.606	4114.11
457.979	4160.22
458.352	4213.77
458.725	4302.13
459.099	4283.6
459.472	4356.59
459.845	4388.68
460.218	4478.63
460.591	4488.57
460.964	4544.61
461.337	4600.2
461.71	4679.75
462.083	4774.44
462.456	4725.85
462.829	4826.19
463.201	4885.17
463.574	4912.96
463.947	4985.05
464.32	5094.65
464.692	5117.25
465.065	5162.22
465.438	5193.41
465.81	5264.82
466.183	5307.98
466.555	5452.16
466.928	5458.94
467.3	5449.9
467.672	5581.42
468.045	5765.15
468.417	5778.7
468.789	5809.66
469.161	5806.5
469.534	5948.42
469.906	6075.42
470.278	6092.82
470.65	6182.54
471.022	6275.19
471.394	6381.4
471.766	6455.97
472.138	6490.55
472.51	6647.83
472.882	6795.4
473.253	6832.46
473.625	6855.74
473.997	7073.13
474.369	7119.69
474.74	7159.01
475.112	7290.08
475.484	7371.66
475.855	7600.8
476.227	7640.35
476.598	7869.5
476.97	7914.02
477.341	8095.93
477.713	8216.15
478.084	8269.26
478.455	8534.34
478.827	8504.28
479.198	8771.85
479.569	8791.96
479.94	9070.14
480.311	9109.69
480.682	9318.5
481.053	9538.38
481.424	9653.86
481.795	9772.05
482.166	9952.61
482.537	10077.8
482.908	10179.27
483.279	10373.16
483.65	10527.05
484.021	10727.27
484.391	10848.18
484.762	10878.68
485.133	11107.6
485.503	11207.94
485.874	11453.81
486.244	11544.65
486.615	11762.05
486.985	11951.65
487.356	12128.14
487.726	12209.95
488.097	12509.15
488.467	12565.87
488.837	12804.73
489.207	12901.45
489.578	13106.65
489.948	13249.69
490.318	13375.34
490.688	13442.91
491.058	13626.86
491.428	13781.66
491.798	13960.86
492.168	14266.16
492.538	14305.26
492.908	14552.94
493.278	14623.22
493.648	14685.81
494.017	14881.74
494.387	15093.94
494.757	15083.54
495.126	15293.03
495.496	15291.9
495.866	15460.94
496.235	15654.6
496.605	15728.27
496.974	15941.83
497.344	16007.36
497.713	16130.52
498.082	16159.9
498.452	16448.71
498.821	16480.57
499.19	16609.15
499.559	16697.51
499.928	16891.41
500.298	16948.13
500.667	17099.54
501.036	17050.95
501.405	17198.29
501.774	17332.07
502.143	17419.98
502.512	17522.12
502.88	17760.99
503.249	17817.94
503.618	17844.15
503.987	18028.55
504.356	18077.82
504.724	18214.54
505.093	18339.96
505.462	18417.92
505.83	18545.6
506.199	18690.91
506.567	19008.64
506.936	18890.22
507.304	19161.18
507.672	19278.01
508.041	19315.3
508.409	19496.08
508.777	19669.41
509.145	19797.54
509.514	19702.86
509.882	19963.64
510.25	20075.73
510.618	20265.55
510.986	20310.07
511.354	20491.99
511.722	20612.66
512.09	20834.35
512.458	20828.93
512.826	21070.05
513.193	21099.66
513.561	21230.5
513.929	21416.71
514.297	21635.46
514.664	21723.82
515.032	21859.64
515.4	22058.05
515.767	22171.27
516.135	22331.49
516.502	22258.04
516.869	22593.86
517.237	22761.99
517.604	22803.34
517.972	22955.43
518.339	23093.95
518.706	23335.98
519.073	23357.45
519.44	23533.94
519.808	23792.02
520.175	23717.89
520.542	24141.61
520.909	24253.47
521.276	24255.28
521.643	24570.53
522.009	24782.72
522.376	24823.63
522.743	25093.9
523.11	25316.5
523.477	25548.35
523.843	25712.87
524.21	25924.39
524.577	26110.37
524.943	26194.21
525.31	26364.38
525.676	26673.52
526.043	26902.44
526.409	26931.14
526.776	27352.37
527.142	27239.38
527.508	27545.82
527.874	27745.81
528.241	27958.01
528.607	27936.77
528.973	28275.06
529.339	28309.86
529.705	28475.73
530.071	28912.33
530.437	28837.53
530.803	29049.73
531.169	29312.32
531.535	29284.98
531.901	29291.31
532.267	29562.71
532.632	29831.4
532.998	29734.91
533.364	30023.04
533.73	30146.2
534.095	30396.59
534.461	30443.14
534.826	30610.37
535.192	30742.12
535.557	31117.47
535.923	30930.13
536.288	31084.93
536.653	31365.15
537.019	31221.42
537.384	31449.44
537.749	31584.13
538.114	31646.27
538.479	31797.91
538.845	31863.67
539.21	31870
539.575	32098.24
539.94	32193.38
540.305	32379.81
540.67	32350.89
541.034	32526.48
541.399	32737.09
541.764	32736.64
542.129	32939.35
542.494	33023.64
542.858	33065.44
543.223	33197.19
543.587	33395.38
543.952	33444.42
544.316	33397.86
544.681	33539.56
545.045	33646.45
545.41	33871.07
545.774	34123.72
546.138	33983.39
546.503	34190.39
546.867	34141.35
547.231	34474.67
547.595	34339.31
547.959	34674.67
548.324	34777.49
548.688	34880.09
549.052	35020.65
549.416	35096.8
549.779	35212.96
550.143	35273.07
550.507	35554.87
550.871	35618.82
551.235	35749.89
551.599	35906.73
551.962	36083.44
552.326	36241.41
552.689	36374.74
553.053	36236.43
553.417	36347.17
553.78	36962.97
554.143	36720.26
554.507	36892.91
554.87	36946.92
555.234	37375.84
555.597	37209.29
555.96	37404.77
556.323	37479.34
556.686	37542.84
557.05	37926.56
557.413	38046.33
557.776	38259.21
558.139	38347.79
558.502	38362.71
558.865	38465.08
559.228	38891.28
559.59	38971.5
559.953	39138.05
560.316	39480.42
560.679	39399.97
561.041	39747.53
561.404	39919.95
561.767	40102.77
562.129	40102.32
562.492	40416.89
562.854	40485.59
563.217	40528.52
563.579	40722.19
563.941	41080.6
564.304	41215.74
564.666	41370.31
565.028	41459.57
565.39	41754.71
565.753	41901.82
566.115	41926.23
566.477	42189.27
566.839	42334.13
567.201	42651.86
567.563	42582.03
567.925	42907.9
568.287	42969.59
568.648	43031.28
569.01	43220.43
569.372	43583.36
569.734	43593.98
570.095	43867.87
570.457	43854.99
570.819	43833.52
571.18	43791.49
571.542	44177.69
571.903	44154.19
572.265	44406.84
572.626	44558.48
572.987	44571.36
573.349	44567.74
573.71	44994.62
574.071	44922.53
574.432	45167.05
574.794	45410.2
575.155	45392.58
575.516	45189.87
575.877	45451.33
576.238	45602.52
576.599	45721.38
576.96	45765
577.32	45765.22
577.681	46009.28
578.042	46031.2
578.403	46040.02
578.763	46143.97
579.124	46090.19
579.485	46275.04
579.845	46444.75
580.206	46272.55
580.566	46285.21
580.927	46296.28
581.287	46450.85
581.648	46489.27
582.008	46619.44
582.368	46483.4
582.728	46625.09
583.089	46546.22
583.449	46606.11
583.809	46684.97
584.169	46707.35
584.529	46575.6
584.889	47033.89
585.249	46646.1
585.609	46558.42
585.969	46673.22
586.329	46538.08
586.688	46772.2
587.048	46665.31
587.408	46628.03
587.768	46634.58
588.127	46759.77
588.487	46676.16
588.846	46897.62
589.206	46556.39
589.565	46634.13
589.925	46884.29
590.284	46747.34
590.643	46898.98
591.003	46970.16
591.362	46895.36
591.721	46859.66
592.08	46914.35
592.44	46893.1
592.799	46916.38
593.158	46828.02
593.517	46868.47
593.876	46877.96
594.235	46744.63
594.593	46836.83
594.952	46909.37
595.311	46721.13
595.67	47020.56
596.029	47180.33
596.387	47129.93
596.746	47169.48
597.104	46999.54
597.463	47002.25
597.822	47239.31
598.18	47054.45
598.538	47102.59
598.897	47299.19
599.255	47049.48
599.613	47481.79
599.972	47326.54
600.33	47223.72
600.688	47143.94
601.046	47348.46
601.404	47428.23
601.762	47324.05
602.12	47579.64
602.478	47430.72
602.836	47479.3
603.194	47291.96
603.552	47217.61
603.91	47453.99
604.268	47618.06
604.625	47373.99
604.983	47511.17
605.341	47430.04
605.698	47613.08
606.056	47842.23
606.413	47664.38
606.771	47800.2
607.128	47819.86
607.485	47730.37
607.843	47680.88
608.2	47974.2
608.557	47971.04
608.914	47950.7
609.272	48155.44
609.629	48013.98
609.986	48233.63
610.343	47845.39
610.7	48354.76
611.057	48285.61
611.414	48238.6
611.771	48286.74
612.127	48429.79
612.484	48301.2
612.841	48485.38
613.198	48213.97
613.554	48258.72
613.911	48467.75
614.267	48468.65
614.624	48486.96
614.98	48543.68
615.337	48617.58
615.693	48658.71
616.05	48660.74
616.406	48751.59
616.762	48656.45
617.118	48607.18
617.475	48789.32
617.831	48765.82
618.187	48826.39
618.543	48881.98
618.899	49045.14
619.255	48844.46
619.611	48819.38
619.967	48923.11
620.323	49128.98
620.678	48854.63
621.034	48831.58
621.39	48848.98
621.746	48829.1
622.101	49190.44
622.457	48814.63
622.812	48800.62
623.168	48999.71
623.523	49008.98
623.879	49095.76
624.234	48805.37
624.589	48980.96
624.945	48947.74
625.3	48946.83
625.655	49004.46
626.01	48882.88
626.365	48979.6
626.72	48892.37
627.075	48792.04
627.43	48863.22
627.785	48804.24
628.14	48935.08
628.495	48886.05
628.85	48750.68
629.205	48734.41
629.559	48753.85
629.914	48591.36
630.269	48759.04
630.623	48567.86
630.978	48485.15
631.332	48739.61
631.687	48655.99
632.041	48451.71
632.396	48614.41
632.75	48438.83
633.104	48491.48
633.459	48288.09
633.813	48345.72
634.167	48318.6
634.521	48107.31
634.875	48280.86
635.229	48149.57
635.583	47888.56
635.937	47905.51
636.291	47912.74
636.645	47887.88
636.999	47815.79
637.352	47907.77
637.706	47474.78
638.06	47639.75
638.413	47742.35
638.767	47514.78
639.121	47621.45
639.474	47359.76
639.828	47464.16
640.181	47555.46
640.534	47363.15
640.888	47370.6
641.241	47028.01
641.594	47204.28
641.947	47218.52
642.301	47064.17
642.654	47149.37
643.007	47112.53
643.36	47004.06
643.713	46862.82
644.066	46972.88
644.419	46702.83
644.771	46259
645.124	45758.44
645.477	45754.83
645.83	45493.37
646.182	45444.78
646.535	45579.69
646.888	45631.22
647.24	45423.76
647.593	45683.42
647.945	45526.59
648.298	45498.34
648.65	45397.78
649.002	45168.18
649.355	45394.84
649.707	45071.23
650.059	45138.8
650.411	45470.32
650.763	45501.05
651.115	45913.02
651.467	45867.37
651.819	45727.71
652.171	45616.3
652.523	45626.47
652.875	45498.56
653.227	45485.23
653.578	45780.14
653.93	45519.35
654.282	45395.74
654.633	45403.2
654.985	45333.82
655.337	45446.36
655.688	45285.91
656.039	45502.63
656.391	45120.27
656.742	45177.67
657.094	45155.52
657.445	45326.14
657.796	45195.29
658.147	44988.29
658.498	45071.91
658.849	45047.5
659.2	44899.03
659.551	45017.45
659.902	44996.2
660.253	44868.52
660.604	44844.57
660.955	44743.78
661.306	44897.45
661.656	44681.86
662.007	44568.42
662.358	44662.43
662.708	44731.35
663.059	44554.41
663.409	44341.76
663.76	44630.56
664.11	44617
664.461	44551.47
664.811	44520.06
665.161	44621.98
665.511	44420.17
665.862	44450.91
666.212	44610.23
666.562	44522.77
666.912	44356.22
667.262	44151.93
667.612	44165.04
667.962	44444.35
668.312	44188.99
668.662	44447.52
669.011	44323.91
669.361	44158.94
669.711	44194.64
670.06	44212.27
670.41	44113.52
670.76	43926.18
671.109	44112.61
671.459	43901.77
671.808	43886.18
672.157	43891.83
672.507	43760.53
672.856	43683.47
673.205	43826.52
673.554	43864.71
673.904	43708.33
674.253	43930.7
674.602	43639.86
674.951	43133.43
675.3	42907.67
675.649	43548.33
675.998	43432.63
676.346	43582.68
676.695	43704.49
677.044	43176.59
677.393	43449.58
677.741	43369.81
678.09	43139.98
678.438	43088.23
678.787	43196.93
679.135	43191.96
679.484	42946.09
679.832	43184.73
680.181	42772.08
680.529	42914
680.877	42848.46
681.225	42730.5
681.573	42976.6
681.922	42587.68
682.27	42564.63
682.618	42516.95
682.966	42523.05
683.314	42458.42
683.661	42398.08
684.009	42231.08
684.357	42109.05
684.705	41902.05
685.053	42026.34
685.4	42030.41
685.748	41855.72
686.095	41617.31
686.443	41749.28
686.79	41581.38
687.138	41708.15
687.485	41560.14
687.832	41446.69
688.18	41509.52
688.527	41109.07
688.874	41144.78
689.221	40950.21
689.568	40847.84
689.915	40704.57
690.262	40757.45
690.609	40656.21
690.956	40625.02
691.303	40507.51
691.65	40333.95
691.997	40330.34
692.344	39903.46
692.69	40104.36
693.037	40040.18
693.383	39771.03
693.73	39809.67
694.077	39679.96
694.423	39406.97
694.769	39571.49
695.116	39310.03
695.462	39243.81
695.808	39239.97
696.155	39256.47
696.501	38917.04
696.847	38903.71
697.193	38581.23
697.539	38736.71
697.885	38471.63
698.231	38400.45
698.577	38191.19
698.923	38132.43
699.269	38040.23
699.614	37844.98
699.96	37857.86
700.306	37968.37
700.651	37586.91
700.997	37423.3
701.342	37469.85
701.688	37396.18
702.033	37199.8
702.379	37320.7
702.724	37153.7
703.069	37171.55
703.415	36769.98
703.76	36697.67
704.105	36783.76
704.45	36734.5
704.795	36306.49
705.14	36306.04
705.485	36282.08
705.83	36259.94
706.175	36114.86
706.52	35932.49
706.865	35799.38
707.209	35917.8
707.554	35663.12
707.899	35766.84
708.243	35643.91
708.588	35568.2
708.932	35276.46
709.277	35340.19
709.621	35183.58
709.966	35061.78
710.31	35088.22
710.654	34777.72
710.998	34994.66
711.342	34806.42
711.687	34707.43
712.031	34599.19
712.375	34508.34
712.719	34450.72
713.063	34426.76
713.407	34495.01
713.75	34235.58
714.094	34258.86
714.438	34099.99
714.782	34279.88
715.125	33945.42
715.469	33983.39
715.812	33796.27
716.156	33686.44
716.499	33690.96
716.843	33742.49
717.186	33366.91
717.53	33625.43
717.873	33529.84
718.216	33337.08
718.559	33224.31
718.902	33016.86
719.246	33129.85
719.589	32930.31
719.932	32933.24
720.275	32927.59
720.617	32799.01
720.96	32728.5
721.303	32730.09
721.646	32706.81
721.989	32410.09
722.331	32629.3
722.674	32533.25
723.016	32525.8
723.359	32379.81
723.701	32378.91
724.044	32165.58
724.386	32063.44
724.729	32119.93
725.071	31978.02
725.413	32000.84
725.755	31921.97
726.097	31773.05
726.439	31674.75
726.782	31685.37
727.124	31826.38
727.465	31496.67
727.807	31635.2
728.149	31450.8
728.491	31388.2
728.833	31473.62
729.175	31241.31
729.516	31308.43
729.858	31215.55
730.199	31181.65
730.541	31079.96
730.882	31150.92
731.224	31110.02
731.565	30881.09
731.906	30994.09
732.248	30879.29
732.589	30679.07
732.93	30719.07
733.271	30570.14
733.612	30680.65
733.953	30551.84
734.294	30598.84
734.635	30472.97
734.976	30499.64
735.317	30354.55
735.658	30347.78
735.999	30332.86
736.339	30151.85
736.68	30166.76
737.021	30141.91
737.361	29983.04
737.702	30015.13
738.042	29984.62
738.383	29958.18
738.723	30016.71
739.063	29884.51
739.404	29857.39
739.744	29712.99
740.084	29664.86
740.424	29567.46
740.764	29599.77
741.104	29619.43
741.444	29527.01
741.784	29314.36
742.124	29316.62
742.464	29274.13
742.804	29120.01
743.143	29189.84
743.483	29198.43
743.823	28982.61
744.162	28910.3
744.502	28983.97
744.841	28864.65
745.181	28985.33
745.52	28739.68
745.86	28788.49
746.199	28664.88
746.538	28647.71
746.877	28703.52
747.216	28633.92
747.556	28489.75
747.895	28576.75
748.234	28348.05
748.573	28372.01
748.911	28233.25
749.25	28239.58
749.589	28118.23
749.928	27978.8
750.267	28008.85
750.605	28045.69
750.944	27956.65
751.283	27945.13
751.621	27983.32
751.96	27838.69
752.298	27739.03
752.636	27744
