Data from foil_FLMS001491_085.txt Node
Date: Tue Feb 07 11:36:56 GMT 2017
User: dcchb
Spectrometer: FLMS00149
Trigger mode: 0
Integration Time (sec): 2.000000E-2
Scans to average: 10
Electric dark correction enabled: true
Nonlinearity correction enabled: false
Boxcar width: 0
XAxis mode: Wavelengths
Number of Pixels in Spectrum: 2048
>>>>>Begin Spectral Data<<<<<
341.393	-3.4
341.776	-3.4
342.16	-3.4
342.543	-72.33
342.927	-77.07
343.31	-73.91
343.693	-88.83
344.077	-65.1
344.46	-55.38
344.843	-54.02
345.226	-30.07
345.61	-34.36
345.993	-11.99
346.376	6.09
346.759	16.71
347.142	15.13
347.525	40.89
347.908	50.83
348.291	83.15
348.674	91.51
349.057	109.36
349.44	127.67
349.823	132.19
350.206	186.2
350.588	270.26
350.971	314.78
351.354	338.28
351.737	334.89
352.119	359.98
352.502	371.28
352.884	380.99
353.267	392.74
353.65	418.28
354.032	404.72
354.414	404.95
354.797	443.36
355.179	432.52
355.562	438.39
355.944	432.06
356.326	471.61
356.709	445.85
357.091	468.22
357.473	475.68
357.855	472.52
358.238	467.32
358.62	472.29
359.002	474.78
359.384	463.25
359.766	481.56
360.148	473.65
360.53	490.82
360.912	458.73
361.294	489.46
361.676	477.94
362.057	503.02
362.439	469.8
362.821	498.05
363.203	499.18
363.584	485.17
363.966	484.04
364.348	509.35
364.729	481.56
365.111	491.05
365.493	479.07
365.874	485.4
366.256	482.69
366.637	502.57
367.019	514.55
367.4	512.51
367.781	525.62
368.163	523.14
368.544	512.29
368.925	526.53
369.306	538.95
369.688	536.47
370.069	543.93
370.45	544.6
370.831	544.38
371.212	566.52
371.593	580.08
371.974	557.71
372.355	541.44
372.736	578.28
373.117	562.23
373.498	555.68
373.879	561.78
374.26	552.97
374.641	530.82
375.021	541.89
375.402	601.33
375.783	621.44
376.163	614.66
376.544	632.74
376.925	639.74
377.305	664.83
377.686	630.48
378.066	625.28
378.447	650.14
378.827	660.99
379.208	671.38
379.588	662.12
379.968	680.42
380.349	670.48
380.729	691.27
381.109	673.87
381.489	700.53
381.87	708.44
382.25	723.36
382.63	719.29
383.01	734.43
383.39	738.5
383.77	748.89
384.15	726.52
384.53	761.1
384.91	754.09
385.29	762.23
385.67	796.35
386.049	797.25
386.429	812.62
386.809	811.94
387.189	809.68
387.568	842.9
387.948	843.13
388.328	850.13
388.707	846.97
389.087	869.34
389.466	880.64
389.846	901.88
390.225	922
390.605	953.41
390.984	954.76
391.363	923.13
391.743	954.76
392.122	988.21
392.501	984.14
392.881	1011.94
393.26	1011.71
393.639	1015.1
394.018	1019.17
394.397	1051.48
394.776	1039.73
395.155	1067.75
395.534	1053.74
395.913	1060.3
396.292	1087.87
396.671	1113.4
397.05	1119.5
397.429	1112.27
397.808	1137.81
398.186	1150.92
398.565	1145.49
398.944	1185.49
399.323	1187.75
399.701	1191.59
400.08	1195.43
400.458	1211.25
400.837	1205.38
401.215	1229.56
401.594	1276.79
401.972	1253.96
402.351	1266.39
402.729	1306.17
403.107	1306.84
403.486	1334.87
403.864	1340.06
404.242	1376.45
404.62	1351.59
404.999	1402.43
405.377	1398.82
405.755	1394.75
406.133	1440.85
406.511	1467.74
406.889	1446.5
407.267	1498.48
407.645	1526.05
408.023	1543.45
408.401	1531.7
408.779	1593.62
409.156	1592.49
409.534	1588.87
409.912	1634.29
410.29	1662.54
410.667	1710.9
411.045	1709.77
411.422	1736.89
411.8	1746.61
412.178	1798.36
412.555	1813.27
412.933	1806.94
413.31	1834.06
413.687	1873.61
414.065	1913.83
414.442	1909.99
414.819	1946.83
415.197	1952.25
415.574	1965.36
415.951	2010.78
416.328	2041.74
416.705	2074.73
417.082	2070.21
417.46	2066.6
417.837	2105.92
418.214	2100.27
418.591	2142.75
418.967	2167.61
419.344	2146.37
419.721	2240.15
420.098	2228.18
420.475	2243.99
420.852	2285.58
421.228	2281.28
421.605	2328.96
421.982	2339.59
422.358	2391.11
422.735	2397.66
423.111	2395.86
423.488	2448.74
423.864	2463.88
424.241	2500.03
424.617	2514.27
424.994	2530.54
425.37	2555.62
425.746	2587.94
426.123	2595.17
426.499	2641.5
426.875	2662.29
427.251	2749.97
427.627	2761.5
428.003	2790.65
428.379	2836.07
428.756	2856.41
429.132	2871.55
429.507	2946.12
429.883	2962.17
430.259	3022.96
430.635	3072.45
431.011	3074.26
431.387	3162.61
431.763	3217.3
432.138	3202.84
432.514	3287.36
432.89	3279.9
433.265	3340.24
433.641	3401.03
434.016	3431.31
434.392	3484.19
434.767	3532.55
435.143	3533.23
435.518	3556.28
435.894	3654.35
436.269	3630.17
436.644	3746.55
437.02	3717.4
437.395	3742.71
437.77	3797.63
438.145	3894.12
438.52	3882.82
438.895	3916.49
439.271	3966.89
439.646	4008.92
440.021	3990.16
440.395	4046.66
440.77	4008.47
441.145	4089.14
441.52	4151.29
441.895	4144.28
442.27	4184.73
442.645	4180.89
443.019	4265.64
443.394	4265.86
443.769	4353.54
444.143	4331.4
444.518	4416.37
444.892	4387.22
445.267	4436.71
445.641	4434.67
446.016	4494.33
446.39	4591.96
446.764	4530.49
447.139	4488.91
447.513	4572.07
447.887	4619.53
448.262	4657.94
448.636	4648.23
449.01	4718.51
449.384	4735.68
449.758	4775.23
450.132	4852.97
450.506	4853.42
450.88	4926.18
451.254	4956.92
451.628	5034.66
452.002	5046.63
452.376	5098.38
452.75	5113.98
453.123	5178.38
453.497	5267.64
453.871	5257.02
454.244	5377.47
454.618	5409.79
454.992	5519.84
455.365	5488.2
455.739	5637.8
456.112	5696.11
456.486	5745.82
456.859	5756.44
457.232	5911.24
457.606	5927.06
457.979	5981.75
458.352	6145.59
458.725	6190.33
459.099	6211.35
459.472	6314.85
459.845	6418.8
460.218	6439.36
460.591	6499.7
460.964	6521.17
461.337	6672.58
461.71	6791.45
462.083	6875.96
462.456	6870.54
462.829	6935.62
463.201	7085.68
463.574	7013.59
463.947	7134.94
464.32	7331.32
464.692	7397.31
465.065	7420.58
465.438	7501.26
465.81	7623.74
466.183	7739.67
466.555	7904.18
466.928	7931.3
467.3	7931.53
467.672	8097.63
468.045	8221.01
468.417	8270.28
468.789	8423.27
469.161	8460.55
469.534	8593.66
469.906	8803.6
470.278	8865.74
470.65	8923.59
471.022	9081.78
471.394	9263.02
471.766	9312.96
472.138	9450.58
472.51	9656.91
472.882	9803.12
473.253	9919.27
473.625	10041.3
473.997	10272.71
474.369	10347.74
474.74	10389.09
475.112	10592.93
475.484	10737.1
475.855	10934.39
476.227	11005.8
476.598	11400.14
476.97	11459.35
477.341	11676.97
477.713	11857.08
478.084	11958.32
478.455	12271.53
478.827	12383.39
479.198	12778.18
479.569	12758.97
479.94	13127.1
480.311	13245.74
480.682	13571.38
481.053	13753.07
481.424	13977.47
481.795	14183.34
482.166	14338.14
482.537	14447.06
482.908	14828.75
483.279	14886.15
483.65	15222.41
484.021	15533.81
484.391	15691.1
484.762	15749.63
485.133	16005.21
485.503	16246.79
485.874	16641.36
486.244	16741.69
486.615	17046.54
486.985	17147.78
487.356	17559.3
487.726	17621.9
488.097	18069.79
488.467	18019.17
488.837	18486.96
489.207	18691.92
489.578	18866.83
489.948	19067.51
490.318	19426.14
490.688	19416.88
491.058	19843.98
491.428	19988.84
491.798	20025.9
492.168	20561.25
492.538	20554.47
492.908	20816.84
493.278	21113.1
493.648	21179.77
494.017	21392.87
494.387	21487.56
494.757	21762.8
495.126	22073.3
495.496	22002.12
495.866	22202.34
496.235	22556.68
496.605	22664.47
496.974	22906.05
497.344	23057.23
497.713	23121.86
498.082	23299.94
498.452	23578.35
498.821	23692.02
499.19	23746.25
499.559	24081.61
499.928	24250.87
500.298	24348.27
500.667	24586.68
501.036	24536.29
501.405	24682.73
501.774	24794.59
502.143	25070.29
502.512	25053.56
502.88	25487.23
503.249	25440.9
503.618	25752.76
503.987	25847.22
504.356	25986.87
504.724	26183.48
505.093	26399.29
505.462	26357.03
505.83	26698.94
506.199	26948.2
506.567	27220.06
506.936	27147.52
507.304	27524.46
507.672	27642.42
508.041	27815.98
508.409	27923.32
508.777	28159.02
509.145	28422.06
509.514	28429.52
509.882	28707.93
510.25	28773.24
510.618	29061.14
510.986	29207.13
511.354	29451.87
511.722	29612.31
512.09	29855.7
512.458	29878.07
512.826	30191.73
513.193	30349.24
513.561	30706.07
513.929	30792.17
514.297	31208.88
514.664	31442.1
515.032	31475.54
515.4	31666.05
515.767	31866.49
516.135	31995.08
516.502	31941.07
516.869	32715.06
517.237	32791.44
517.604	32645.46
517.972	33265.33
518.339	33395.72
518.706	33427.13
519.073	33762.49
519.44	33821.7
519.808	34199.54
520.175	34301
520.542	34776.02
520.909	34951.84
521.276	34950.03
521.643	35437.25
522.009	35707.75
522.376	35942.54
522.743	36305.25
523.11	36550.44
523.477	36880.15
523.843	37067.94
524.21	37381.38
524.577	37781.82
524.943	37877.63
525.31	38153.56
525.676	38490.95
526.043	38710.61
526.409	38904.73
526.776	39349.23
527.142	39482.34
527.508	39601.43
527.874	39972.72
528.241	40202.09
528.607	40309.66
528.973	40748.07
529.339	40838.69
529.705	41306.92
530.071	41568.38
530.437	41779.23
530.803	42056.51
531.169	42201.59
531.535	42202.49
531.901	42330.4
532.267	42602.48
532.632	42899.65
532.998	43027.33
533.364	43387.55
533.73	43566.75
534.095	43881.77
534.461	43963.12
534.826	44255.09
535.192	44400.85
535.557	44605.14
535.923	44768.3
536.288	44843.33
536.653	44978.69
537.019	45075.64
537.384	45306.14
537.749	45614.83
538.114	45620.48
538.479	45801.72
538.845	45986.8
539.21	45939.12
539.575	46263.85
539.94	46346.34
540.305	46702.03
540.67	46700.9
541.034	46842.14
541.399	46966.89
541.764	47139.54
542.129	47354.9
542.494	47357.16
542.858	47659.3
543.223	47570.03
543.587	47954.21
543.952	47927.54
544.316	48066.52
544.681	48324.82
545.045	48463.34
545.41	48739.5
545.774	48804.8
546.138	48820.62
546.503	49040.73
546.867	48984.01
547.231	49266.49
547.595	49441.62
547.959	49505.35
548.324	49630.77
548.688	49601.85
549.052	49864.89
549.416	49999.58
549.779	50022.85
550.143	50236.63
550.507	50577.87
550.871	50679.78
551.235	50635.49
551.599	50919.32
551.962	50933.56
552.326	51104.4
552.689	51285.87
553.053	51278.86
553.417	51367.67
553.78	51791.62
554.143	51787.32
554.507	51960.88
554.87	52070.71
555.234	52371.72
555.597	52310.47
555.96	52458.95
556.323	52569
556.686	52696.68
557.05	52938.93
557.413	53086.95
557.776	53200.62
558.139	53379.6
558.502	53440.61
558.865	53532.36
559.228	53791.79
559.59	53921.96
559.953	53939.58
560.316	54205.34
560.679	54308.61
561.041	54507.03
561.404	54591.77
561.767	54745.21
562.129	54750.18
562.492	55054.58
562.854	55140
563.217	55165.09
563.579	55321.7
563.941	55482.82
564.304	55630.84
564.666	55761.91
565.028	55794.23
565.39	55956.48
565.753	56098.4
566.115	56264.27
566.477	56321.89
566.839	56449.12
567.201	56585.16
567.563	56664.26
567.925	56851.82
568.287	56768.21
568.648	56944.25
569.01	57102.44
569.372	57261.76
569.734	57166.84
570.095	57480.96
570.457	57551.92
570.819	57599.6
571.18	57636.44
571.542	57787.84
571.903	57903.32
572.265	57964.79
572.626	58091.11
572.987	58026.48
573.349	58103.54
573.71	58266.7
574.071	58299.02
574.432	58472.8
574.794	58597.32
575.155	58562.51
575.516	58533.36
575.877	58687.71
576.238	58708.95
576.599	58758.44
576.96	58775.62
577.32	58890.19
577.681	58955.95
578.042	59042.73
578.403	58984.2
578.763	59058.55
579.124	59104.87
579.485	59187.58
579.845	59308.26
580.206	59297.64
580.566	59225.1
580.927	59278.2
581.287	59375.15
581.648	59230.74
582.008	59445.2
582.368	59396.84
582.728	59457.63
583.089	59371.53
583.449	59380.12
583.809	59456.05
584.169	59475.03
584.529	59427.58
584.889	59598.19
585.249	59399.1
585.609	59414.92
585.969	59546.44
586.329	59448.82
586.688	59538.76
587.048	59496.5
587.408	59488.59
587.768	59539.89
588.127	59560.23
588.487	59506.22
588.846	59653.33
589.206	59477.07
589.565	59508.25
589.925	59708.92
590.284	59628.7
590.643	59615.59
591.003	59680.68
591.362	59678.87
591.721	59616.72
592.08	59644.52
592.44	59745.31
592.799	59694.01
593.158	59734.01
593.517	59713.22
593.876	59725.65
594.235	59668.93
594.593	59728.58
594.952	59796.61
595.311	59751.18
595.67	59799.32
596.029	59910.28
596.387	59930.61
596.746	59869.6
597.104	59790.96
597.463	59725.65
597.822	59953.21
598.18	59794.35
598.538	59909.15
598.897	60003.15
599.255	59861.46
599.613	60157.73
599.972	59966.77
600.33	60006.09
600.688	59933.78
601.046	60007.9
601.404	60115.92
601.762	60086.09
602.12	60231.17
602.478	60169.25
602.836	60109.59
603.194	60024.62
603.552	60116.6
603.91	60054.68
604.268	60308.91
604.625	60136.94
604.983	60267.33
605.341	60149.59
605.698	60294.45
606.056	60322.69
606.413	60270.94
606.771	60356.59
607.128	60431.62
607.485	60357.72
607.843	60293.77
608.2	60421.45
608.557	60504.38
608.914	60437.27
609.272	60511.84
609.629	60545.29
609.986	60594.1
610.343	60540.31
610.7	60722.01
611.057	60652.4
611.414	60609.69
611.771	60728.11
612.127	60737.82
612.484	60783.47
612.841	60801.78
613.198	60740.31
613.554	60735.79
613.911	60857.37
614.267	60934.2
614.624	60904.83
614.98	60877.48
615.337	61107.98
615.693	60983.24
616.05	60952.28
616.406	61115.44
616.762	61043.58
617.118	61065.95
617.475	61053.97
617.831	61091.71
618.187	61164.48
618.543	61168.1
618.899	61328.09
619.255	61232.05
619.611	61170.13
619.967	61200.64
620.323	61267.75
620.678	61198.38
621.034	61140.3
621.39	61157.47
621.746	61149.11
622.101	61328.09
622.457	61147.76
622.812	61236.57
623.168	61233.4
623.523	61282.22
623.879	61323.35
624.234	61173.29
624.589	61282.22
624.945	61282.67
625.3	61326.73
625.655	61260.52
626.01	61298.26
626.365	61324.7
626.72	61274.31
627.075	61298.94
627.43	61205.38
627.785	61182.56
628.14	61259.39
628.495	61250.13
628.85	61268.21
629.205	61159.06
629.559	61263.01
629.914	61118.6
630.269	61155.21
630.623	61041.77
630.978	61004.26
631.332	61118.6
631.687	61176.23
632.041	61050.13
632.396	61056.46
632.75	60986.86
633.104	61064.37
633.459	60938.04
633.813	60923.36
634.167	60876.8
634.521	60908.44
634.875	60838.39
635.229	60869.8
635.583	60756.81
635.937	60744.83
636.291	60781.66
636.645	60754.77
636.999	60634.78
637.352	60715.45
637.706	60562.46
638.06	60598.84
638.413	60578.05
638.767	60552.52
639.121	60634.32
639.474	60507.1
639.828	60537.83
640.181	60460.09
640.534	60511.39
640.888	60447.89
641.241	60302.13
641.594	60307.33
641.947	60379.87
642.301	60244.05
642.654	60234.33
643.007	60315.01
643.36	60235.92
643.713	60231.17
644.066	60298.97
644.419	59970.16
644.771	59686.78
645.124	59331.53
645.477	59229.84
645.83	59215.83
646.182	59303.74
646.535	59369.27
646.888	59527.23
647.24	59427.58
647.593	59554.8
647.945	59560.68
648.298	59436.84
648.65	59320.91
649.002	59183.74
649.355	59232.55
649.707	58978.55
650.059	59058.09
650.411	59325.66
650.763	59408.82
651.115	59740.34
651.467	59585.31
651.819	59642.03
652.171	59551.41
652.523	59471.19
652.875	59455.82
653.227	59302.83
653.578	59493.11
653.93	59393.9
654.282	59353.23
654.633	59286.11
654.985	59331.76
655.337	59314.81
655.688	59323.62
656.039	59346.9
656.391	59099.22
656.742	59195.27
657.094	59255.83
657.445	59293.57
657.796	59153.68
658.147	59150.97
658.498	59125.66
658.849	59262.83
659.2	59077.08
659.551	59107.13
659.902	59143.29
660.253	59078.43
660.604	59084.53
660.955	58996.85
661.306	59086.57
661.656	58974.25
662.007	59011.99
662.358	58933.13
662.708	58911.21
663.059	58856.29
663.409	58731.1
663.76	58926.12
664.11	58910.08
664.461	58967.93
664.811	58908.95
665.161	58849.06
665.511	58776.75
665.862	58769.51
666.212	58861.94
666.562	58886.35
666.912	58830.3
667.262	58790.76
667.612	58761.15
667.962	58714.83
668.312	58678.67
668.662	58844.99
669.011	58735.16
669.361	58758.67
669.711	58675.28
670.06	58581.72
670.41	58566.36
670.76	58533.81
671.109	58689.52
671.459	58607.71
671.808	58563.87
672.157	58614.04
672.507	58424.21
672.856	58387.15
673.205	58508.73
673.554	58545.57
673.904	58445.23
674.253	58543.76
674.602	58439.35
674.951	58111.68
675.3	57920.72
675.649	58386.47
675.998	58348.73
676.346	58375.63
676.695	58463.99
677.044	58190.09
677.393	58312.8
677.741	58296.08
678.09	58274.84
678.438	58133.6
678.787	58227.38
679.135	58218.34
679.484	57978.35
679.832	58108.29
680.181	57908.52
680.529	58018.8
680.877	57951
681.225	57867.16
681.573	58038.46
681.922	57877.56
682.27	57786.49
682.618	57724.12
682.966	57671.01
683.314	57630.11
683.661	57508.76
684.009	57503.33
684.357	57439.15
684.705	57449.32
685.053	57375.2
685.4	57314.41
685.748	57294.07
686.095	57222.66
686.443	57153.74
686.79	57151.48
687.138	57163.45
687.485	57144.92
687.832	56979.5
688.18	57039.62
688.527	56909.22
688.874	56885.04
689.221	56810.92
689.568	56748.55
689.915	56681.21
690.262	56600.31
690.609	56560.76
690.956	56426.07
691.303	56449.35
691.65	56414.77
691.997	56364.38
692.344	56169.13
692.69	56175.46
693.037	56091.17
693.383	55910.15
693.73	56003.26
694.077	55794.9
694.423	55823.83
694.769	55705.64
695.116	55632.2
695.462	55511.07
695.808	55509.03
696.155	55563.5
696.501	55358.98
696.847	55325.99
697.193	55136.84
697.539	55198.53
697.885	55031.31
698.231	54964.19
698.577	54903.18
698.923	54807.13
699.269	54775.49
699.614	54563.3
699.96	54573.47
700.306	54467.48
700.651	54363.53
700.997	54289.18
701.342	54240.82
701.688	54220.26
702.033	54140.03
702.379	54024.55
702.724	54013.48
703.069	54037.44
703.415	53691.23
703.76	53750.44
704.105	53715.41
704.45	53515.41
704.795	53306.61
705.14	53327.4
705.485	53175.54
705.83	53202.65
706.175	53269.32
706.52	53185.03
706.865	53055.54
707.209	52989.33
707.554	52892.61
707.899	52880.18
708.243	52661.65
708.588	52629.56
708.932	52359.51
709.277	52360.64
709.621	52439.29
709.966	52120.88
710.31	52273.64
710.654	52043.36
710.998	52182.79
711.342	52085.85
711.687	51977.15
712.031	51728.34
712.375	51564.28
712.719	51710.94
713.063	51475.69
713.407	51667.78
713.75	51545.98
714.094	51568.35
714.438	51422.59
714.782	51257.17
715.125	51145.76
715.469	51266.89
715.812	51105.53
716.156	50861.47
716.499	50892.21
716.843	50964.52
717.186	50601.59
717.53	50814.47
717.873	50886.56
718.216	50686.11
718.559	50479.11
718.902	50305.33
719.246	50237.53
719.589	50257.42
719.932	50166.8
720.275	50110.31
720.617	50027.6
720.96	49961.61
721.303	49944.89
721.646	49863.08
721.989	49646.82
722.331	49842.74
722.674	49586.03
723.016	49671.67
723.359	49534.28
723.701	49528.63
724.044	49292.25
724.386	49257.45
724.729	49241.63
725.071	49255.19
725.413	49065.14
725.755	49029.66
726.097	48908.98
726.439	48679.84
726.782	48698.59
727.124	48922.77
727.465	48624.92
727.807	48619.95
728.149	48426.51
728.491	48478.26
728.833	48460.18
729.175	48277.13
729.516	48213.63
729.858	48068.33
730.199	48113.52
730.541	48071.49
730.882	48040.98
731.224	48118.49
731.565	47844.38
731.906	47658.17
732.248	47737.94
732.589	47477.16
732.93	47375.69
733.271	47447.78
733.612	47294.11
733.953	47410.49
734.294	47349.48
734.635	47156.49
734.976	47299.31
735.317	46992.65
735.658	46932.54
735.999	46900.22
736.339	46762.37
736.68	46852.31
737.021	46826.1
737.361	46554.69
737.702	46752.2
738.042	46608.25
738.383	46493.45
738.723	46540.68
739.063	46403.06
739.404	46353.12
739.744	46152.9
740.084	45994.48
740.424	46136.17
740.764	45935.95
741.104	46205.78
741.444	45855.05
741.784	45771.66
742.124	45839.91
742.464	45804.43
742.804	45660.03
743.143	45581.84
743.483	45707.71
743.823	45573.7
744.162	45396.08
744.502	45567.6
744.841	45188.63
745.181	45319.7
745.52	45107.95
745.86	45107.73
746.199	44933.49
746.538	44756.32
746.877	44795.87
747.216	44759.94
747.556	44614.86
747.895	44647.4
748.234	44340.51
748.573	44327.63
748.911	44247.86
749.25	44222.78
749.589	43977.36
749.928	43988.89
750.267	44106.4
750.605	43913.41
750.944	43950.47
751.283	43691.94
751.621	43747.54
751.96	43587.09
