Data from mousepad_grey_FLMS001491_00061.txt Node
Date: Wed Feb 08 14:29:45 GMT 2017
User: dcchb
Spectrometer: FLMS00149
Trigger mode: 0
Integration Time (sec): 2.000000E-2
Scans to average: 10
Electric dark correction enabled: true
Nonlinearity correction enabled: false
Boxcar width: 0
XAxis mode: Wavelengths
Number of Pixels in Spectrum: 2048
>>>>>Begin Spectral Data<<<<<
341.393	-12.12
341.776	-12.12
342.16	-12.12
342.543	-47.15
342.927	-67.71
343.31	-71.55
343.693	-68.84
344.077	-63.42
344.46	-54.15
344.843	-36.75
345.226	-53.7
345.61	-51.44
345.993	-16.86
346.376	7.32
346.759	14.32
347.142	22.91
347.525	40.76
347.908	57.71
348.291	89.35
348.674	72.17
349.057	112.17
349.44	114.88
349.823	140.65
350.206	168.44
350.588	191.72
350.971	197.14
351.354	204.37
351.737	207.31
352.119	244.37
352.502	244.6
352.884	257.25
353.267	256.12
353.65	267.65
354.032	264.71
354.414	291.38
354.797	300.87
355.179	304.71
355.562	331.15
355.944	309.91
356.326	306.74
356.709	329.34
357.091	305.16
357.473	312.39
357.855	327.76
358.238	338.15
358.62	305.16
359.002	308.55
359.384	328.89
359.766	327.76
360.148	306.97
360.53	311.04
360.912	309
361.294	318.27
361.676	303.13
362.057	301.77
362.439	330.47
362.821	294.99
363.203	300.64
363.584	318.27
363.966	291.83
364.348	299.96
364.729	322.34
365.111	325.27
365.493	316.91
365.874	327.76
366.256	308.33
366.637	297.25
367.019	298.61
367.4	315.56
367.781	302.45
368.163	305.84
368.544	303.35
368.925	303.35
369.306	302
369.688	294.09
370.069	300.64
370.45	295.44
370.831	304.48
371.212	312.17
371.593	320.08
371.974	311.26
372.355	308.55
372.736	303.81
373.117	299.51
373.498	298.61
373.879	293.86
374.26	313.52
374.641	307.42
375.021	310.13
375.402	311.94
375.783	320.75
376.163	309.68
376.544	293.18
376.925	305.84
377.305	311.26
377.686	315.1
378.066	331.83
378.447	320.75
378.827	306.07
379.208	315.78
379.588	316.01
379.968	323.69
380.349	290.02
380.729	326.63
381.109	327.99
381.489	304.03
381.87	318.04
382.25	317.14
382.63	343.8
383.01	312.39
383.39	341.54
383.77	329.12
384.15	338.61
384.53	327.08
384.91	341.32
385.29	328.44
385.67	335.44
386.049	353.97
386.429	342.67
386.809	347.42
387.189	354.65
387.568	336.8
387.948	326.86
388.328	330.25
388.707	340.19
389.087	364.37
389.466	345.39
389.846	346.97
390.225	347.87
390.605	364.14
390.984	345.16
391.363	367.98
391.743	378.61
392.122	329.57
392.501	336.57
392.881	368.21
393.26	365.95
393.639	347.19
394.018	369.79
394.397	343.35
394.776	363.92
395.155	339.96
395.534	393.75
395.913	382.22
396.292	371.15
396.671	396.23
397.05	385.16
397.429	398.04
397.808	367.98
398.186	372.73
398.565	379.28
398.944	372.5
399.323	394.42
399.701	389.23
400.08	379.51
400.458	390.13
400.837	357.59
401.215	398.49
401.594	396.46
401.972	396.91
402.351	393.29
402.729	397.59
403.107	387.19
403.486	388.55
403.864	396.91
404.242	404.59
404.62	435.1
404.999	396.91
405.377	391.94
405.755	420.86
406.133	422.22
406.511	428.55
406.889	415.89
407.267	447.3
407.645	434.65
408.023	442.78
408.401	430.81
408.779	438.04
409.156	440.07
409.534	432.39
409.912	454.08
410.29	457.7
410.667	456.57
411.045	450.24
411.422	453.86
411.8	452.95
412.178	472.84
412.555	466.97
412.933	462.67
413.31	461.77
413.687	477.13
414.065	497.25
414.442	499.28
414.819	504.7
415.197	505.61
415.574	488.66
415.951	508.09
416.328	504.03
416.705	483.69
417.082	529.79
417.46	503.8
417.837	510.81
418.214	521.2
418.591	522.33
418.967	523.46
419.344	513.97
419.721	549.22
420.098	539.51
420.475	539.05
420.852	526.4
421.228	553.74
421.605	564.59
421.982	556.45
422.358	554.19
422.735	567.98
423.111	558.49
423.488	560.97
423.864	560.07
424.241	598.04
424.617	571.37
424.994	570.24
425.37	592.39
425.746	597.13
426.123	599.62
426.499	586.51
426.875	616.34
427.251	614.08
427.627	602.78
428.003	636.9
428.379	626.51
428.756	611.14
429.132	640.52
429.507	648.66
429.883	664.93
430.259	645.94
430.635	641.65
431.011	667.64
431.387	667.19
431.763	657.02
432.138	687.98
432.514	668.54
432.89	705.38
433.265	701.08
433.641	709.67
434.016	719.84
434.392	713.96
434.767	733.4
435.143	716.45
435.518	723.46
435.894	727.52
436.269	753.96
436.644	749.9
437.02	739.95
437.395	756.45
437.77	756.45
438.145	775.43
438.52	774.53
438.895	773.4
439.271	768.2
439.646	783.12
440.021	811.14
440.395	796.22
440.77	790.35
441.145	832.38
441.52	821.08
441.895	826.5
442.27	841.87
442.645	810.91
443.019	829.44
443.394	832.61
443.769	846.39
444.143	835.09
444.518	873.96
444.892	862.43
445.267	849.78
445.641	862.43
446.016	852.04
446.39	880.06
446.764	860.85
447.139	880.97
447.513	894.3
447.887	896.56
448.262	896.78
448.636	900.17
449.01	902.43
449.384	917.35
449.758	917.35
450.132	906.95
450.506	892.04
450.88	935.2
451.254	941.08
451.628	985.82
452.002	925.26
452.376	973.17
452.75	967.74
453.123	971.36
453.497	965.94
453.871	1005.71
454.244	1001.87
454.618	1026.27
454.992	1025.59
455.365	995.54
455.739	1031.02
456.112	1045.71
456.486	1067.4
456.859	1071.47
457.232	1077.34
457.606	1084.8
457.979	1084.58
458.352	1117.57
458.725	1135.2
459.099	1153.95
459.472	1154.86
459.845	1157.12
460.218	1166.38
460.591	1162.31
460.964	1180.39
461.337	1203.89
461.71	1211.58
462.083	1221.97
462.456	1252.48
462.829	1229.43
463.201	1266.27
463.574	1279.83
463.947	1299.49
464.32	1313.95
464.692	1319.6
465.065	1351.46
465.438	1329.54
465.81	1340.16
466.183	1341.74
466.555	1384.68
466.928	1392.14
467.3	1392.14
467.672	1446.83
468.045	1431.91
468.417	1440.95
468.789	1452.7
469.161	1471.23
469.534	1482.76
469.906	1519.37
470.278	1514.4
470.65	1552.13
471.022	1578.35
471.394	1593.49
471.766	1589.2
472.138	1601.62
472.51	1630.78
472.882	1680.72
473.253	1663.54
473.625	1722.07
473.997	1759.13
474.369	1742.86
474.74	1778.34
475.112	1801.85
475.484	1797.1
475.855	1840.04
476.227	1855.63
476.598	1887.27
476.97	1874.16
477.341	1935.18
477.713	1958
478.084	2006.36
478.455	2009.52
478.827	2017.21
479.198	2087.26
479.569	2098.33
479.94	2128.16
480.311	2165
480.682	2191.67
481.053	2257.65
481.424	2272.34
481.795	2293.13
482.166	2328.61
482.537	2332.23
482.908	2375.62
483.279	2417.2
483.65	2419.68
484.021	2491.32
484.391	2506.01
484.762	2532
485.133	2548.27
485.503	2588.72
485.874	2635.95
486.244	2674.36
486.615	2712.33
486.985	2725.21
487.356	2765.44
487.726	2790.07
488.097	2839.78
488.467	2849.95
488.837	2899.44
489.207	2948.71
489.578	2983.96
489.948	3050.85
490.318	3070.96
490.688	3067.12
491.058	3132.66
491.428	3153.67
491.798	3162.94
492.168	3226.44
492.538	3234.35
492.908	3270.51
493.278	3329.49
493.648	3339.88
494.017	3359.77
494.387	3388.24
494.757	3445.87
495.126	3413.78
495.496	3499.65
495.866	3521.12
496.235	3495.13
496.605	3541.01
496.974	3551.4
497.344	3583.04
497.713	3603.61
498.082	3630.05
498.452	3686.77
498.821	3723.15
499.19	3666.66
499.559	3742.59
499.928	3802.24
500.298	3777.16
500.667	3818.74
501.036	3808.57
501.405	3846.54
501.774	3886.99
502.143	3914.56
502.512	3966.76
502.88	3957.49
503.249	3941.68
503.618	4011.28
503.987	3986.42
504.356	4032.75
504.724	4112.52
505.093	4070.71
505.462	4051.5
505.83	4108.45
506.199	4129.02
506.567	4198.39
506.936	4218.28
507.304	4266.41
507.672	4321.33
508.041	4276.36
508.409	4334.89
508.777	4338.95
509.145	4388.44
509.514	4403.58
509.882	4447.65
510.25	4434.77
510.618	4482.45
510.986	4524.94
511.354	4528.55
511.722	4561.77
512.09	4638.83
512.458	4635.9
512.826	4630.7
513.193	4647.19
513.561	4728.55
513.929	4701.66
514.297	4783.01
514.664	4800.18
515.032	4843.12
515.4	4832.73
515.767	4919.05
516.135	4907.07
516.502	4865.04
516.869	4992.27
517.237	5003.57
517.604	4986.85
517.972	5076.56
518.339	5076.11
518.706	5110.46
519.073	5140.97
519.44	5128.99
519.808	5205.37
520.175	5187.52
520.542	5260.96
520.909	5343.67
521.276	5293.5
521.643	5395.42
522.009	5394.97
522.376	5392.94
522.743	5481.07
523.11	5461.86
523.477	5609.65
523.843	5612.37
524.21	5605.36
524.577	5674.06
524.943	5719.93
525.31	5720.61
525.676	5756.32
526.043	5807.84
526.409	5892.81
526.776	5925.8
527.142	5940.72
527.508	5956.76
527.874	6039.02
528.241	6043.99
528.607	6010.55
528.973	6173.26
529.339	6148.17
529.705	6198.34
530.071	6227.72
530.437	6237.43
530.803	6262.52
531.169	6316.53
531.535	6335.29
531.901	6393.59
532.267	6409.86
532.632	6427.94
532.998	6535.73
533.364	6553.36
533.73	6533.92
534.095	6647.59
534.461	6559.69
534.826	6649.63
535.192	6657.76
535.557	6692.79
535.923	6700.93
536.288	6747.48
536.653	6784.77
537.019	6782.96
537.384	6798.1
537.749	6879.9
538.114	6884.42
538.479	6882.62
538.845	6946.12
539.21	6993.8
539.575	7017.75
539.94	7060.46
540.305	7068.37
540.67	7051.88
541.034	7059.79
541.399	7157.41
541.764	7071.54
542.129	7233.79
542.494	7218.2
542.858	7279.22
543.223	7264.53
543.587	7323.28
543.952	7345.43
544.316	7378.42
544.681	7340
545.045	7445.76
545.41	7447.8
545.774	7511.3
546.138	7551.52
546.503	7497.51
546.867	7531.64
547.231	7561.69
547.595	7615.03
547.959	7684.63
548.324	7696.83
548.688	7739.09
549.052	7762.59
549.416	7756.49
549.779	7809.14
550.143	7822.48
550.507	7875.13
550.871	7919.88
551.235	7895.24
551.599	7910.84
551.962	7975.92
552.326	8015.92
552.689	8065.18
553.053	8004.62
553.417	8068.57
553.78	8247.78
554.143	8175.01
554.507	8207.55
554.87	8203.94
555.234	8366.87
555.597	8263.6
555.96	8346.98
556.323	8390.6
556.686	8360.09
557.05	8363.71
557.413	8511.27
557.776	8436.25
558.139	8534.55
558.502	8545.4
558.865	8581.33
559.228	8618.39
559.59	8642.34
559.953	8679.86
560.316	8772.51
560.679	8728.89
561.041	8791.72
561.404	8841.89
561.767	8903.58
562.129	8896.35
562.492	8978.83
562.854	9017.47
563.217	9014.54
563.579	9081.2
563.941	9147.41
564.304	9115.33
564.666	9174.08
565.028	9152.61
565.39	9197.81
565.753	9377.92
566.115	9293.63
566.477	9368.43
566.839	9359.61
567.201	9398.26
567.563	9480.97
567.925	9545.82
568.287	9525.03
568.648	9535.65
569.01	9595.31
569.372	9692.03
569.734	9655.42
570.095	9711.02
570.457	9739.72
570.819	9753.73
571.18	9803.22
571.542	9852.93
571.903	9907.62
572.265	9878.47
572.626	9903.1
572.987	9951.91
573.349	10058.58
573.71	10038.01
574.071	10158.24
574.432	10101.97
574.794	10239.36
575.155	10090.21
575.516	10134.28
575.877	10191.68
576.238	10187.84
576.599	10231.91
576.96	10235.3
577.32	10194.62
577.681	10320.49
578.042	10358.46
578.403	10264.22
578.763	10369.53
579.124	10385.57
579.485	10342.41
579.845	10408.4
580.206	10375.41
580.566	10417.66
580.927	10420.38
581.287	10483.88
581.648	10457.21
582.008	10534.5
582.368	10542.41
582.728	10574.27
583.089	10526.36
583.449	10558.45
583.809	10538.11
584.169	10500.37
584.529	10541.95
584.889	10550.77
585.249	10518.45
585.609	10510.77
585.969	10576.08
586.329	10595.74
586.688	10597.32
587.048	10581.28
587.408	10565
587.768	10598.45
588.127	10618.11
588.487	10629.41
588.846	10625.34
589.206	10538.34
589.565	10578.34
589.925	10564.78
590.284	10568.85
590.643	10635.96
591.003	10727.26
591.362	10654.27
591.721	10666.7
592.08	10703.53
592.44	10705.34
592.799	10692.01
593.158	10741.72
593.517	10638.68
593.876	10634.61
594.235	10658.56
594.593	10700.37
594.952	10741.95
595.311	10635.96
595.67	10727.94
596.029	10783.53
596.387	10750.08
596.746	10838.67
597.104	10708.5
597.463	10778.78
597.822	10702.4
598.18	10722.06
598.538	10695.85
598.897	10711.67
599.255	10697.88
599.613	10804.55
599.972	10774.49
600.33	10820.82
600.688	10777.88
601.046	10818.78
601.404	10813.36
601.762	10848.84
602.12	10885
602.478	10807.03
602.836	10843.64
603.194	10802.29
603.552	10861.49
603.91	10833.92
604.268	10910.98
604.625	10836.64
604.983	10881.38
605.341	10872.12
605.698	10909.63
606.056	10923.87
606.413	10980.59
606.771	10961.6
607.128	10963.86
607.485	10872.57
607.843	10915.73
608.2	11019.68
608.557	10986.69
608.914	10957.31
609.272	11052.45
609.629	11007.93
609.986	11105.33
610.343	11037.76
610.7	11149.62
611.057	11123.18
611.414	11071.88
611.771	11070.98
612.127	11191.65
612.484	11128.61
612.841	11174.71
613.198	11099.68
613.554	11144.65
613.911	11214.48
614.267	11245.21
614.624	11218.55
614.98	11192.56
615.337	11284.99
615.693	11226
616.05	11197.08
616.406	11262.16
616.762	11288.6
617.118	11230.07
617.475	11253.35
617.831	11314.59
618.187	11387.81
618.543	11300.58
618.899	11431.65
619.255	11247.7
619.611	11313.46
619.967	11440.24
620.323	11364.31
620.678	11353.91
621.034	11301.93
621.39	11365.66
621.746	11387.58
622.101	11473
622.457	11396.85
622.812	11444.76
623.168	11462.16
623.523	11429.39
623.879	11435.49
624.234	11380.12
624.589	11404.98
624.945	11411.99
625.3	11494.02
625.655	11417.19
626.01	11463.96
626.365	11527.92
626.72	11437.75
627.075	11385.32
627.43	11371.54
627.785	11405.66
628.14	11432.33
628.495	11489.5
628.85	11382.61
629.205	11374.93
629.559	11471.42
629.914	11401.82
630.269	11432.78
630.623	11365.21
630.978	11388.03
631.332	11402.04
631.687	11393.23
632.041	11366.11
632.396	11374.93
632.75	11353.23
633.104	11393.01
633.459	11327.47
633.813	11295.38
634.167	11279.11
634.521	11301.48
634.875	11307.13
635.229	11330.63
635.583	11215.84
635.937	11274.14
636.291	11223.07
636.645	11273.69
636.999	11246.12
637.352	11255.61
637.706	11185.78
638.06	11243.4
638.413	11251.99
638.767	11195.72
639.121	11162.05
639.474	11175.16
639.828	11181.26
640.181	11147.59
640.534	11186.23
640.888	11125.22
641.241	11088.38
641.594	11122.73
641.947	11181.94
642.301	11098.1
642.654	11134.93
643.007	11169.73
643.36	10995.05
643.713	11069.85
644.066	11109.17
644.419	11083.86
644.771	11010.64
645.124	10917.54
645.477	10832.79
645.83	10819.01
646.182	10763.87
646.535	10774.26
646.888	10776.07
647.24	10710.99
647.593	10762.06
647.945	10730.42
648.298	10679.58
648.65	10706.92
649.002	10691.56
649.355	10713.93
649.707	10698.11
650.059	10783.08
650.411	10859.69
650.763	10971.32
651.115	11016.97
651.467	10949.18
651.819	10987.59
652.171	10927.71
652.523	10963.19
652.875	10990.76
653.227	10848.16
653.578	11015.61
653.93	10902.62
654.282	10851.32
654.633	10885.9
654.985	10922.06
655.337	10934.71
655.688	10933.36
656.039	10923.64
656.391	10893.58
656.742	10902.62
657.094	10898.1
657.445	10934.03
657.796	10933.58
658.147	10904.2
658.498	10869.86
658.849	10912.34
659.2	10920.25
659.551	10869.63
659.902	10951.66
660.253	10867.82
660.604	10910.76
660.955	10819.46
661.306	10914.37
661.656	10933.81
662.007	10887.71
662.358	10873.7
662.708	10905.33
663.059	10924.54
663.409	10907.59
663.76	10895.62
664.11	10947.37
664.461	10900.36
664.811	10942.17
665.161	10879.8
665.511	10807.48
665.862	10853.13
666.212	10902.17
666.562	10954.15
666.912	10921.83
667.262	10905.11
667.612	10884.09
667.962	10878.22
668.312	10864.21
668.662	10910.08
669.011	10901.27
669.361	10913.02
669.711	10862.4
670.06	10794.6
670.41	10782.4
670.76	10812.46
671.109	10930.19
671.459	10869.86
671.808	10803.87
672.157	10800.93
672.507	10711.44
672.856	10789.86
673.205	10715.74
673.554	10818.11
673.904	10797.54
674.253	10769.52
674.602	10795.06
674.951	10640.71
675.3	10552.8
675.649	10642.97
675.998	10699.92
676.346	10710.76
676.695	10769.75
677.044	10675.28
677.393	10729.29
677.741	10734.04
678.09	10755.28
678.438	10581.95
678.787	10696.53
679.135	10707.6
679.484	10598.45
679.832	10669.86
680.181	10569.3
680.529	10621.5
680.877	10571.56
681.225	10574.04
681.573	10588.96
681.922	10562.74
682.27	10518.45
682.618	10603.87
682.966	10511.45
683.314	10537.66
683.661	10494.5
684.009	10451.34
684.357	10422.86
684.705	10345.12
685.053	10440.71
685.4	10391.45
685.748	10357.55
686.095	10328.17
686.443	10284.33
686.79	10270.55
687.138	10341.06
687.485	10313.71
687.832	10257.67
688.18	10215.64
688.527	10172.02
688.874	10199.59
689.221	10133.83
689.568	10127.28
689.915	10108.97
690.262	10052.48
690.609	10071.23
690.956	10053.61
691.303	9991.46
691.65	9951.69
691.997	9967.05
692.344	9901.75
692.69	9899.03
693.037	9895.87
693.383	9782.88
693.73	9873.5
694.077	9797.12
694.423	9781.07
694.769	9729.55
695.116	9750.11
695.462	9683.45
695.808	9635.54
696.155	9723.22
696.501	9657.68
696.847	9582.43
697.193	9524.13
697.539	9597.12
697.885	9477.58
698.231	9480.74
698.577	9447.07
698.923	9386.73
699.269	9396.9
699.614	9394.64
699.96	9345.38
700.306	9348.54
700.651	9239.62
700.997	9222.67
701.342	9251.82
701.688	9236.45
702.033	9233.51
702.379	9196.23
702.724	9153.52
703.069	9153.97
703.415	8989.9
703.76	9111.71
704.105	9055.44
704.45	8980.19
704.795	8942.67
705.14	8953.75
705.485	8952.39
705.83	8910.81
706.175	8931.15
706.52	8909.91
706.865	8837.82
707.209	8800.53
707.554	8805.73
707.899	8862
708.243	8797.37
708.588	8797.14
708.932	8716.01
709.277	8647.77
709.621	8749.01
709.966	8667.65
710.31	8645.73
710.654	8606.64
710.998	8639.41
711.342	8597.82
711.687	8559.18
712.031	8558.05
712.375	8526.64
712.719	8524.38
713.063	8479.86
713.407	8502.46
713.75	8476.02
714.094	8523.48
714.438	8503.82
714.782	8485.51
715.125	8450.48
715.469	8417.49
715.812	8427.66
716.156	8345.85
716.499	8344.05
716.843	8381.11
717.186	8285.52
717.53	8374.78
717.873	8351.96
718.216	8315.12
718.559	8341.56
718.902	8267.66
719.246	8319.64
719.589	8300.21
719.932	8267.44
720.275	8297.49
720.617	8236.48
720.96	8243.48
721.303	8278.96
721.646	8310.83
721.989	8196.25
722.331	8269.47
722.674	8181.11
723.016	8174.56
723.359	8254.11
723.701	8173.43
724.044	8137.27
724.386	8171.85
724.729	8216.37
725.071	8095.92
725.413	8055.01
725.755	8112.41
726.097	8059.53
726.439	8078.97
726.782	8089.59
727.124	8044.17
727.465	8061.34
727.807	8150.15
728.149	8024.51
728.491	8044.39
728.833	8082.81
729.175	8021.12
729.516	8034.22
729.858	7982.93
730.199	8101.34
730.541	8071.06
730.882	8005.07
731.224	8135.69
731.565	8067.67
731.906	7989.25
732.248	7990.16
732.589	7949.71
732.93	8021.57
733.271	7988.8
733.612	8016.6
733.953	7991.06
734.294	7982.7
734.635	7933.21
734.976	8004.17
735.317	7932.31
735.658	7995.35
735.999	7934.79
736.339	7927.33
736.68	7943.83
737.021	7913.1
737.361	7952.19
737.702	7930.27
738.042	7966.43
738.383	7908.35
738.723	7956.26
739.063	7898.63
739.404	7940.89
739.744	7903.83
740.084	7874.91
740.424	7867.9
740.764	7877.62
741.104	7968.01
741.444	7921.23
741.784	7915.36
742.124	7857.96
742.464	7859.99
742.804	7816.83
743.143	7888.24
743.483	7866.09
743.823	7888.92
744.162	7836.49
744.502	7866.32
744.841	7818.41
745.181	7845.08
745.52	7874.91
745.86	7903.83
746.199	7883.27
746.538	7843.72
746.877	7904.28
747.216	7837.39
747.556	7789.26
747.895	7829.03
748.234	7873.1
748.573	7818.86
748.911	7766.89
749.25	7820.9
749.589	7753.1
749.928	7770.28
750.267	7770.5
750.605	7772.76
750.944	7801.91
751.283	7777.96
751.621	7724.18
751.96	7658.64
752.298	7685.98
752.636	7773.21
752.975	7672.88
753.313	7665.65
753.651	7708.81
753.989	7643.5
754.327	7656.15
754.666	7622.48
755.004	7629.26
755.342	7633.33
755.679	7667
756.017	7568.7
756.355	7677.17
756.693	7588.13
757.031	7630.62
757.368	7556.95
757.706	7539.32
758.044	7569.6
758.381	7507.46
758.719	7523.05
759.056	7476.5
759.394	7514.24
759.731	7457.52
760.068	7419.55
760.405	7363.05
760.743	7396.27
761.08	7374.81
761.417	7347.01
761.754	7351.53
762.091	7379.1
762.428	7287.12
762.765	7256.39
763.102	7321.02
763.438	7260.23
763.775	7234.47
