Data from mousepad_grey_FLMS001491_00017.txt Node
Date: Wed Feb 08 14:29:03 GMT 2017
User: dcchb
Spectrometer: FLMS00149
Trigger mode: 0
Integration Time (sec): 2.000000E-2
Scans to average: 10
Electric dark correction enabled: true
Nonlinearity correction enabled: false
Boxcar width: 0
XAxis mode: Wavelengths
Number of Pixels in Spectrum: 2048
>>>>>Begin Spectral Data<<<<<
341.393	-16.26
341.776	-16.26
342.16	-16.26
342.543	-56.93
342.927	-72.3
343.31	-51.28
343.693	-61.68
344.077	-59.87
344.46	-55.35
344.843	-55.8
345.226	-57.84
345.61	-27.78
345.993	-18.97
346.376	-4.51
346.759	4.31
347.142	25.55
347.525	35.27
347.908	52.44
348.291	75.49
348.674	91.76
349.057	108.26
349.44	109.16
349.823	141.48
350.206	163.85
350.588	185.77
350.971	189.84
351.354	196.85
351.737	207.24
352.119	242.49
352.502	232.1
352.884	281.59
353.267	270.29
353.65	274.58
354.032	280.23
354.414	288.59
354.797	312.32
355.179	292.44
355.562	301.7
355.944	298.31
356.326	315.71
356.709	314.36
357.091	340.34
357.473	336.05
357.855	313.9
358.238	339.44
358.62	319.55
359.002	307.12
359.384	314.58
359.766	318.65
360.148	329.27
360.53	310.74
360.912	296.96
361.294	304.86
361.676	320.23
362.057	302.38
362.439	310.06
362.821	327.46
363.203	297.63
363.584	310.51
363.966	315.94
364.348	303.28
364.729	313
365.111	278.42
365.493	304.64
365.874	314.13
366.256	290.63
366.637	301.93
367.019	286.79
367.4	305.99
367.781	287.01
368.163	288.37
368.544	285.2
368.925	291.76
369.306	309.16
369.688	294.24
370.069	315.03
370.45	287.01
370.831	289.05
371.212	305.54
371.593	284.53
371.974	313.68
372.355	295.37
372.736	291.76
373.117	306.22
373.498	297.41
373.879	289.27
374.26	280.91
374.641	306.9
375.021	300.57
375.402	291.31
375.783	301.93
376.163	298.76
376.544	316.16
376.925	291.98
377.305	314.36
377.686	310.06
378.066	310.06
378.447	301.7
378.827	319.1
379.208	310.74
379.588	314.13
379.968	321.14
380.349	314.36
380.729	318.42
381.109	321.81
381.489	321.14
381.87	310.74
382.25	320.68
382.63	308.71
383.01	323.17
383.39	313.68
383.77	320.01
384.15	329.95
384.53	333.56
384.91	315.94
385.29	338.08
385.67	325.2
386.049	338.76
386.429	341.7
386.809	355.71
387.189	356.16
387.568	322.49
387.948	339.67
388.328	340.12
388.707	344.86
389.087	328.37
389.466	328.37
389.846	332.66
390.225	358.87
390.605	341.47
390.984	345.99
391.363	355.03
391.743	344.64
392.122	363.85
392.501	342.15
392.881	368.82
393.26	352.55
393.639	360.23
394.018	354.58
394.397	344.19
394.776	366.11
395.155	357.29
395.534	372.21
395.913	381.7
396.292	361.81
396.671	379.89
397.05	376.73
397.429	369.72
397.808	373.34
398.186	391.42
398.565	369.95
398.944	378.76
399.323	390.29
399.701	367.69
400.08	404.07
400.458	388.48
400.837	378.08
401.215	376.28
401.594	382.38
401.972	396.39
402.351	392.55
402.729	391.19
403.107	397.74
403.486	418.53
403.864	386.9
404.242	419.66
404.62	392.77
404.999	416.27
405.377	396.39
405.755	404.75
406.133	425.54
406.511	422.83
406.889	412.88
407.267	415.37
407.645	431.87
408.023	428.03
408.401	432.55
408.779	447.46
409.156	423.05
409.534	443.17
409.912	450.4
410.29	468.93
410.667	448.36
411.045	458.53
411.422	470.51
411.8	468.02
412.178	478.42
412.555	454.92
412.933	458.76
413.31	488.14
413.687	470.28
414.065	458.53
414.442	481.58
414.819	460.79
415.197	495.82
415.574	508.7
415.951	499.44
416.328	491.07
416.705	510.28
417.082	503.28
417.46	500.79
417.837	501.47
418.214	518.64
418.591	507.35
418.967	516.84
419.344	512.99
419.721	521.36
420.098	538.53
420.475	531.98
420.852	517.29
421.228	498.31
421.605	567.91
421.982	548.25
422.358	568.81
422.735	545.76
423.111	550.51
423.488	548.47
423.864	575.37
424.241	573.33
424.617	568.36
424.994	542.15
425.37	566.1
425.746	568.36
426.123	604.52
426.499	584.41
426.875	597.29
427.251	607.91
427.627	600.9
428.003	596.61
428.379	588.47
428.756	617.85
429.132	629.15
429.507	623.73
429.883	637.06
430.259	616.27
430.635	620.56
431.011	660.79
431.387	640.9
431.763	677.96
432.138	653.33
432.514	672.31
432.89	670.28
433.265	697.62
433.641	694.69
434.016	690.17
434.392	695.59
434.767	718.41
435.143	713.67
435.518	731.07
435.894	718.87
436.269	734.68
436.644	747.57
437.02	743.72
437.395	748.02
437.77	753.44
438.145	755.02
438.52	752.31
438.895	719.54
439.271	755.93
439.646	765.42
440.021	760.67
440.395	784.4
440.77	779.88
441.145	809.03
441.52	809.03
441.895	804.74
442.27	807.68
442.645	807.45
443.019	820.56
443.394	816.26
443.769	806.55
444.143	818.98
444.518	845.87
444.892	848.13
445.267	845.19
445.641	851.29
446.016	853.78
446.39	871.86
446.764	857.17
447.139	839.31
447.513	878.64
447.887	894.91
448.262	878.64
448.636	874.12
449.01	876.38
449.384	870.95
449.758	907.33
450.132	931.52
450.506	946.43
450.88	892.87
451.254	922.02
451.628	912.08
452.002	956.37
452.376	960.21
452.75	947.11
453.123	942.81
453.497	973.1
453.871	962.25
454.244	988.24
454.618	998.86
454.992	988.46
455.365	999.76
455.739	1037.27
456.112	1039.76
456.486	1062.59
456.859	1058.52
457.232	1063.94
457.606	1100.1
457.979	1080.44
458.352	1099.65
458.725	1096.48
459.099	1108.69
459.472	1125.86
459.845	1148.91
460.218	1148.68
460.591	1151.85
460.964	1136.93
461.337	1163.37
461.71	1174.45
462.083	1215.58
462.456	1192.07
462.829	1230.26
463.201	1237.5
463.574	1257.61
463.947	1255.12
464.32	1258.51
464.692	1287.21
465.065	1285.86
465.438	1312.75
465.81	1335.57
466.183	1352.07
466.555	1368.57
466.928	1366.76
467.3	1378.28
467.672	1365.4
468.045	1408.34
468.417	1436.13
468.789	1437.04
469.161	1454.67
469.534	1466.87
469.906	1472.97
470.278	1510.48
470.65	1496.7
471.022	1540.54
471.394	1573.08
471.766	1578.73
472.138	1579.18
472.51	1614.21
472.882	1646.3
473.253	1656.47
473.625	1638.84
473.997	1699.4
474.369	1712.29
474.74	1738.5
475.112	1738.73
475.484	1780.31
475.855	1797.03
476.227	1820.53
476.598	1823.69
476.97	1878.16
477.341	1912.96
477.713	1901.43
478.084	1926.52
478.455	1975.78
478.827	2002.22
479.198	2073.86
479.569	2072.95
479.94	2101.43
480.311	2143.46
480.682	2157.25
481.053	2200.41
481.424	2238.15
481.795	2247.41
482.166	2295.77
482.537	2311.59
482.908	2352.27
483.279	2385.94
483.65	2437.69
484.021	2451.7
484.391	2511.13
484.762	2514.75
485.133	2516.33
485.503	2518.14
485.874	2594.75
486.244	2633.17
486.615	2651.24
486.985	2647.63
487.356	2733.95
487.726	2738.02
488.097	2795.65
488.467	2796.32
488.837	2857.57
489.207	2894.4
489.578	2942.08
489.948	2966.49
490.318	2971.24
490.688	2999.48
491.058	3056.66
491.428	3072.25
491.798	3109.54
492.168	3158.8
492.538	3196.77
492.908	3215.07
493.278	3229.31
493.648	3215.97
494.017	3313.37
494.387	3302.3
494.757	3355.63
495.126	3354.05
495.496	3349.98
495.866	3421.85
496.235	3459.13
496.605	3498.68
496.974	3483.99
497.344	3540.49
497.713	3568.96
498.082	3557.43
498.452	3556.98
498.821	3599.02
499.19	3622.29
499.559	3710.43
499.928	3727.15
500.298	3734.15
500.667	3754.27
501.036	3745.68
501.405	3753.14
501.774	3801.72
502.143	3820.7
502.512	3802.17
502.88	3861.61
503.249	3876.97
503.618	3911.1
503.987	3943.19
504.356	3942.28
504.724	3993.13
505.093	3954.49
505.462	3994.49
505.83	4090.08
506.199	4091.43
506.567	4127.14
506.936	4086.46
507.304	4157.87
507.672	4162.84
508.041	4194.03
508.409	4219.34
508.777	4299.56
509.145	4290.07
509.514	4315.83
509.882	4339.79
510.25	4337.53
510.618	4362.61
510.986	4408.26
511.354	4451.2
511.722	4442.84
512.09	4542.49
512.458	4497.75
512.826	4542.95
513.193	4615.94
513.561	4576.84
513.929	4619.78
514.297	4674.69
514.664	4694.35
515.032	4709.95
515.4	4765.99
515.767	4771.41
516.135	4781.36
516.502	4792.2
516.869	4900.45
517.237	4877.85
517.604	4864.74
517.972	4927.34
518.339	4970.73
518.706	4945.65
519.073	5002.59
519.44	5047.79
519.808	5048.24
520.175	5119.43
520.542	5120.33
520.909	5168.47
521.276	5190.16
521.643	5247.79
522.009	5263.6
522.376	5301.57
522.743	5344.05
523.11	5401.68
523.477	5396.03
523.843	5474.9
524.21	5539.3
524.577	5537.95
524.943	5568
525.31	5617.72
525.676	5684.16
526.043	5640.77
526.409	5742.46
526.776	5739.07
527.142	5770.48
527.508	5830.14
527.874	5873.31
528.241	5960.76
528.607	5924.15
528.973	5958.73
529.339	5945.85
529.705	6039.18
530.071	6094.09
530.437	6134.32
530.803	6144.03
531.169	6187.65
531.535	6193.75
531.901	6228.32
532.267	6264.03
532.632	6347.87
532.998	6321.66
533.364	6323.24
533.73	6424.03
534.095	6403.91
534.461	6445.49
534.826	6480.52
535.192	6529.56
535.557	6570.69
535.923	6548.54
536.288	6564.81
536.653	6628.99
537.019	6643.91
537.384	6620.41
537.749	6689.78
538.114	6745.83
538.479	6727.07
538.845	6767.29
539.21	6746.96
539.575	6804.13
539.94	6848.42
540.305	6921.87
540.67	6911.02
541.034	6913.5
541.399	6971.58
541.764	6961.86
542.129	7052.48
542.494	7023.33
542.858	7074.63
543.223	7082.31
543.587	7124.35
543.952	7078.92
544.316	7191.24
544.681	7145.59
545.045	7257.22
545.41	7223.78
545.774	7281.86
546.138	7317.56
546.503	7319.14
546.867	7313.49
547.231	7398.46
547.595	7432.36
547.959	7397.11
548.324	7453.38
548.688	7530.44
549.052	7499.03
549.416	7612.02
549.779	7669.19
550.143	7566.14
550.507	7666.48
550.871	7702.18
551.235	7732.69
551.599	7821.96
551.962	7823.76
552.326	7805.01
552.689	7871.45
553.053	7800.26
553.417	7871.45
553.78	7942.18
554.143	7916.87
554.507	7933.82
554.87	7935.62
555.234	8068.95
555.597	8061.05
555.96	8130.87
556.323	8175.84
556.686	8160.7
557.05	8185.34
557.413	8215.39
557.776	8250.19
558.139	8313.69
558.502	8348.04
558.865	8363.64
559.228	8454.26
559.59	8462.16
559.953	8391.66
560.316	8501.03
560.679	8498.55
561.041	8589.62
561.404	8680.46
561.767	8660.8
562.129	8654.7
562.492	8741.93
562.854	8642.72
563.217	8762.04
563.579	8754.36
563.941	8920.46
564.304	8923.4
564.666	8949.16
565.028	8988.93
565.39	8991.64
565.753	8980.57
566.115	9063.28
566.477	9078.87
566.839	9154.58
567.201	9197.06
567.563	9145.76
567.925	9263.05
568.287	9297.62
568.648	9290.84
569.01	9359.32
569.372	9441.57
569.734	9355.25
570.095	9456.04
570.457	9534.23
570.819	9409.03
571.18	9515.92
571.542	9527.67
571.903	9592.3
572.265	9652.19
572.626	9616.48
572.987	9757.27
573.349	9711.85
573.71	9759.98
574.071	9752.75
574.432	9832.07
574.794	9910.71
575.155	9823.94
575.516	9842.02
575.877	9851.05
576.238	9872.07
576.599	9904.84
576.96	9948.23
577.32	9929.02
577.681	9976.93
578.042	10010.15
578.403	10034.1
578.763	10049.47
579.124	10035.68
579.485	10149.58
579.845	10114.32
580.206	10113.42
580.566	10079.98
580.927	10143.93
581.287	10180.99
581.648	10160.88
582.008	10269.57
582.368	10115
582.728	10194.77
583.089	10212.4
583.449	10281.78
583.809	10232.51
584.169	10233.19
584.529	10258.73
584.889	10296.24
585.249	10271.83
585.609	10276.13
585.969	10273.64
586.329	10260.76
586.688	10276.13
587.048	10265.73
587.408	10260.31
587.768	10220.54
588.127	10318.39
588.487	10212.17
588.846	10310.93
589.206	10208.79
589.565	10291.27
589.925	10356.8
590.284	10325.17
590.643	10256.92
591.003	10357.48
591.362	10370.36
591.721	10365.62
592.08	10343.24
592.44	10388.44
592.799	10351.83
593.158	10367.88
593.517	10412.17
593.876	10396.58
594.235	10363.81
594.593	10401.1
594.952	10480.42
595.311	10397.93
595.67	10356.8
596.029	10428.44
596.387	10423.92
596.746	10483.81
597.104	10418.5
597.463	10377.59
597.822	10514.77
598.18	10424.37
598.538	10490.59
598.897	10509.79
599.255	10430.47
599.613	10556.35
599.972	10486.29
600.33	10515.9
600.688	10414.88
601.046	10508.44
601.404	10567.65
601.762	10452.62
602.12	10557.02
602.478	10600.64
602.836	10585.27
603.194	10479.96
603.552	10491.94
603.91	10461.66
604.268	10597.93
604.625	10582.33
604.983	10553.41
605.341	10536.01
605.698	10651.26
606.056	10580.98
606.413	10621.66
606.771	10602.67
607.128	10702.33
607.485	10540.53
607.843	10637.93
608.2	10669.11
608.557	10647.87
608.914	10643.8
609.272	10731.71
609.629	10726.29
609.986	10708.66
610.343	10711.14
610.7	10729.9
611.057	10783.69
611.414	10769.67
611.771	10783.23
612.127	10804.25
612.484	10889.67
612.841	10833.18
613.198	10764.02
613.554	10820.75
613.911	10867.52
614.267	10907.52
614.624	10836.57
614.98	10921.53
615.337	10897.58
615.693	10855.32
616.05	10964.92
616.406	11049.44
616.762	10923.12
617.118	10936.45
617.475	10881.31
617.831	10954.08
618.187	10974.41
618.543	10990.46
618.899	11033.85
619.255	11064.36
619.611	11033.85
619.967	11116.78
620.323	11057.12
620.678	11007.86
621.034	11024.36
621.39	11040.4
621.746	10984.13
622.101	11121.76
622.457	11034.75
622.812	11089.21
623.168	11126.95
623.523	11092.83
623.879	11093.51
624.234	11025.71
624.589	11101.64
624.945	11088.54
625.3	11112.49
625.655	11092.83
626.01	11109.33
626.365	11098.25
626.72	11053.51
627.075	11081.3
627.43	11074.98
627.785	11066.16
628.14	11148.65
628.495	11095.09
628.85	11013.74
629.205	11062.32
629.559	11061.19
629.914	11050.8
630.269	11104.13
630.623	11017.35
630.978	10990.69
631.332	11118.59
631.687	11105.03
632.041	11032.04
632.396	11039.05
632.75	11003.57
633.104	11023.91
633.459	11000.18
633.813	10966.51
634.167	10932.83
634.521	10930.8
634.875	11058.25
635.229	10938.71
635.583	10993.17
635.937	10990.46
636.291	10890.35
636.645	10912.72
636.999	10885.6
637.352	10918.15
637.706	10862.1
638.06	10938.71
638.413	10889.22
638.767	10902.78
639.121	10936.68
639.474	10840.86
639.828	10845.6
640.181	10863.01
640.534	10809.45
640.888	10829.11
641.241	10844.02
641.594	10770.35
641.947	10758.38
642.301	10780.97
642.654	10797.02
643.007	10888.77
643.36	10775.32
643.713	10806.51
644.066	10770.35
644.419	10702.11
644.771	10676.34
645.124	10599.28
645.477	10570.13
645.83	10556.8
646.182	10493.3
646.535	10489.23
646.888	10461.89
647.24	10486.07
647.593	10500.3
647.945	10472.51
648.298	10370.14
648.65	10395.45
649.002	10324.71
649.355	10456.46
649.707	10485.39
650.059	10479.06
650.411	10666.85
650.763	10671.6
651.115	10716.34
651.467	10706.63
651.819	10677.7
652.171	10634.76
652.523	10641.99
652.875	10652.62
653.227	10665.5
653.578	10711.82
653.93	10697.81
654.282	10632.5
654.633	10597.25
654.985	10588.21
655.337	10626.4
655.688	10685.61
656.039	10650.81
656.391	10551.15
656.742	10605.38
657.094	10594.54
657.445	10632.05
657.796	10684.7
658.147	10625.05
658.498	10595.44
658.849	10704.82
659.2	10685.83
659.551	10639.06
659.902	10700.52
660.253	10638.38
660.604	10641.77
660.955	10597.25
661.306	10587.08
661.656	10619.85
662.007	10637.02
662.358	10678.83
662.708	10666.63
663.059	10654.42
663.409	10567.65
663.76	10632.28
664.11	10606.06
664.461	10634.54
664.811	10644.03
665.161	10625.27
665.511	10617.81
665.862	10584.37
666.212	10622.11
666.562	10616.91
666.912	10650.81
667.262	10619.62
667.612	10545.5
667.962	10664.59
668.312	10582.33
668.662	10591.6
669.011	10597.93
669.361	10561.77
669.711	10648.77
670.06	10578.72
670.41	10533.3
670.76	10537.36
671.109	10531.26
671.459	10517.25
671.808	10572.84
672.157	10631.15
672.507	10502.34
672.856	10561.32
673.205	10514.09
673.554	10560.19
673.904	10471.15
674.253	10537.14
674.602	10541.66
674.951	10395
675.3	10373.07
675.649	10506.18
675.998	10423.92
676.346	10449.91
676.695	10474.54
677.044	10449.23
677.393	10491.72
677.741	10500.3
678.09	10437.71
678.438	10411.72
678.787	10456.24
679.135	10399.06
679.484	10332.17
679.832	10493.75
680.181	10305.28
680.529	10349.8
680.877	10368.56
681.225	10271.38
681.573	10404.94
681.922	10333.75
682.27	10295.34
682.618	10299.18
682.966	10228.45
683.314	10241.33
683.661	10201.78
684.009	10223.02
684.357	10163.81
684.705	10180.99
685.053	10161.33
685.4	10185.96
685.748	10084.95
686.095	10127.21
686.443	10070.48
686.79	9984.16
687.138	10001.56
687.485	9980.77
687.832	9964.27
688.18	9988.45
688.527	9957.72
688.874	9921.56
689.221	9895.8
689.568	9891.28
689.915	9811.73
690.262	9879.08
690.609	9856.03
690.956	9771.28
691.303	9751.4
691.65	9757.05
691.997	9696.26
692.344	9641.79
692.69	9684.05
693.037	9627.33
693.383	9650.16
693.73	9591.4
694.077	9544.85
694.423	9542.81
694.769	9517.96
695.116	9515.92
695.462	9461.91
695.808	9439.77
696.155	9481.8
696.501	9416.04
696.847	9394.57
697.193	9353.89
697.539	9290.62
697.885	9244.06
698.231	9275.7
698.577	9267.34
698.923	9189.15
699.269	9219.21
699.614	9144.63
699.96	9097.4
700.306	9097.85
700.651	9096.05
700.997	9010.62
701.342	9009.49
701.688	9030.51
702.033	9016.95
702.379	9007.01
702.724	8908.71
703.069	8957.52
703.415	8846.34
703.76	8859.22
704.105	8878.65
704.45	8821.93
704.795	8736.51
705.14	8717.3
705.485	8745.55
705.83	8674.59
706.175	8689.73
706.52	8665.32
706.865	8652.44
707.209	8585.33
707.554	8550.3
707.899	8579
708.243	8573.12
708.588	8534.48
708.932	8510.3
709.277	8491.54
709.621	8461.71
709.966	8403.18
710.31	8451.54
710.654	8433.46
710.998	8442.05
711.342	8333.58
711.687	8383.75
712.031	8298.55
712.375	8286.12
712.719	8348.72
713.063	8372.22
713.407	8361.38
713.75	8201.38
714.094	8243.64
714.438	8256.52
714.782	8246.12
715.125	8225.11
715.469	8244.54
715.812	8183.3
716.156	8162.51
716.499	8190.53
716.843	8142.4
717.186	8095.62
717.53	8161.16
717.873	8123.87
718.216	8153.25
718.559	8068.5
718.902	8049.07
719.246	8105.56
719.589	8033.93
719.932	7986.7
720.275	8110.31
720.617	8012.46
720.96	7999.58
721.303	8007.94
721.646	8028.05
721.989	7982.18
722.331	8003.87
722.674	7969.97
723.016	7991.44
723.359	7971.33
723.701	8009.07
724.044	8010.88
724.386	7956.64
724.729	7965
725.071	7946.47
725.413	7970.43
725.755	7911.44
726.097	7904.44
726.439	7864.89
726.782	7911.9
727.124	7940.82
727.465	7902.18
727.807	7858.56
728.149	7842.29
728.491	7865.8
728.833	7843.65
729.175	7844.55
729.516	7859.02
729.858	7885.46
730.199	7843.65
730.541	7874.84
730.882	7835.29
731.224	7832.8
731.565	7810.43
731.906	7814.72
732.248	7818.79
732.589	7835.51
732.93	7799.36
733.271	7792.13
733.612	7879.13
733.953	7833.71
734.294	7791.9
734.635	7794.39
734.976	7850.88
735.317	7764.78
735.658	7738.57
735.999	7827.38
736.339	7774.27
736.68	7752.13
737.021	7828.96
737.361	7709.87
737.702	7791
738.042	7762.97
738.383	7803.65
738.723	7746.25
739.063	7794.39
739.404	7766.82
739.744	7782.41
740.084	7770.88
740.424	7715.07
740.764	7776.98
741.104	7760.04
741.444	7714.16
741.784	7722.52
742.124	7687.27
742.464	7770.21
742.804	7769.3
743.143	7705.8
743.483	7710.09
743.823	7726.82
744.162	7623.32
744.502	7720.26
744.841	7687.27
745.181	7715.07
745.52	7725.91
745.86	7693.15
746.199	7668.51
746.538	7692.24
746.877	7677.33
747.216	7651.79
747.556	7696.08
747.895	7724.78
748.234	7657.21
748.573	7657.67
748.911	7649.08
749.25	7658.34
749.589	7672.58
749.928	7606.59
750.267	7654.28
750.605	7622.86
750.944	7560.95
751.283	7610.21
751.621	7643.43
751.96	7526.37
752.298	7557.1
752.636	7572.7
752.975	7520.04
753.313	7552.81
753.651	7551
753.989	7509.2
754.327	7533.83
754.666	7428.97
755.004	7528.63
755.342	7534.28
755.679	7480.95
756.017	7504
756.355	7485.24
756.693	7445.02
757.031	7483.66
757.368	7485.47
757.706	7395.07
758.044	7412.25
758.381	7386.49
758.719	7366.83
759.056	7419.25
759.394	7348.75
759.731	7334.28
760.068	7283.66
760.405	7237.79
760.743	7212.25
761.08	7264.91
761.417	7217.45
761.754	7217.9
762.091	7234.17
762.428	7206.15
762.765	7138.81
763.102	7193.5
763.438	7131.8
763.775	7125.02
764.112	7102.43
764.449	7099.49
