Data from mousepad_grey_FLMS001491_00099.txt Node
Date: Wed Feb 08 14:30:14 GMT 2017
User: dcchb
Spectrometer: FLMS00149
Trigger mode: 0
Integration Time (sec): 2.000000E-2
Scans to average: 10
Electric dark correction enabled: true
Nonlinearity correction enabled: false
Boxcar width: 0
XAxis mode: Wavelengths
Number of Pixels in Spectrum: 2048
>>>>>Begin Spectral Data<<<<<
341.393	-16.27
341.776	-16.27
342.16	-16.27
342.543	-57.17
342.927	-50.39
343.31	-85.87
343.693	-68.7
344.077	-43.84
344.46	-39.55
344.843	-47.46
345.226	-66.66
345.61	-46.78
345.993	-9.04
346.376	-8.14
346.759	3.39
347.142	27.12
347.525	52.88
347.908	65.99
348.291	72.99
348.674	76.38
349.057	117.29
349.44	124.97
349.823	149.15
350.206	157.51
350.588	172.88
350.971	192.54
351.354	208.36
351.737	218.3
352.119	253.1
352.502	241.8
352.884	256.26
353.267	275.92
353.65	268.02
354.032	280.9
354.414	296.72
354.797	292.42
355.179	302.14
355.562	316.6
355.944	310.27
356.326	301.46
356.709	324.51
357.091	327.45
357.473	324.96
357.855	327.45
358.238	330.16
358.62	312.08
359.002	327.9
359.384	342.82
359.766	338.52
360.148	335.36
360.53	308.47
360.912	314.79
361.294	323.83
361.676	311.86
362.057	329.26
362.439	319.99
362.821	324.29
363.203	328.8
363.584	292.65
363.966	312.99
364.348	302.36
364.729	297.85
365.111	296.49
365.493	294.91
365.874	306.21
366.256	298.75
366.637	296.26
367.019	291.97
367.4	312.53
367.781	292.2
368.163	290.16
368.544	300.56
368.925	283.16
369.306	305.98
369.688	300.11
370.069	304.17
370.45	304.85
370.831	303.72
371.212	294.68
371.593	305.75
371.974	300.56
372.355	289.48
372.736	324.51
373.117	288.81
373.498	298.75
373.879	283.83
374.26	304.17
374.641	309.82
375.021	310.73
375.402	294.23
375.783	315.47
376.163	309.82
376.544	291.29
376.925	296.49
377.305	298.52
377.686	304.4
378.066	309.37
378.447	319.09
378.827	314.57
379.208	316.6
379.588	310.73
379.968	299.88
380.349	303.95
380.729	308.24
381.109	318.18
381.489	311.18
381.87	319.09
382.25	317.51
382.63	322.03
383.01	318.18
383.39	324.06
383.77	326.09
384.15	320.9
384.53	327.45
384.91	326.32
385.29	339.2
385.67	334.68
386.049	330.61
386.429	322.7
386.809	333.1
387.189	316.83
387.568	330.61
387.948	332.19
388.328	334
388.707	342.36
389.087	345.75
389.466	339.43
389.846	344.17
390.225	349.14
390.605	351.18
390.984	344.17
391.363	349.6
391.743	345.3
392.122	360.44
392.501	339.2
392.881	352.08
393.26	354.34
393.639	350.73
394.018	345.98
394.397	358.41
394.776	367.9
395.155	369.26
395.534	372.42
395.913	339.43
396.292	360.89
396.671	348.69
397.05	374
397.429	383.49
397.808	378.97
398.186	378.52
398.565	390.95
398.944	359.54
399.323	379.88
399.701	390.27
400.08	369.48
400.458	388.46
400.837	392.98
401.215	371.74
401.594	403.61
401.972	375.58
402.351	396.37
402.729	388.92
403.107	399.76
403.486	423.04
403.864	400.67
404.242	416.03
404.62	409.48
404.999	401.8
405.377	418.97
405.755	408.35
406.133	413.77
406.511	404.28
406.889	436.15
407.267	433.21
407.645	431.85
408.023	424.4
408.401	428.69
408.779	442.7
409.156	442.25
409.534	447.22
409.912	462.36
410.29	431.18
410.667	465.98
411.045	459.2
411.422	455.58
411.8	463.04
412.178	453.1
412.555	467.11
412.933	446.32
413.31	461
413.687	472.3
414.065	457.39
414.442	480.44
414.819	485.86
415.197	487.67
415.574	490.61
415.951	503.26
416.328	507.33
416.705	522.7
417.082	493.77
417.46	502.59
417.837	492.87
418.214	524.73
418.591	513.88
418.967	526.54
419.344	510.5
419.721	534.9
420.098	526.09
420.475	555.01
420.852	544.17
421.228	546.2
421.605	518.4
421.982	532.87
422.358	538.74
422.735	533.55
423.111	549.36
423.488	542.13
423.864	541.91
424.241	570.38
424.617	581.68
424.994	582.81
425.37	576.48
425.746	579.87
426.123	571.96
426.499	590.72
426.875	580.55
427.251	601.11
427.627	615.13
428.003	581.68
428.379	593.2
428.756	594.79
429.132	590.27
429.507	588.01
429.883	623.03
430.259	602.24
430.635	638.63
431.011	631.4
431.387	667.55
431.763	642.69
432.138	669.81
432.514	665.29
432.89	670.26
433.265	687.89
433.641	674.78
434.016	671.85
434.392	716.59
434.767	711.85
435.143	712.75
435.518	710.94
435.894	708.46
436.269	729.47
436.644	726.31
437.02	724.73
437.395	724.27
437.77	742.13
438.145	767.44
438.52	766.99
438.895	754.1
439.271	769.7
439.646	776.02
440.021	778.06
440.395	799.3
440.77	764.95
441.145	773.99
441.52	785.29
441.895	789.81
442.27	798.62
442.645	798.17
443.019	822.35
443.394	799.08
443.769	801.33
444.143	832.07
444.518	820.09
444.892	832.75
445.267	842.24
445.641	824.84
446.016	841.79
446.39	854.21
446.764	860.09
447.139	859.19
447.513	879.3
447.887	874.78
448.262	872.07
448.636	880.43
449.01	878.17
449.384	873.42
449.758	876.59
450.132	932.63
450.506	891.73
450.88	921.11
451.254	936.25
451.628	940.77
452.002	917.72
452.376	964.49
452.75	947.77
453.123	955
453.497	965.4
453.871	969.47
454.244	991.84
454.618	991.61
454.992	1010.82
455.365	988.45
455.739	1007.43
456.112	1035.9
456.486	1057.6
456.859	1053.08
457.232	1044.04
457.606	1075
457.979	1092.85
458.352	1104.15
458.725	1108.22
459.099	1109.12
459.472	1120.2
459.845	1132.17
460.218	1162
460.591	1130.82
460.964	1141.66
461.337	1176.01
461.71	1197.48
462.083	1216.01
462.456	1202.68
462.829	1210.14
463.201	1237.48
463.574	1235.67
463.947	1265.28
464.32	1276.8
464.692	1278.84
465.065	1286.07
465.438	1287.42
465.81	1311.6
466.183	1329.91
466.555	1358.83
466.928	1374.43
467.3	1352.96
467.672	1371.72
468.045	1398.61
468.417	1426.63
468.789	1427.76
469.161	1458.72
469.534	1461.43
469.906	1493.75
470.278	1493.75
470.65	1494.88
471.022	1530.58
471.394	1570.58
471.766	1559.96
472.138	1581.65
472.51	1623.23
472.882	1631.14
473.253	1696.45
473.625	1680.86
473.997	1704.36
474.369	1711.37
474.74	1721.76
475.112	1750.24
475.484	1783.68
475.855	1794.3
476.227	1825.04
476.598	1899.84
476.97	1836.11
477.341	1931.47
477.713	1936.9
478.084	1968.08
478.455	1970.12
478.827	1979.83
479.198	2069.1
479.569	2071.13
479.94	2124.01
480.311	2091.02
480.682	2144.58
481.053	2222.31
481.424	2234.29
481.795	2251.69
482.166	2312.48
482.537	2327.85
482.908	2340.73
483.279	2394.97
483.65	2432.25
484.021	2469.54
484.391	2460.5
484.762	2511.35
485.133	2533.72
485.503	2543.66
485.874	2588.18
486.244	2644.22
486.615	2658.01
486.985	2667.27
487.356	2744.33
487.726	2768.29
488.097	2816.42
488.467	2826.14
488.837	2887.61
489.207	2899.81
489.578	2924.44
489.948	2997.66
490.318	2992.46
490.688	3026.59
491.058	3060.48
491.428	3138.9
491.798	3159.01
492.168	3128.28
492.538	3196.98
492.908	3209.18
493.278	3264.77
493.648	3263.42
494.017	3300.48
494.387	3316.52
494.757	3401.72
495.126	3399.46
495.496	3469.74
495.866	3415.28
496.235	3484.88
496.605	3476.74
496.974	3542.73
497.344	3546.57
497.713	3616.18
498.082	3617.98
498.452	3652.56
498.821	3667.47
499.19	3700.02
499.559	3716.74
499.928	3778.66
500.298	3725.33
500.667	3787.47
501.036	3800.8
501.405	3837.41
501.774	3850.97
502.143	3861.82
502.512	3928.48
502.88	3926.9
503.249	3975.71
503.618	3961.7
503.987	4001.48
504.356	4046.67
504.724	4013.45
505.093	4032.21
505.462	4083.51
505.83	4120.12
506.199	4111.53
506.567	4163.51
506.936	4229.49
507.304	4221.81
507.672	4263.16
508.041	4302.03
508.409	4263.62
508.777	4336.16
509.145	4368.02
509.514	4411.41
509.882	4394.01
510.25	4410.05
510.618	4427.45
510.986	4455.25
511.354	4526.21
511.722	4528.69
512.09	4621.57
512.458	4568.24
512.826	4630.39
513.193	4631.52
513.561	4658.41
513.929	4719.65
514.297	4768.24
514.664	4765.3
515.032	4753.55
515.4	4837.16
515.767	4850.95
516.135	4893.43
516.502	4862.25
516.869	4960.32
517.237	4971.85
517.604	4951.96
517.972	5064.05
518.339	5038.74
518.706	5090.04
519.073	5077.38
519.44	5135.91
519.808	5146.76
520.175	5203.7
520.542	5304.95
520.909	5266.08
521.276	5298.62
521.643	5338.16
522.009	5357.6
522.376	5364.83
522.743	5469.69
523.11	5533.19
523.477	5560.08
523.843	5545.62
524.21	5661.77
524.577	5700.19
524.943	5718.49
525.31	5729.11
525.676	5799.17
526.043	5832.61
526.409	5814.76
526.776	5893.18
527.142	5950.58
527.508	5949.45
527.874	5946.06
528.241	5948.32
528.607	6005.94
528.973	6087.3
529.339	6146.51
529.705	6189.22
530.071	6175.2
530.437	6198.71
530.803	6264.92
531.169	6300.4
531.535	6335.43
531.901	6383.33
532.267	6430.57
532.632	6427.63
532.998	6438.25
533.364	6497.23
533.73	6462.88
534.095	6586.49
534.461	6539.49
534.826	6609.32
535.192	6657.23
535.557	6740.39
535.923	6704.23
536.288	6745.36
536.653	6780.16
537.019	6772.25
537.384	6801.63
537.749	6888.41
538.114	6893.38
538.479	6921.4
538.845	6934.05
539.21	6950.55
539.575	6975.18
539.94	6979.48
540.305	7050.44
540.67	7057.67
541.034	7076.88
541.399	7107.61
541.764	7126.82
542.129	7139.02
542.494	7262.63
542.858	7223.99
543.223	7232.8
543.587	7283.88
543.952	7289.98
544.316	7364.55
544.681	7343.31
545.045	7430.77
545.41	7428.51
545.774	7408.62
546.138	7472.57
546.503	7484.32
546.867	7495.62
547.231	7596.64
547.595	7666.01
547.959	7632.34
548.324	7668.27
548.688	7682.06
549.052	7725.9
549.416	7724.54
549.779	7796.63
550.143	7817.65
550.507	7893.35
550.871	7937.64
551.235	7902.17
551.599	7937.19
551.962	7964.76
552.326	7995.72
552.689	7912.56
553.053	7992.11
553.417	8034.59
553.78	8193.68
554.143	8117.75
554.507	8181.93
554.87	8197.3
555.234	8262.38
555.597	8268.03
555.96	8295.38
556.323	8346.45
556.686	8409.72
557.05	8428.48
557.413	8417.41
557.776	8460.79
558.139	8461.02
558.502	8526.33
558.865	8570.85
559.228	8546.44
559.59	8638.19
559.953	8577.18
560.316	8742.14
560.679	8811.97
561.041	8795.7
561.404	8867.79
561.767	8875.47
562.129	8888.13
562.492	8957.28
562.854	8908.92
563.217	8945.98
563.579	9076.37
563.941	9085.64
564.304	9154.79
564.666	9218.74
565.028	9165.86
565.39	9218.51
565.753	9268.23
566.115	9292.19
566.477	9293.09
566.839	9381.9
567.201	9402.92
567.563	9408.57
567.925	9483.82
568.287	9565.62
568.648	9552.29
569.01	9647.2
569.372	9675.45
569.734	9650.37
570.095	9639.07
570.457	9685.4
570.819	9735.56
571.18	9721.55
571.542	9784.6
571.903	9782.12
572.265	9860.76
572.626	9938.5
572.987	9933.75
573.349	9903.24
573.71	9972.17
574.071	9998.83
574.432	10093.52
574.794	10135.33
575.155	10127.42
575.516	10130.36
575.877	10148.89
576.238	10192.95
576.599	10227.75
576.96	10232.95
577.32	10218.26
577.681	10293.29
578.042	10285.61
578.403	10372.38
578.763	10305.72
579.124	10286.74
579.485	10388.43
579.845	10444.25
580.206	10432.95
580.566	10387.07
580.927	10429.1
581.287	10476.79
581.648	10340.97
582.008	10439.73
582.368	10477.24
582.728	10493.06
583.089	10506.84
583.449	10465.26
583.809	10495.77
584.169	10588.42
584.529	10537.12
584.889	10619.61
585.249	10550.91
585.609	10573.96
585.969	10582.77
586.329	10517.01
586.688	10591.36
587.048	10526.28
587.408	10603.56
587.768	10576.45
588.127	10623.45
588.487	10570.34
588.846	10621.64
589.206	10604.69
589.565	10563.11
589.925	10650.57
590.284	10640.85
590.643	10641.98
591.003	10716.1
591.362	10667.74
591.721	10692.83
592.08	10661.87
592.44	10632.71
592.799	10723.56
593.158	10635.43
593.517	10666.84
593.876	10691.7
594.235	10649.89
594.593	10740.06
594.952	10681.08
595.311	10755.42
595.67	10713.62
596.029	10783.67
596.387	10799.26
596.746	10788.64
597.104	10813.28
597.463	10700.06
597.822	10738.93
598.18	10804.46
598.538	10757.23
598.897	10808.98
599.255	10752.71
599.613	10890.56
599.972	10791.81
600.33	10807.85
600.688	10818.47
601.046	10849.88
601.404	10893.27
601.762	10865.25
602.12	10866.83
602.478	10891.69
602.836	10890.11
603.194	10872.93
603.552	10859.38
603.91	10887.17
604.268	10927.4
604.625	10915.65
604.983	10890.11
605.341	10902.31
605.698	10867.28
606.056	11039.71
606.413	10941.63
606.771	11034.06
607.128	10957.45
607.485	10962.2
607.843	10911.13
608.2	11039.94
608.557	11053.27
608.914	10947.51
609.272	11100.05
609.629	11052.36
609.986	11074.96
610.343	11056.43
610.7	11139.37
611.057	11062.31
611.414	11071.8
611.771	11098.92
612.127	11157.67
612.484	11150.44
612.841	11164.45
613.198	11141.4
613.554	11157.45
613.911	11201.74
614.267	11215.3
614.624	11248.74
614.98	11243.77
615.337	11252.13
615.693	11290.32
616.05	11303.66
616.406	11315.41
616.762	11236.77
617.118	11208.52
617.475	11311.57
617.831	11409.64
618.187	11399.02
618.543	11377.33
618.899	11458.46
619.255	11423.2
619.611	11428.4
619.967	11412.36
620.323	11479.7
620.678	11340.94
621.034	11401.96
621.39	11319.93
621.746	11396.76
622.101	11460.94
622.457	11408.29
622.812	11502.3
623.168	11500.71
623.523	11483.31
623.879	11529.19
624.234	11363.09
624.589	11584.78
624.945	11478.57
625.3	11561.73
625.655	11485.35
626.01	11467.27
626.365	11512.47
626.72	11452.58
627.075	11447.83
627.43	11421.85
627.785	11416.87
628.14	11500.94
628.495	11489.87
628.85	11539.81
629.205	11428.85
629.559	11491.68
629.914	11451.45
630.269	11427.04
630.623	11425.24
630.978	11481.05
631.332	11422.75
631.687	11468.63
632.041	11390.89
632.396	11416.2
632.75	11362.64
633.104	11446.48
633.459	11375.75
633.813	11419.59
634.167	11408.74
634.521	11331.68
634.875	11333.71
635.229	11305.01
635.583	11325.13
635.937	11365.58
636.291	11371.45
636.645	11268.18
636.999	11289.65
637.352	11334.62
637.706	11277.44
638.06	11344.56
638.413	11296.2
638.767	11252.59
639.121	11328.06
639.474	11213.49
639.828	11225.47
640.181	11234.05
640.534	11237.67
640.888	11214.39
641.241	11171.68
641.594	11212.59
641.947	11182.08
642.301	11226.82
642.654	11245.58
643.007	11220.5
643.36	11231.34
643.713	11184.34
644.066	11211.68
644.419	11171.46
644.771	11077
645.124	10992.71
645.477	11008.07
645.83	10914.97
646.182	10866.38
646.535	10799.94
646.888	10886.95
647.24	10803.11
647.593	10808.53
647.945	10804.46
648.298	10774.86
648.65	10830.9
649.002	10743.9
649.355	10813.73
649.707	10807.85
650.059	10892.14
650.411	10993.84
650.763	10992.48
651.115	11080.61
651.467	11069.99
651.819	11074.96
652.171	11049.2
652.523	11083.1
652.875	11005.81
653.227	10916.78
653.578	11126.94
653.93	11024.79
654.282	10924.91
654.633	10970.78
654.985	11012.82
655.337	11010.11
655.688	11021.18
656.039	10978.24
656.391	11040.61
656.742	11045.81
657.094	10954.97
657.445	11032.25
657.796	11060.73
658.147	11041.97
658.498	10988.19
658.849	10994.74
659.2	11000.84
659.551	10958.36
659.902	11025.7
660.253	10986.6
660.604	11054.85
660.955	10935.53
661.306	11022.76
661.656	10924.68
662.007	10967.17
662.358	11033.83
662.708	11000.39
663.059	11081.74
663.409	10860.28
663.76	11035.19
664.11	10990.45
664.461	11009.88
664.811	11047.85
665.161	10975.08
665.511	10931.01
665.862	11030.22
666.212	10979.6
666.562	11006.94
666.912	11040.84
667.262	10996.55
667.612	10910.9
667.962	10975.98
668.312	10984.57
668.662	11039.71
669.011	11029.99
669.361	10935.53
669.711	10961.75
670.06	10938.47
670.41	10891.92
670.76	10886.04
671.109	10966.72
671.459	10975.76
671.808	10819.38
672.157	10948.64
672.507	10873.16
672.856	10849.21
673.205	10891.92
673.554	10937.79
673.904	10895.31
674.253	10925.59
674.602	10817.34
674.951	10754.97
675.3	10706.16
675.649	10775.31
675.998	10864.8
676.346	10824.35
676.695	10885.14
677.044	10815.08
677.393	10811.02
677.741	10802.43
678.09	10787.51
678.438	10782.09
678.787	10795.2
679.135	10760.4
679.484	10631.58
679.832	10769.66
680.181	10717.23
680.529	10763.78
680.877	10682.2
681.225	10698.25
681.573	10741.64
681.922	10642.43
682.27	10604.92
682.618	10665.03
682.966	10668.19
683.314	10643.11
683.661	10617.35
684.009	10524.92
684.357	10539.16
684.705	10543.68
685.053	10456.67
685.4	10518.37
685.748	10427.07
686.095	10399.5
686.443	10399.95
686.79	10383.23
687.138	10385.94
687.485	10358.6
687.832	10372.16
688.18	10366.73
688.527	10307.53
688.874	10252.61
689.221	10206.06
689.568	10252.61
689.915	10250.58
690.262	10233.86
690.609	10207.87
690.956	10071.15
691.303	10151.15
691.65	10043.8
691.997	10085.84
692.344	10051.49
692.69	10056.46
693.037	10028.44
693.383	9877.48
693.73	9931.94
694.077	9929
694.423	9925.84
694.769	9872.96
695.116	9817.59
695.462	9817.14
695.808	9818.05
696.155	9791.15
696.501	9724.49
696.847	9787.77
697.193	9702.34
697.539	9698.28
697.885	9634.55
698.231	9602.23
698.577	9656.02
698.923	9557.04
699.269	9516.36
699.614	9478.17
699.96	9421.22
700.306	9454.89
700.651	9462.58
700.997	9363.6
701.342	9297.38
701.688	9301.68
702.033	9319.3
702.379	9317.27
702.724	9264.39
703.069	9258.97
703.415	9168.12
703.76	9197.05
704.105	9167.44
704.45	9218.51
704.795	9075.47
705.14	9136.71
705.485	9057.61
705.83	9015.36
706.175	9081.8
706.52	9011.74
706.865	9026.43
707.209	9029.37
707.554	8944.4
707.899	8898.98
708.243	8874.79
708.588	8929.03
708.932	8840.9
709.277	8867.34
709.621	8828.92
709.966	8768.81
710.31	8736.95
710.654	8708.02
710.998	8708.7
711.342	8795.93
711.687	8727.45
712.031	8596.38
712.375	8668.02
712.719	8705.99
713.063	8651.3
713.407	8649.49
713.75	8606.78
714.094	8636.61
714.438	8628.02
714.782	8592.09
715.125	8576.27
715.469	8552.32
715.812	8517.97
716.156	8521.58
716.499	8497.86
716.843	8499.66
717.186	8438.2
717.53	8550.74
717.873	8523.17
718.216	8482.04
718.559	8453.79
718.902	8433.68
719.246	8456.5
719.589	8452.66
719.932	8341.7
720.275	8372.21
720.617	8280.01
720.96	8401.81
721.303	8338.76
721.646	8389.38
721.989	8302.15
722.331	8364.53
722.674	8378.54
723.016	8289.95
723.359	8273
723.701	8315.04
724.044	8352.32
724.386	8282.72
724.729	8250.18
725.071	8259.44
725.413	8267.58
725.755	8275.71
726.097	8189.62
726.439	8187.58
726.782	8255.6
727.124	8221.7
727.465	8208.15
727.807	8222.16
728.149	8171.76
728.491	8207.92
728.833	8270.29
729.175	8206.56
729.516	8225.77
729.858	8174.02
730.199	8150.52
730.541	8193
730.882	8149.39
731.224	8191.88
731.565	8129.28
731.906	8159.33
732.248	8142.16
732.589	8148.49
732.93	8114.14
733.271	8109.62
733.612	8142.16
733.953	8141.48
734.294	8095.61
734.635	8081.82
734.976	8060.35
735.317	8086.34
735.658	8064.42
735.999	8078.88
736.339	8085.66
736.68	8089.5
737.021	8027.36
737.361	8034.82
737.702	8084.99
738.042	8058.09
738.383	8099.22
738.723	8082.05
739.063	8028.94
739.404	8012.67
739.744	8047.47
740.084	7993.91
740.424	8029.39
740.764	8023.97
741.104	8082.73
741.444	8008.83
741.784	8037.98
742.124	7992.11
742.464	8031.43
742.804	8027.81
743.143	8010.18
743.483	7984.65
743.823	7946.46
744.162	7963.63
744.502	8008.6
744.841	7977.19
745.181	8013.12
745.52	7967.47
745.86	8016.96
746.199	8002.95
746.538	7974.48
746.877	7961.37
747.216	7974.48
747.556	7935.16
747.895	7940.36
748.234	7920.92
748.573	7892.22
748.911	7898.55
749.25	7924.54
749.589	7912.56
749.928	7944.88
750.267	7912.56
750.605	7881.15
750.944	7801.38
751.283	7874.37
751.621	7849.51
751.96	7823.75
752.298	7844.99
752.636	7851.54
752.975	7836.86
753.313	7820.59
753.651	7822.62
753.989	7793.24
754.327	7834.6
754.666	7770.87
755.004	7773.58
755.342	7743.53
755.679	7771.55
756.017	7714.37
756.355	7707.37
756.693	7722.96
757.031	7741.94
757.368	7679.35
757.706	7695.62
758.044	7665.79
758.381	7663.98
758.719	7617.43
759.056	7619.91
759.394	7588.95
759.731	7497.43
760.068	7568.16
760.405	7496.07
760.743	7459.92
761.08	7488.84
761.417	7387.83
761.754	7449.97
762.091	7395.06
762.428	7405
762.765	7399.13
763.102	7423.08
763.438	7445.91
763.775	7354.16
764.112	7358.45
