Data from mousepad_grey_FLMS001491_00097.txt Node
Date: Wed Feb 08 14:30:13 GMT 2017
User: dcchb
Spectrometer: FLMS00149
Trigger mode: 0
Integration Time (sec): 2.000000E-2
Scans to average: 10
Electric dark correction enabled: true
Nonlinearity correction enabled: false
Boxcar width: 0
XAxis mode: Wavelengths
Number of Pixels in Spectrum: 2048
>>>>>Begin Spectral Data<<<<<
341.393	3.08
341.776	3.08
342.16	3.08
342.543	-48.22
342.927	-65.85
343.31	-72.63
343.693	-67.43
344.077	-71.27
344.46	-61.78
344.843	-46.19
345.226	-26.07
345.61	-39.63
345.993	-22.01
346.376	-12.74
346.759	28.39
347.142	31.78
347.525	38.11
347.908	70.87
348.291	72.68
348.674	74.49
349.057	103.42
349.44	116.97
349.823	137.99
350.206	154.71
350.588	181.61
350.971	193.58
351.354	215.28
351.737	213.02
352.119	212.57
352.502	243.98
352.884	266.12
353.267	264.32
353.65	300.92
354.032	323.97
354.414	292.56
354.797	292.11
355.179	289.4
355.562	314.03
355.944	311.09
356.326	315.39
356.709	285.78
357.091	303.41
357.473	337.53
357.855	323.07
358.238	344.54
358.62	307.93
359.002	309.96
359.384	312.22
359.766	317.2
360.148	351.32
360.53	323.07
360.912	336.4
361.294	312.9
361.676	317.42
362.057	329.4
362.439	306.8
362.821	298.44
363.203	301.15
363.584	320.13
363.966	305.67
364.348	291.88
364.729	305.67
365.111	285.78
365.493	298.66
365.874	309.51
366.256	305.67
366.637	306.35
367.019	307.93
367.4	293.24
367.781	276.74
368.163	285.78
368.544	304.31
368.925	286.46
369.306	317.87
369.688	290.08
370.069	297.99
370.45	292.56
370.831	297.53
371.212	299.12
371.593	291.21
371.974	290.76
372.355	271.55
372.736	295.73
373.117	303.18
373.498	300.02
373.879	300.92
374.26	303.41
374.641	276.07
375.021	306.35
375.402	289.4
375.783	318.32
376.163	319.68
376.544	295.5
376.925	310.19
377.305	298.44
377.686	321.26
378.066	302.96
378.447	322.84
378.827	310.42
379.208	315.16
379.588	313.35
379.968	299.12
380.349	319.91
380.729	312.22
381.109	321.26
381.489	329.62
381.87	344.31
382.25	341.38
382.63	323.3
383.01	319.45
383.39	332.56
383.77	332.56
384.15	326.46
384.53	315.16
384.91	326.91
385.29	316.29
385.67	340.25
386.049	328.49
386.429	313.13
386.809	329.4
387.189	333.01
387.568	341.15
387.948	331.21
388.328	345.22
388.707	341.38
389.087	358.1
389.466	336.18
389.846	342.28
390.225	337.53
390.605	318.78
390.984	335.27
391.363	339.34
391.743	340.47
392.122	353.13
392.501	355.39
392.881	346.8
393.26	378.89
393.639	357.65
394.018	361.71
394.397	363.07
394.776	350.19
395.155	371.88
395.534	345.22
395.913	358.32
396.292	373.69
396.671	359.68
397.05	375.72
397.429	374.82
397.808	397.19
398.186	375.95
398.565	379.34
398.944	379.79
399.323	381.15
399.701	371.88
400.08	378.21
400.458	380.7
400.837	368.04
401.215	398.55
401.594	394.93
401.972	402.62
402.351	371.43
402.729	390.87
403.107	406.91
403.486	396.97
403.864	380.24
404.242	395.84
404.62	406.68
404.999	424.76
405.377	397.87
405.755	414.14
406.133	422.5
406.511	419.11
406.889	397.64
407.267	405.55
407.645	427.25
408.023	409.17
408.401	423.63
408.779	457.3
409.156	447.14
409.534	438.77
409.912	457.08
410.29	476.06
410.667	447.36
411.045	457.76
411.422	444.42
411.8	471.09
412.178	443.52
412.555	448.94
412.933	447.59
413.31	459.34
413.687	474.71
414.065	462.95
414.442	483.07
414.819	468.6
415.197	502.73
415.574	489.17
415.951	488.04
416.328	510.86
416.705	495.72
417.082	493.24
417.46	480.35
417.837	523.07
418.214	518.55
418.591	505.21
418.967	507.02
419.344	513.57
419.721	532.78
420.098	509.96
420.475	532.1
420.852	533.23
421.228	512.44
421.605	516.51
421.982	545.89
422.358	530.07
422.735	549.73
423.111	535.72
423.488	540.92
423.864	566.91
424.241	555.38
424.617	569.39
424.994	571.43
425.37	568.26
425.746	566
426.123	595.83
426.499	597.41
426.875	606
427.251	574.14
427.627	594.25
428.003	620.46
428.379	599
428.756	605.55
429.132	632.22
429.507	613.46
429.883	609.39
430.259	615.94
430.635	629.5
431.011	637.41
431.387	647.81
431.763	654.81
432.138	643.06
432.514	680.8
432.89	688.26
433.265	675.6
433.641	682.61
434.016	667.24
434.392	682.38
434.767	683.06
435.143	702.04
435.518	696.85
435.894	720.35
436.269	733
436.644	740.69
437.02	742.49
437.395	745.66
437.77	727.58
438.145	735.04
438.52	748.82
438.895	742.27
439.271	767.8
439.646	768.48
440.021	790.4
440.395	751.31
440.77	771.42
441.145	794.47
441.52	805.77
441.895	793.57
442.27	786.56
442.645	822.04
443.019	825.2
443.394	822.49
443.769	801.7
444.143	830.85
444.518	841.25
444.892	849.61
445.267	820.23
445.641	865.88
446.016	843.73
446.39	834.02
446.764	867.69
447.139	872.89
447.513	891.87
447.887	857.97
448.262	844.41
448.636	882.38
449.01	909.95
449.384	888.48
449.758	909.04
450.132	886.67
450.506	895.48
450.88	903.39
451.254	916.5
451.628	927.57
452.002	952.66
452.376	970.96
452.75	951.98
453.123	965.31
453.497	966.44
453.871	964.64
454.244	987.46
454.618	980
454.992	1010.06
455.365	1015.26
455.739	1001.47
456.112	1036.95
456.486	1048.02
456.859	1027.23
457.232	1065.65
457.606	1063.62
457.979	1100.9
458.352	1081.69
458.725	1129.6
459.099	1091.19
459.472	1140.22
459.845	1136.61
460.218	1136.61
460.591	1146.33
460.964	1152.43
461.337	1183.61
461.71	1174.12
462.083	1207.57
462.456	1228.81
462.829	1231.07
463.201	1230.39
463.574	1226.78
463.947	1255.7
464.32	1286.89
464.692	1285.08
465.065	1279.43
465.438	1299.54
465.81	1340.22
466.183	1336.38
466.555	1357.39
466.928	1344.06
467.3	1359.65
467.672	1361.46
468.045	1419.31
468.417	1422.93
468.789	1409.37
469.161	1449.82
469.534	1459.31
469.906	1497.5
470.278	1481.91
470.65	1495.47
471.022	1535.69
471.394	1535.47
471.766	1544.96
472.138	1605.52
472.51	1616.14
472.882	1626.54
473.253	1643.04
473.625	1668.12
473.997	1696.14
474.369	1708.8
474.74	1724.62
475.112	1746.08
475.484	1786.76
475.855	1807.78
476.227	1804.84
476.598	1852.52
476.97	1896.36
477.341	1893.88
477.713	1933.2
478.084	1951.05
478.455	1972.74
478.827	2031.95
479.198	2052.52
479.569	2068.34
479.94	2128.45
480.311	2134.32
480.682	2169.58
481.053	2212.06
481.424	2242.57
481.795	2235.79
482.166	2313.07
482.537	2313.3
482.908	2341.55
483.279	2396.46
483.65	2410.47
484.021	2475.33
484.391	2488.44
484.762	2524.37
485.133	2509.23
485.503	2544.03
485.874	2609.34
486.244	2629.45
486.615	2704.25
486.985	2719.62
487.356	2738.15
487.726	2790.58
488.097	2796.45
488.467	2807.07
488.837	2883.91
489.207	2932.27
489.578	2931.59
489.948	2965.94
490.318	3007.52
490.688	3070.79
491.058	3052.49
491.428	3119.16
491.798	3147.86
492.168	3180.4
492.538	3208.64
492.908	3209.32
493.278	3292.03
493.648	3318.25
494.017	3325.48
494.387	3405.48
494.757	3375.42
495.126	3424.91
495.496	3421.07
495.866	3458.36
496.235	3499.48
496.605	3509.2
496.974	3522.31
497.344	3562.08
497.713	3567.05
498.082	3621.29
498.452	3643.89
498.821	3631.46
499.19	3698.12
499.559	3725.92
499.928	3710.78
500.298	3775.64
500.667	3814.96
501.036	3794.62
501.405	3818.12
501.774	3849.98
502.143	3848.85
502.512	3939.25
502.88	3894.28
503.249	3963.2
503.618	3934.95
503.987	3985.12
504.356	3998.45
504.724	4082.52
505.093	4056.08
505.462	4132.46
505.83	4076.19
506.199	4140.37
506.567	4216.3
506.936	4175.85
507.304	4215.85
507.672	4259.46
508.041	4274.83
508.409	4301.05
508.777	4307.15
509.145	4364.77
509.514	4429.18
509.882	4400.93
510.25	4413.81
510.618	4466.24
510.986	4442.74
511.354	4496.97
511.722	4564.99
512.09	4567.48
512.458	4591.88
512.826	4644.54
513.193	4661.94
513.561	4669.85
513.929	4734.71
514.297	4747.59
514.664	4766.57
515.032	4762.5
515.4	4829.62
515.767	4854.25
516.135	4868.94
516.502	4855.61
516.869	4926.57
517.237	4968.37
517.604	4984.87
517.972	4975.38
518.339	5063.06
518.706	5030.74
519.073	5102.83
519.44	5133.79
519.808	5215.37
520.175	5220.57
520.542	5261.7
520.909	5293.34
521.276	5281.13
521.643	5333.33
522.009	5407
522.376	5422.82
522.743	5502.6
523.11	5526.78
523.477	5545.31
523.843	5630.05
524.21	5591.86
524.577	5682.25
524.943	5693.32
525.31	5710.95
525.676	5797.73
526.043	5867.78
526.409	5830.95
526.776	5918.18
527.142	5935.58
527.508	5952.53
527.874	5971.06
528.241	6011.28
528.607	6029.59
528.973	6095.35
529.339	6120.88
529.705	6169.92
530.071	6230.94
530.437	6215.12
530.803	6278.85
531.169	6296.7
531.535	6347.32
531.901	6367.21
532.267	6389.35
532.632	6449.46
532.998	6481.55
533.364	6467.77
533.73	6500.31
534.095	6583.7
534.461	6587.54
534.826	6610.59
535.192	6642.45
535.557	6660.98
535.923	6710.7
536.288	6759.29
536.653	6733.07
537.019	6716.57
537.384	6783.69
537.749	6864.14
538.114	6853.97
538.479	6832.5
538.845	6927.64
539.21	6901.2
539.575	6993.4
539.94	7011.48
540.305	7029.79
540.67	7028.43
541.034	7087.64
541.399	7060.29
541.764	7201.76
542.129	7187.52
542.494	7145.94
542.858	7186.17
543.223	7200.18
543.587	7245.15
543.952	7326.5
544.316	7321.53
544.681	7348.65
545.045	7446.05
545.41	7447.86
545.774	7420.29
546.138	7518.36
546.503	7477.68
546.867	7518.14
547.231	7548.87
547.595	7583.9
547.959	7593.16
548.324	7641.07
548.688	7662.76
549.052	7750.9
549.416	7822.31
549.779	7774.85
550.143	7790.9
550.507	7832.7
550.871	7908.63
551.235	7872.7
551.599	8002.64
551.962	7940.72
552.326	8028.86
552.689	8033.6
553.053	7961.06
553.417	8032.92
553.78	8136.42
554.143	8145.24
554.507	8171.9
554.87	8205.12
555.234	8240.83
555.597	8295.29
555.96	8251.9
556.323	8308.85
556.686	8337.55
557.05	8413.25
557.413	8410.09
557.776	8415.06
558.139	8455.96
558.502	8564.21
558.865	8590.42
559.228	8646.92
559.59	8607.15
559.953	8615.28
560.316	8775.05
560.679	8730.76
561.041	8724.21
561.404	8829.97
561.767	8825.22
562.129	8891.21
562.492	8990.64
562.854	8932.11
563.217	9010.98
563.579	9018.44
563.941	9059.79
564.304	9111.77
564.666	9160.58
565.028	9162.61
565.39	9172.56
565.753	9217.53
566.115	9310.63
566.477	9358.31
566.839	9364.64
567.201	9478.31
567.563	9434.7
567.925	9493
568.287	9483.28
568.648	9542.04
569.01	9607.8
569.372	9622.94
569.734	9560.79
570.095	9698.87
570.457	9831.75
570.819	9763.95
571.18	9822.48
571.542	9695.71
571.903	9799.21
572.265	9863.16
572.626	9927.11
572.987	9878.3
573.349	9938.41
573.71	9997.84
574.071	10017.96
574.432	10063.83
574.794	10159.42
575.155	10171.4
575.516	10064.28
575.877	10205.3
576.238	10245.07
576.599	10218.63
576.96	10241.91
577.32	10238.29
577.681	10243.49
578.042	10383.6
578.403	10311.96
578.763	10296.37
579.124	10378.17
579.485	10368
579.845	10437.61
580.206	10379.76
580.566	10463.37
580.927	10445.74
581.287	10408
581.648	10489.36
582.008	10449.36
582.368	10436.03
582.728	10472.63
583.089	10518.73
583.449	10520.77
583.809	10511.05
584.169	10567.77
584.529	10568.45
584.889	10646.87
585.249	10533.42
585.609	10526.19
585.969	10642.12
586.329	10548.34
586.688	10502.69
587.048	10553.76
587.408	10592.18
587.768	10594.21
588.127	10556.7
588.487	10550.15
588.846	10639.64
589.206	10587.89
589.565	10598.73
589.925	10712.4
590.284	10636.47
590.643	10659.97
591.003	10662.46
591.362	10667.88
591.721	10666.75
592.08	10580.2
592.44	10663.82
592.799	10694.1
593.158	10731.38
593.517	10732.06
593.876	10665.17
594.235	10650.48
594.593	10653.65
594.952	10693.65
595.311	10709.24
595.67	10714.89
596.029	10771.84
596.387	10759.41
596.746	10734.77
597.104	10783.36
597.463	10697.71
597.822	10834.88
598.18	10735.23
598.538	10710.82
598.897	10773.19
599.255	10730.25
599.613	10890.02
599.972	10775.68
600.33	10830.82
600.688	10826.52
601.046	10830.59
601.404	10858.39
601.762	10879.18
602.12	10911.27
602.478	10883.47
602.836	10871.49
603.194	10883.24
603.552	10850.48
603.91	10840.31
604.268	10896.8
604.625	10861.1
604.983	10926.41
605.341	10863.58
605.698	10975.22
606.056	10955.33
606.413	10944.26
606.771	11011.83
607.128	10948.33
607.485	10887.09
607.843	10883.92
608.2	11041.21
608.557	11025.39
608.914	11069.68
609.272	11046.86
609.629	11007.76
609.986	11169.57
610.343	11046.18
610.7	11132.28
611.057	11127.31
611.414	11146.74
611.771	11089.79
612.127	11156.23
612.484	11226.96
612.841	11264.48
613.198	11132.05
613.554	11191.71
613.911	11199.62
614.267	11233.74
614.624	11201.88
614.98	11238.72
615.337	11316.45
615.693	11347.41
616.05	11262.22
616.406	11356.9
616.762	11274.2
617.118	11316
617.475	11312.61
617.831	11353.29
618.187	11328.66
618.543	11328.66
618.899	11447.52
619.255	11363.01
619.611	11434.19
619.967	11487.97
620.323	11430.8
620.678	11334.53
621.034	11396.9
621.39	11392.16
621.746	11371.59
622.101	11495.21
622.457	11428.99
622.812	11388.77
623.168	11458.6
623.523	11468.09
623.879	11454.98
624.234	11394.64
624.589	11431.03
624.945	11480.29
625.3	11548.09
625.655	11406.17
626.01	11442.78
626.365	11522.55
626.72	11483.68
627.075	11541.31
627.43	11487.75
627.785	11401.42
628.14	11438.26
628.495	11455.66
628.85	11397.81
629.205	11451.14
629.559	11510.57
629.914	11485.04
630.269	11479.16
630.623	11434.64
630.978	11488.43
631.332	11463.34
631.687	11450.69
632.041	11402.78
632.396	11537.24
632.75	11364.14
633.104	11386.96
633.459	11336.57
633.813	11453.17
634.167	11416.79
634.521	11410.91
634.875	11415.66
635.229	11351.48
635.583	11319.84
635.937	11282.33
636.291	11315.78
636.645	11348.32
636.999	11240.52
637.352	11326.85
637.706	11248.89
638.06	11327.98
638.413	11301.76
638.767	11241.88
639.121	11260.64
639.474	11205.27
639.828	11282.1
640.181	11236.46
640.534	11211.15
640.888	11171.6
641.241	11145.38
641.594	11214.08
641.947	11251.6
642.301	11181.77
642.654	11230.81
643.007	11245.95
643.36	11220.19
643.713	11161.2
644.066	11254.31
644.419	11179.28
644.771	11070.13
645.124	10926.86
645.477	10947.88
645.83	10888.89
646.182	10848.67
646.535	10865.84
646.888	10909.46
647.24	10756.02
647.593	10876.01
647.945	10836.92
648.298	10781.55
648.65	10795.79
649.002	10754.66
649.355	10807.99
649.707	10823.13
650.059	10948.1
650.411	10996.69
650.763	10948.55
651.115	11088.89
651.467	11095.22
651.819	11052.05
652.171	11070.58
652.523	11075.56
652.875	10995.11
653.227	10963.24
653.578	11055.9
653.93	11133.63
654.282	11022.22
654.633	11013.18
654.985	11033.3
655.337	11046.18
655.688	11039.4
656.039	10958.5
656.391	10892.96
656.742	10959.63
657.094	11015.9
657.445	11033.98
657.796	10997.14
658.147	10999.17
658.498	10950.36
658.849	11005.05
659.2	10981.32
659.551	10914.43
659.902	10979.29
660.253	10998.27
660.604	11032.39
660.955	10920.08
661.306	10947.65
661.656	10965.73
662.007	10972.06
662.358	10950.81
662.708	11001.21
663.059	10949.23
663.409	10896.8
663.76	11019.51
664.11	10939.29
664.461	11033.52
664.811	11050.92
665.161	10927.99
665.511	10933.41
665.862	11007.08
666.212	10973.19
666.562	11060.64
666.912	10938.16
667.262	10992.85
667.612	10969.12
667.962	10975.67
668.312	10833.08
668.662	11008.44
669.011	10965.95
669.361	10950.81
669.711	10938.38
670.06	10960.98
670.41	10990.59
670.76	10904.71
671.109	10957.14
671.459	10945.39
671.808	10891.38
672.157	10905.17
672.507	10900.19
672.856	10931.61
673.205	10908.78
673.554	10940.64
673.904	10826.75
674.253	10963.02
674.602	10908.78
674.951	10696.81
675.3	10676.02
675.649	10900.42
675.998	10809.35
676.346	10891.38
676.695	10897.93
677.044	10749.24
677.393	10794.21
677.741	10829.91
678.09	10748.11
678.438	10766.41
678.787	10794.43
679.135	10784.26
679.484	10722.57
679.832	10745.4
680.181	10738.16
680.529	10732.74
680.877	10689.8
681.225	10702.68
681.573	10754.43
681.922	10675.79
682.27	10643.48
682.618	10696.81
682.966	10584.04
683.314	10661.56
683.661	10600.77
684.009	10549.02
684.357	10503.37
684.705	10586.76
685.053	10531.62
685.4	10515.12
685.748	10525.06
686.095	10444.61
686.443	10448.23
686.79	10336.82
687.138	10409.59
687.485	10379.98
687.832	10383.82
688.18	10414.33
688.527	10252.3
688.874	10277.84
689.221	10324.16
689.568	10186.77
689.915	10238.74
690.262	10240.78
690.609	10198.07
690.956	10145.19
691.303	10108.8
691.65	10104.73
691.997	10018.18
692.344	10007.34
692.69	10009.37
693.037	10029.48
693.383	9968.69
693.73	9908.58
694.077	9935.02
694.423	9916.72
694.769	9874.23
695.116	9890.73
695.462	9823.39
695.808	9784.74
696.155	9857.51
696.501	9778.42
696.847	9802.82
697.193	9676.95
697.539	9727.8
697.885	9635.59
698.231	9582.94
698.577	9594.24
698.923	9585.2
699.269	9512.21
699.614	9469.5
699.96	9464.3
700.306	9497.52
700.651	9420.68
700.997	9396.05
701.342	9365.09
701.688	9297.3
702.033	9285.09
702.379	9311.76
702.724	9305.89
703.069	9314.25
703.415	9136.85
703.76	9175.95
704.105	9165.1
704.45	9168.94
704.795	9125.33
705.14	9069.51
705.485	9085.33
705.83	8995.38
706.175	9026.34
706.52	8966.69
706.865	8996.51
707.209	8988.61
707.554	8931.43
707.899	8963.07
708.243	8909.51
708.588	8930.3
708.932	8811.89
709.277	8819.12
709.621	8850.08
709.966	8756.3
710.31	8876.52
710.654	8695.51
710.998	8747.26
711.342	8782.74
711.687	8791.55
712.031	8720.59
712.375	8688.5
712.719	8613.25
713.063	8622.06
713.407	8646.24
713.75	8619.58
714.094	8610.08
714.438	8614.15
714.782	8645.79
715.125	8562.85
715.469	8515.4
715.812	8549.29
716.156	8532.35
716.499	8549.97
716.843	8534.83
717.186	8464.55
717.53	8499.58
717.873	8501.39
718.216	8490.99
718.559	8426.36
718.902	8425.23
719.246	8451.44
719.589	8409.19
719.932	8409.86
720.275	8387.27
720.617	8396.98
720.96	8347.94
721.303	8393.82
721.646	8415.29
721.989	8342.75
722.331	8389.75
722.674	8291
723.016	8329.87
723.359	8406.25
723.701	8323.99
724.044	8241.28
724.386	8295.74
724.729	8271.34
725.071	8253.03
725.413	8303.43
725.755	8307.27
726.097	8261.39
726.439	8239.92
726.782	8196.99
727.124	8176.88
727.465	8180.94
727.807	8192.69
728.149	8206.71
728.491	8195.41
728.833	8239.92
729.175	8166.71
729.516	8206.93
729.858	8157.89
730.199	8171.45
730.541	8178.01
730.882	8141.85
731.224	8191.34
731.565	8185.46
731.906	8158.57
732.248	8239.92
732.589	8150.66
732.93	8067.05
733.271	8126.93
733.612	8156.76
733.953	8121.96
734.294	8095.97
734.635	8100.95
734.976	8105.69
735.317	8107.95
735.658	8099.14
735.999	8128.52
736.339	8109.76
736.68	8149.53
737.021	8115.18
737.361	8038.8
737.702	8117.89
738.042	8094.17
738.383	8035.18
738.723	8055.75
739.063	8049.65
739.404	8095.52
739.744	8047.84
740.084	8022.3
740.424	8055.07
740.764	8058.46
741.104	8062.75
741.444	7970.1
741.784	7991.8
742.124	8016.2
742.464	7997.9
742.804	7982.76
743.143	8010.55
743.483	8027.95
743.823	7986.15
744.162	7935.3
744.502	8033.38
744.841	7940.5
745.181	8059.82
745.52	7998.57
745.86	8015.07
746.199	7905.92
746.538	7940.27
746.877	7957.45
747.216	8036.54
747.556	7928.52
747.895	8042.42
748.234	7955.19
748.573	7980.04
748.911	7950.44
749.25	7909.09
749.589	7866.83
749.928	7911.8
750.267	7939.59
750.605	7933.94
750.944	7874.74
751.283	7831.8
751.621	7905.02
751.96	7883.55
752.298	7851.01
752.636	7877.9
752.975	7823.89
753.313	7827.96
753.651	7796.09
753.989	7813.04
754.327	7803.78
754.666	7727.62
755.004	7754.29
755.342	7783.21
755.679	7791.8
756.017	7755.19
756.355	7774.4
756.693	7670.22
757.031	7660.96
757.368	7701.18
757.706	7634.29
758.044	7632.03
758.381	7632.26
758.719	7598.59
759.056	7601.52
759.394	7619.83
759.731	7484.69
760.068	7571.69
760.405	7534.63
760.743	7467.74
761.08	7521.53
761.417	7476.78
761.754	7485.14
762.091	7421.42
762.428	7471.81
762.765	7383.9
763.102	7437.01
763.438	7394.98
763.775	7332.83
764.112	7346.61
