Data from mousepad_grey_FLMS001491_00072.txt Node
Date: Wed Feb 08 14:29:54 GMT 2017
User: dcchb
Spectrometer: FLMS00149
Trigger mode: 0
Integration Time (sec): 2.000000E-2
Scans to average: 10
Electric dark correction enabled: true
Nonlinearity correction enabled: false
Boxcar width: 0
XAxis mode: Wavelengths
Number of Pixels in Spectrum: 2048
>>>>>Begin Spectral Data<<<<<
341.393	-4.65
341.776	-4.65
342.16	-4.65
342.543	-54.36
342.927	-63.85
343.31	-67.7
343.693	-79.9
344.077	-82.84
344.46	-63.4
344.843	-66.11
345.226	-23.63
345.61	-19.79
345.993	-8.49
346.376	-2.16
346.759	-11.88
347.142	33.32
347.525	43.94
347.908	66.31
348.291	71.96
348.674	108.34
349.057	102.02
349.44	131.62
349.823	129.59
350.206	146.54
350.588	177.27
350.971	180.89
351.354	229.92
351.737	220.88
352.119	246.65
352.502	248.23
352.884	243.93
353.267	248
353.65	260.88
354.032	274.22
354.414	276.93
354.797	275.12
355.179	285.52
355.562	303.14
355.944	307.44
356.326	321.9
356.709	324.38
357.091	313.54
357.473	338.17
357.855	309.24
358.238	308.79
358.62	313.54
359.002	351.28
359.384	324.84
359.766	328
360.148	341.11
360.53	305.85
360.912	310.37
361.294	309.7
361.676	325.97
362.057	319.19
362.439	294.33
362.821	298.85
363.203	312.63
363.584	323.25
363.966	306.53
364.348	301.33
364.729	314.44
365.111	321.45
365.493	316.7
365.874	299.75
366.256	297.72
366.637	293.65
367.019	284.16
367.4	310.15
367.781	308.57
368.163	287.1
368.544	299.98
368.925	278.06
369.306	292.07
369.688	270.6
370.069	296.36
370.45	286.42
370.831	287.55
371.212	292.97
371.593	276.48
371.974	311.05
372.355	295.23
372.736	313.31
373.117	304.5
373.498	283.03
373.879	287.1
374.26	294.1
374.641	293.2
375.021	296.59
375.402	271.05
375.783	316.7
376.163	313.76
376.544	315.8
376.925	317.15
377.305	290.03
377.686	305.18
378.066	289.36
378.447	313.54
378.827	284.16
379.208	312.63
379.588	309.92
379.968	309.7
380.349	312.86
380.729	321.45
381.109	318.96
381.489	311.73
381.87	328.23
382.25	316.02
382.63	322.8
383.01	307.21
383.39	311.05
383.77	310.6
384.15	312.86
384.53	334.1
384.91	329.58
385.29	333.65
385.67	324.84
386.049	324.84
386.429	322.12
386.809	324.61
387.189	328
387.568	335.23
387.948	329.13
388.328	348.79
388.707	332.97
389.087	360.99
389.466	323.03
389.846	345.17
390.225	350.37
390.605	337.94
390.984	368.22
391.363	337.04
391.743	348.11
392.122	359.41
392.501	344.27
392.881	359.86
393.26	342.69
393.639	364.84
394.018	363.71
394.397	360.99
394.776	350.15
395.155	367.32
395.534	372.97
395.913	366.64
396.292	375.68
396.671	366.19
397.05	390.6
397.429	373.2
397.808	348.11
398.186	393.76
398.565	372.74
398.944	388.79
399.323	368
399.701	379.98
400.08	375.46
400.458	387.21
400.837	397.38
401.215	369.81
401.594	398.73
401.972	389.92
402.351	402.12
402.729	381.78
403.107	413.42
403.486	405.96
403.864	402.12
404.242	401.22
404.62	393.99
404.999	413.65
405.377	407.77
405.755	400.31
406.133	401.9
406.511	421.78
406.889	438.51
407.267	419.52
407.645	432.18
408.023	429.47
408.401	430.6
408.779	421.56
409.156	415.23
409.534	450.48
409.912	452.29
410.29	435.12
410.667	463.59
411.045	448.67
411.422	467.88
411.8	478.96
412.178	480.99
412.555	472.85
412.933	476.7
413.31	482.57
413.687	461.78
414.065	471.05
414.442	480.99
414.819	496.81
415.197	501.55
415.574	478.28
415.951	496.81
416.328	500.42
416.705	498.84
417.082	504.27
417.46	528.67
417.837	500.42
418.214	524.38
418.591	535.23
418.967	514.89
419.344	532.51
419.721	536.81
420.098	513.08
420.475	527.77
420.852	524.38
421.228	524.38
421.605	542.68
421.982	541.78
422.358	535
422.735	542.68
423.111	553.53
423.488	548.56
423.864	570.03
424.241	553.3
424.617	580.65
424.994	563.02
425.37	584.72
425.746	581.55
426.123	564.38
426.499	577.94
426.875	586.98
427.251	582.23
427.627	604.38
428.003	612.74
428.379	590.82
428.756	628.1
429.132	611.83
429.507	640.53
429.883	629.23
430.259	629.91
430.635	676.92
431.011	675.34
431.387	653.19
431.763	669.91
432.138	669.23
432.514	678.73
432.89	677.14
433.265	695.45
433.641	697.71
434.016	711.94
434.392	709.23
434.767	723.24
435.143	722.79
435.518	710.36
435.894	718.05
436.269	731.38
436.644	733.19
437.02	756.01
437.395	732.28
437.77	744.94
438.145	783.58
438.52	782.9
438.895	765.05
439.271	777.03
439.646	789
440.021	767.31
440.395	800.3
440.77	781.32
441.145	815.44
441.52	808.21
441.895	819.06
442.27	793.3
442.645	825.16
443.019	799.4
443.394	840.75
443.769	863.13
444.143	844.14
444.518	849.79
444.892	828.33
445.267	834.43
445.641	850.7
446.016	860.19
446.39	859.74
446.764	864.71
447.139	833.3
447.513	867.65
447.887	844.6
448.262	905.39
448.636	900.19
449.01	903.58
449.384	900.19
449.758	934.54
450.132	900.64
450.506	931.6
450.88	927.31
451.254	925.95
451.628	950.58
452.002	951.49
452.376	943.8
452.75	972.28
453.123	972.28
453.497	968.43
453.871	990.36
454.244	1004.14
454.618	978.6
454.992	1016.57
455.365	1009.11
455.739	1049.34
456.112	1038.49
456.486	1041.65
456.859	1067.64
457.232	1059.73
457.606	1083.69
457.979	1093.4
458.352	1102.67
458.725	1101.31
459.099	1115.1
459.472	1116
459.845	1141.76
460.218	1161.88
460.591	1137.02
460.964	1124.14
461.337	1180.18
461.71	1203.46
462.083	1228.09
462.456	1217.47
462.829	1222.44
463.201	1234.42
463.574	1231.7
463.947	1271.25
464.32	1264.92
464.692	1307.64
465.065	1303.79
465.438	1332.95
465.81	1374.07
466.183	1330.69
466.555	1388.08
466.928	1350.12
467.3	1355.09
467.672	1405.49
468.045	1443.9
468.417	1423.11
468.789	1455.2
469.161	1414.75
469.534	1460.17
469.906	1501.08
470.278	1498.82
470.65	1484.13
471.022	1538.59
471.394	1598.25
471.766	1575.42
472.138	1601.86
472.51	1641.41
472.882	1644.35
473.253	1662.88
473.625	1643.22
473.997	1673.73
474.369	1698.81
474.74	1707.62
475.112	1780.39
475.484	1750.56
475.855	1782.42
476.227	1829.43
476.598	1883.21
476.97	1863.55
477.341	1893.61
477.713	1938.13
478.084	1938.35
478.455	1975.64
478.827	2023.55
479.198	2037.11
479.569	2032.59
479.94	2104.45
480.311	2124.79
480.682	2129.99
481.053	2179.25
481.424	2211.11
481.795	2279.36
482.166	2287.04
482.537	2320.72
482.908	2359.13
483.279	2369.3
483.65	2385.35
484.021	2430.09
484.391	2463.99
484.762	2478.45
485.133	2511.9
485.503	2555.96
485.874	2595.96
486.244	2596.87
486.615	2673.25
486.985	2709.63
487.356	2727.48
487.726	2760.25
488.097	2801.38
488.467	2815.39
488.837	2849.06
489.207	2893.81
489.578	2931.1
489.948	2962.51
490.318	2997.76
490.688	3009.96
491.058	3049.28
491.428	3048.15
491.798	3120.47
492.168	3156.17
492.538	3155.04
492.908	3199.56
493.278	3231.65
493.648	3243.63
494.017	3298.09
494.387	3293.57
494.757	3321.37
495.126	3384.19
495.496	3338.32
495.866	3373.8
496.235	3444.53
496.605	3483.17
496.974	3472.32
497.344	3491.31
497.713	3553
498.082	3538.54
498.452	3558.88
498.821	3619.21
499.19	3622.6
499.559	3675.26
499.928	3640.46
500.298	3734.92
500.667	3724.07
501.036	3721.58
501.405	3790.73
501.774	3781.24
502.143	3780.79
502.512	3829.6
502.88	3905.53
503.249	3867.79
503.618	3910.05
503.987	3935.36
504.356	3915.7
504.724	3923.84
505.093	3999.54
505.462	4022.82
505.83	4025.98
506.199	4040.44
506.567	4087
506.936	4072.53
507.304	4165.41
507.672	4171.51
508.041	4203.38
508.409	4245.64
508.777	4214.68
509.145	4251.06
509.514	4300.32
509.882	4348.69
510.25	4328.57
510.618	4398.18
510.986	4409.47
511.354	4436.37
511.722	4477.72
512.09	4468.68
512.458	4482.69
512.826	4498.29
513.193	4578.96
513.561	4582.58
513.929	4593.42
514.297	4612.18
514.664	4714.55
515.032	4664.38
515.4	4694.89
515.767	4724.49
516.135	4732.86
516.502	4758.62
516.869	4802.46
517.237	4870.71
517.604	4868.67
517.972	4915
518.339	4929.46
518.706	4944.38
519.073	4962
519.44	5026.63
519.808	5061.66
520.175	5025.5
520.542	5102.56
520.909	5163.58
521.276	5151.15
521.643	5161.55
522.009	5201.54
522.376	5229.11
522.743	5318.38
523.11	5321.09
523.477	5386.17
523.843	5398.38
524.21	5467.3
524.577	5536.22
524.943	5513.4
525.31	5539.84
525.676	5589.78
526.043	5580.52
526.409	5629.33
526.776	5712.72
527.142	5710.23
527.508	5771.25
527.874	5782.77
528.241	5837.91
528.607	5832.26
528.973	5916.1
529.339	5944.8
529.705	6011.01
530.071	6023.44
530.437	6011.92
530.803	6101.63
531.169	6117.68
531.535	6083.78
531.901	6194.29
532.267	6196.77
532.632	6217.79
532.998	6254.17
533.364	6295.75
533.73	6300.27
534.095	6344.11
534.461	6344.79
534.826	6415.75
535.192	6434.73
535.557	6482.64
535.923	6443.77
536.288	6524.45
536.653	6553.6
537.019	6551.34
537.384	6564.67
537.749	6601.28
538.114	6629.3
538.479	6647.38
538.845	6679.02
539.21	6676.31
539.575	6735.74
539.94	6789.07
540.305	6799.47
540.67	6828.17
541.034	6843.53
541.399	6908.84
541.764	6927.6
542.129	6886.7
542.494	6947.03
542.858	6925.34
543.223	6965.11
543.587	7025
543.952	7063.42
544.316	7076.75
544.681	7095.05
545.045	7144.77
545.41	7099.12
545.774	7157.2
546.138	7197.42
546.503	7256.41
546.867	7281.72
547.231	7363.52
547.595	7350.19
547.959	7373.24
548.324	7374.14
548.688	7422.5
549.052	7425.21
549.416	7459.34
549.779	7469.28
550.143	7484.87
550.507	7530.52
550.871	7542.95
551.235	7572.1
551.599	7681.48
551.962	7640.35
552.326	7680.8
552.689	7688.94
553.053	7727.35
553.417	7765.54
553.78	7914.24
554.143	7842.38
554.507	7834.92
554.87	7925.54
555.234	7969.38
555.597	7912.43
555.96	7948.14
556.323	7981.58
556.686	8053.67
557.05	8143.16
557.413	8140.68
557.776	8122.6
558.139	8182.48
558.502	8212.09
558.865	8229.49
559.228	8260.22
559.59	8237.17
559.953	8259.09
560.316	8390.61
560.679	8416.37
561.041	8426.32
561.404	8510.38
561.767	8530.72
562.129	8497.73
562.492	8604.39
562.854	8624.05
563.217	8643.49
563.579	8636.48
563.941	8750.6
564.304	8745.18
564.666	8833.99
565.028	8768.91
565.39	8865.85
565.753	8851.62
566.115	8931.84
566.477	8987.43
566.839	9024.27
567.201	9098.62
567.563	9104.72
567.925	9126.86
568.287	9145.4
568.648	9116.47
569.01	9152.4
569.372	9221.1
569.734	9286.18
570.095	9341.32
570.457	9335.45
570.819	9320.76
571.18	9326.18
571.542	9442.11
571.903	9433.07
572.265	9448.44
572.626	9465.61
572.987	9503.35
573.349	9543.35
573.71	9672.61
574.071	9576.57
574.432	9595.33
574.794	9714.65
575.155	9713.74
575.516	9671.93
575.877	9739.5
576.238	9772.72
576.599	9786.96
576.96	9809.78
577.32	9787.64
577.681	9826.96
578.042	9866.05
578.403	9792.84
578.763	9853.17
579.124	9896.11
579.485	9956
579.845	9941.76
580.206	9925.49
580.566	9894.08
580.927	9997.8
581.287	10016.11
581.648	9973.17
582.008	10008.42
582.368	10033.73
582.728	10030.57
583.089	10008.2
583.449	10062.43
583.809	10030.12
584.169	10058.82
584.529	10065.6
584.889	10109.89
585.249	10059.95
585.609	10007.75
585.969	10118.93
586.329	10033.51
586.688	10124.58
587.048	10124.8
587.408	10041.87
587.768	10197.8
588.127	10070.79
588.487	10046.84
588.846	10134.97
589.206	10134.3
589.565	10145.37
589.925	10236.44
590.284	10110.12
590.643	10164.8
591.003	10187.18
591.362	10165.03
591.721	10100.17
592.08	10195.54
592.44	10176.1
592.799	10154.18
593.158	10123
593.517	10157.57
593.876	10123.67
594.235	10175.88
594.593	10154.63
594.952	10194.63
595.311	10121.64
595.67	10257
596.029	10263.56
596.387	10214.07
596.746	10300.39
597.104	10207.97
597.463	10171.58
597.822	10264.01
598.18	10279.38
598.538	10167.06
598.897	10328.87
599.255	10211.58
599.613	10378.58
599.972	10254.97
600.33	10353.05
600.688	10262.65
601.046	10316.89
601.404	10348.3
601.762	10317.34
602.12	10382.2
602.478	10366.61
602.836	10362.31
603.194	10280.51
603.552	10323.67
603.91	10319.15
604.268	10367.51
604.625	10326.61
604.983	10338.81
605.341	10283.67
605.698	10324.57
606.056	10394.4
606.413	10418.81
606.771	10401.86
607.128	10423.33
607.485	10349.21
607.843	10369.32
608.2	10376.78
608.557	10477.34
608.914	10408.41
609.272	10509.88
609.629	10493.38
609.986	10526.6
610.343	10419.94
610.7	10518.92
611.057	10500.61
611.414	10478.92
611.771	10545.13
612.127	10538.8
612.484	10573.61
612.841	10575.41
613.198	10495.87
613.554	10522.99
613.911	10602.31
614.267	10604.11
614.624	10617.22
614.98	10656.09
615.337	10634.4
615.693	10649.76
616.05	10616.77
616.406	10716.43
616.762	10607.96
617.118	10667.16
617.475	10676.2
617.831	10714.62
618.187	10727.05
618.543	10725.01
618.899	10781.51
619.255	10753.49
619.611	10783.54
619.967	10725.92
620.323	10806.37
620.678	10746.93
621.034	10768.18
621.39	10687.73
621.746	10696.09
622.101	10742.64
622.457	10702.87
622.812	10803.88
623.168	10751
623.523	10798.46
623.879	10802.98
624.234	10809.98
624.589	10786.03
624.945	10843.88
625.3	10824.22
625.655	10789.87
626.01	10825.8
626.365	10770.44
626.72	10797.1
627.075	10800.04
627.43	10795.52
627.785	10744.68
628.14	10805.69
628.495	10873.03
628.85	10756.2
629.205	10813.15
629.559	10852.92
629.914	10789.65
630.269	10823.54
630.623	10758.01
630.978	10825.35
631.332	10781.51
631.687	10853.6
632.041	10729.08
632.396	10792.81
632.75	10696.99
633.104	10770.21
633.459	10735.86
633.813	10694.51
634.167	10688.18
634.521	10747.84
634.875	10722.08
635.229	10682.53
635.583	10655.19
635.937	10723.66
636.291	10626.94
636.645	10609.31
636.999	10592.14
637.352	10617.9
637.706	10567.96
638.06	10622.19
638.413	10550.78
638.767	10544.45
639.121	10565.7
639.474	10531.12
639.828	10480.28
640.181	10549.88
640.534	10538.35
640.888	10457.68
641.241	10459.94
641.594	10532.93
641.947	10527.05
642.301	10508.52
642.654	10516.43
643.007	10563.66
643.36	10535.42
643.713	10528.86
644.066	10511.46
644.419	10438.47
644.771	10341.97
645.124	10286.83
645.477	10292.94
645.83	10202.09
646.182	10215.2
646.535	10183.33
646.888	10166.61
647.24	10099.95
647.593	10261.98
647.945	10130.91
648.298	10154.41
648.65	10142.21
649.002	10068.08
649.355	10132.26
649.707	10159.15
650.059	10275.76
650.411	10265.37
650.763	10328.87
651.115	10452.03
651.467	10352.14
651.819	10359.37
652.171	10374.74
652.523	10382.88
652.875	10369.54
653.227	10267.4
653.578	10314.63
653.93	10372.48
654.282	10309.21
654.633	10302.88
654.985	10353.72
655.337	10313.95
655.688	10306.72
656.039	10376.1
656.391	10285.93
656.742	10365.93
657.094	10291.81
657.445	10371.58
657.796	10398.7
658.147	10372.03
658.498	10389.2
658.849	10355.53
659.2	10276.44
659.551	10266.27
659.902	10262.88
660.253	10288.64
660.604	10326.38
660.955	10310.56
661.306	10354.18
661.656	10317.79
662.007	10253.61
662.358	10292.71
662.708	10316.44
663.059	10315.99
663.409	10264.01
663.76	10319.6
664.11	10300.84
664.461	10346.04
664.811	10288.42
665.161	10265.82
665.511	10283.9
665.862	10300.17
666.212	10341.97
666.562	10322.77
666.912	10334.97
667.262	10282.77
667.612	10306.27
667.962	10332.93
668.312	10243.9
668.662	10317.79
669.011	10286.83
669.361	10341.52
669.711	10280.96
670.06	10261.07
670.41	10247.51
670.76	10237.12
671.109	10264.91
671.459	10224.46
671.808	10240.96
672.157	10215.2
672.507	10193.73
672.856	10215.2
673.205	10205.71
673.554	10235.76
673.904	10265.82
674.253	10227.63
674.602	10261.98
674.951	9987.18
675.3	9999.61
675.649	10082.77
675.998	10129.55
676.346	10191.24
676.695	10185.14
677.044	10140.4
677.393	10080.96
677.741	10169.32
678.09	10132.71
678.438	10072.6
678.787	10066.95
679.135	10032.83
679.484	10117.12
679.832	10097.46
680.181	9945.15
680.529	10005.71
680.877	10031.47
681.225	9985.37
681.573	10017.91
681.922	9965.26
682.27	9951.93
682.618	9938.59
682.966	9921.87
683.314	9984.24
683.661	9928.43
684.009	9838.48
684.357	9806.17
684.705	9831.7
685.053	9811.37
685.4	9794.19
685.748	9755.77
686.095	9724.81
686.443	9671.48
686.79	9659.96
687.138	9713.97
687.485	9647.08
687.832	9630.58
688.18	9677.36
688.527	9602.56
688.874	9608.89
689.221	9642.78
689.568	9551.26
689.915	9580.41
690.262	9489.34
690.609	9485.5
690.956	9453.64
691.303	9483.47
691.65	9374.09
691.997	9349.01
692.344	9289.35
692.69	9372.51
693.037	9355.11
693.383	9217.94
693.73	9293.19
694.077	9136.81
694.423	9193.98
694.769	9204.38
695.116	9208.44
695.462	9108.11
695.808	9160.08
696.155	9130.48
696.501	9043.93
696.847	9026.53
697.193	8965.51
697.539	8941.33
697.885	8932.52
698.231	8934.33
698.577	8867.44
698.923	8867.21
699.269	8838.06
699.614	8818.62
699.96	8809.58
700.306	8758.96
700.651	8688.01
700.997	8760.09
701.342	8725.97
701.688	8676.93
702.033	8627.67
702.379	8657.72
702.724	8554.68
703.069	8627.22
703.415	8496.15
703.76	8490.5
704.105	8524.17
704.45	8457.5
704.795	8424.28
705.14	8449.59
705.485	8410.27
705.83	8301.8
706.175	8326.43
706.52	8312.87
706.865	8298.64
707.209	8332.08
707.554	8227
707.899	8291.41
708.243	8243.05
708.588	8231.97
708.932	8131.41
709.277	8186.78
709.621	8125.99
709.966	8149.49
710.31	8106.78
710.654	8021.13
710.998	8084.18
711.342	8102.03
711.687	8047.8
712.031	8009.61
712.375	7955.37
712.719	8018.87
713.063	8000.57
713.407	8107
713.75	7948.59
714.094	7970.28
714.438	7918.08
714.782	7901.59
715.125	7893.22
715.469	7915.37
715.812	7896.39
716.156	7868.82
716.499	7832.21
716.843	7830.18
717.186	7867.69
717.53	7834.47
717.873	7845.32
718.216	7839.44
718.559	7803.96
718.902	7702.72
719.246	7753.57
719.589	7742.27
719.932	7738.43
720.275	7746.79
720.617	7711.08
720.96	7664.76
721.303	7762.38
721.646	7700.69
721.989	7629.28
722.331	7663.17
722.674	7720.35
723.016	7644.19
723.359	7615.94
723.701	7716.96
724.044	7685.32
724.386	7643.97
724.729	7678.32
725.071	7636.06
725.413	7607.36
725.755	7631.31
726.097	7617.75
726.439	7550.41
726.782	7575.04
727.124	7638.54
727.465	7595.38
727.807	7594.48
728.149	7551.09
728.491	7525.32
728.833	7576.62
729.175	7509.51
729.516	7603.74
729.858	7518.77
730.199	7550.41
730.541	7547.02
730.882	7525.55
731.224	7570.3
731.565	7517.64
731.906	7561.48
732.248	7488.49
732.589	7490.52
732.93	7491.43
733.271	7470.64
733.612	7504.76
733.953	7500.01
734.294	7523.74
734.635	7484.2
734.976	7497.53
735.317	7474.25
735.658	7544.08
735.999	7465.67
736.339	7453.69
736.68	7463.86
737.021	7511.54
737.361	7444.87
737.702	7537.3
738.042	7528.71
738.383	7436.74
738.723	7486
739.063	7512.67
739.404	7496.17
739.744	7448.49
740.084	7439.45
740.424	7432.22
740.764	7428.38
741.104	7448.26
741.444	7404.65
741.784	7393.58
742.124	7418.89
742.464	7476.74
742.804	7482.61
743.143	7430.19
743.483	7481.26
743.823	7339.34
744.162	7394.93
744.502	7394.93
744.841	7393.12
745.181	7365.55
745.52	7365.78
745.86	7402.39
746.199	7388.61
746.538	7404.42
746.877	7402.62
747.216	7413.24
747.556	7403.75
747.895	7350.19
748.234	7407.59
748.573	7342.5
748.911	7355.39
749.25	7337.76
749.589	7353.58
749.928	7337.08
750.267	7357.19
750.605	7322.84
750.944	7335.95
751.283	7297.08
751.621	7349.96
751.96	7223.41
752.298	7276.74
752.636	7302.51
752.975	7234.94
753.313	7253.92
753.651	7296.63
753.989	7248.95
754.327	7219.12
754.666	7148.61
755.004	7242.17
755.342	7262.28
755.679	7210.08
756.017	7219.12
756.355	7241.72
756.693	7164.88
757.031	7188.38
757.368	7108.84
757.706	7175.96
758.044	7110.42
758.381	7100.7
758.719	7105.45
759.056	7064.32
759.394	7080.59
759.731	7020.48
760.068	7005.11
760.405	7037.88
760.743	6990.42
761.08	7045.34
761.417	6969.86
761.754	6970.76
762.091	6917.21
762.428	6850.99
762.765	6907.71
763.102	6916.08
763.438	6875.85
763.775	6868.84
764.112	6865.91
764.449	6896.19
764.785	6788.62
765.122	6790.65
765.458	6740.94
765.795	6771.9
