Data from mousepad_grey_FLMS001491_00035.txt Node
Date: Wed Feb 08 14:29:21 GMT 2017
User: dcchb
Spectrometer: FLMS00149
Trigger mode: 0
Integration Time (sec): 2.000000E-2
Scans to average: 10
Electric dark correction enabled: true
Nonlinearity correction enabled: false
Boxcar width: 0
XAxis mode: Wavelengths
Number of Pixels in Spectrum: 2048
>>>>>Begin Spectral Data<<<<<
341.393	0.55
341.776	0.55
342.16	0.55
342.543	-68.37
342.927	-37.19
343.31	-65.21
343.693	-104.98
344.077	-75.15
344.46	-57.53
344.843	-52.1
345.226	-32.67
345.61	-20.69
345.993	-7.58
346.376	26.54
346.759	24.96
347.142	13.88
347.525	51.4
347.908	57.27
348.291	76.26
348.674	68.12
349.057	97.5
349.44	132.07
349.823	127.55
350.206	157.16
350.588	165.07
350.971	189.92
351.354	220.88
351.737	212.97
352.119	241.22
352.502	238.51
352.884	236.7
353.267	245.29
353.65	276.02
354.032	300.2
354.414	296.59
354.797	280.09
355.179	309.47
355.562	296.14
355.944	306.76
356.326	338.17
356.709	310.83
357.091	324.38
357.473	330.26
357.855	320.99
358.238	323.25
358.62	323.03
359.002	322.12
359.384	331.62
359.766	340.65
360.148	321.22
360.53	329.13
360.912	331.16
361.294	327.77
361.676	318.96
362.057	334.33
362.439	322.8
362.821	319.64
363.203	302.24
363.584	304.72
363.966	321.67
364.348	310.83
364.729	310.15
365.111	296.59
365.493	323.93
365.874	326.87
366.256	286.65
366.637	281.22
367.019	301.79
367.4	275.35
367.781	282.58
368.163	285.52
368.544	306.31
368.925	281.67
369.306	299.53
369.688	301.56
370.069	300.66
370.45	307.21
370.831	299.07
371.212	302.46
371.593	306.31
371.974	279.19
372.355	292.97
372.736	303.14
373.117	309.92
373.498	284.39
373.879	295.46
374.26	308.11
374.641	314.89
375.021	308.34
375.402	304.27
375.783	286.87
376.163	299.53
376.544	302.69
376.925	324.61
377.305	310.83
377.686	316.7
378.066	303.37
378.447	317.6
378.827	316.25
379.208	309.24
379.588	294.55
379.968	324.38
380.349	295.01
380.729	330.71
381.109	320.77
381.489	301.33
381.87	323.48
382.25	299.07
382.63	323.03
383.01	333.65
383.39	315.12
383.77	328.23
384.15	310.83
384.53	325.97
384.91	310.6
385.29	322.35
385.67	323.48
386.049	304.05
386.429	323.03
386.809	349.69
387.189	341.11
387.568	318.06
387.948	334.33
388.328	346.53
388.707	325.51
389.087	337.49
389.466	330.71
389.846	322.58
390.225	328.45
390.605	358.73
390.984	333.42
391.363	344.5
391.743	362.12
392.122	334.1
392.501	335.91
392.881	339.75
393.26	363.71
393.639	351.28
394.018	363.03
394.397	343.14
394.776	348.56
395.155	353.76
395.534	357.83
395.913	367.32
396.292	360.99
396.671	358.73
397.05	366.19
397.429	368.22
397.808	363.71
398.186	357.15
398.565	376.36
398.944	371.39
399.323	356.02
399.701	368
400.08	371.61
400.458	371.16
400.837	369.13
401.215	372.97
401.594	382.01
401.972	401.67
402.351	388.79
402.729	383.82
403.107	379.98
403.486	405.96
403.864	379.3
404.242	391.95
404.62	394.44
404.999	408.9
405.377	419.97
405.755	405.29
406.133	417.04
406.511	405.74
406.889	415.23
407.267	424.72
407.645	394.21
408.023	401.44
408.401	429.92
408.779	427.21
409.156	449.8
409.534	431.5
409.912	430.14
410.29	415.68
410.667	434.21
411.045	438.28
411.422	429.69
411.8	436.47
412.178	431.95
412.555	435.34
412.933	467.88
413.31	472.85
413.687	455.91
414.065	487.54
414.442	483.02
414.819	445.28
415.197	471.72
415.574	464.95
415.951	461.56
416.328	483.7
416.705	484.15
417.082	468.56
417.46	480.76
417.837	485.06
418.214	488.22
418.591	494.1
418.967	497.03
419.344	516.47
419.721	497.49
420.098	483.48
420.475	511.05
420.852	504.94
421.228	511.72
421.605	520.76
421.982	518.96
422.358	533.87
422.735	522.57
423.111	492.74
423.488	531.38
423.864	520.09
424.241	546.3
424.617	537.94
424.994	544.27
425.37	556.92
425.746	534.32
426.123	558.05
426.499	551.04
426.875	561.44
427.251	564.6
427.627	558.73
428.003	557.82
428.379	598.28
428.756	583.36
429.132	581.78
429.507	590.37
429.883	604.83
430.259	606.86
430.635	596.47
431.011	620.42
431.387	621.33
431.763	638.27
432.138	623.36
432.514	642.34
432.89	650.48
433.265	642.34
433.641	651.38
434.016	643.92
434.392	643.7
434.767	666.97
435.143	675.56
435.518	664.94
435.894	672.4
436.269	677.82
436.644	686.63
437.02	680.76
437.395	692.74
437.77	698.84
438.145	702.45
438.52	702
438.895	723.24
439.271	719.63
439.646	722.57
440.021	719.18
440.395	739.97
440.77	747.65
441.145	747.42
441.52	752.85
441.895	761.43
442.27	760.76
442.645	774.09
443.019	791.94
443.394	769.12
443.769	772.73
444.143	776.35
444.518	779.06
444.892	768.67
445.267	800.98
445.641	786.29
446.016	803.92
446.39	810.25
446.764	799.63
447.139	789.91
447.513	822
447.887	824.48
448.262	830.13
448.636	821.55
449.01	817.7
449.384	860.19
449.758	832.62
450.132	838.95
450.506	855.22
450.88	883.92
451.254	850.7
451.628	889.57
452.002	856.8
452.376	885.5
452.75	868.55
453.123	895.67
453.497	897.25
453.871	897.02
454.244	922.79
454.618	914.43
454.992	931.6
455.365	941.77
455.739	935.89
456.112	966.63
456.486	961.66
456.859	975.67
457.232	1006.4
457.606	991.71
457.979	1005.27
458.352	1031.71
458.725	1036.68
459.099	1050.01
459.472	1069.68
459.845	1063.8
460.218	1068.77
460.591	1068.32
460.964	1093.86
461.337	1103.12
461.71	1102.67
462.083	1104.93
462.456	1133.4
462.829	1123.01
463.201	1141.76
463.574	1129.79
463.947	1159.84
464.32	1181.99
464.692	1214.76
465.065	1198.94
465.438	1215.66
465.81	1224.93
466.183	1247.98
466.555	1223.34
466.928	1245.26
467.3	1255.89
467.672	1245.49
468.045	1298.37
468.417	1299.5
468.789	1312.83
469.161	1330.23
469.534	1338.14
469.906	1362.55
470.278	1405.71
470.65	1381.08
471.022	1423.56
471.394	1419.72
471.766	1447.07
472.138	1464.02
472.51	1480.51
472.882	1501.3
473.253	1525.48
473.625	1521.41
473.997	1571.13
474.369	1565.71
474.74	1570.45
475.112	1647.29
475.484	1610.45
475.855	1659.49
476.227	1648.42
476.598	1696.33
476.97	1711.01
477.341	1743.78
477.713	1745.14
478.084	1771.58
478.455	1807.28
478.827	1814.06
479.198	1889.09
479.569	1885.92
479.94	1901.74
480.311	1938.58
480.682	1988.75
481.053	2042.76
481.424	2031.91
481.795	2038.01
482.166	2097.67
482.537	2118.24
482.908	2143.77
483.279	2128.86
483.65	2197.78
484.021	2241.62
484.391	2252.7
484.762	2268.74
485.133	2288.63
485.503	2317.1
485.874	2358.68
486.244	2366.36
486.615	2406.36
486.985	2457.44
487.356	2522.74
487.726	2491.56
488.097	2576.53
488.467	2561.84
488.837	2598.9
489.207	2630.31
489.578	2661.72
489.948	2682.29
490.318	2729.97
490.688	2727.48
491.058	2749.63
491.428	2787.14
491.798	2797.99
492.168	2870.53
492.538	2899.23
492.908	2940.81
493.278	2963.41
493.648	2987.14
494.017	3001.83
494.387	3006.8
494.757	3046.35
495.126	3081.15
495.496	3063.3
495.866	3139.9
496.235	3154.82
496.605	3159.34
496.974	3169.73
497.344	3200.24
497.713	3236.85
498.082	3215.38
498.452	3281.82
498.821	3284.53
499.19	3302.84
499.559	3341.48
499.928	3327.69
500.298	3377.64
500.667	3423.51
501.036	3416.28
501.405	3439.56
501.774	3435.49
502.143	3508.03
502.512	3501.7
502.88	3543.28
503.249	3537.63
503.618	3550.51
503.987	3574.47
504.356	3602.04
504.724	3612.21
505.093	3625.99
505.462	3647.46
505.83	3659.66
506.199	3701.02
506.567	3777.17
506.936	3766.78
507.304	3761.36
507.672	3806.78
508.041	3824.63
508.409	3887.91
508.777	3896.95
509.145	3917.06
509.514	3936.49
509.882	3931.75
510.25	3954.57
510.618	3987.79
510.986	3979.66
511.354	4040.67
511.722	4081.12
512.09	4090.61
512.458	4108.47
512.826	4135.58
513.193	4157.5
513.561	4175.36
513.929	4252.42
514.297	4221.68
514.664	4288.12
515.032	4309.36
515.4	4306.43
515.767	4338.97
516.135	4389.36
516.502	4356.37
516.869	4440.66
517.237	4451.51
517.604	4423.94
517.972	4456.25
518.339	4494.22
518.706	4578.96
519.073	4586.87
519.44	4567.21
519.808	4625.06
520.175	4609.24
520.542	4631.62
520.909	4707.32
521.276	4723.82
521.643	4810.14
522.009	4759.3
522.376	4849.46
522.743	4889.46
523.11	4908.22
523.477	4891.27
523.843	4940.53
524.21	5019.85
524.577	5018.72
524.943	5060.53
525.31	5081.55
525.676	5103.69
526.043	5162.45
526.409	5213.97
526.776	5227.76
527.142	5263.01
527.508	5331.94
527.874	5291.49
528.241	5319.28
528.607	5370.35
528.973	5406.74
529.339	5434.98
529.705	5464.14
530.071	5522.44
530.437	5512.04
530.803	5538.48
531.169	5625.71
531.535	5596.34
531.901	5597.47
532.267	5630.01
532.632	5682.89
532.998	5726.5
533.364	5780.29
533.73	5782.77
534.095	5763.56
534.461	5834.3
534.826	5875.65
535.192	5885.14
535.557	5900.73
535.923	5946.38
536.288	6001.3
536.653	5987.06
537.019	5974.41
537.384	6041.75
537.749	6099.37
538.114	6111.35
538.479	6131.92
538.845	6151.8
539.21	6118.81
539.575	6140.5
539.94	6200.61
540.305	6220.95
540.67	6193.38
541.034	6281.52
541.399	6294.62
541.764	6323.77
542.129	6350.44
542.494	6355.64
542.858	6396.77
543.223	6413.72
543.587	6498.23
543.952	6450.1
544.316	6512.7
544.681	6505.01
545.045	6549.31
545.41	6580.72
545.774	6601.96
546.138	6590.43
546.503	6604.67
546.867	6647.38
547.231	6728.06
547.595	6747.72
547.959	6732.35
548.324	6767.15
548.688	6805.57
549.052	6815.51
549.416	6798.79
549.779	6823.87
550.143	6877.66
550.507	6918.56
550.871	6926.02
551.235	6954.72
551.599	7048.95
551.962	7070.42
552.326	7129.63
552.689	7080.36
553.053	7135.73
553.417	7139.8
553.78	7213.02
554.143	7129.63
554.507	7242.62
554.87	7272.68
555.234	7261.38
555.597	7270.42
555.96	7272.45
556.323	7356.29
556.686	7381.83
557.05	7432.9
557.413	7449.62
557.776	7403.29
558.139	7523.52
558.502	7477.64
558.865	7603.74
559.228	7628.82
559.59	7626.57
559.953	7636.06
560.316	7686
560.679	7700.69
561.041	7768.03
561.404	7843.06
561.767	7821.36
562.129	7826.79
562.492	7907.69
562.854	7907.91
563.217	7839.89
563.579	7910.4
563.941	7992.21
564.304	8083.73
564.666	8100.68
565.028	8134.8
565.39	8140.45
565.753	8180.67
566.115	8243.5
566.477	8235.59
566.839	8233.1
567.201	8335.02
567.563	8289.15
567.925	8405.75
568.287	8428.8
568.648	8435.36
569.01	8461.12
569.372	8464.51
569.734	8468.35
570.095	8543.83
570.457	8641.91
570.819	8666.09
571.18	8651.4
571.542	8659.98
571.903	8654.79
572.265	8739.76
572.626	8804.16
572.987	8782.24
573.349	8786.76
573.71	8816.36
574.071	8863.59
574.432	8867.66
574.794	8965.51
575.155	8913.31
575.516	8884.39
575.877	8947.43
576.238	8933.65
576.599	8991.95
576.96	9003.25
577.32	8963.7
577.681	9093.42
578.042	9103.36
578.403	9069.24
578.763	9090.48
579.124	9074.89
579.485	9159.86
579.845	9249.8
580.206	9138.39
580.566	9144.49
580.927	9177.03
581.287	9252.96
581.648	9208.67
582.008	9174.77
582.368	9256.58
582.728	9257.93
583.089	9284.15
583.449	9232.17
583.809	9316.24
584.169	9288.22
584.529	9247.09
584.889	9368.44
585.249	9219.74
585.609	9218.84
585.969	9315.11
586.329	9325.96
586.688	9335.9
587.048	9326.63
587.408	9272.17
587.768	9365.73
588.127	9280.76
588.487	9248.9
588.846	9417.48
589.206	9291.15
589.565	9311.72
589.925	9370.47
590.284	9351.04
590.643	9364.6
591.003	9328.44
591.362	9370.93
591.721	9371.83
592.08	9414.77
592.44	9410.25
592.799	9422.68
593.158	9404.15
593.517	9386.07
593.876	9392.62
594.235	9441.43
594.593	9404.37
594.952	9429.46
595.311	9351.04
595.67	9401.21
596.029	9511.26
596.387	9513.52
596.746	9512.62
597.104	9469.91
597.463	9397.59
597.822	9512.84
598.18	9462
598.538	9453.18
598.897	9516.01
599.255	9440.98
599.613	9577.93
599.972	9495.67
600.33	9557.59
600.688	9502.22
601.046	9541.09
601.404	9527.98
601.762	9529.34
602.12	9625.16
602.478	9575.44
602.836	9624.25
603.194	9539.06
603.552	9555.33
603.91	9538.61
604.268	9591.26
604.625	9499.06
604.983	9610.24
605.341	9570.02
605.698	9632.39
606.056	9589.45
606.413	9603.24
606.771	9641.65
607.128	9697.47
607.485	9659.28
607.843	9656.57
608.2	9721.65
608.557	9630.13
608.914	9654.53
609.272	9782.44
609.629	9734.76
609.986	9724.36
610.343	9690.92
610.7	9793.51
611.057	9733.63
611.414	9759.84
611.771	9718.26
612.127	9830.35
612.484	9754.87
612.841	9810.46
613.198	9788.99
613.554	9795.77
613.911	9868.09
614.267	9849.78
614.624	9904.02
614.98	9916.9
615.337	9876.22
615.693	9916
616.05	9923.45
616.406	9905.38
616.762	9869.22
617.118	9952.83
617.475	9887.75
617.831	9977.69
618.187	9960.97
618.543	9977.92
618.899	10038.25
619.255	9888.2
619.611	9970.01
619.967	10031.7
620.323	10035.77
620.678	9998.71
621.034	10012.94
621.39	9969.55
621.746	10031.93
622.101	10102.88
622.457	10022.89
622.812	10038.93
623.168	10091.13
623.523	10078.93
623.879	10066.73
624.234	10040.51
624.589	10042.77
624.945	10117.12
625.3	10053.85
625.655	10042.09
626.01	10029.89
626.365	10118.7
626.72	10022.66
627.075	10027.63
627.43	10036.45
627.785	10024.24
628.14	10074.86
628.495	10121.41
628.85	10044.13
629.205	9977.69
629.559	9993.51
629.914	9981.08
630.269	10017.24
630.623	10059.5
630.978	9966.62
631.332	10064.69
631.687	10028.31
632.041	10025.37
632.396	10069.21
632.75	10079.83
633.104	9981.31
633.459	10021.98
633.813	10008.65
634.167	9877.35
634.521	10005.49
634.875	9995.09
635.229	9937.69
635.583	9880.07
635.937	9857.47
636.291	9906.51
636.645	9942.66
636.999	9920.97
637.352	9901.53
637.706	9895.88
638.06	9910.8
638.413	9865.83
638.767	9827.41
639.121	9900.63
639.474	9849.11
639.828	9833.74
640.181	9840.97
640.534	9833.29
640.888	9764.36
641.241	9855.21
641.594	9857.47
641.947	9859.05
642.301	9845.72
642.654	9818.82
643.007	9868.77
643.36	9783.34
643.713	9843.46
644.066	9865.83
644.419	9810.91
644.771	9716
645.124	9680.07
645.477	9647.75
645.83	9551.03
646.182	9524.14
646.535	9548.32
646.888	9522.56
647.24	9476.23
647.593	9565.27
647.945	9572.05
648.298	9445.05
648.65	9447.08
649.002	9441.21
649.355	9491.83
649.707	9440.75
650.059	9582.45
650.411	9566.85
650.763	9684.36
651.115	9684.59
651.467	9697.47
651.819	9752.16
652.171	9744.25
652.523	9683.69
652.875	9667.42
653.227	9618.6
653.578	9774.08
653.93	9676
654.282	9694.08
654.633	9670.58
654.985	9665.16
655.337	9630.58
655.688	9652.73
656.039	9680.07
656.391	9639.17
656.742	9661.31
657.094	9670.81
657.445	9694.08
657.796	9673.97
658.147	9702.22
658.498	9708.54
658.849	9659.73
659.2	9688.21
659.551	9591.49
659.902	9664.25
660.253	9624.25
660.604	9706.06
660.955	9609.11
661.306	9651.14
661.656	9756.45
662.007	9682.78
662.358	9648.88
662.708	9640.3
663.059	9650.92
663.409	9596.23
663.76	9649.79
664.11	9685.95
664.461	9659.28
664.811	9648.21
665.161	9647.3
665.511	9596.91
665.862	9686.62
666.212	9675.1
666.562	9663.12
666.912	9674.19
667.262	9673.29
667.612	9667.87
667.962	9604.82
668.312	9601.65
668.662	9663.8
669.011	9719.17
669.361	9647.75
669.711	9569.34
670.06	9630.81
670.41	9636.68
670.76	9643.69
671.109	9650.47
671.459	9590.13
671.808	9570.92
672.157	9589.45
672.507	9542.9
672.856	9646.85
673.205	9626.74
673.554	9619.96
673.904	9589.45
674.253	9654.08
674.602	9598.04
674.951	9430.59
675.3	9334.99
675.649	9569.11
675.998	9501.32
676.346	9521.43
676.695	9493.41
677.044	9444.14
677.393	9591.03
677.741	9499.96
678.09	9429.46
678.438	9495.44
678.787	9470.13
679.135	9483.47
679.484	9358.72
679.832	9460.42
680.181	9466.06
680.529	9438.72
680.877	9402.79
681.225	9367.08
681.573	9411.15
681.922	9376.12
682.27	9357.59
682.618	9439.85
682.966	9346.52
683.314	9360.08
683.661	9363.92
684.009	9286.63
684.357	9224.72
684.705	9212.96
685.053	9258.84
685.4	9216.58
685.748	9201.66
686.095	9134.77
686.443	9160.76
686.79	9129.8
687.138	9105.85
687.485	9142.46
687.832	9080.09
688.18	9023.82
688.527	9028.11
688.874	9051.84
689.221	9056.81
689.568	8990.37
689.915	8937.94
690.262	8976.59
690.609	8906.08
690.956	8928.23
691.303	8887.32
691.65	8919.64
691.997	8885.74
692.344	8776.14
692.69	8832.86
693.037	8796.03
693.383	8712.41
693.73	8732.98
694.077	8719.42
694.423	8674.9
694.769	8603.94
695.116	8593.32
695.462	8636.03
695.808	8602.36
696.155	8643.71
696.501	8566.65
696.847	8515.81
697.193	8472.19
697.539	8509.93
697.885	8446.43
698.231	8446.43
698.577	8374.12
698.923	8368.24
699.269	8374.79
699.614	8277.17
699.96	8259.54
700.306	8241.92
700.651	8240.79
700.997	8212.54
701.342	8248.7
701.688	8198.3
702.033	8128.47
702.379	8204.18
702.724	8147
703.069	8095.93
703.415	8020.68
703.76	8025.2
704.105	8017.97
704.45	8009.38
704.795	8011.19
705.14	7944.75
705.485	7979.1
705.83	7974.8
706.175	7900
706.52	7930.06
706.865	7897.74
707.209	7862.49
707.554	7816.84
707.899	7763.28
708.243	7759.44
708.588	7769.61
708.932	7736.62
709.277	7735.71
709.621	7667.47
709.966	7660.46
710.31	7669.5
710.654	7609.16
710.998	7663.85
711.342	7580.01
711.687	7552.89
712.031	7583.85
712.375	7610.52
712.719	7544.53
713.063	7604.64
713.407	7605.32
713.75	7545.44
714.094	7524.42
714.438	7495.5
714.782	7491.2
715.125	7476.96
715.469	7500.92
715.812	7449.17
716.156	7400.58
716.499	7489.85
716.843	7442.16
717.186	7356.06
717.53	7461.15
717.873	7432.67
718.216	7429.28
718.559	7422.28
718.902	7369.17
719.246	7395.16
719.589	7325.78
719.932	7304.77
720.275	7283.52
720.617	7329.85
720.96	7330.53
721.303	7288.27
721.646	7358.55
721.989	7293.69
722.331	7364.2
722.674	7248.5
723.016	7340.7
723.359	7244.88
723.701	7311.32
724.044	7217.08
724.386	7181.83
724.729	7263.64
725.071	7203.53
725.413	7199.23
725.755	7223.64
726.097	7208.72
726.439	7211.21
726.782	7156.07
727.124	7234.26
727.465	7195.39
727.807	7159.01
728.149	7211.89
728.491	7157.65
728.833	7184.54
729.175	7140.7
729.516	7187.71
729.858	7157.2
730.199	7181.83
730.541	7214.15
730.882	7181.6
731.224	7089.86
731.565	7081.49
731.906	7131.21
732.248	7134.37
732.589	7086.24
732.93	7152.91
733.271	7109.06
733.612	7121.72
733.953	7150.19
734.294	7107.71
734.635	7076.97
734.976	7109.29
735.317	7072
735.658	7090.53
735.999	7113.58
736.339	7086.47
736.68	7137.99
737.021	7080.14
737.361	7097.31
737.702	7091.21
738.042	7043.53
738.383	7087.6
738.723	7105.45
739.063	7060.7
739.404	7109.06
739.744	7110.87
740.084	7056.18
740.424	7058.22
740.764	7071.33
741.104	7054.38
741.444	7089.4
741.784	7055.05
742.124	7093.02
742.464	7074.72
742.804	7060.93
743.143	7016.19
743.483	7041.72
743.823	7006.69
744.162	7003.98
744.502	7041.04
744.841	7056.86
745.181	7026.81
745.52	7055.51
745.86	7026.35
746.199	7002.85
746.538	6984.1
746.877	6991.55
747.216	7022.51
747.556	7025.22
747.895	7049.41
748.234	6978.9
748.573	7023.42
748.911	6999.46
749.25	6976.41
749.589	6981.16
749.928	6939.13
750.267	6927.6
750.605	6952.91
750.944	6979.58
751.283	7006.24
751.621	6957.43
751.96	6907.04
752.298	6949.29
752.636	6939.58
752.975	6924.44
753.313	6918.34
753.651	6938
753.989	6895.96
754.327	6886.02
754.666	6880.82
755.004	6924.44
755.342	6859.35
755.679	6898
756.017	6831.33
756.355	6870.88
756.693	6848.28
757.031	6839.24
757.368	6808.96
757.706	6793.37
758.044	6750.66
758.381	6781.39
758.719	6744.1
759.056	6771.22
759.394	6737.1
759.731	6724.67
760.068	6714.95
760.405	6706.82
760.743	6631.34
761.08	6642.64
761.417	6599.47
761.754	6596.99
762.091	6629.53
762.428	6571.9
762.765	6541.62
763.102	6528.97
763.438	6500.04
763.775	6513.37
764.112	6512.7
764.449	6549.98
764.785	6512.24
765.122	6426.6
765.458	6427.27
765.795	6425.01
766.131	6445.81
766.467	6369.2
766.804	6356.77
767.14	6371.23
767.476	6374.17
767.812	6288.52
768.148	6308.63
768.485	6327.39
768.821	6262.53
769.157	6282.19
769.492	6237.9
769.828	6227.51
770.164	6191.57
770.5	6124.23
