Data from mousepad_grey_FLMS001491_00079.txt Node
Date: Wed Feb 08 14:29:55 GMT 2017
User: dcchb
Spectrometer: FLMS00149
Trigger mode: 0
Integration Time (sec): 2.000000E-2
Scans to average: 10
Electric dark correction enabled: true
Nonlinearity correction enabled: false
Boxcar width: 0
XAxis mode: Wavelengths
Number of Pixels in Spectrum: 2048
>>>>>Begin Spectral Data<<<<<
341.393	-22.32
341.776	-22.32
342.16	-22.32
342.543	-58.93
342.927	-60.51
343.31	-69.55
343.693	-79.26
344.077	-60.05
344.46	-66.61
344.843	-59.15
345.226	-29.1
345.61	-33.84
345.993	-9.21
346.376	-2.43
346.759	-4.01
347.142	50.22
347.525	28.08
347.908	74.18
348.291	88.64
348.674	75.76
349.057	96.33
349.44	123.67
349.823	149.43
350.206	171.58
350.588	179.71
350.971	169.32
351.354	187.85
351.737	221.07
352.119	243.89
352.502	252.93
352.884	262.2
353.267	244.57
353.65	270.78
354.032	276.21
354.414	295.19
354.797	292.25
355.179	288.18
355.562	303.33
355.944	310.1
356.326	313.04
356.709	300.39
357.091	318.69
357.473	340.61
357.855	336.32
358.238	306.26
358.62	330.9
359.002	319.82
359.384	323.44
359.766	318.92
360.148	330.9
360.53	325.7
360.912	311.69
361.294	308.52
361.676	301.97
362.057	297.45
362.439	315.3
362.821	321.63
363.203	317.79
363.584	287.51
363.966	306.26
364.348	320.5
364.729	301.74
365.111	294.74
365.493	285.92
365.874	283.21
366.256	287.51
366.637	309.65
367.019	305.13
367.4	302.42
367.781	285.47
368.163	292.48
368.544	296.09
368.925	305.36
369.306	300.39
369.688	303.78
370.069	306.04
370.45	325.02
370.831	311.69
371.212	296.09
371.593	301.74
371.974	323.66
372.355	290.9
372.736	288.64
373.117	290.22
373.498	262.65
373.879	293.83
374.26	288.64
374.641	305.36
375.021	329.99
375.402	325.47
375.783	285.47
376.163	302.42
376.544	309.88
376.925	308.07
377.305	307.62
377.686	294.29
378.066	307.62
378.447	310.56
378.827	305.13
379.208	312.36
379.588	309.88
379.968	309.65
380.349	314.62
380.729	312.36
381.109	317.11
381.489	310.78
381.87	317.79
382.25	314.62
382.63	323.21
383.01	304.23
383.39	318.47
383.77	328.18
384.15	333.83
384.53	328.41
384.91	327.28
385.29	318.01
385.67	320.95
386.049	344.91
386.429	342.87
386.809	346.26
387.189	321.63
387.568	332.7
387.948	345.81
388.328	322.53
388.707	333.83
389.087	324.12
389.466	336.77
389.846	350.33
390.225	339.71
390.605	350.78
390.984	335.41
391.363	341.06
391.743	349.43
392.122	339.71
392.501	351.23
392.881	368.18
393.26	365.02
393.639	356.43
394.018	348.07
394.397	348.3
394.776	348.75
395.155	369.09
395.534	370.22
395.913	393.27
396.292	358.24
396.671	366.83
397.05	377.9
397.429	380.39
397.808	386.94
398.186	374.74
398.565	372.93
398.944	388.97
399.323	382.65
399.701	383.1
400.08	376.32
400.458	374.28
400.837	379.71
401.215	390.55
401.594	412.02
401.972	398.69
402.351	398.69
402.729	421.51
403.107	393.04
403.486	405.02
403.864	389.65
404.242	427.62
404.62	404.79
404.999	406.83
405.377	407.5
405.755	411.57
406.133	425.81
406.511	431.01
406.889	431.23
407.267	453.38
407.645	437.56
408.023	435.75
408.401	418.35
408.779	429.42
409.156	440.72
409.534	449.76
409.912	450.21
410.29	448.63
410.667	457.22
411.045	464
411.422	460.61
411.8	473.04
412.178	471.46
412.555	484.56
412.933	480.04
413.31	454.06
413.687	500.38
414.065	487.05
414.442	491.12
414.819	492.92
415.197	483.66
415.574	506.03
415.951	496.31
416.328	501.96
416.705	529.76
417.082	516.88
417.46	511.91
417.837	528.4
418.214	519.14
418.591	524.79
418.967	522.98
419.344	534.73
419.721	527.95
420.098	527.27
420.475	531.12
420.852	543.55
421.228	532.47
421.605	546.03
421.982	541.29
422.358	568.63
422.735	558.46
423.111	559.59
423.488	576.31
423.864	544.9
424.241	570.44
424.617	580.83
424.994	591.68
425.37	590.32
425.746	569.31
426.123	576.09
426.499	595.52
426.875	588.06
427.251	603.66
427.627	601.62
428.003	602.75
428.379	616.99
428.756	614.05
429.132	625.12
429.507	636.42
429.883	650.21
430.259	638.91
430.635	635.75
431.011	636.88
431.387	663.99
431.763	687.27
432.138	666.93
432.514	690.89
432.89	696.76
433.265	697.89
433.641	672.81
434.016	710.09
434.392	692.02
434.767	706.48
435.143	705.57
435.518	699.47
435.894	722.75
436.269	758
436.644	729.98
437.02	753.48
437.395	758
437.77	768.62
438.145	761.39
438.52	779.7
438.895	787.38
439.271	791
439.646	788.28
440.021	776.76
440.395	782.41
440.77	799.58
441.145	809.3
441.52	812.69
441.895	816.08
442.27	804.1
442.645	821.05
443.019	798.68
443.394	800.71
443.769	851.56
444.143	855.85
444.518	876.19
444.892	845.68
445.267	840.49
445.641	845.46
446.016	871.9
446.39	865.57
446.764	853.59
447.139	871.9
447.513	870.99
447.887	871.67
448.262	865.12
448.636	875.29
449.01	907.83
449.384	901.95
449.758	909.64
450.132	922.97
450.506	921.61
450.88	936.98
451.254	922.52
451.628	925.68
452.002	933.37
452.376	959.13
452.75	964.78
453.123	975.62
453.497	962.07
453.871	969.3
454.244	997.32
454.618	1021.95
454.992	1006.81
455.365	1014.04
455.739	1028.5
456.112	1039.35
456.486	1060.59
456.859	1069.41
457.232	1044.77
457.606	1053.59
457.979	1092.23
458.352	1136.3
458.725	1123.64
459.099	1115.06
459.472	1165
459.845	1132.46
460.218	1150.08
460.591	1152.34
460.964	1166.13
461.337	1191.44
461.71	1184.66
462.083	1211.1
462.456	1212
462.829	1221.72
463.201	1228.27
463.574	1245.9
463.947	1272.79
464.32	1283.86
464.692	1290.64
465.065	1279.12
465.438	1332.22
465.81	1322.51
466.183	1327.48
466.555	1358.66
466.928	1355.28
467.3	1374.03
467.672	1391.21
468.045	1416.52
468.417	1419.68
468.789	1435.27
469.161	1428.72
469.534	1487.02
469.906	1480.24
470.278	1499.68
470.65	1501.03
471.022	1537.87
471.394	1538.32
471.766	1541.94
472.138	1591.2
472.51	1623.74
472.882	1647.7
473.253	1673.46
473.625	1659.45
473.997	1701.71
474.369	1721.37
474.74	1734.25
475.112	1762.72
475.484	1777.41
475.855	1829.84
476.227	1805.66
476.598	1845.21
476.97	1869.84
477.341	1916.62
477.713	1945.54
478.084	1962.49
478.455	1990.29
478.827	1998.87
479.198	2065.99
479.569	2010.85
479.94	2112.54
480.311	2118.64
480.682	2155.25
481.053	2214.01
481.424	2251.07
481.795	2246.55
482.166	2289.71
482.537	2314.35
482.908	2335.36
483.279	2360.45
483.65	2394.34
484.021	2445.64
484.391	2474.34
484.762	2498.3
485.133	2501.69
485.503	2550.95
485.874	2590.5
486.244	2611.29
486.615	2683.6
486.985	2670.04
487.356	2718.4
487.726	2764.73
488.097	2799.53
488.467	2789.14
488.837	2861.45
489.207	2865.07
489.578	2940.32
489.948	2975.12
490.318	3004.72
490.688	3017.15
491.058	3043.14
491.428	3053.54
491.798	3122.01
492.168	3158.62
492.538	3192.97
492.908	3174.44
493.278	3245.39
493.648	3230.25
494.017	3280.65
494.387	3301.21
494.757	3334.21
495.126	3390.48
495.496	3361.1
495.866	3415.56
496.235	3453.98
496.605	3496.91
496.974	3512.96
497.344	3533.75
497.713	3516.35
498.082	3562.9
498.452	3630.47
498.821	3579.4
499.19	3649.23
499.559	3729.9
499.928	3686.97
500.298	3726.96
500.667	3754.53
501.036	3725.83
501.405	3772.39
501.774	3826.4
502.143	3813.52
502.512	3820.07
502.88	3832.05
503.249	3851.03
503.618	3889.22
503.987	3940.52
504.356	3905.49
504.724	3959.27
505.093	3999.95
505.462	3985.04
505.83	3985.71
506.199	4093.06
506.567	4068.42
506.936	4093.96
507.304	4157.46
507.672	4122.21
508.041	4188.65
508.409	4198.14
508.777	4232.26
509.145	4310.23
509.514	4297.8
509.882	4302.54
510.25	4308.42
510.618	4349.32
510.986	4397.23
511.354	4384.8
511.722	4449.88
512.09	4473.39
512.458	4465.02
512.826	4536.66
513.193	4516.1
513.561	4573.27
513.929	4570.33
514.297	4640.16
514.664	4696.88
515.032	4646.26
515.4	4741.63
515.767	4782.53
516.135	4764.23
516.502	4712.93
516.869	4804.45
517.237	4833.15
517.604	4834.28
517.972	4860.04
518.339	4938.91
518.706	4933.49
519.073	4961.73
519.44	4995.41
519.808	5031.79
520.175	5063.43
520.542	5105.91
520.909	5142.29
521.276	5148.85
521.643	5193.59
522.009	5214.38
522.376	5237.88
522.743	5250.99
523.11	5360.14
523.477	5371.67
523.843	5396.98
524.21	5486.24
524.577	5498.67
524.943	5572.79
525.31	5575.96
525.676	5605.33
526.043	5634.03
526.409	5630.87
526.776	5707.48
527.142	5753.35
527.508	5737.98
527.874	5832.67
528.241	5825.21
528.607	5865.66
528.973	5941.14
529.339	5929.62
529.705	5967.58
530.071	6049.61
530.437	6006
530.803	6082.83
531.169	6110.18
531.535	6112.21
531.901	6111.76
532.267	6166
532.632	6278.08
532.998	6225.66
533.364	6333
533.73	6310.17
534.095	6363.73
534.461	6365.54
534.826	6393.33
535.192	6417.29
535.557	6528.92
535.923	6472.43
536.288	6568.7
536.653	6582.48
537.019	6519.43
537.384	6603.05
537.749	6633.55
538.114	6646.44
538.479	6666.77
538.845	6763.95
539.21	6708.35
539.575	6768.47
539.94	6759.88
540.305	6802.14
540.67	6824.06
541.034	6850.72
541.399	6878.97
541.764	6888.24
542.129	6925.98
542.494	6963.26
542.858	6989.48
543.223	7017.73
543.587	7063.83
543.952	7071.73
544.316	7111.51
544.681	7058.4
545.045	7130.04
545.41	7205.52
545.774	7200.55
546.138	7209.13
546.503	7209.13
546.867	7269.02
547.231	7355.12
547.595	7299.53
547.959	7348.79
548.324	7381.56
548.688	7331.62
549.052	7401.22
549.416	7426.53
549.779	7484.38
550.143	7503.14
550.507	7546.98
550.871	7568.9
551.235	7540.88
551.599	7674.43
551.962	7643.02
552.326	7706.07
552.689	7752.4
553.053	7737.93
553.417	7729.34
553.78	7847.99
554.143	7830.13
554.507	7876.69
554.87	7875.1
555.234	7953.97
555.597	7964.37
555.96	7972.28
556.323	8036.46
556.686	7991.94
557.05	8052.95
557.413	8067.64
557.776	8167.75
558.139	8266.05
558.502	8168.88
558.865	8220.18
559.228	8260.63
559.59	8292.49
559.953	8350.35
560.316	8438.7
560.679	8407.97
561.041	8437.57
561.404	8493.84
561.767	8544.46
562.129	8450.23
562.492	8611.58
562.854	8639.15
563.217	8695.2
563.579	8659.94
563.941	8665.37
564.304	8770
564.666	8800.5
565.028	8836.43
565.39	8859.71
565.753	8863.78
566.115	8932.25
566.477	8964.57
566.839	8992.59
567.201	9010.22
567.563	9097.22
567.925	9113.26
568.287	9128.63
568.648	9162.3
569.01	9242.98
569.372	9274.16
569.734	9271.9
570.095	9265.12
570.457	9387.38
570.819	9322.75
571.18	9342.41
571.542	9384.44
571.903	9415.63
572.265	9483.65
572.626	9481.16
572.987	9534.27
573.349	9603.42
573.71	9623.53
574.071	9645.23
574.432	9647.49
574.794	9720.25
575.155	9672.57
575.516	9663.53
575.877	9711.21
576.238	9759.12
576.599	9774.94
576.96	9731.55
577.32	9834.6
577.681	9869.18
578.042	9868.95
578.403	9906.69
578.763	9883.64
579.124	9941.26
579.485	9957.31
579.845	10018.32
580.206	9890.42
580.566	9929.51
580.927	10092.45
581.287	10000.02
581.648	10015.84
582.008	10087.47
582.368	10012.45
582.728	10024.88
583.089	10073.01
583.449	10051.77
583.809	10025.78
584.169	10115.04
584.529	10075.27
584.889	10147.36
585.249	10127.93
585.609	10018.32
585.969	10079.11
586.329	10055.39
586.688	10102.62
587.048	10193.46
587.408	10162.28
587.768	10094.48
588.127	10190.07
588.487	10121.37
588.846	10184.87
589.206	10111.43
589.565	10108.49
589.925	10153.69
590.284	10150.3
590.643	10149.17
591.003	10165.89
591.362	10216.96
591.721	10181.71
592.08	10179.45
592.44	10138.77
592.799	10181.71
593.158	10160.24
593.517	10171.31
593.876	10194.36
594.235	10234.36
594.593	10228.94
594.952	10223.74
595.311	10295.83
595.67	10205.66
596.029	10270.52
596.387	10255.15
596.746	10243.63
597.104	10274.81
597.463	10244.76
597.822	10218.77
598.18	10218.77
598.538	10219.67
598.897	10317.75
599.255	10233.46
599.613	10338.99
599.972	10340.35
600.33	10301.48
600.688	10306.45
601.046	10360.01
601.404	10330.86
601.762	10343.51
602.12	10379.67
602.478	10393
602.836	10344.42
603.194	10373.34
603.552	10260.58
603.91	10297.64
604.268	10338.54
604.625	10347.58
604.983	10331.54
605.341	10328.15
605.698	10408.14
606.056	10454.24
606.413	10327.47
606.771	10386.9
607.128	10455.83
607.485	10357.07
607.843	10426.67
608.2	10498.31
608.557	10527.01
608.914	10463.51
609.272	10481.36
609.629	10485.43
609.986	10567.46
610.343	10493.34
610.7	10521.59
611.057	10487.24
611.414	10582.6
611.771	10521.81
612.127	10550.51
612.484	10568.82
612.841	10621.92
613.198	10547.35
613.554	10615.14
613.911	10629.38
614.267	10617.63
614.624	10588.03
614.98	10656.95
615.337	10687.23
615.693	10668.02
616.05	10686.1
616.406	10754.35
616.762	10705.76
617.118	10699.44
617.475	10681.13
617.831	10737.18
618.187	10731.53
618.543	10722.71
618.899	10764.97
619.255	10757.29
619.611	10788.47
619.967	10786.44
620.323	10891.52
620.678	10793.9
621.034	10785.99
621.39	10748.25
621.746	10774.46
622.101	10894.23
622.457	10800.45
622.812	10750.73
623.168	10851.52
623.523	10875.48
623.879	10819.21
624.234	10860.79
624.589	10804.74
624.945	10841.81
625.3	10830.28
625.655	10808.81
626.01	10831.18
626.365	10843.39
626.72	10782.15
627.075	10896.72
627.43	10872.54
627.785	10814.24
628.14	10804.52
628.495	10849.26
628.85	10823.5
629.205	10811.3
629.559	10872.31
629.914	10809.72
630.269	10809.26
630.623	10781.24
630.978	10752.77
631.332	10743.5
631.687	10869.83
632.041	10776.72
632.396	10723.84
632.75	10809.94
633.104	10772.2
633.459	10701.47
633.813	10626.67
634.167	10725.88
634.521	10682.04
634.875	10720.45
635.229	10693.11
635.583	10709.15
635.937	10657.18
636.291	10626.22
636.645	10672.32
636.999	10642.71
637.352	10653.56
637.706	10587.35
638.06	10616.27
638.413	10627.57
638.767	10595.26
639.121	10637.97
639.474	10497.18
639.828	10589.83
640.181	10522.72
640.534	10629.83
640.888	10532.89
641.241	10560.23
641.594	10591.87
641.947	10547.12
642.301	10530.18
642.654	10612.21
643.007	10553.45
643.36	10524.3
643.713	10544.19
644.066	10497.63
644.419	10459.89
644.771	10463.28
645.124	10353.23
645.477	10306.9
645.83	10287.7
646.182	10164.76
646.535	10256.96
646.888	10221.03
647.24	10206.79
647.593	10208.83
647.945	10234.59
648.298	10118.21
648.65	10174.03
649.002	10115.27
649.355	10217.87
649.707	10163.41
650.059	10183.74
650.411	10281.59
650.763	10310.97
651.115	10410.86
651.467	10377.64
651.819	10388.94
652.171	10395.26
652.523	10356.62
652.875	10331.54
653.227	10355.04
653.578	10397.98
653.93	10396.85
654.282	10341.93
654.633	10345.1
654.985	10320.92
655.337	10354.13
655.688	10357.98
656.039	10358.88
656.391	10238.21
656.742	10332.67
657.094	10380.8
657.445	10424.19
657.796	10345.1
658.147	10299.22
658.498	10336.96
658.849	10371.31
659.2	10335.15
659.551	10264.19
659.902	10309.39
660.253	10422.83
660.604	10286.11
660.955	10312.33
661.306	10322.5
661.656	10324.3
662.007	10338.54
662.358	10363.85
662.708	10304.19
663.059	10325.89
663.409	10280.46
663.76	10329.95
664.11	10276.4
664.461	10336.73
664.811	10302.61
665.161	10331.08
665.511	10308.03
665.862	10305.32
666.212	10313.23
666.562	10326.79
666.912	10322.04
667.262	10309.16
667.612	10368.37
667.962	10364.3
668.312	10355.94
668.662	10359.11
669.011	10318.2
669.361	10351.42
669.711	10287.47
670.06	10347.81
670.41	10278.66
670.76	10254.48
671.109	10298.99
671.459	10177.64
671.808	10189.62
672.157	10327.92
672.507	10241.14
672.856	10191.2
673.205	10256.96
673.554	10229.17
673.904	10199.56
674.253	10278.66
674.602	10193.46
674.951	10111.66
675.3	9982.39
675.649	10166.12
675.998	10147.59
676.346	10165.21
676.695	10121.6
677.044	10063.75
677.393	10094.71
677.741	10202.73
678.09	10139.22
678.438	10117.08
678.787	10087.7
679.135	10102.84
679.484	9990.3
679.832	10025.78
680.181	10081.15
680.529	10049.06
680.877	10044.76
681.225	10010.64
681.573	10068.49
681.922	9934.48
682.27	9963.86
682.618	9936.97
682.966	9911.21
683.314	9920.7
683.661	9830.76
684.009	9840.7
684.357	9878.21
684.705	9889.51
685.053	9774.04
685.4	9812.68
685.748	9796.18
686.095	9704.21
686.443	9721.83
686.79	9732.23
687.138	9690.2
687.485	9726.58
687.832	9666.02
688.18	9684.55
688.527	9572.46
688.874	9584.66
689.221	9539.01
689.568	9505.12
689.915	9519.81
690.262	9548.51
690.609	9475.06
690.956	9442.52
691.303	9464.89
691.65	9328.4
691.997	9379.47
692.344	9302.64
692.69	9287.95
693.037	9406.59
693.383	9283.43
693.73	9240.49
694.077	9221.73
694.423	9269.87
694.769	9202.75
695.116	9155.52
695.462	9153.71
695.808	9082.76
696.155	9142.19
696.501	9082.53
696.847	9059.93
697.193	8974.51
697.539	9056.99
697.885	8938.35
698.231	8867.17
698.577	8899.94
698.923	8894.51
699.269	8889.77
699.614	8791.69
699.96	8806.83
700.306	8722.99
700.651	8719.6
700.997	8705.36
701.342	8713.73
701.688	8673.95
702.033	8644.12
702.379	8630.34
702.724	8583.33
703.069	8626.95
703.415	8551.7
703.76	8501.98
704.105	8508.76
704.45	8442.32
704.795	8463.79
705.14	8410.68
705.485	8394.64
705.83	8321.19
706.175	8443.68
706.52	8310.12
706.865	8323.23
707.209	8311.25
707.554	8246.85
707.899	8311.48
708.243	8199.61
708.588	8260.18
708.932	8183.34
709.277	8214.3
709.621	8185.15
709.966	8105.15
710.31	8146.73
710.654	8060.18
710.998	8080.97
711.342	8142.44
711.687	8032.39
712.031	8001.88
712.375	8013.41
712.719	8009.11
713.063	8017.92
713.407	8019.28
713.75	7961.66
714.094	8010.47
714.438	7972.73
714.782	7963.46
715.125	7841.88
715.469	7912.84
715.812	7884.37
716.156	7859.28
716.499	7892.73
716.843	7855.22
717.186	7779.96
717.53	7904.71
717.873	7836.23
718.216	7908.1
718.559	7872.84
718.902	7759.4
719.246	7765.73
719.589	7770.02
719.932	7729.57
720.275	7755.78
720.617	7777.93
720.96	7706.29
721.303	7735.22
721.646	7753.52
721.989	7683.7
722.331	7682.34
722.674	7710.36
723.016	7697.48
723.359	7644.38
723.701	7755.78
724.044	7697.48
724.386	7607.99
724.729	7656.8
725.071	7751.27
725.413	7650.25
725.755	7651.83
726.097	7691.15
726.439	7618.61
726.782	7625.39
727.124	7610.25
727.465	7638.95
727.807	7564.83
728.149	7541.1
728.491	7576.81
728.833	7625.17
729.175	7562.57
729.516	7509.24
729.858	7521.44
730.199	7552.85
730.541	7591.72
730.882	7512.4
731.224	7565.96
731.565	7514.21
731.906	7545.17
732.248	7550.82
732.589	7453.65
732.93	7494.55
733.271	7450.93
733.612	7520.54
733.953	7531.84
734.294	7510.82
734.635	7487.54
734.976	7531.84
735.317	7535.45
735.658	7498.39
735.999	7518.05
736.339	7503.59
736.68	7567.77
737.021	7480.09
737.361	7470.59
737.702	7524.83
738.042	7423.14
738.383	7464.49
738.723	7498.84
739.063	7477.83
739.404	7486.41
739.744	7471.5
740.084	7431.05
740.424	7445.51
740.764	7423.36
741.104	7427.43
741.444	7436.25
741.784	7396.47
742.124	7492.97
742.464	7455.45
742.804	7444.83
743.143	7450.48
743.483	7381.11
743.823	7396.02
744.162	7408.68
744.502	7478.5
744.841	7387.21
745.181	7435.57
745.52	7405.74
745.86	7402.35
746.199	7386.98
746.538	7417.94
746.877	7422.69
747.216	7423.59
747.556	7371.61
747.895	7463.82
748.234	7327.77
748.573	7411.16
748.911	7377.49
749.25	7361.22
749.589	7339.75
749.928	7369.81
750.267	7360.54
750.605	7396.25
750.944	7351.73
751.283	7394.44
751.621	7345.85
751.96	7307.89
752.298	7325.51
752.636	7377.49
752.975	7306.31
753.313	7257.27
753.651	7273.99
753.989	7222.24
754.327	7250.26
754.666	7240.32
755.004	7263.59
755.342	7219.53
755.679	7243.93
756.017	7249.13
756.355	7208.68
756.693	7244.39
757.031	7252.97
757.368	7120.1
757.706	7140.21
758.044	7131.39
758.381	7117.38
758.719	7107.89
759.056	7105.86
759.394	7095.69
759.731	7035.35
760.068	7039.19
760.405	7060.66
760.743	6946.99
761.08	7001.68
761.417	6966.88
761.754	6951.74
762.091	7007.33
762.428	6921.91
762.765	6870.61
763.102	6963.72
763.438	6895.92
763.775	6923.04
764.112	6848.01
764.449	6846.43
764.785	6830.39
