Data from mousepad_grey_FLMS001491_00058.txt Node
Date: Wed Feb 08 14:29:38 GMT 2017
User: dcchb
Spectrometer: FLMS00149
Trigger mode: 0
Integration Time (sec): 2.000000E-2
Scans to average: 10
Electric dark correction enabled: true
Nonlinearity correction enabled: false
Boxcar width: 0
XAxis mode: Wavelengths
Number of Pixels in Spectrum: 2048
>>>>>Begin Spectral Data<<<<<
341.393	-9.87
341.776	-9.87
342.16	-9.87
342.543	-64.56
342.927	-81.96
343.31	-65.01
343.693	-63.88
344.077	-52.58
344.46	-61.62
344.843	-55.52
345.226	-65.69
345.61	-30.44
345.993	-13.04
346.376	0.3
346.759	11.14
347.142	22.44
347.525	63.35
347.908	61.99
348.291	64.7
348.674	74.42
349.057	109.45
349.44	127.07
349.823	129.56
350.206	148.99
350.588	179.95
350.971	202.33
351.354	206.62
351.737	226.28
352.119	238.26
352.502	243
352.884	236
353.267	252.72
353.65	272.83
354.032	284.13
354.414	272.83
354.797	311.25
355.179	285.94
355.562	300.18
355.944	301.98
356.326	306.5
356.709	330.91
357.091	306.5
357.473	304.02
357.855	294.98
358.238	324.36
358.62	312.38
359.002	324.81
359.384	313.51
359.766	327.75
360.148	325.49
360.53	314.64
360.912	323.23
361.294	320.51
361.676	324.36
362.057	318.03
362.439	326.39
362.821	312.38
363.203	317.12
363.584	307.63
363.966	306.5
364.348	307.41
364.729	301.08
365.111	273.74
365.493	293.17
365.874	285.71
366.256	285.26
366.637	283.45
367.019	279.39
367.4	310.8
367.781	299.05
368.163	275.09
368.544	277.13
368.925	295.2
369.306	297.69
369.688	284.58
370.069	278.93
370.45	289.78
370.831	269.22
371.212	291.14
371.593	300.4
371.974	290.68
372.355	287.29
372.736	296.11
373.117	298.37
373.498	292.04
373.879	289.33
374.26	289.1
374.641	299.72
375.021	296.11
375.402	295.43
375.783	307.86
376.163	288.42
376.544	297.01
376.925	300.63
377.305	305.6
377.686	301.76
378.066	315.09
378.447	297.24
378.827	319.16
379.208	287.75
379.588	300.4
379.968	306.5
380.349	309.22
380.729	312.38
381.109	302.89
381.489	336.11
381.87	317.35
382.25	296.33
382.63	310.12
383.01	328.88
383.39	321.64
383.77	327.52
384.15	322.55
384.53	337.01
384.91	325.49
385.29	308.09
385.67	320.74
386.049	333.17
386.429	337.01
386.809	329.1
387.189	326.39
387.568	316.9
387.948	331.14
388.328	348.31
388.707	340.4
389.087	334.98
389.466	326.62
389.846	354.86
390.225	316.22
390.605	325.03
390.984	325.03
391.363	316.45
391.743	337.91
392.122	338.59
392.501	326.62
392.881	359.61
393.26	340.4
393.639	345.6
394.018	338.82
394.397	350.12
394.776	348.76
395.155	320.51
395.534	337.01
395.913	339.04
396.292	327.75
396.671	352.15
397.05	332.49
397.429	347.63
397.808	341.53
398.186	351.47
398.565	373.85
398.944	345.82
399.323	343.34
399.701	375.2
400.08	353.06
400.458	345.15
400.837	357.58
401.215	348.31
401.594	375.88
401.972	378.59
402.351	365.48
402.729	363.9
403.107	374.07
403.486	375.2
403.864	374.52
404.242	379.27
404.62	383.11
404.999	367.52
405.377	379.72
405.755	409.78
406.133	394.18
406.511	391.7
406.889	383.56
407.267	396.44
407.645	385.37
408.023	395.31
408.401	385.82
408.779	387.63
409.156	412.94
409.534	409.1
409.912	403.9
410.29	424.47
410.667	418.36
411.045	430.34
411.422	411.13
411.8	423.56
412.178	410.91
412.555	434.86
412.933	419.95
413.31	454.75
413.687	440.51
414.065	427.86
414.442	436.44
414.819	433.96
415.197	462.66
415.574	416.1
415.951	439.61
416.328	454.97
416.705	445.26
417.082	446.39
417.46	462.21
417.837	450.68
418.214	450.91
418.591	461.08
418.967	471.02
419.344	470.57
419.721	479.15
420.098	483.22
420.475	469.44
420.852	463.34
421.228	489.78
421.605	458.59
421.982	484.58
422.358	488.19
422.735	522.09
423.111	503.56
423.488	496.1
423.864	514.18
424.241	499.04
424.617	498.81
424.994	516.67
425.37	517.35
425.746	490.68
426.123	494.75
426.499	506.95
426.875	528.42
427.251	542.66
427.627	530.23
428.003	544.92
428.379	549.89
428.756	539.72
429.132	541.3
429.507	555.99
429.883	541.3
430.259	560.73
430.635	570.45
431.011	567.29
431.387	571.13
431.763	577.23
432.138	568.19
432.514	561.64
432.89	588.76
433.265	594.86
433.641	609.32
434.016	613.61
434.392	596.21
434.767	612.26
435.143	611.58
435.518	619.94
435.894	613.84
436.269	618.36
436.644	652.93
437.02	648.87
437.395	628.53
437.77	630.56
438.145	652.71
438.52	652.03
438.895	665.14
439.271	656.32
439.646	673.73
440.021	674.63
440.395	675.99
440.77	663.33
441.145	705.14
441.52	699.49
441.895	682.09
442.27	690
442.645	687.28
443.019	687.06
443.394	717.34
443.769	679.83
444.143	694.29
444.518	726.15
444.892	698.58
445.267	714.63
445.641	715.98
446.016	712.82
446.39	747.17
446.764	750.56
447.139	750.79
447.513	736.55
447.887	757.34
448.262	761.41
448.636	746.27
449.01	762.76
449.384	741.75
449.758	775.42
450.132	772.03
450.506	775.64
450.88	767.73
451.254	774.97
451.628	767.06
452.002	801.41
452.376	780.84
452.75	801.86
453.123	804.57
453.497	802.99
453.871	805.47
454.244	840.27
454.618	837.79
454.992	854.29
455.365	841.86
455.739	875.98
456.112	864
456.486	869.2
456.859	868.75
457.232	913.27
457.606	882.76
457.979	901.74
458.352	898.13
458.725	930.89
459.099	949.42
459.472	923.89
459.845	948.07
460.218	978.58
460.591	961.63
460.964	973.38
461.337	1005.92
461.71	960.27
462.083	991.46
462.456	999.59
462.829	1012.7
463.201	1031.68
463.574	1045.01
463.947	1039.59
464.32	1055.86
464.692	1069.87
465.065	1084.11
465.438	1105.35
465.81	1094.51
466.183	1094.51
466.555	1123.2
466.928	1126.37
467.3	1109.65
467.672	1137.89
468.045	1157.78
468.417	1147.16
468.789	1166.59
469.161	1208.4
469.534	1212.69
469.906	1216.08
470.278	1229.19
470.65	1251.79
471.022	1263.99
471.394	1228.74
471.766	1269.64
472.138	1280.49
472.51	1312.58
472.882	1311.9
473.253	1345.12
473.625	1359.13
473.997	1369.98
474.369	1386.47
474.74	1407.94
475.112	1424.21
475.484	1444.1
475.855	1458.11
476.227	1452.24
476.598	1488.17
476.97	1503.31
477.341	1505.79
477.713	1588.96
478.084	1570.2
478.455	1616.07
478.827	1620.82
479.198	1635.51
479.569	1654.49
479.94	1675.96
480.311	1716.64
480.682	1733.81
481.053	1768.61
481.424	1774.71
481.795	1823.53
482.166	1829.63
482.537	1820.14
482.908	1884.99
483.279	1898.1
483.65	1915.95
484.021	1950.98
484.391	1957.76
484.762	2013.13
485.133	2021.49
485.503	2028.49
485.874	2060.81
486.244	2052.22
486.615	2096.96
486.985	2141.48
487.356	2150.52
487.726	2190.52
488.097	2207.24
488.467	2221.48
488.837	2247.7
489.207	2278.2
489.578	2347.58
489.948	2344.42
490.318	2383.96
490.688	2403.17
491.058	2383.96
491.428	2414.92
491.798	2477.07
492.168	2515.94
492.538	2487.91
492.908	2536.73
493.278	2537.18
493.648	2548.7
494.017	2595.26
494.387	2601.36
494.757	2611.08
495.126	2653.56
495.496	2655.37
495.866	2659.21
496.235	2723.16
496.605	2689.04
496.974	2743.5
497.344	2801.13
497.713	2788.92
498.082	2791.64
498.452	2844.97
498.821	2843.61
499.19	2819.43
499.559	2873.22
499.928	2884.51
500.298	2932.65
500.667	2905.76
501.036	2953.89
501.405	2984.62
501.774	3010.16
502.143	2982.59
502.512	2997.28
502.88	3009.03
503.249	3064.62
503.618	3078.86
503.987	3109.59
504.356	3106.2
504.724	3132.64
505.093	3125.41
505.462	3135.81
505.83	3180.78
506.199	3189.59
506.567	3224.62
506.936	3238.63
507.304	3287.67
507.672	3267.78
508.041	3320.66
508.409	3334.22
508.777	3331.28
509.145	3387.55
509.514	3357.5
509.882	3403.14
510.25	3402.47
510.618	3413.09
510.986	3440.43
511.354	3482.01
511.722	3503.71
512.09	3519.98
512.458	3497.15
512.826	3592.52
513.193	3558.17
513.561	3617.15
513.929	3622.12
514.297	3630.03
514.664	3680.88
515.032	3660.77
515.4	3721.33
515.767	3716.58
516.135	3723.36
516.502	3707.77
516.869	3820.08
517.237	3839.29
517.604	3788.9
517.972	3836.58
518.339	3860.53
518.706	3881.32
519.073	3874.77
519.44	3931.94
519.808	3969.68
520.175	3936.01
520.542	3989.57
520.909	4015.78
521.276	4034.31
521.643	4069.57
522.009	4108.44
522.376	4129
522.743	4156.12
523.11	4200.64
523.477	4198.15
523.843	4249.68
524.21	4302.78
524.577	4301.65
524.943	4354.08
525.31	4322.67
525.676	4386.4
526.043	4390.46
526.409	4412.84
526.776	4461.87
527.142	4488.54
527.508	4471.14
527.874	4535.09
528.241	4537.8
528.607	4590.68
528.973	4592.27
529.339	4643.11
529.705	4679.95
530.071	4679.5
530.437	4726.27
530.803	4745.26
531.169	4770.34
531.535	4775.31
531.901	4754.97
532.267	4831.36
532.632	4834.52
532.998	4863.9
533.364	4922.2
533.73	4905.7
534.095	4962.2
534.461	4977.57
534.826	4998.58
535.192	5054.63
535.557	5032.93
535.923	5097.56
536.288	5097.56
536.653	5106.38
537.019	5111.8
537.384	5155.87
537.749	5156.55
538.114	5128.3
538.479	5152.7
538.845	5210.33
539.21	5232.25
539.575	5233.83
539.94	5305.24
540.305	5336.65
540.67	5333.94
541.034	5357.9
541.399	5394.05
541.764	5411.91
542.129	5355.86
542.494	5398.35
542.858	5434.5
543.223	5439.48
543.587	5529.42
543.952	5457.33
544.316	5474.05
544.681	5536.2
545.045	5544.33
545.41	5581.62
545.774	5580.26
546.138	5570.55
546.503	5633.14
546.867	5634.5
547.231	5702.29
547.595	5693.03
547.959	5757.43
548.324	5804.44
548.688	5735.51
549.052	5766.7
549.416	5826.13
549.779	5837.21
550.143	5825.91
550.507	5886.47
550.871	5907.94
551.235	5904.77
551.599	5934.6
551.962	5970.99
552.326	5963.3
552.689	6073.81
553.053	6021.61
553.417	6147.03
553.78	6102.51
554.143	6072
554.507	6134.82
554.87	6129.85
555.234	6200.59
555.597	6210.98
555.96	6231.09
556.323	6230.19
556.686	6264.99
557.05	6249.85
557.413	6283.52
557.776	6298.44
558.139	6355.38
558.502	6405.33
558.865	6414.82
559.228	6471.76
559.59	6481.26
559.953	6447.36
560.316	6519.67
560.679	6551.54
561.041	6570.07
561.404	6609.16
561.767	6598.32
562.129	6577.98
562.492	6706.56
562.854	6703.62
563.217	6720.8
563.579	6742.94
563.941	6729.16
564.304	6843.73
564.666	6843.28
565.028	6887.57
565.39	6839.89
565.753	6948.81
566.115	6940.45
566.477	6979.77
566.839	6998.3
567.201	7066.55
567.563	7026.1
567.925	7093.9
568.287	7112.88
568.648	7124.86
569.01	7141.58
569.372	7178.86
569.734	7177.28
570.095	7234.23
570.457	7233.33
570.819	7229.49
571.18	7239.88
571.542	7266.32
571.903	7274
572.265	7362.81
572.626	7326.66
572.987	7366.2
573.349	7423.15
573.71	7481
574.071	7464.96
574.432	7484.17
574.794	7594.45
575.155	7546.76
575.516	7525.75
575.877	7578.18
576.238	7581.34
576.599	7612.07
576.96	7609.36
577.32	7646.2
577.681	7636.25
578.042	7627.67
578.403	7663.15
578.763	7731.84
579.124	7673.99
579.485	7712.18
579.845	7756.7
580.206	7722.58
580.566	7717.38
580.927	7713.99
581.287	7810.03
581.648	7803.26
582.008	7827.66
582.368	7743.37
582.728	7789.92
583.089	7806.19
583.449	7837.38
583.809	7823.37
584.169	7829.02
584.529	7772.75
584.889	7901.56
585.249	7815.01
585.609	7800.54
585.969	7844.84
586.329	7863.82
586.688	7918.96
587.048	7837.6
587.408	7829.92
587.768	7834.21
588.127	7843.93
588.487	7836.7
588.846	7893.2
589.206	7891.39
589.565	7871.28
589.925	7922.12
590.284	7858.85
590.643	7898.17
591.003	7871.5
591.362	7912.86
591.721	7981.1
592.08	7915.79
592.44	7930.94
592.799	7934.1
593.158	7889.81
593.517	7931.16
593.876	7998.05
594.235	7960.31
594.593	7992.85
594.952	7986.98
595.311	7897.94
595.67	7984.49
596.029	8049.8
596.387	8023.59
596.746	7930.26
597.104	7995.11
597.463	7963.7
597.822	8015.91
598.18	7932.74
598.538	7943.82
598.897	8015
599.255	7938.84
599.613	8003.93
599.972	8005.51
600.33	8053.42
600.688	7979.75
601.046	7977.71
601.404	8056.81
601.762	8027.43
602.12	8088.22
602.478	8046.41
602.836	8035.11
603.194	8013.65
603.552	8050.03
603.91	7996.92
604.268	8009.13
604.625	8087.32
604.983	8046.64
605.341	8024.72
605.698	8124.15
606.056	8049.35
606.413	8125.28
606.771	8090.03
607.128	8097.48
607.485	8098.61
607.843	8150.14
608.2	8130.48
608.557	8166.64
608.914	8089.8
609.272	8205.05
609.629	8200.98
609.986	8186.07
610.343	8127.54
610.7	8256.8
611.057	8254.54
611.414	8277.14
611.771	8234.88
612.127	8283.92
612.484	8252.51
612.841	8249.12
613.198	8262.45
613.554	8271.04
613.911	8292.96
614.267	8279.17
614.624	8292.73
614.98	8200.08
615.337	8332.28
615.693	8367.99
616.05	8309.68
616.406	8378.61
616.762	8371.83
617.118	8298.38
617.475	8305.61
617.831	8367.53
618.187	8333.86
618.543	8327.99
618.899	8407.99
619.255	8399.17
619.611	8370.92
619.967	8409.57
620.323	8461.77
620.678	8444.14
621.034	8398.04
621.39	8436.68
621.746	8391.94
622.101	8481.88
622.457	8368.44
622.812	8441.88
623.168	8510.13
623.523	8425.61
623.879	8431.94
624.234	8454.99
624.589	8454.09
624.945	8451.15
625.3	8533.18
625.655	8470.81
626.01	8434.65
626.365	8506.06
626.72	8451.37
627.075	8445.5
627.43	8498.6
627.785	8448.21
628.14	8471.26
628.495	8485.05
628.85	8486.63
629.205	8430.13
629.559	8491.6
629.914	8444.14
630.269	8452.96
630.623	8458.61
630.978	8415.22
631.332	8483.01
631.687	8456.12
632.041	8464.25
632.396	8512.62
632.75	8450.02
633.104	8457.02
633.459	8339.96
633.813	8360.53
634.167	8337.25
634.521	8351.72
634.875	8390.58
635.229	8432.39
635.583	8331.83
635.937	8342.68
636.291	8324.15
636.645	8316.46
636.999	8324.6
637.352	8321.66
637.706	8297.03
638.06	8356.01
638.413	8337.7
638.767	8326.86
639.121	8308.1
639.474	8269.68
639.828	8260.64
640.181	8302.23
640.534	8268.33
640.888	8254.09
641.241	8219.74
641.594	8245.05
641.947	8275.33
642.301	8247.76
642.654	8259.29
643.007	8351.04
643.36	8346.74
643.713	8221.1
644.066	8292.73
644.419	8231.49
644.771	8170.93
645.124	8071.72
645.477	8084.6
645.83	8053.64
646.182	8087.99
646.535	7961.22
646.888	7976.13
647.24	7993.08
647.593	8070.82
647.945	8039.41
648.298	7963.93
648.65	7958.28
649.002	7966.87
649.355	7926.64
649.707	7968
650.059	8068.33
650.411	8116.02
650.763	8125.51
651.115	8215.22
651.467	8190.14
651.819	8212.06
652.171	8173.64
652.523	8158.73
652.875	8178.16
653.227	8139.74
653.578	8177.93
653.93	8217.03
654.282	8102.23
654.633	8154.43
654.985	8142.91
655.337	8144.94
655.688	8169.57
656.039	8181.1
656.391	8101.33
656.742	8153.53
657.094	8078.95
657.445	8197.37
657.796	8122.79
658.147	8128.44
658.498	8160.76
658.849	8126.64
659.2	8157.37
659.551	8092.97
659.902	8137.94
660.253	8197.82
660.604	8174.54
660.955	8150.59
661.306	8208.67
661.656	8118.05
662.007	8145.17
662.358	8213.41
662.708	8167.31
663.059	8167.54
663.409	8145.85
663.76	8166.18
664.11	8190.59
664.461	8216.8
664.811	8168.22
665.161	8148.56
665.511	8136.58
665.862	8156.69
666.212	8187.2
666.562	8182.91
666.912	8189.01
667.262	8131.61
667.612	8109.91
667.962	8123.7
668.312	8149.01
668.662	8126.64
669.011	8118.5
669.361	8134.77
669.711	8152.85
670.06	8120.54
670.41	8169.12
670.76	8150.82
671.109	8153.98
671.459	8113.3
671.808	8106.75
672.157	8079.18
672.507	8068.56
672.856	8120.31
673.205	8117.82
673.554	8127.77
673.904	8135.45
674.253	8130.03
674.602	8073.08
674.951	8023.59
675.3	7904.95
675.649	8077.15
675.998	8046.41
676.346	8056.58
676.695	8106.07
677.044	7980.43
677.393	8023.14
677.741	8036.92
678.09	7999.18
678.438	8036.92
678.787	8017.71
679.135	8014.32
679.484	7913.99
679.832	7984.49
680.181	7891.16
680.529	7991.05
680.877	7877.38
681.225	7917.83
681.573	7971.39
681.922	7916.47
682.27	7880.77
682.618	7869.24
682.966	7847.77
683.314	7874.44
683.661	7828.11
684.009	7791.5
684.357	7796.25
684.705	7739.3
685.053	7812.52
685.4	7774.1
685.748	7712.41
686.095	7738.62
686.443	7737.27
686.79	7740.88
687.138	7699.98
687.485	7655.91
687.832	7718.29
688.18	7717.83
688.527	7632.64
688.874	7587.44
689.221	7561.91
689.568	7576.82
689.915	7556.26
690.262	7549.93
690.609	7485.3
690.956	7491.17
691.303	7506.09
691.65	7443.04
691.997	7423.38
692.344	7406.88
692.69	7430.38
693.037	7394.45
693.383	7358.07
693.73	7392.42
694.077	7323.27
694.423	7330.27
694.769	7273.1
695.116	7256.15
695.462	7304.96
695.808	7251.86
696.155	7201.69
696.501	7183.61
696.847	7168.47
697.193	7131.18
697.539	7156.27
697.885	7046.66
698.231	7098.64
698.577	7072.2
698.923	7083.5
699.269	7081.47
699.614	7008.47
699.96	6979.77
700.306	6951.53
700.651	6954.24
700.997	6959.66
701.342	6911.75
701.688	6921.92
702.033	6885.31
702.379	6887.8
702.724	6832.89
703.069	6822.26
703.415	6759.89
703.76	6721.25
704.105	6763.73
704.45	6770.97
704.795	6730.06
705.14	6660.69
705.485	6672.44
705.83	6640.12
706.175	6628.82
706.52	6639.44
706.865	6560.58
707.209	6571.42
707.554	6610.52
707.899	6598.32
708.243	6495.49
708.588	6499.79
708.932	6482.39
709.277	6530.07
709.621	6487.13
709.966	6453.91
710.31	6435.83
710.654	6416.17
710.998	6394.25
711.342	6428.6
711.687	6311.32
712.031	6323.97
712.375	6337.98
712.719	6374.82
713.063	6369.85
713.407	6336.85
713.75	6355.16
714.094	6339.11
714.438	6241.04
714.782	6334.59
715.125	6274.03
715.469	6326.23
715.812	6269.96
716.156	6221.6
716.499	6256.18
716.843	6278.32
717.186	6222.51
717.53	6217.99
717.873	6254.82
718.216	6245.56
718.559	6136.18
718.902	6177.31
719.246	6185.44
719.589	6236.29
719.932	6174.37
720.275	6182.05
720.617	6163.52
720.96	6156.74
721.303	6150.87
721.646	6174.15
721.989	6158.33
722.331	6126.92
722.674	6152
723.016	6103.86
723.359	6083.75
723.701	6098.67
724.044	6142.06
724.386	6082.17
724.729	6092.34
725.071	6068.16
725.413	6115.84
725.755	6083.75
726.097	6105.9
726.439	6018.9
726.782	6049.86
727.124	6049.18
727.465	6046.92
727.807	6020.25
728.149	6072.91
728.491	6067.48
728.833	6105.45
729.175	6047.37
729.516	6021.61
729.858	6052.57
730.199	6059.35
730.541	6053.7
730.882	6083.53
731.224	6062.96
731.565	5981.83
731.906	6035.62
732.248	6042.17
732.589	6037.43
732.93	6014.83
733.271	6039.91
733.612	6037.43
733.953	6021.61
734.294	5997.43
734.635	5959.69
734.976	6039.46
735.317	6003.98
735.658	5995.85
735.999	5986.81
736.339	6003.53
736.68	5998.56
737.021	5971.44
737.361	5940.48
737.702	6014.38
738.042	5962.63
738.383	5999.46
738.723	5974.83
739.063	6039.01
739.404	6039.46
739.744	6025.45
740.084	6012.79
740.424	6032.23
740.764	6006.47
741.104	5994.26
741.444	5957.65
741.784	5987.03
742.124	5971.21
742.464	5963.76
742.804	5974.6
743.143	5938.67
743.483	5949.29
743.823	5958.11
744.162	5995.17
744.502	5975.73
744.841	5973.25
745.181	5971.21
745.52	6013.92
745.86	5973.25
746.199	6008.5
746.538	5971.21
746.877	5982.74
747.216	5989.74
747.556	5966.24
747.895	5935.51
748.234	5902.97
748.573	5944.1
748.911	5953.13
749.25	5931.89
749.589	5901.61
749.928	5928.5
750.267	5981.83
750.605	5916.53
750.944	5928.73
751.283	5915.85
751.621	5910.2
751.96	5882.4
752.298	5914.04
752.636	5898.9
752.975	5887.83
753.313	5842.85
753.651	5924.43
753.989	5864.32
754.327	5834.72
754.666	5882.85
755.004	5822.97
755.342	5880.59
755.679	5833.82
756.017	5822.06
756.355	5819.35
756.693	5816.64
757.031	5876.3
757.368	5820.03
757.706	5792.91
758.044	5764.21
758.381	5788.84
758.719	5759.24
759.056	5765.12
759.394	5743.65
759.731	5750.2
760.068	5729.41
760.405	5719.92
760.743	5642.41
761.08	5681.28
761.417	5685.57
761.754	5710.88
762.091	5630.88
762.428	5625.23
762.765	5622.52
763.102	5613.03
763.438	5593.37
763.775	5536.65
764.112	5558.57
764.449	5540.04
764.785	5595.86
765.122	5517.67
765.458	5478.12
765.795	5447.39
766.131	5487.84
766.467	5426.59
766.804	5438.35
767.14	5405.35
767.476	5444.67
767.812	5389.76
768.148	5405.13
768.485	5379.36
768.821	5351.57
769.157	5310.21
769.492	5358.12
769.828	5334.62
770.164	5326.94
770.5	5280.38
770.836	5284.9
771.171	5246.71
771.507	5265.47
