Data from mousepad_grey_FLMS001491_00051.txt Node
Date: Wed Feb 08 14:29:37 GMT 2017
User: dcchb
Spectrometer: FLMS00149
Trigger mode: 0
Integration Time (sec): 2.000000E-2
Scans to average: 10
Electric dark correction enabled: true
Nonlinearity correction enabled: false
Boxcar width: 0
XAxis mode: Wavelengths
Number of Pixels in Spectrum: 2048
>>>>>Begin Spectral Data<<<<<
341.393	-22.92
341.776	-22.92
342.16	-22.92
342.543	-75.13
342.927	-53.88
343.31	-86.42
343.693	-67.44
344.077	-53.88
344.46	-56.37
344.843	-65.63
345.226	-35.35
345.61	-51.62
345.993	-9.36
346.376	-7.56
346.759	15.95
347.142	47.81
347.525	39.22
347.908	76.51
348.291	76.96
348.674	81.71
349.057	95.49
349.44	102.27
349.823	140.69
350.206	144.3
350.588	172.55
350.971	189.27
351.354	197.64
351.737	222.49
352.119	236.05
352.502	235.15
352.884	255.71
353.267	259.1
353.65	267.24
354.032	282.38
354.414	269.72
354.797	279.67
355.179	281.93
355.562	300.01
355.944	299.55
356.326	310.63
356.709	320.8
357.091	329.61
357.473	295.71
357.855	336.39
358.238	321.7
358.62	318.76
359.002	321.7
359.384	306.79
359.766	332.32
360.148	325.32
360.53	337.97
360.912	312.44
361.294	301.81
361.676	304.3
362.057	297.97
362.439	313.34
362.821	306.33
363.203	294.58
363.584	317.41
363.966	298.42
364.348	290.74
364.729	292.77
365.111	288.03
365.493	301.36
365.874	311.08
366.256	283.74
366.637	293.23
367.019	289.39
367.4	294.13
367.781	313.79
368.163	286.22
368.544	289.84
368.925	283.51
369.306	299.33
369.688	291.64
370.069	283.74
370.45	288.03
370.831	301.36
371.212	286
371.593	263.85
371.974	277.63
372.355	284.19
372.736	294.58
373.117	290.06
373.498	300.23
373.879	286
374.26	286
374.641	273.34
375.021	300.23
375.402	283.51
375.783	289.84
376.163	305.43
376.544	284.41
376.925	288.71
377.305	293
377.686	312.44
378.066	311.53
378.447	285.54
378.827	316.05
379.208	310.4
379.588	290.29
379.968	289.16
380.349	293.68
380.729	319.21
381.109	322.38
381.489	309.5
381.87	321.25
382.25	302.94
382.63	311.98
383.01	304.98
383.39	322.6
383.77	317.18
384.15	306.79
384.53	330.74
384.91	316.05
385.29	312.66
385.67	302.72
386.049	316.95
386.429	298.2
386.809	317.63
387.189	302.04
387.568	304.98
387.948	330.29
388.328	323.06
388.707	343.17
389.087	322.38
389.466	317.63
389.846	317.86
390.225	349.27
390.605	322.38
390.984	346.56
391.363	329.61
391.743	329.84
392.122	350.63
392.501	344.07
392.881	326.9
393.26	358.31
393.639	335.49
394.018	320.12
394.397	349.5
394.776	368.48
395.155	346.33
395.534	336.84
395.913	351.76
396.292	334.13
396.671	362.83
397.05	346.56
397.429	361.02
397.808	368.48
398.186	358.08
398.565	353.34
398.944	363.73
399.323	347.46
399.701	359.21
400.08	359.67
400.458	362.6
400.837	369.83
401.215	375.03
401.594	373.9
401.972	349.5
402.351	364.41
402.729	370.06
403.107	358.99
403.486	372.09
403.864	390.63
404.242	377.07
404.62	380.23
404.999	399.89
405.377	380.46
405.755	380.46
406.133	388.14
406.511	373.22
406.889	396.5
407.267	380
407.645	410.74
408.023	389.27
408.401	403.73
408.779	405.77
409.156	394.47
409.534	401.92
409.912	401.92
410.29	405.09
410.667	426.1
411.045	411.19
411.422	442.6
411.8	432.66
412.178	428.36
412.555	431.3
412.933	447.57
413.31	453.67
413.687	445.54
414.065	441.92
414.442	434.01
414.819	416.84
415.197	456.39
415.574	436.73
415.951	464.75
416.328	448.93
416.705	468.59
417.082	471.08
417.46	454.58
417.837	494.58
418.214	450.96
418.591	480.34
418.967	476.27
419.344	450.51
419.721	478.76
420.098	467.23
420.475	521.7
420.852	474.69
421.228	486.44
421.605	467.91
421.982	491.19
422.358	494.35
422.735	503.39
423.111	499.77
423.488	487.35
423.864	489.15
424.241	521.7
424.617	516.95
424.994	498.87
425.37	505.42
425.746	526.89
426.123	524.18
426.499	510.17
426.875	540.68
427.251	530.06
427.627	523.05
428.003	529.6
428.379	539.32
428.756	537.74
429.132	545.65
429.507	538.19
429.883	573.67
430.259	564.86
430.635	537.74
431.011	540
431.387	573.67
431.763	606.44
432.138	594.69
432.514	594.24
432.89	586.55
433.265	574.8
433.641	608.92
434.016	609.83
434.392	597.63
434.767	608.7
435.143	611.86
435.518	631.97
435.894	623.16
436.269	629.94
436.644	651.18
437.02	655.7
437.395	654.35
437.77	674.23
438.145	646.66
438.52	663.39
438.895	665.42
439.271	659.77
439.646	653.9
440.021	672.2
440.395	660.9
440.77	684.63
441.145	700.22
441.52	675.82
441.895	695.93
442.27	667.45
442.645	695.02
443.019	675.59
443.394	709.04
443.769	696.61
444.143	698.87
444.518	712.42
444.892	718.07
445.267	730.05
445.641	729.6
446.016	716.94
446.39	730.05
446.764	741.8
447.139	728.92
447.513	723.27
447.887	739.99
448.262	757.62
448.636	772.76
449.01	752.65
449.384	747.68
449.758	777.06
450.132	771.63
450.506	745.19
450.88	794
451.254	763.95
451.628	801.01
452.002	789.48
452.376	800.78
452.75	835.13
453.123	814.79
453.497	814.57
453.871	833.55
454.244	827.45
454.618	849.82
454.992	868.35
455.365	837.85
455.739	854.34
456.112	869.71
456.486	865.42
456.859	884.4
457.232	899.09
457.606	892.76
457.979	903.83
458.352	921.68
458.725	920.1
459.099	914.68
459.472	948.35
459.845	966.2
460.218	961.46
460.591	966.66
460.964	949.03
461.337	977.28
461.71	986.99
462.083	1000.1
462.456	991.29
462.829	1022.93
463.201	1022.47
463.574	1020.67
463.947	1049.14
464.32	1063.15
464.692	1058.18
465.065	1075.58
465.438	1072.19
465.81	1105.41
466.183	1094.34
466.555	1118.29
466.928	1129.81
467.3	1135.01
467.672	1131.4
468.045	1155.35
468.417	1157.38
468.789	1150.15
469.161	1175.24
469.534	1194.67
469.906	1241.68
470.278	1211.39
470.65	1231.73
471.022	1261.79
471.394	1291.17
471.766	1283.71
472.138	1275.57
472.51	1346.53
472.882	1328
473.253	1349.92
473.625	1352.86
473.997	1386.53
474.369	1386.98
474.74	1382.69
475.112	1419.3
475.484	1427.43
475.855	1459.98
476.227	1472.4
476.598	1512.18
476.97	1509.01
477.341	1541.78
477.713	1574.1
478.084	1599.86
478.455	1633.53
478.827	1635.79
479.198	1623.81
479.569	1636.02
479.94	1685.96
480.311	1721.44
480.682	1733.19
481.053	1758.72
481.424	1791.04
481.795	1818.38
482.166	1835.79
482.537	1822.45
482.908	1853.64
483.279	1887.76
483.65	1928.89
484.021	1976.12
484.391	1975.44
484.762	1994.88
485.133	1996.68
485.503	2048.21
485.874	2089.56
486.244	2068.32
486.615	2124.82
486.985	2132.73
487.356	2151.93
487.726	2170.69
488.097	2241.88
488.467	2204.36
488.837	2240.52
489.207	2280.75
489.578	2314.19
489.948	2318.03
490.318	2344.7
490.688	2361.87
491.058	2391.02
491.428	2448.42
491.798	2471.25
492.168	2479.16
492.538	2541.98
492.908	2557.8
493.278	2523.22
493.648	2549.66
494.017	2591.92
494.387	2626.27
494.757	2633.5
495.126	2690.45
495.496	2653.16
495.866	2710.79
496.235	2713.05
496.605	2747.63
496.974	2753.73
497.344	2782.43
497.713	2790.11
498.082	2799.83
498.452	2819.26
498.821	2883.89
499.19	2828.3
499.559	2876.66
499.928	2894.51
500.298	2941.07
500.667	2910.33
501.036	2922.31
501.405	2974.29
501.774	2972.25
502.143	3009.99
502.512	3040.95
502.88	3035.3
503.249	3044.57
503.618	3075.98
503.987	3103.32
504.356	3095.19
504.724	3119.59
505.093	3128.18
505.462	3162.3
505.83	3154.85
506.199	3179.7
506.567	3210.66
506.936	3202.98
507.304	3278.23
507.672	3289.98
508.041	3260.83
508.409	3355.29
508.777	3316.42
509.145	3363.43
509.514	3365.69
509.882	3402.52
510.25	3411.11
510.618	3413.14
510.986	3438.45
511.354	3491.79
511.722	3491.33
512.09	3529.3
512.458	3527.72
512.826	3576.76
513.193	3562.97
513.561	3611.11
513.929	3617.21
514.297	3614.04
514.664	3636.64
515.032	3682.52
515.4	3699.46
515.767	3709.18
516.135	3731.55
516.502	3693.36
516.869	3766.58
517.237	3783.08
517.604	3804.77
517.972	3843.42
518.339	3899.01
518.706	3903.3
519.073	3896.75
519.44	3917.99
519.808	3943.98
520.175	3970.19
520.542	3975.84
520.909	4047.48
521.276	4036.41
521.643	4063.98
522.009	4084.77
522.376	4130.19
522.743	4147.59
523.11	4199.56
523.477	4207.02
523.843	4214.93
524.21	4260.58
524.577	4289.05
524.943	4348.04
525.31	4324.08
525.676	4383.97
526.043	4450.63
526.409	4429.16
526.776	4490.4
527.142	4469.16
527.508	4482.72
527.874	4523.4
528.241	4541.25
528.607	4584.41
528.973	4601.14
529.339	4629.38
529.705	4699.66
530.071	4705.31
530.437	4677.74
530.803	4778.31
531.169	4786.89
531.535	4779.21
531.901	4802.71
532.267	4810.4
532.632	4811.53
532.998	4844.52
533.364	4906.44
533.73	4891.3
534.095	4950.51
534.461	4962.48
534.826	5047
535.192	5039.99
535.557	5066.43
535.923	5033.67
536.288	5136.04
536.653	5075.25
537.019	5134.46
537.384	5138.52
537.749	5195.47
538.114	5136.94
538.479	5194.11
538.845	5261.01
539.21	5193.44
539.575	5312.76
539.94	5233.44
540.305	5294.45
540.67	5333.09
541.034	5326.77
541.399	5348.46
541.764	5376.48
542.129	5427.56
542.494	5420.1
542.858	5455.58
543.223	5478.85
543.587	5519.53
543.952	5495.35
544.316	5503.49
544.681	5503.49
545.045	5581.45
545.41	5635.46
545.774	5604.05
546.138	5641.79
546.503	5663.71
546.867	5682.24
547.231	5722.91
547.595	5661.67
547.959	5705.74
548.324	5771.5
548.688	5787.55
549.052	5795
549.416	5790.94
549.779	5818.73
550.143	5864.38
550.507	5954.55
550.871	5922.23
551.235	5927.43
551.599	5975.11
551.962	6029.35
552.326	6034.54
552.689	6044.94
553.053	6016.47
553.417	6024.83
553.78	6072.96
554.143	6104.15
554.507	6145.73
554.87	6138.72
555.234	6245.16
555.597	6209.91
555.96	6214.2
556.323	6263.69
556.686	6254.65
557.05	6338.72
557.413	6296.46
557.776	6330.36
558.139	6374.87
558.502	6356.57
558.865	6411.26
559.228	6485.61
559.59	6461.65
559.953	6471.37
560.316	6515.66
560.679	6555.21
561.041	6615.77
561.404	6574.64
561.767	6622.33
562.129	6643.57
562.492	6710.23
562.854	6675.43
563.217	6707.3
563.579	6709.56
563.941	6773.73
564.304	6804.47
564.666	6862.32
565.028	6786.62
565.39	6847.63
565.753	6886.5
566.115	6912.04
566.477	6945.93
566.839	6951.36
567.201	7018.25
567.563	6987.74
567.925	7115.42
568.287	7104.8
568.648	7110
569.01	7103.44
569.372	7152.26
569.734	7172.14
570.095	7218.24
570.457	7230.22
570.819	7277.9
571.18	7285.36
571.542	7293.27
571.903	7325.36
572.265	7379.37
572.626	7374.4
572.987	7407.62
573.349	7410.33
573.71	7424.79
574.071	7485.35
574.432	7515.18
574.794	7537.33
575.155	7530.78
575.516	7556.31
575.877	7523.09
576.238	7531
576.599	7572.13
576.96	7564
577.32	7678.57
577.681	7674.73
578.042	7711.11
578.403	7659.81
578.763	7666.37
579.124	7748.4
579.485	7780.04
579.845	7794.27
580.206	7757.21
580.566	7742.07
580.927	7762.63
581.287	7749.75
581.648	7729.87
582.008	7827.27
582.368	7796.08
582.728	7821.84
583.089	7792.24
583.449	7829.98
583.809	7848.73
584.169	7818.45
584.529	7829.98
584.889	7873.59
585.249	7807.15
585.609	7842.63
585.969	7888.51
586.329	7867.72
586.688	7929.64
587.048	7846.93
587.408	7825.91
587.768	7869.3
588.127	7914.27
588.487	7811.45
588.846	7925.34
589.206	7887.6
589.565	7905.46
589.925	7936.19
590.284	7829.3
590.643	7913.37
591.003	7926.47
591.362	7888.28
591.721	7907.04
592.08	7961.95
592.44	7946.13
592.799	7978.22
593.158	7956.08
593.517	7950.2
593.876	7966.92
594.235	7931.67
594.593	7950.88
594.952	7926.7
595.311	7972.57
595.67	7911.11
596.029	7986.81
596.387	7956.08
596.746	7986.81
597.104	8025.23
597.463	8036.53
597.822	7996.75
598.18	7937.55
598.538	7912.46
598.897	8003.76
599.255	7894.83
599.613	8012.12
599.972	8037.2
600.33	8008.96
600.688	8020.93
601.046	8029.75
601.404	8056.86
601.762	8058.22
602.12	8025.68
602.478	8095.51
602.836	8033.81
603.194	8034.04
603.552	8018.9
603.91	8046.47
604.268	8063.87
604.625	8064.32
604.983	8110.2
605.341	8022.06
605.698	8138.67
606.056	8081.72
606.413	8042.63
606.771	8123.53
607.128	8124.89
607.485	8127.6
607.843	8126.47
608.2	8127.6
608.557	8143.87
608.914	8151.55
609.272	8206.47
609.629	8226.58
609.986	8223.19
610.343	8153.36
610.7	8236.29
611.057	8224.77
611.414	8189.06
611.771	8256.18
612.127	8243.98
612.484	8185
612.841	8259.8
613.198	8217.99
613.554	8209.4
613.911	8274.26
614.267	8283.07
614.624	8288.04
614.98	8289.85
615.337	8319
615.693	8337.76
616.05	8289.17
616.406	8335.28
616.762	8315.61
617.118	8305.67
617.475	8331.66
617.831	8327.37
618.187	8335.05
618.543	8386.57
618.899	8406.01
619.255	8441.04
619.611	8406.23
619.967	8454.37
620.323	8390.87
620.678	8401.26
621.034	8374.37
621.39	8379.57
621.746	8375.05
622.101	8488.94
622.457	8430.64
622.812	8431.77
623.168	8439.91
623.523	8445.1
623.879	8465.67
624.234	8416.63
624.589	8436.52
624.945	8435.39
625.3	8456.4
625.655	8463.18
626.01	8466.8
626.365	8451.2
626.72	8475.84
627.075	8482.39
627.43	8449.85
627.785	8482.62
628.14	8467.7
628.495	8423.86
628.85	8405.78
629.205	8446.01
629.559	8443.75
629.914	8424.99
630.269	8414.37
630.623	8439.45
630.978	8400.13
631.332	8450.98
631.687	8420.24
632.041	8429.51
632.396	8466.8
632.75	8432.45
633.104	8389.06
633.459	8329.4
633.813	8432.22
634.167	8414.14
634.521	8384.09
634.875	8326.46
635.229	8362.85
635.583	8330.3
635.937	8367.59
636.291	8395.16
636.645	8328.04
636.999	8319
637.352	8327.14
637.706	8321.04
638.06	8365.56
638.413	8317.42
638.767	8328.04
639.121	8336.63
639.474	8302.06
639.828	8244.43
640.181	8272.45
640.534	8272.45
640.888	8219.35
641.241	8218.22
641.594	8223.87
641.947	8266.8
642.301	8254.83
642.654	8312.68
643.007	8278.55
643.36	8220.93
643.713	8251.21
644.066	8322.39
644.419	8213.24
644.771	8169.18
645.124	8128.5
645.477	8058.9
645.83	8136.86
646.182	8004.66
646.535	8029.52
646.888	8055.06
647.24	7980.03
647.593	8058.67
647.945	8060.93
648.298	7995.62
648.65	7982.52
649.002	7952.91
649.355	7961.27
649.707	7946.58
650.059	8063.19
650.411	8121.27
650.763	8163.08
651.115	8186.58
651.467	8163.98
651.819	8157.2
652.171	8181.15
652.523	8150.65
652.875	8143.64
653.227	8158.33
653.578	8204.43
653.93	8135.96
654.282	8185.67
654.633	8157.65
654.985	8146.13
655.337	8115.85
655.688	8140.48
656.039	8192.68
656.391	8132.57
656.742	8122.4
657.094	8089.41
657.445	8199.91
657.796	8155.39
658.147	8121.5
658.498	8142.29
658.849	8218.67
659.2	8198.56
659.551	8120.14
659.902	8168.95
660.253	8166.47
660.604	8181.61
660.955	8153.81
661.306	8184.32
661.656	8138.22
662.007	8160.59
662.358	8110.87
662.708	8140.25
663.059	8119.46
663.409	8159.91
663.76	8130.08
664.11	8189.29
664.461	8189.29
664.811	8212.57
665.161	8135.96
665.511	8183.87
665.862	8163.08
666.212	8241.49
666.562	8174.38
666.912	8176.86
667.262	8199.23
667.612	8127.82
667.962	8167.14
668.312	8166.69
668.662	8282.17
669.011	8166.92
669.361	8069.07
669.711	8117.88
670.06	8139.8
670.41	8137.99
670.76	8090.31
671.109	8123.98
671.459	8139.8
671.808	8142.06
672.157	8133.7
672.507	8048.05
672.856	8051.44
673.205	8048.73
673.554	8116.75
673.904	8083.76
674.253	8132.34
674.602	8085.56
674.951	7955.85
675.3	7917.66
675.649	8079.24
675.998	8020.71
676.346	8049.86
676.695	8005.57
677.044	8010.31
677.393	8055.73
677.741	8099.8
678.09	8041.72
678.438	7977.32
678.787	7993.59
679.135	8008.96
679.484	7961.27
679.832	8011.89
680.181	7960.6
680.529	7919.24
680.877	7897.32
681.225	7928.05
681.573	7933.25
681.922	7875.17
682.27	7882.86
682.618	7911.33
682.966	7879.69
683.314	7900.94
683.661	7867.26
684.009	7872.69
684.357	7774.39
684.705	7834.95
685.053	7814.61
685.4	7822.52
685.748	7688.29
686.095	7732.58
686.443	7704.33
686.79	7699.59
687.138	7725.35
687.485	7715.4
687.832	7679.47
688.18	7651.45
688.527	7624.11
688.874	7609.42
689.221	7541.17
689.568	7579.14
689.915	7568.29
690.262	7457.78
690.609	7527.61
690.956	7471.57
691.303	7502.98
691.65	7477.67
691.997	7465.24
692.344	7425.24
692.69	7422.53
693.037	7376.88
693.383	7292.36
693.73	7340.27
694.077	7347.96
694.423	7316.09
694.769	7293.04
695.116	7242.65
695.462	7233.16
695.808	7238.13
696.155	7254.17
696.501	7208.98
696.847	7157
697.193	7137.79
697.539	7078.36
697.885	7058.25
698.231	7091.92
698.577	7006.04
698.923	7073.39
699.269	7013.95
699.614	6977.12
699.96	6967.18
700.306	7025.93
700.651	6952.03
700.997	6886.73
701.342	6883.56
701.688	6911.13
702.033	6906.39
702.379	6847.63
702.724	6813.51
703.069	6787.52
703.415	6736
703.76	6771.25
704.105	6749.55
704.45	6779.38
704.795	6674.53
705.14	6610.12
705.485	6681.76
705.83	6652.83
706.175	6626.39
706.52	6600.86
706.865	6606.28
707.209	6608.77
707.554	6550.01
707.899	6574.19
708.243	6532.61
708.588	6478.15
708.932	6516.57
709.277	6479.28
709.621	6485.15
709.966	6411.48
710.31	6437.02
710.654	6383.69
710.998	6414.87
711.342	6380.3
711.687	6364.25
712.031	6356.57
712.375	6344.37
712.719	6393.86
713.063	6318.61
713.407	6374.2
713.75	6314.99
714.094	6326.74
714.438	6299.17
714.782	6280.19
715.125	6311.15
715.469	6287.42
715.812	6267.31
716.156	6237.7
716.499	6219.4
716.843	6245.39
717.186	6248.78
717.53	6226.63
717.873	6266.85
718.216	6210.36
718.559	6199.06
718.902	6169.68
719.246	6209.68
719.589	6175.33
719.932	6147.99
720.275	6181.89
720.617	6147.76
720.96	6154.99
721.303	6162
721.646	6157.71
721.989	6150.02
722.331	6162.22
722.674	6144.82
723.016	6095.33
723.359	6139.85
723.701	6084.26
724.044	6057.14
724.386	6092.4
724.729	6089.68
725.071	6021.21
725.413	6063.02
725.755	6116.12
726.097	6067.31
726.439	6009.46
726.782	6004.26
727.124	6061.21
727.465	6072.74
727.807	6068.89
728.149	6060.08
728.491	6033.19
728.833	6082.23
729.175	6030.25
729.516	6032.96
729.858	6016.92
730.199	6036.8
730.541	6047.43
730.882	6024.6
731.224	6070.48
731.565	6014.21
731.906	6012.62
732.248	6017.14
732.589	6026.86
732.93	6006.75
733.271	6060.76
733.612	6004.94
733.953	5996.58
734.294	5955.45
734.635	5977.15
734.976	5971.95
735.317	5986.41
735.658	5947.77
735.999	6034.54
736.339	6007.43
736.68	6044.71
737.021	5993.42
737.361	5997.03
737.702	6003.81
738.042	6022.12
738.383	6042.91
738.723	5992.51
739.063	6007.43
739.404	5960.42
739.744	5981.44
740.084	5991.83
740.424	5992.29
740.764	5969.91
741.104	5990.7
741.444	5930.14
741.784	6000.87
742.124	5945.51
742.464	5952.29
742.804	5985.28
743.143	6018.05
743.483	5982.12
743.823	5952.74
744.162	5967.65
744.502	5999.07
744.841	5943.02
745.181	6032.28
745.52	5957.71
745.86	6029.57
746.199	5949.35
746.538	5942.8
746.877	6016.01
747.216	5935.56
747.556	5977.6
747.895	6008.33
748.234	5902.12
748.573	5927.88
748.911	5982.12
749.25	5907.09
749.589	5956.13
749.928	5912.74
750.267	5943.25
750.605	5883.14
750.944	5868.45
751.283	5897.37
751.621	5919.29
751.96	5892.18
752.298	5922.46
752.636	5964.26
752.975	5872.29
753.313	5846.53
753.651	5922.91
753.989	5891.95
754.327	5866.64
754.666	5850.14
755.004	5866.19
755.342	5849.01
755.679	5828.67
756.017	5764.04
756.355	5834.1
756.693	5825.06
757.031	5844.72
757.368	5747.55
757.706	5797.94
758.044	5746.19
758.381	5755.91
758.719	5744.83
759.056	5776.7
759.394	5702.35
759.731	5698.73
760.068	5681.56
760.405	5716.14
760.743	5686.31
761.08	5699.64
761.417	5645.85
761.754	5673.42
762.091	5604.5
762.428	5631.17
762.765	5576.48
763.102	5634.1
763.438	5628.91
763.775	5590.49
764.112	5590.49
764.449	5549.59
764.785	5517.04
765.122	5535.8
765.458	5484.73
765.795	5434.33
766.131	5503.03
766.467	5441.11
766.804	5470.49
767.14	5369.48
767.476	5402.24
767.812	5339.87
768.148	5438.85
768.485	5355.47
768.821	5348.01
769.157	5362.47
769.492	5324.51
769.828	5343.04
770.164	5287.45
770.5	5314.11
770.836	5261.01
771.171	5222.14
771.507	5236.37
