Data from mousepad_grey_FLMS001491_00027.txt Node
Date: Wed Feb 08 14:29:12 GMT 2017
User: dcchb
Spectrometer: FLMS00149
Trigger mode: 0
Integration Time (sec): 2.000000E-2
Scans to average: 10
Electric dark correction enabled: true
Nonlinearity correction enabled: false
Boxcar width: 0
XAxis mode: Wavelengths
Number of Pixels in Spectrum: 2048
>>>>>Begin Spectral Data<<<<<
341.393	-16.27
341.776	-16.27
342.16	-16.27
342.543	-61.47
342.927	-54.91
343.31	-56.72
343.693	-61.02
344.077	-56.95
344.46	-62.82
344.843	-38.19
345.226	-40.45
345.61	-35.25
345.993	-33.45
346.376	-17.85
346.759	2.03
347.142	16.04
347.525	49.04
347.908	54.46
348.291	65.53
348.674	92.65
349.057	122.93
349.44	148.7
349.823	129.94
350.206	158.87
350.588	164.74
350.971	202.03
351.354	204.74
351.737	231.86
352.119	242.71
352.502	242.03
352.884	256.94
353.267	270.5
353.65	299.88
354.032	282.93
354.414	289.48
354.797	287
355.179	303.95
355.562	318.41
355.944	316.38
356.326	301.91
356.709	322.48
357.091	317.05
357.473	325.19
357.855	328.13
358.238	348.24
358.62	314.79
359.002	322.48
359.384	324.29
359.766	339.2
360.148	312.53
360.53	310.05
360.912	323.83
361.294	314.34
361.676	321.57
362.057	318.64
362.439	319.77
362.821	324.51
363.203	293.55
363.584	312.99
363.966	316.83
364.348	319.54
364.729	285.42
365.111	314.57
365.493	291.29
365.874	301.69
366.256	311.18
366.637	297.39
367.019	293.78
367.4	294.91
367.781	297.39
368.163	305.08
368.544	299.2
368.925	322.93
369.306	311.86
369.688	294.68
370.069	289.94
370.45	292.65
370.831	295.59
371.212	319.77
371.593	298.07
371.974	284.29
372.355	328.58
372.736	316.6
373.117	300.56
373.498	303.27
373.879	276.83
374.26	305.98
374.641	283.16
375.021	287.68
375.402	263.72
375.783	302.82
376.163	292.42
376.544	293.33
376.925	302.14
377.305	297.17
377.686	321.35
378.066	289.26
378.447	312.76
378.827	305.3
379.208	317.28
379.588	289.71
379.968	307.34
380.349	321.8
380.729	298.52
381.109	302.82
381.489	310.05
381.87	315.02
382.25	311.4
382.63	315.02
383.01	308.92
383.39	327.67
383.77	315.7
384.15	317.51
384.53	332.87
384.91	299.43
385.29	321.12
385.67	317.05
386.049	328.58
386.429	327
386.809	321.12
387.189	323.38
387.568	328.13
387.948	336.26
388.328	327.9
388.707	337.62
389.087	331.06
389.466	351.18
389.846	340.33
390.225	345.53
390.605	360.67
390.984	339.43
391.363	345.53
391.743	360.22
392.122	341.46
392.501	347.56
392.881	346.88
393.26	363.83
393.639	347.11
394.018	391.85
394.397	335.13
394.776	344.4
395.155	361.57
395.534	344.62
395.913	361.8
396.292	372.19
396.671	364.74
397.05	361.57
397.429	377.17
397.808	343.72
398.186	347.11
398.565	391.4
398.944	357.5
399.323	368.8
399.701	359.76
400.08	363.38
400.458	363.61
400.837	378.07
401.215	375.36
401.594	381.68
401.972	398.63
402.351	399.76
402.729	371.29
403.107	382.81
403.486	383.27
403.864	379.65
404.242	400.22
404.62	399.31
404.999	398.86
405.377	394.34
405.755	395.47
406.133	409.71
406.511	402.25
406.889	431.85
407.267	423.27
407.645	422.59
408.023	427.56
408.401	393.21
408.779	420.1
409.156	439.08
409.534	425.98
409.912	404.06
410.29	440.89
410.667	441.57
411.045	465.07
411.422	437.95
411.8	455.81
412.178	453.55
412.555	429.14
412.933	437.73
413.31	451.74
413.687	479.54
414.065	472.08
414.442	457.39
414.819	447.22
415.197	460.78
415.574	454.68
415.951	455.58
416.328	463.04
416.705	494.68
417.082	481.12
417.46	477.05
417.837	501.46
418.214	470.72
418.591	487.22
418.967	502.81
419.344	494.9
419.721	502.81
420.098	491.96
420.475	509.14
420.852	512.3
421.228	525.64
421.605	520.66
421.982	508.69
422.358	508.91
422.735	536.26
423.111	535.35
423.488	518.86
423.864	532.87
424.241	555.24
424.617	545.52
424.994	548.91
425.37	548.01
425.746	557.73
426.123	552.75
426.499	557.27
426.875	555.69
427.251	578.97
427.627	584.62
428.003	581.91
428.379	591.62
428.756	581.91
429.132	585.3
429.507	574.22
429.883	570.61
430.259	605.63
430.635	593.43
431.011	622.58
431.387	590.72
431.763	608.35
432.138	612.64
432.514	614.67
432.89	618.74
433.265	609.02
433.641	648.57
434.016	647.67
434.392	659.19
434.767	676.37
435.143	661
435.518	649.93
435.894	679.08
436.269	672.52
436.644	687.44
437.02	715.01
437.395	699.42
437.77	692.64
438.145	697.83
438.52	702.81
438.895	710.72
439.271	693.32
439.646	729.47
440.021	719.98
440.395	703.71
440.77	735.35
441.145	739.87
441.52	728.57
441.895	754.78
442.27	733.54
442.645	742.58
443.019	758.62
443.394	766.76
443.769	755.91
444.143	751.62
444.518	790.26
444.892	769.7
445.267	775.35
445.641	780.32
446.016	788.91
446.39	805.85
446.764	786.19
447.139	790.49
447.513	806.76
447.887	804.95
448.262	821.9
448.636	814.44
449.01	827.55
449.384	820.77
449.758	831.16
450.132	828.9
450.506	839.75
450.88	847.44
451.254	856.7
451.628	861.22
452.002	854.89
452.376	847.21
452.75	871.39
453.123	864.84
453.497	882.46
453.871	904.83
454.244	916.36
454.618	900.54
454.992	915.23
455.365	903.71
455.739	923.37
456.112	941.67
456.486	929.92
456.859	949.13
457.232	960.43
457.606	943.93
457.979	978.51
458.352	992.52
458.725	1004.27
459.099	1002.01
459.472	1005.4
459.845	1048.33
460.218	1032.97
460.591	1028.22
460.964	1026.19
461.337	1049.92
461.71	1063.93
462.083	1086.98
462.456	1102.8
462.829	1094.21
463.201	1109.12
463.574	1111.84
463.947	1091.72
464.32	1145.51
464.692	1150.7
465.065	1160.65
465.438	1165.39
465.81	1180.08
466.183	1206.75
466.555	1229.35
466.928	1211.49
467.3	1208.56
467.672	1202.45
468.045	1254.43
468.417	1258.95
468.789	1266.18
469.161	1278.16
469.534	1277.93
469.906	1311.6
470.278	1329.46
470.65	1347.76
471.022	1360.87
471.394	1373.07
471.766	1389.79
472.138	1415.33
472.51	1449.23
472.882	1448.55
473.253	1423.47
473.625	1460.3
473.997	1493.75
474.369	1515.89
474.74	1515.67
475.112	1537.36
475.484	1574.2
475.855	1596.57
476.227	1589.56
476.598	1626.4
476.97	1626.62
477.341	1655.78
477.713	1675.89
478.084	1714.53
478.455	1760.63
478.827	1771.48
479.198	1816.9
479.569	1833.4
479.94	1826.39
480.311	1911.14
480.682	1889.89
481.053	1967.86
481.424	1942.1
481.795	1951.81
482.166	1990.91
482.537	2002.89
482.908	2027.74
483.279	2074.75
483.65	2128.31
484.021	2138.7
484.391	2161.98
484.762	2153.84
485.133	2176.89
485.503	2248.3
485.874	2284.01
486.244	2218.02
486.615	2282.43
486.985	2317
487.356	2349.54
487.726	2415.76
488.097	2409.2
488.467	2450.33
488.837	2482.65
489.207	2484
489.578	2502.76
489.948	2539.14
490.318	2583.89
490.688	2613.49
491.058	2666.6
491.428	2666.82
491.798	2721.96
492.168	2746.82
492.538	2754.28
492.908	2787.05
493.278	2783.88
493.648	2818.91
494.017	2840.6
494.387	2874.95
494.757	2867.5
495.126	2894.84
495.496	2931
495.866	2946.82
496.235	3014.16
496.605	3026.81
496.974	3061.16
497.344	3045.12
497.713	3040.37
498.082	3038.11
498.452	3105.91
498.821	3081.5
499.19	3118.56
499.559	3152.69
499.928	3206.24
500.298	3178.45
500.667	3210.09
501.036	3207.6
501.405	3209.86
501.774	3250.54
502.143	3296.86
502.512	3291.44
502.88	3323.53
503.249	3312
503.618	3375.28
503.987	3356.07
504.356	3400.14
504.724	3420.02
505.093	3425.45
505.462	3438.78
505.83	3439.91
506.199	3520.36
506.567	3500.25
506.936	3519.46
507.304	3553.35
507.672	3560.36
508.041	3604.43
508.409	3642.16
508.777	3647.36
509.145	3697.08
509.514	3668.38
509.882	3690.52
510.25	3745.21
510.618	3750.64
510.986	3748.83
511.354	3770.97
511.722	3827.02
512.09	3870.18
512.458	3841.71
512.826	3894.59
513.193	3894.36
513.561	3910.18
513.929	3939.33
514.297	3993.12
514.664	3985.43
515.032	4003.06
515.4	4066.33
515.767	4041.48
516.135	4062.72
516.502	4036.73
516.869	4149.72
517.237	4179.33
517.604	4172.55
517.972	4214.8
518.339	4263.16
518.706	4200.12
519.073	4272.88
519.44	4250.74
519.808	4290.51
520.175	4278.53
520.542	4359.89
520.909	4404.63
521.276	4401.01
521.643	4454.35
522.009	4469.04
522.376	4461.58
522.743	4561.91
523.11	4541.8
523.477	4637.62
523.843	4604.17
524.21	4659.31
524.577	4697.05
524.943	4715.58
525.31	4747.45
525.676	4805.98
526.043	4782.25
526.409	4844.84
526.776	4874
527.142	4917.61
527.508	4911.74
527.874	4963.94
528.241	4952.86
528.607	5031.51
528.973	5033.77
529.339	5058.4
529.705	5108.11
530.071	5124.61
530.437	5098.17
530.803	5236.92
531.169	5166.42
531.535	5241.67
531.901	5230.82
532.267	5301.1
532.632	5314.44
532.998	5346.98
533.364	5365.73
533.73	5371.61
534.095	5410.71
534.461	5439.18
534.826	5487.54
535.192	5459.97
535.557	5556.46
535.923	5509.91
536.288	5540.65
536.653	5567.31
537.019	5607.31
537.384	5624.03
537.749	5648.89
538.114	5650.47
538.479	5682.56
538.845	5710.58
539.21	5705.84
539.575	5754.2
539.94	5714.43
540.305	5800.53
540.67	5819.51
541.034	5849.79
541.399	5883.69
541.764	5874.42
542.129	5893.63
542.494	5939.96
542.858	5982.44
543.223	5953.29
543.587	5972.95
543.952	6027.64
544.316	6025.83
544.681	6023.8
545.045	6079.16
545.41	6128.43
545.774	6120.29
546.138	6095.43
546.503	6141.99
546.867	6220.18
547.231	6251.36
547.595	6233.73
547.959	6316.44
548.324	6279.38
548.688	6283
549.052	6354.86
549.416	6368.19
549.779	6358.02
550.143	6412.94
550.507	6431.7
550.871	6404.8
551.235	6424.69
551.599	6480.28
551.962	6510.11
552.326	6478.25
552.689	6574.52
553.053	6570.67
553.417	6578.36
553.78	6699.26
554.143	6672.37
554.507	6693.61
554.87	6718.47
555.234	6768.18
555.597	6728.86
555.96	6807.96
556.323	6804.79
556.686	6844.11
557.05	6850.44
557.413	6945.58
557.776	6882.98
558.139	6974.51
558.502	6941.96
558.865	6978.12
559.228	6968.4
559.59	7048.63
559.953	7099.93
560.316	7139.93
560.679	7172.92
561.041	7210.66
561.404	7182.86
561.767	7260.83
562.129	7192.13
562.492	7282.52
562.854	7326.59
563.217	7268.51
563.579	7342.63
563.941	7441.16
564.304	7373.37
564.666	7507.15
565.028	7488.16
565.39	7575.17
565.753	7531.1
566.115	7583.76
566.477	7609.29
566.839	7616.75
567.201	7740.14
567.563	7665.34
567.925	7755.05
568.287	7726.58
568.648	7786.46
569.01	7869.62
569.372	7890.87
569.734	7884.76
570.095	7929.74
570.457	7991.88
570.819	7984.2
571.18	7955.95
571.542	7998.89
571.903	7995.04
572.265	8067.13
572.626	8044.08
572.987	8076.62
573.349	8143.74
573.71	8167.92
574.071	8157.3
574.432	8171.31
574.794	8242.27
575.155	8237.07
575.516	8261.93
575.877	8239.78
576.238	8308.93
576.599	8303.51
576.96	8374.7
577.32	8367.46
577.681	8322.27
578.042	8391.19
578.403	8307.8
578.763	8437.74
579.124	8437.74
579.485	8418.54
579.845	8510.96
580.206	8417.41
580.566	8477.97
580.927	8499.44
581.287	8526.1
581.648	8442.26
582.008	8499.44
582.368	8494.24
582.728	8577.18
583.089	8523.84
583.449	8560.45
583.809	8576.27
584.169	8585.09
584.529	8600.9
584.889	8609.27
585.249	8569.49
585.609	8550.96
585.969	8590.28
586.329	8562.49
586.688	8621.47
587.048	8578.76
587.408	8574.24
587.768	8594.58
588.127	8599.55
588.487	8571.3
588.846	8642.26
589.206	8631.86
589.565	8593.67
589.925	8620.34
590.284	8677.96
590.643	8630.96
591.003	8628.02
591.362	8679.32
591.721	8664.63
592.08	8648.13
592.44	8624.18
592.799	8686.78
593.158	8649.94
593.517	8668.02
593.876	8637.96
594.235	8672.99
594.593	8666.44
594.952	8738.98
595.311	8728.36
595.67	8663.95
596.029	8725.19
596.387	8722.26
596.746	8680.68
597.104	8710.51
597.463	8708.25
597.822	8737.17
598.18	8704.4
598.538	8667.12
598.897	8741.01
599.255	8654.24
599.613	8744.85
599.972	8695.14
600.33	8762.26
600.688	8686.78
601.046	8769.49
601.404	8801.12
601.762	8743.72
602.12	8830.5
602.478	8826.66
602.836	8785.08
603.194	8710.05
603.552	8800.45
603.91	8755.25
604.268	8735.36
604.625	8709.83
604.983	8790.96
605.341	8749.6
605.698	8818.75
606.056	8879.54
606.413	8815.59
606.771	8849.26
607.128	8887.45
607.485	8808.36
607.843	8840.22
608.2	8931.74
608.557	8902.14
608.914	8876.38
609.272	8920.9
609.629	8915.47
609.986	8981.01
610.343	8974
610.7	8967.22
611.057	8959.54
611.414	8941.23
611.771	8957.5
612.127	8985.98
612.484	8942.36
612.841	8995.47
613.198	8920.67
613.554	9024.4
613.911	9051.51
614.267	9039.76
614.624	8951.4
614.98	9050.84
615.337	9110.27
615.693	9041.57
616.05	9054.23
616.406	9133.55
616.762	9045.19
617.118	9015.81
617.475	9120.89
617.831	9147.56
618.187	9081.12
618.543	9086.54
618.899	9220.32
619.255	9159.31
619.611	9100.1
619.967	9098.29
620.323	9173.77
620.678	9106.2
621.034	9142.13
621.39	9131.74
621.746	9122.02
622.101	9231.62
622.457	9126.77
622.812	9150.27
623.168	9198.4
623.523	9146.65
623.879	9214.9
624.234	9212.64
624.589	9164.05
624.945	9188.46
625.3	9181.68
625.655	9214.9
626.01	9241.56
626.365	9202.92
626.72	9180.32
627.075	9216.03
627.43	9132.87
627.785	9142.81
628.14	9221.9
628.495	9207.22
628.85	9174.9
629.205	9218.74
629.559	9225.52
629.914	9173.09
630.269	9187.56
630.623	9123.15
630.978	9162.92
631.332	9218.74
631.687	9188.01
632.041	9184.17
632.396	9223.94
632.75	9147.56
633.104	9155.69
633.459	9072.53
633.813	9097.39
634.167	9078.63
634.521	9093.77
634.875	9124.05
635.229	9045.19
635.583	9096.26
635.937	9092.64
636.291	9121.34
636.645	9072.3
636.999	9012.64
637.352	9021.01
637.706	9033.89
638.06	9039.31
638.413	9021.46
638.767	9007.9
639.121	9052.42
639.474	8906.66
639.828	8968.35
640.181	9020.1
640.534	9010.61
640.888	8980.1
641.241	8926.77
641.594	8905.08
641.947	8945.98
642.301	8948.01
642.654	8924.96
643.007	8978.29
643.36	8949.6
643.713	8977.62
644.066	8884.06
644.419	8903.72
644.771	8862.59
645.124	8845.42
645.477	8797.96
645.83	8714.35
646.182	8702.6
646.535	8702.82
646.888	8671.41
647.24	8640.22
647.593	8721.8
647.945	8677.96
648.298	8654.69
648.65	8628.02
649.002	8665.76
649.355	8659.89
649.707	8607.46
650.059	8746.89
650.411	8760.9
650.763	8804.97
651.115	8889.94
651.467	8809.49
651.819	8857.39
652.171	8856.04
652.523	8872.31
652.875	8835.25
653.227	8905.98
653.578	8850.39
653.93	8881.57
654.282	8860.11
654.633	8785.76
654.985	8866.21
655.337	8787.11
655.688	8815.81
656.039	8860.33
656.391	8805.87
656.742	8856.72
657.094	8824.85
657.445	8814.01
657.796	8884.96
658.147	8824.4
658.498	8819.66
658.849	8888.58
659.2	8848.81
659.551	8801.12
659.902	8892.42
660.253	8831.41
660.604	8916.83
660.955	8821.69
661.306	8852.42
661.656	8845.64
662.007	8886.77
662.358	8828.69
662.708	8825.53
663.059	8828.47
663.409	8759.32
663.76	8869.37
664.11	8839.32
664.461	8928.35
664.811	8790.5
665.161	8855.36
665.511	8838.86
665.862	8811.07
666.212	8832.99
666.562	8846.77
666.912	8842.71
667.262	8806.55
667.612	8819.88
667.962	8786.44
668.312	8788.02
668.662	8865.08
669.011	8828.47
669.361	8824.4
669.711	8752.76
670.06	8770.62
670.41	8807.23
670.76	8731.97
671.109	8778.75
671.459	8803.38
671.808	8827.79
672.157	8742.82
672.507	8735.82
672.856	8696.95
673.205	8755.02
673.554	8757.96
673.904	8756.15
674.253	8754.8
674.602	8720.67
674.951	8626.89
675.3	8550.06
675.649	8686.1
675.998	8739.66
676.346	8699.88
676.695	8769.49
677.044	8616.95
677.393	8670.28
677.741	8628.47
678.09	8664.18
678.438	8664.63
678.787	8595.03
679.135	8652.65
679.484	8558.87
679.832	8577.63
680.181	8596.61
680.529	8620.11
680.877	8552.54
681.225	8571.98
681.573	8614.46
681.922	8538.31
682.27	8533.33
682.618	8528.14
682.966	8510.06
683.314	8544.18
683.661	8530.17
684.009	8447.01
684.357	8443.39
684.705	8409.04
685.053	8395.94
685.4	8405.2
685.748	8363.4
686.095	8356.62
686.443	8410.63
686.79	8285.66
687.138	8340.12
687.485	8338.54
687.832	8285.43
688.18	8270.29
688.527	8298.76
688.874	8230.07
689.221	8207.02
689.568	8162.27
689.915	8220.12
690.262	8162.05
690.609	8120.24
690.956	8169.73
691.303	8136.51
691.65	8056.96
691.997	8088.37
692.344	7983.52
692.69	7996.17
693.037	8036.62
693.383	7931.54
693.73	7982.16
694.077	7887.25
694.423	7933.35
694.769	7859.91
695.116	7881.6
695.462	7819.68
695.808	7812.45
696.155	7822.62
696.501	7768.61
696.847	7759.34
697.193	7668.05
697.539	7691.55
697.885	7655.62
698.231	7654.94
698.577	7685.9
698.923	7661.95
699.269	7584.43
699.614	7568.16
699.96	7521.84
700.306	7510.99
700.651	7491.55
700.997	7463.76
701.342	7460.59
701.688	7435.06
702.033	7433.48
702.379	7424.66
702.724	7297.21
703.069	7376.3
703.415	7260.37
703.76	7279.58
704.105	7250.88
704.45	7265.12
704.795	7175.86
705.14	7213.14
705.485	7173.37
705.83	7123.88
706.175	7146.25
706.52	7144.22
706.865	7098.57
707.209	7050.44
707.554	7122.07
707.899	7086.59
708.243	7059.02
708.588	7020.15
708.932	6996.65
709.277	6970.21
709.621	7000.04
709.966	6947.39
710.31	6985.13
710.654	6936.99
710.998	6896.77
711.342	6896.09
711.687	6896.32
712.031	6898.58
712.375	6874.62
712.719	6871.46
713.063	6877.56
713.407	6861.29
713.75	6842.31
714.094	6805.47
714.438	6776.32
714.782	6772.7
715.125	6763.21
715.469	6757.11
715.812	6724.34
716.156	6718.69
716.499	6715.3
716.843	6742.65
717.186	6695.19
717.53	6790.33
717.873	6702.65
718.216	6761.18
718.559	6665.14
718.902	6702.2
719.246	6674.17
719.589	6668.75
719.932	6616.55
720.275	6606.38
720.617	6670.33
720.96	6638.7
721.303	6628.3
721.646	6681.18
721.989	6591.47
722.331	6627.62
722.674	6609.77
723.016	6602.09
723.359	6588.3
723.701	6611.58
724.044	6572.71
724.386	6573.61
724.729	6572.03
725.071	6586.95
725.413	6596.21
725.755	6567.51
726.097	6562.09
726.439	6587.4
726.782	6551.92
727.124	6553.05
727.465	6521.18
727.807	6531.81
728.149	6564.57
728.491	6532.71
728.833	6581.3
729.175	6500.62
729.516	6534.29
729.858	6533.84
730.199	6578.81
730.541	6550.56
730.882	6526.83
731.224	6569.32
731.565	6484.35
731.906	6466.04
732.248	6536.1
732.589	6496.33
732.93	6453.62
733.271	6474.41
733.612	6451.81
733.953	6530.22
734.294	6449.32
734.635	6457.68
734.976	6463.33
735.317	6466.5
735.658	6497.68
735.999	6455.65
736.339	6470.56
736.68	6469.21
737.021	6498.13
737.361	6438.7
737.702	6468.08
738.042	6510.56
738.383	6509.43
738.723	6453.16
739.063	6472.82
739.404	6506.27
739.744	6469.21
740.084	6475.08
740.424	6489.09
740.764	6457.46
741.104	6490.9
741.444	6462.43
741.784	6441.19
742.124	6469.43
742.464	6459.49
742.804	6452.71
743.143	6452.94
743.483	6430.57
743.823	6445.03
744.162	6414.29
744.502	6467.63
744.841	6391.92
745.181	6428.53
745.52	6389.66
745.86	6457.46
746.199	6420.17
746.538	6479.15
746.877	6424.24
747.216	6462.88
747.556	6435.09
747.895	6459.49
748.234	6415.65
748.573	6408.87
748.911	6448.19
749.25	6386.27
749.589	6435.76
749.928	6408.19
750.267	6344.47
750.605	6400.96
750.944	6402.54
751.283	6388.98
751.621	6417.23
751.96	6344.24
752.298	6375.2
752.636	6375.2
752.975	6345.82
753.313	6301.76
753.651	6322.77
753.989	6280.06
754.327	6350.79
754.666	6377.91
755.004	6344.92
755.342	6322.55
755.679	6324.13
756.017	6228.54
756.355	6323
756.693	6286.84
757.031	6266.28
757.368	6273.96
757.706	6267.18
758.044	6245.71
758.381	6226.95
758.719	6228.76
759.056	6198.26
759.394	6240.29
759.731	6167.75
760.068	6143.12
760.405	6107.64
760.743	6124.81
761.08	6154.41
761.417	6069.22
761.754	6100.86
762.091	6122.78
762.428	6090.91
762.765	6056.56
763.102	6054.98
763.438	5956.23
763.775	6006.17
764.112	6016.79
764.449	5949.9
764.785	6012.72
765.122	5972.95
765.458	5906.06
765.795	5958.26
766.131	5852.5
766.467	5929.34
766.804	5873.97
767.14	5816.34
767.476	5829.45
767.812	5820.64
768.148	5804.14
768.485	5823.12
768.821	5743.58
769.157	5765.72
769.492	5741.32
769.828	5703.8
770.164	5718.72
770.5	5632.39
770.836	5642.34
