Data from mousepad_grey_FLMS001491_00003.txt Node
Date: Wed Feb 08 14:28:53 GMT 2017
User: dcchb
Spectrometer: FLMS00149
Trigger mode: 0
Integration Time (sec): 2.000000E-2
Scans to average: 10
Electric dark correction enabled: true
Nonlinearity correction enabled: false
Boxcar width: 0
XAxis mode: Wavelengths
Number of Pixels in Spectrum: 2048
>>>>>Begin Spectral Data<<<<<
341.393	2.8
341.776	2.8
342.16	2.8
342.543	-78.56
342.927	-95.73
343.31	-66.81
343.693	-69.07
344.077	-69.74
344.46	-60.7
344.843	-45.79
345.226	-42.63
345.61	0.31
345.993	-14.38
346.376	-9.86
346.759	17.94
347.142	24.72
347.525	45.73
347.908	47.99
348.291	64.04
348.674	89.35
349.057	88.9
349.44	115.11
349.823	132.74
350.206	165.28
350.588	173.87
350.971	175.22
351.354	200.31
351.737	229.46
352.119	241.66
352.502	256.8
352.884	238.72
353.267	256.8
353.65	269.23
354.032	262.9
354.414	299.74
354.797	278.5
355.179	312.62
355.562	306.52
355.944	305.84
356.326	311.49
356.709	304.94
357.091	316.01
357.473	318.72
357.855	325.27
358.238	316.69
358.62	308.55
359.002	318.04
359.384	331.6
359.766	302.9
360.148	292.73
360.53	332.51
360.912	320.3
361.294	311.49
361.676	323.24
362.057	318.27
362.439	302
362.821	320.75
363.203	308.78
363.584	299.51
363.966	298.61
364.348	308.33
364.729	299.29
365.111	286.18
365.493	290.7
365.874	297.7
366.256	277.37
366.637	299.74
367.019	282.56
367.4	274.65
367.781	286.86
368.163	282.11
368.544	304.48
368.925	280.53
369.306	311.04
369.688	292.96
370.069	291.15
370.45	282.11
370.831	280.98
371.212	288.89
371.593	297.25
371.974	289.79
372.355	303.13
372.736	302.68
373.117	289.34
373.498	312.39
373.879	295.44
374.26	285.73
374.641	288.44
375.021	280.98
375.402	288.44
375.783	312.62
376.163	292.05
376.544	308.55
376.925	302.22
377.305	318.49
377.686	286.86
378.066	301.55
378.447	325.5
378.827	318.49
379.208	287.08
379.588	284.15
379.968	305.61
380.349	312.39
380.729	306.97
381.109	309
381.489	323.47
381.87	335.9
382.25	314.88
382.63	302.22
383.01	316.23
383.39	298.16
383.77	313.52
384.15	309.68
384.53	332.28
384.91	314.2
385.29	326.18
385.67	332.28
386.049	326.63
386.429	328.21
386.809	327.31
387.189	323.92
387.568	337.48
387.948	325.95
388.328	361.21
388.707	334.31
389.087	317.82
389.466	329.57
389.846	338.61
390.225	362.79
390.605	351.49
390.984	320.3
391.363	331.83
391.743	332.96
392.122	336.12
392.501	334.54
392.881	361.66
393.26	348.55
393.639	342.67
394.018	346.52
394.397	339.06
394.776	369.79
395.155	332.05
395.534	354.2
395.913	329.57
396.292	343.35
396.671	352.17
397.05	362.79
397.429	349.68
397.808	357.36
398.186	359.85
398.565	368.44
398.944	368.44
399.323	391.94
399.701	367.98
400.08	368.66
400.458	369.57
400.837	371.37
401.215	391.49
401.594	386.52
401.972	383.58
402.351	372.05
402.729	363.69
403.107	394.42
403.486	386.74
403.864	377.48
404.242	399.85
404.62	379.96
404.999	400.53
405.377	399.62
405.755	382.67
406.133	417.7
406.511	407.31
406.889	422.22
407.267	410.47
407.645	407.53
408.023	407.08
408.401	403.24
408.779	401.88
409.156	434.42
409.534	405.05
409.912	410.02
410.29	423.8
410.667	417.93
411.045	430.81
411.422	417.02
411.8	435.78
412.178	429
412.555	451.82
412.933	471.71
413.31	453.18
413.687	442.56
414.065	434.2
414.442	470.81
414.819	449.56
415.197	459.73
415.574	461.77
415.951	462.9
416.328	466.97
416.705	462.67
417.082	459.73
417.46	481.43
417.837	478.94
418.214	495.66
418.591	496.34
418.967	495.44
419.344	489.79
419.721	478.04
420.098	499.51
420.475	483.46
420.852	502.9
421.228	507.64
421.605	508.55
421.982	501.31
422.358	506.51
422.735	513.74
423.111	515.33
423.488	513.97
423.864	536.79
424.241	517.13
424.617	527.75
424.994	530.92
425.37	545.38
425.746	537.7
426.123	553.06
426.499	531.6
426.875	548.54
427.251	544.7
427.627	563.46
428.003	574.53
428.379	569.79
428.756	596.45
429.132	569.79
429.507	566.17
429.883	588.54
430.259	580.86
430.635	581.31
431.011	600.29
431.387	601.42
431.763	603.91
432.138	591.48
432.514	629.9
432.89	619.28
433.265	618.6
433.641	618.83
434.016	618.15
434.392	627.64
434.767	659.5
435.143	648.88
435.518	640.97
435.894	652.27
436.269	652.72
436.644	681.65
437.02	672.84
437.395	683.91
437.77	669.22
438.145	695.21
438.52	686.62
438.895	706.05
439.271	695.89
439.646	714.64
440.021	707.18
440.395	719.61
440.77	687.75
441.145	724.36
441.52	731.14
441.895	737.24
442.27	746.73
442.645	714.87
443.019	738.37
443.394	731.14
443.769	730.46
444.143	744.7
444.518	781.53
444.892	772.27
445.267	765.71
445.641	759.61
446.016	749.44
446.39	767.52
446.764	772.27
447.139	779.73
447.513	800.52
447.887	779.5
448.262	809.55
448.636	791.93
449.01	796
449.384	802.1
449.758	796.45
450.132	829.89
450.506	800.06
450.88	815.66
451.254	814.98
451.628	847.07
452.002	857.01
452.376	866.28
452.75	860.18
453.123	848.42
453.497	864.69
453.871	855.2
454.244	900.85
454.618	908.76
454.992	911.47
455.365	919.16
455.739	905.6
456.112	935.88
456.486	933.62
456.859	939.04
457.232	936.11
457.606	934.3
457.979	930.91
458.352	972.49
458.725	994.41
459.099	975.43
459.472	996.44
459.845	1005.93
460.218	1019.72
460.591	1021.07
460.964	1033.05
461.337	1042.09
461.71	1075.31
462.083	1084.58
462.456	1057.91
462.829	1092.94
463.201	1081.19
463.574	1096.55
463.947	1109.89
464.32	1123.45
464.692	1104.46
465.065	1144.24
465.438	1145.82
465.81	1165.25
466.183	1189.88
466.555	1202.76
466.928	1198.92
467.3	1196.44
467.672	1214.29
468.045	1226.72
468.417	1250.9
468.789	1233.95
469.161	1261.29
469.534	1288.19
469.906	1311.46
470.278	1318.24
470.65	1311.46
471.022	1355.76
471.394	1373.16
471.766	1399.37
472.138	1393.95
472.51	1409.77
472.882	1430.1
473.253	1467.39
473.625	1414.28
473.997	1473.94
474.369	1481.4
474.74	1511.68
475.112	1535.41
475.484	1545.35
475.855	1562.53
476.227	1558.01
476.598	1594.62
476.97	1608.18
477.341	1651.11
477.713	1696.76
478.084	1702.64
478.455	1735.86
478.827	1740.6
479.198	1800.94
479.569	1787.16
479.94	1811.11
480.311	1818.79
480.682	1874.16
481.053	1910.77
481.424	1909.64
481.795	1930.2
482.166	1946.93
482.537	1983.99
482.908	2037.55
483.279	2051.33
483.65	2073.25
484.021	2113.48
484.391	2123.19
484.762	2168.39
485.133	2126.36
485.503	2196.41
485.874	2244.32
486.244	2268.73
486.615	2287.48
486.985	2300.36
487.356	2360.7
487.726	2339.46
488.097	2390.76
488.467	2433.47
488.837	2467.36
489.207	2474.14
489.578	2537.19
489.948	2518.21
490.318	2559.34
490.688	2567.7
491.058	2604.31
491.428	2634.82
491.798	2664.87
492.168	2713.91
492.538	2692.67
492.908	2732.67
493.278	2772.89
493.648	2793.01
494.017	2832.78
494.387	2827.36
494.757	2892.66
495.126	2892.89
495.496	2931.99
495.866	2939.44
496.235	2995.49
496.605	2949.39
496.974	3013.56
497.344	3036.39
497.713	3019.21
498.082	3089.72
498.452	3090.17
498.821	3104.64
499.19	3115.48
499.559	3150.06
499.928	3135.6
500.298	3186.44
500.667	3197.06
501.036	3167.69
501.405	3266.89
501.774	3262.6
502.143	3234.8
502.512	3305.76
502.88	3297.63
503.249	3328.13
503.618	3316.16
503.987	3400.22
504.356	3401.35
504.724	3407
505.093	3423.05
505.462	3392.54
505.83	3478.86
506.199	3450.39
506.567	3553.21
506.936	3522.93
507.304	3547.34
507.672	3590.05
508.041	3558.41
508.409	3648.12
508.777	3631.85
509.145	3687.45
509.514	3680.67
509.882	3701.91
510.25	3731.51
510.618	3753.43
510.986	3782.58
511.354	3797.95
511.722	3858.29
512.09	3851.51
512.458	3871.85
512.826	3895.35
513.193	3905.97
513.561	3887.44
513.929	3955.01
514.297	3990.49
514.664	4053.76
515.032	4018.06
515.4	4072.75
515.767	4065.51
516.135	4129.69
516.502	4094.67
516.869	4120.2
517.237	4152.29
517.604	4165.62
517.972	4228.45
518.339	4220.54
518.706	4211.73
519.073	4280.65
519.44	4312.97
519.808	4336.47
520.175	4357.48
520.542	4372.85
520.909	4408.78
521.276	4470.93
521.643	4429.35
522.009	4479.29
522.376	4505.5
522.743	4552.51
523.11	4591.6
523.477	4624.82
523.843	4685.84
524.21	4736.01
524.577	4759.28
524.943	4747.3
525.31	4770.81
525.676	4833.18
526.043	4845.61
526.409	4879.73
526.776	4885.61
527.142	4886.28
527.508	4941.42
527.874	5015.77
528.241	4984.59
528.607	5031.36
528.973	5097.13
529.339	5103
529.705	5122.89
530.071	5163.11
530.437	5165.15
530.803	5240.17
531.169	5250.12
531.535	5235.88
531.901	5281.08
532.267	5283.56
532.632	5342.32
532.998	5380.96
533.364	5404.46
533.73	5440.39
534.095	5459.38
534.461	5465.03
534.826	5528.75
535.192	5559.03
535.557	5588.64
535.923	5545.93
536.288	5527.62
536.653	5625.93
537.019	5604.68
537.384	5628.19
537.749	5651.46
538.114	5683.78
538.479	5727.84
538.845	5737.34
539.21	5747.73
539.575	5760.39
539.94	5785.24
540.305	5859.59
540.67	5845.81
541.034	5884.9
541.399	5885.13
541.764	5921.51
542.129	5977.33
542.494	5939.59
542.858	6007.61
543.223	5956.99
543.587	6047.84
543.952	6059.36
544.316	6157.21
544.681	6090.77
545.045	6158.34
545.41	6179.81
545.774	6230.88
546.138	6214.84
546.503	6248.06
546.867	6235.18
547.231	6333.93
547.595	6317.88
547.959	6338.68
548.324	6324.89
548.688	6446.24
549.052	6387.26
549.416	6428.39
549.779	6440.59
550.143	6455.96
550.507	6468.62
550.871	6512.91
551.235	6539.35
551.599	6601.04
551.962	6583.41
552.326	6654.6
552.689	6649.18
553.053	6618.44
553.417	6702.51
553.78	6763.97
554.143	6733.24
554.507	6766.69
554.87	6761.94
555.234	6765.56
555.597	6847.81
555.96	6839.9
556.323	6839.9
556.686	6868.83
557.05	6980.24
557.413	6967.81
557.776	6996.96
558.139	6995.38
558.502	7015.72
558.865	7013.01
559.228	7170.97
559.59	7146.34
559.953	7204.19
560.316	7235.37
560.679	7213
561.041	7262.72
561.404	7289.16
561.767	7358.76
562.129	7322.15
562.492	7414.35
562.854	7439.89
563.217	7428.59
563.579	7473.79
563.941	7524.41
564.304	7507.68
564.666	7598.53
565.028	7565.54
565.39	7663.39
565.753	7638.3
566.115	7722.37
566.477	7732.54
566.839	7757.17
567.201	7735.02
567.563	7878.52
567.925	7866.77
568.287	7824.06
568.648	7862.93
569.01	7933.44
569.372	8013.21
569.734	7945.19
570.095	7940.21
570.457	8045.3
570.819	8066.77
571.18	8097.95
571.542	8161.23
571.903	8159.19
572.265	8125.75
572.626	8198.06
572.987	8167.78
573.349	8241.22
573.71	8278.06
574.071	8302.01
574.432	8365.29
574.794	8353.54
575.155	8345.4
575.516	8365.29
575.877	8405.29
576.238	8461.11
576.599	8442.35
576.96	8383.59
577.32	8521.89
577.681	8482.8
578.042	8559.18
578.403	8559.63
578.763	8521.22
579.124	8548.79
579.485	8501.56
579.845	8559.41
580.206	8538.17
580.566	8575.23
580.927	8570.03
581.287	8585.62
581.648	8649.57
582.008	8655.45
582.368	8586.07
582.728	8627.88
583.089	8666.75
583.449	8702.45
583.809	8629.91
584.169	8686.64
584.529	8747.88
584.889	8714.66
585.249	8646.64
585.609	8655.22
585.969	8704.04
586.329	8737.48
586.688	8785.62
587.048	8701.1
587.408	8704.04
587.768	8724.38
588.127	8704.94
588.487	8705.17
588.846	8751.04
589.206	8744.49
589.565	8746.52
589.925	8734.09
590.284	8753.98
590.643	8779.74
591.003	8802.34
591.362	8854.54
591.721	8829.68
592.08	8776.58
592.44	8789.91
592.799	8822.9
593.158	8766.41
593.517	8870.59
593.876	8821.1
594.235	8758.5
594.593	8845.05
594.952	8801.66
595.311	8839.4
595.67	8812.51
596.029	8862.22
596.387	8908.78
596.746	8909.46
597.104	8901.55
597.463	8886.63
597.822	8910.58
598.18	8836.24
598.538	8798.5
598.897	8876.01
599.255	8765.5
599.613	8940.87
599.972	8853.86
600.33	8848.89
600.688	8800.08
601.046	8898.83
601.404	8984.26
601.762	8955.56
602.12	8963.92
602.478	8906.07
602.836	8969.57
603.194	8888.66
603.552	8932.96
603.91	8905.84
604.268	8940.41
604.625	8904.71
604.983	8979.51
605.341	8988.55
605.698	9106.74
606.056	9034.42
606.413	8999.4
606.771	9013.63
607.128	9039.4
607.485	8955.56
607.843	9049.11
608.2	9090.92
608.557	9048.89
608.914	9049.79
609.272	9049.34
609.629	9085.27
609.986	9110.13
610.343	9092.5
610.7	9204.59
611.057	9076.46
611.414	9135.21
611.771	9103.35
612.127	9171.37
612.484	9157.81
612.841	9210.46
613.198	9174.08
613.554	9133.18
613.911	9229.67
614.267	9207.75
614.624	9213.63
614.98	9174.76
615.337	9303.12
615.693	9200.29
616.05	9197.81
616.406	9353.51
616.762	9274.87
617.118	9280.52
617.475	9245.49
617.831	9343.57
618.187	9316.9
618.543	9260.63
618.899	9374.3
619.255	9298.37
619.611	9329.78
619.967	9384.47
620.323	9407.97
620.678	9369.1
621.034	9314.42
621.39	9350.35
621.746	9351.7
622.101	9434.86
622.457	9399.39
622.812	9400.06
623.168	9421.53
623.523	9405.49
623.879	9381.31
624.234	9392.83
624.589	9426.5
624.945	9390.35
625.3	9430.57
625.655	9443.68
626.01	9385.15
626.365	9424.02
626.72	9432.38
627.075	9384.47
627.43	9419.27
627.785	9360.74
628.14	9443.45
628.495	9432.83
628.85	9419.27
629.205	9409.1
629.559	9449.78
629.914	9400.06
630.269	9428.99
630.623	9374.53
630.978	9359.39
631.332	9362.55
631.687	9369.78
632.041	9440.29
632.396	9413.17
632.75	9380.4
633.104	9347.18
633.459	9302.67
633.813	9393.28
634.167	9316.9
634.521	9315.77
634.875	9338.14
635.229	9312.38
635.583	9317.35
635.937	9301.99
636.291	9275.1
636.645	9259.95
636.999	9201.88
637.352	9341.31
637.706	9170.47
638.06	9284.13
638.413	9153.29
638.767	9253.85
639.121	9232.16
639.474	9117.13
639.828	9266.06
640.181	9192.84
640.534	9159.17
640.888	9194.65
641.241	9126.62
641.594	9193.06
641.947	9172.5
642.301	9261.99
642.654	9228.99
643.007	9153.06
643.36	9142.9
643.713	9145.83
644.066	9183.57
644.419	9092.95
644.771	9186.28
645.124	9060.64
645.477	9000.75
645.83	8957.36
646.182	8956.01
646.535	8946.74
646.888	8909
647.24	8874.65
647.593	8921.21
647.945	8943.8
648.298	8891.83
648.65	8845.28
649.002	8869
649.355	8870.59
649.707	8904.94
650.059	8907.42
650.411	8986.97
650.763	8990.81
651.115	9153.74
651.467	9012.05
651.819	9060.19
652.171	9074.65
652.523	9091.82
652.875	9089.34
653.227	9012.5
653.578	9125.27
653.93	9054.31
654.282	9035.78
654.633	9032.84
654.985	9083.46
655.337	9042.11
655.688	9017.93
656.039	9100.18
656.391	9083.01
656.742	9035.78
657.094	9003.46
657.445	9059.96
657.796	9064.93
658.147	9037.14
658.498	9059.51
658.849	9054.99
659.2	9041.65
659.551	9038.49
659.902	9018.38
660.253	9052.5
660.604	9079.62
660.955	9027.19
661.306	9063.58
661.656	9079.17
662.007	9104.48
662.358	8986.06
662.708	9074.2
663.059	9094.31
663.409	8968.66
663.76	9059.96
664.11	9074.65
664.461	9034.88
664.811	9061.32
665.161	9058.6
665.511	9043.46
665.862	9101.31
666.212	9086.17
666.562	9088.89
666.912	9050.47
667.262	9007.31
667.612	9022.9
667.962	9006.18
668.312	9020.64
668.662	9110.35
669.011	9067.87
669.361	9092.5
669.711	9006.63
670.06	8994.65
670.41	9039.62
670.76	9052.5
671.109	9053.86
671.459	9035.33
671.808	8956.23
672.157	9054.31
672.507	8986.29
672.856	9014.99
673.205	8967.76
673.554	8998.27
673.904	8949.23
674.253	8927.76
674.602	8938.61
674.951	8869.46
675.3	8778.39
675.649	8974.99
675.998	8943.58
676.346	8950.36
676.695	9008.66
677.044	8855.67
677.393	8894.31
677.741	8869.23
678.09	8887.76
678.438	8876.69
678.787	8912.17
679.135	8846.41
679.484	8833.98
679.832	8850.7
680.181	8848.21
680.529	8852.51
680.877	8777.26
681.225	8803.02
681.573	8859.51
681.922	8743.36
682.27	8750.82
682.618	8729.35
682.966	8735.22
683.314	8757.82
683.661	8631.04
684.009	8699.07
684.357	8633.53
684.705	8637.15
685.053	8617.49
685.4	8676.47
685.748	8605.73
686.095	8568.22
686.443	8540.65
686.79	8474.89
687.138	8586.53
687.485	8580.88
687.832	8512.63
688.18	8494.1
688.527	8473.99
688.874	8456.59
689.221	8483.48
689.568	8436.7
689.915	8383.14
690.262	8445.29
690.609	8334.1
690.956	8348.34
691.303	8340.2
691.65	8283.93
691.997	8320.09
692.344	8254.33
692.69	8211.85
693.037	8212.98
693.383	8209.13
693.73	8156.03
694.077	8105.63
694.423	8080.32
694.769	8120.1
695.116	8050.72
695.462	8092.08
695.808	8097.05
696.155	8092.53
696.501	8019.99
696.847	8013.89
697.193	7909.48
697.539	7950.16
697.885	7912.19
698.231	7844.17
698.577	7866.77
698.923	7818.64
699.269	7779.99
699.614	7820.9
699.96	7743.84
700.306	7764.4
700.651	7683.72
700.997	7673.78
701.342	7686.66
701.688	7760.33
702.033	7661.13
702.379	7604.4
702.724	7646.44
703.069	7601.47
703.415	7496.61
703.76	7499.55
704.105	7529.83
704.45	7547.23
704.795	7523.73
705.14	7426.78
705.485	7437.4
705.83	7343.17
706.175	7382.49
706.52	7427.01
706.865	7342.94
707.209	7334.13
707.554	7318.76
707.899	7313.34
708.243	7272.21
708.588	7255.26
708.932	7242.15
709.277	7236.05
709.621	7156.73
709.966	7182.49
710.31	7193.79
710.654	7151.76
710.998	7129.39
711.342	7157.64
711.687	7051.65
712.031	7025.66
712.375	7050.29
712.719	7061.82
713.063	7089.84
713.407	7058.43
713.75	7066.34
714.094	7021.14
714.438	6996.96
714.782	7021.6
715.125	7021.82
715.469	6993.35
715.812	6966.46
716.156	6987.02
716.499	6922.39
716.843	6997.64
717.186	6920.35
717.53	6862.05
717.873	6941.82
718.216	6942.05
718.559	6879.9
718.902	6844.42
719.246	6869.51
719.589	6931.88
719.932	6876.74
720.275	6843.75
720.617	6836.74
720.96	6862.05
721.303	6860.24
721.646	6839.45
721.989	6813.24
722.331	6820.47
722.674	6793.58
723.016	6794.71
723.359	6806.01
723.701	6765.78
724.044	6790.19
724.386	6764.88
724.729	6793.13
725.071	6767.82
725.413	6755.61
725.755	6733.69
726.097	6726.69
726.439	6723.52
726.782	6771.88
727.124	6788.38
727.465	6731.21
727.807	6798.32
728.149	6696.41
728.491	6696.41
728.833	6678.78
729.175	6718.78
729.516	6709.29
729.858	6729.17
730.199	6700.93
730.541	6708.38
730.882	6647.37
731.224	6695.5
731.565	6701.15
731.906	6719.68
732.248	6710.42
732.589	6686.91
732.93	6680.14
733.271	6699.57
733.612	6641.04
733.953	6650.53
734.294	6640.81
734.635	6683.3
734.976	6679.91
735.317	6642.17
735.658	6679.23
735.999	6642.85
736.339	6623.19
736.68	6695.5
737.021	6645.33
737.361	6621.38
737.702	6657.99
738.042	6643.3
738.383	6684.88
738.723	6640.14
739.063	6640.14
739.404	6612.57
739.744	6636.52
740.084	6618.22
740.424	6594.71
740.764	6624.32
741.104	6646.24
741.444	6581.15
741.784	6604.43
742.124	6667.03
742.464	6697.54
742.804	6576.86
743.143	6630.19
743.483	6569.18
743.823	6604.43
744.162	6574.15
744.502	6615.05
744.841	6557.43
745.181	6601.27
745.52	6609.63
745.86	6579.35
746.199	6627.26
746.538	6595.39
746.877	6630.19
747.216	6623.87
747.556	6615.96
747.895	6575.28
748.234	6597.65
748.573	6576.41
748.911	6601.27
749.25	6579.12
749.589	6546.58
749.928	6616.41
750.267	6561.49
750.605	6595.62
750.944	6547.48
751.283	6554.26
751.621	6579.57
751.96	6493.47
752.298	6582.28
752.636	6564.21
752.975	6515.39
753.313	6477.2
753.651	6538.22
753.989	6486.24
754.327	6505.22
754.666	6471.78
755.004	6494.83
755.342	6450.54
755.679	6452.12
756.017	6424.77
756.355	6480.37
756.693	6443.53
757.031	6411.89
757.368	6423.87
757.706	6437.66
758.044	6375.51
758.381	6379.58
758.719	6330.99
759.056	6321.27
759.394	6322.63
759.731	6298
760.068	6341.39
760.405	6255.29
760.743	6280.15
761.08	6278.79
761.417	6253.93
761.754	6260.49
762.091	6251.45
762.428	6200.83
762.765	6195.4
763.102	6214.61
763.438	6181.84
763.775	6139.36
764.112	6131.67
764.449	6153.6
764.785	6133.48
765.122	6042.64
765.458	6061.85
765.795	6055.74
766.131	6083.31
766.467	6037.21
766.804	6039.47
767.14	5983.88
767.476	6013.49
767.812	5972.58
768.148	5957.89
768.485	5945.24
768.821	5877.67
769.157	5897.33
769.492	5835.41
769.828	5860.27
770.164	5859.14
770.5	5863.43
770.836	5821.17
771.171	5804
