Data from mousepad_grey_FLMS001491_00016.txt Node
Date: Wed Feb 08 14:29:03 GMT 2017
User: dcchb
Spectrometer: FLMS00149
Trigger mode: 0
Integration Time (sec): 2.000000E-2
Scans to average: 10
Electric dark correction enabled: true
Nonlinearity correction enabled: false
Boxcar width: 0
XAxis mode: Wavelengths
Number of Pixels in Spectrum: 2048
>>>>>Begin Spectral Data<<<<<
341.393	-22.44
341.776	-22.44
342.16	-22.44
342.543	-83.01
342.927	-66.28
343.31	-58.83
343.693	-76.68
344.077	-72.39
344.46	-60.18
344.843	-47.3
345.226	-47.08
345.61	-31.03
345.993	-17.92
346.376	5.13
346.759	-3.46
347.142	14.62
347.525	65.69
347.908	75.41
348.291	65.24
348.674	91.9
349.057	96.88
349.44	147.72
349.823	143.2
350.206	159.7
350.588	175.07
350.971	203.31
351.354	207.83
351.737	226.36
352.119	235.4
352.502	258.23
352.884	253.93
353.267	273.82
353.65	270.2
354.032	287.61
354.414	297.77
354.797	307.04
355.179	289.19
355.562	330.32
355.944	321.28
356.326	314.27
356.709	323.99
357.091	319.47
357.473	303.42
357.855	302.52
358.238	329.64
358.62	322.18
359.002	311.56
359.384	345.23
359.766	312.92
360.148	328.28
360.53	333.93
360.912	335.97
361.294	322.18
361.676	304.1
362.057	336.42
362.439	312.46
362.821	306.36
363.203	333.25
363.584	314.27
363.966	300.94
364.348	293.48
364.729	295.74
365.111	307.72
365.493	298.23
365.874	294.16
366.256	294.84
366.637	298.45
367.019	304.33
367.4	284.22
367.781	291.67
368.163	309.3
368.544	283.31
368.925	296.42
369.306	314.05
369.688	288.51
370.069	317.21
370.45	312.69
370.831	286.25
371.212	287.38
371.593	280.6
371.974	298.23
372.355	294.61
372.736	308.17
373.117	310.88
373.498	302.29
373.879	307.04
374.26	302.97
374.641	292.58
375.021	318.79
375.402	315.18
375.783	308.85
376.163	312.69
376.544	319.47
376.925	302.75
377.305	305.23
377.686	302.07
378.066	311.56
378.447	298.23
378.827	336.64
379.208	329.41
379.588	311.33
379.968	291.9
380.349	305.68
380.729	313.59
381.109	314.95
381.489	311.33
381.87	314.5
382.25	326.93
382.63	343.65
383.01	340.49
383.39	312.69
383.77	329.41
384.15	316.31
384.53	311.56
384.91	324.67
385.29	334.16
385.67	345.91
386.049	339.13
386.429	335.51
386.809	326.47
387.189	332.8
387.568	319.69
387.948	342.07
388.328	342.52
388.707	345.46
389.087	353.82
389.466	352.46
389.846	318.34
390.225	346.59
390.605	352.69
390.984	329.64
391.363	353.59
391.743	342.29
392.122	346.81
392.501	358.56
392.881	361.73
393.26	370.32
393.639	377.55
394.018	373.25
394.397	388.17
394.776	387.72
395.155	364.21
395.534	359.24
395.913	366.93
396.292	365.8
396.671	374.83
397.05	349.3
397.429	373.7
397.808	382.29
398.186	379.13
398.565	399.01
398.944	386.13
399.323	406.25
399.701	380.26
400.08	370.99
400.458	382.74
400.837	397.21
401.215	392.69
401.594	399.92
401.972	410.77
402.351	403.76
402.729	405.12
403.107	385.68
403.486	388.62
403.864	408.51
404.242	386.81
404.62	404.66
404.999	426.81
405.377	441.5
405.755	434.04
406.133	402.86
406.511	439.69
406.889	412.12
407.267	422.74
407.645	418.9
408.023	409.18
408.401	427.26
408.779	430.2
409.156	421.84
409.534	450.99
409.912	437.88
410.29	457.77
410.667	462.06
411.045	472.91
411.422	453.93
411.8	449.41
412.178	486.02
412.555	468.39
412.933	465.68
413.31	486.47
413.687	485.79
414.065	473.14
414.442	486.24
414.819	492.57
415.197	479.69
415.574	496.64
415.951	493.48
416.328	495.51
416.705	513.36
417.082	513.36
417.46	496.64
417.837	508.62
418.214	508.84
418.591	513.59
418.967	529.41
419.344	535.73
419.721	536.64
420.098	540.03
420.475	538.67
420.852	511.1
421.228	538.67
421.605	564.43
421.982	556.52
422.358	531.21
422.735	553.36
423.111	550.42
423.488	559.24
423.864	556.75
424.241	570.31
424.617	583.42
424.994	579.35
425.37	577.09
425.746	593.13
426.123	569.63
426.499	572.57
426.875	597.2
427.251	595.17
427.627	615.73
428.003	631.33
428.379	612.57
428.756	616.64
429.132	614.38
429.507	635.84
429.883	643.08
430.259	632.91
430.635	640.14
431.011	657.77
431.387	648.27
431.763	654.83
432.138	648.27
432.514	662.51
432.89	655.96
433.265	698.67
433.641	668.39
434.016	693.92
434.392	690.31
434.767	698.67
435.143	695.5
435.518	716.07
435.894	715.62
436.269	742.28
436.644	735.96
437.02	762.4
437.395	734.15
437.77	763.98
438.145	734.15
438.52	774.6
438.895	782.51
439.271	766.24
439.646	788.16
440.021	784.32
440.395	780.47
440.77	762.17
441.145	769.85
441.52	788.84
441.895	795.84
442.27	827.93
442.645	818.66
443.019	839.68
443.394	813.24
443.769	814.82
444.143	798.33
444.518	847.59
444.892	839.68
445.267	848.49
445.641	866.8
446.016	829.29
446.39	867.48
446.764	878.78
447.139	860.47
447.513	864.54
447.887	900.24
448.262	888.49
448.636	878.32
449.01	876.97
449.384	897.08
449.758	879.68
450.132	910.87
450.506	906.35
450.88	914.71
451.254	927.36
451.628	941.15
452.002	936.63
452.376	946.12
452.75	958.1
453.123	948.61
453.497	967.14
453.871	975.5
454.244	1010.07
454.618	996.06
454.992	1000.81
455.365	990.64
455.739	1046.46
456.112	1028.83
456.486	1056.62
456.859	1070.41
457.232	1068.6
457.606	1075.61
457.979	1054.82
458.352	1098.21
458.725	1091.2
459.099	1114.7
459.472	1125.1
459.845	1121.71
460.218	1160.8
460.591	1168.94
460.964	1173.01
461.337	1180.24
461.71	1189.73
462.083	1214.59
462.456	1208.03
462.829	1212.1
463.201	1228.37
463.574	1246.45
463.947	1234.93
464.32	1290.74
464.692	1259.11
465.065	1296.17
465.438	1326
465.81	1336.84
466.183	1359.22
466.555	1343.4
466.928	1371.42
467.3	1368.71
467.672	1384.98
468.045	1397.63
468.417	1408.25
468.789	1415.49
469.161	1424.75
469.534	1450.29
469.906	1486.44
470.278	1499.55
470.65	1513.34
471.022	1531.41
471.394	1538.19
471.766	1573.67
472.138	1601.47
472.51	1598.98
472.882	1609.38
473.253	1627.68
473.625	1678.98
473.997	1716.04
474.369	1717.62
474.74	1726.21
475.112	1741.58
475.484	1790.62
475.855	1787.45
476.227	1787
476.598	1828.81
476.97	1865.87
477.341	1901.35
477.713	1927.56
478.084	1942.93
478.455	1993.32
478.827	1967.56
479.198	2063.83
479.569	2077.39
479.94	2086.43
480.311	2098.86
480.682	2162.36
481.053	2168.01
481.424	2222.24
481.795	2277.84
482.166	2271.06
482.537	2302.69
482.908	2346.76
483.279	2354.44
483.65	2379.75
484.021	2445.29
484.391	2460.2
484.762	2481.45
485.133	2512.63
485.503	2539.52
485.874	2585.4
486.244	2642.35
486.615	2650.48
486.985	2662.23
487.356	2721.44
487.726	2739.29
488.097	2800.31
488.467	2798.27
488.837	2870.81
489.207	2906.29
489.578	2914.66
489.948	2943.35
490.318	2997.36
490.688	2982.45
491.058	3014.77
491.428	3030.13
491.798	3125.5
492.168	3157.81
492.538	3185.83
492.908	3198.94
493.278	3248.21
493.648	3222.22
494.017	3300.18
494.387	3341.76
494.757	3346.51
495.126	3349.9
495.496	3386.96
495.866	3453.17
496.235	3442.78
496.605	3471.48
496.974	3469.22
497.344	3521.42
497.713	3551.7
498.082	3577.01
498.452	3597.8
498.821	3668.08
499.19	3602.55
499.559	3695.88
499.928	3677.8
500.298	3710.34
500.667	3722.09
501.036	3722.09
501.405	3771.58
501.774	3806.61
502.143	3794.18
502.512	3871.92
502.88	3882.31
503.249	3866.49
503.618	3897.68
503.987	3913.95
504.356	3928.64
504.724	3960.96
505.093	3987.85
505.462	4001.18
505.83	4059.71
506.199	4078.24
506.567	4119.14
506.936	4127.5
507.304	4178.12
507.672	4222.19
508.041	4192.14
508.409	4215.19
508.777	4304.45
509.145	4286.37
509.514	4290.66
509.882	4312.13
510.25	4323.21
510.618	4389.87
510.986	4413.15
511.354	4452.24
511.722	4472.13
512.09	4505.12
512.458	4487.27
512.826	4554.84
513.193	4560.49
513.561	4564.1
513.929	4646.81
514.297	4665.12
514.664	4679.13
515.032	4669.64
515.4	4722.07
515.767	4795.74
516.135	4815.17
516.502	4781.27
516.869	4864.43
517.237	4927.03
517.604	4860.82
517.972	4898.33
518.339	4987.59
518.706	4956.41
519.073	4975.84
519.44	5042.73
519.808	5077.31
520.175	5073.47
520.542	5124.54
520.909	5215.61
521.276	5215.39
521.643	5208.38
522.009	5326.57
522.376	5293.12
522.743	5325.67
523.11	5379.45
523.477	5398.66
523.843	5456.96
524.21	5551.87
524.577	5555.94
524.943	5621.48
525.31	5626.22
525.676	5680.23
526.043	5665.77
526.409	5684.75
526.776	5780.34
527.142	5802.04
527.508	5787.35
527.874	5844.07
528.241	5874.13
528.607	5935.14
528.973	5962.26
529.339	5962.26
529.705	6090.39
530.071	6084.97
530.437	6066.21
530.803	6145.08
531.169	6187.79
531.535	6191.63
531.901	6253.55
532.267	6295.13
532.632	6333.77
532.998	6360.44
533.364	6349.37
533.73	6392.08
534.095	6420.55
534.461	6424.39
534.826	6502.58
535.192	6507.55
535.557	6572.41
535.923	6555.24
536.288	6589.81
536.653	6662.81
537.019	6614.67
537.384	6643.82
537.749	6695.12
538.114	6702.35
538.479	6732.86
538.845	6741
539.21	6762.46
539.575	6826.19
539.94	6876.13
540.305	6926.53
540.67	6891.73
541.034	6911.61
541.399	6954.77
541.764	6958.84
542.129	7051.5
542.494	7029.8
542.858	7095.56
543.223	7084.26
543.587	7149.8
543.952	7184.15
544.316	7108.44
544.681	7172.62
545.045	7245.61
545.41	7260.98
545.774	7270.92
546.138	7277.48
546.503	7322.22
546.867	7363.58
547.231	7364.71
547.595	7426.85
547.959	7489
548.324	7504.82
548.688	7478.15
549.052	7479.73
549.416	7596.79
549.779	7543.91
550.143	7605.38
550.507	7676.56
550.871	7696.68
551.235	7723.34
551.599	7725.15
551.962	7794.98
552.326	7841.76
552.689	7897.8
553.053	7816.67
553.417	7806.05
553.78	7984.13
554.143	7881.98
554.507	7974.18
554.87	7970.79
555.234	8045.37
555.597	8034.75
555.96	8107.06
556.323	8121.75
556.686	8128.76
557.05	8190.67
557.413	8218.24
557.776	8243.55
558.139	8303.89
558.502	8309.09
558.865	8321.07
559.228	8372.59
559.59	8430.67
559.953	8423.44
560.316	8544.34
560.679	8516.77
561.041	8595.86
561.404	8573.26
561.767	8656.88
562.129	8603.77
562.492	8778
562.854	8723.99
563.217	8792.24
563.579	8755.86
563.941	8850.09
564.304	8875.63
564.666	8896.87
565.028	8993.59
565.39	9046.25
565.753	9035.17
566.115	9079.69
566.477	9102.97
566.839	9090.99
567.201	9205.56
567.563	9145
567.925	9248.73
568.287	9282.85
568.648	9285.33
569.01	9351.77
569.372	9378.67
569.734	9414.37
570.095	9447.59
570.457	9468.16
570.819	9493.69
571.18	9531.88
571.542	9534.14
571.903	9591.54
572.265	9664.08
572.626	9670.64
572.987	9657.3
573.349	9706.57
573.71	9698.21
574.071	9768.94
574.432	9822.72
574.794	9900.46
575.155	9809.16
575.516	9815.26
575.877	9909.73
576.238	9887.13
576.599	9946.56
576.96	9926.45
577.32	9916.05
577.681	10023.85
578.042	10022.26
578.403	10038.99
578.763	10016.16
579.124	10082.15
579.485	10024.07
579.845	10171.19
580.206	10087.57
580.566	10156.5
580.927	10110.62
581.287	10194.92
581.648	10178.64
582.008	10196.27
582.368	10140.23
582.728	10201.02
583.089	10164.18
583.449	10266.55
583.809	10210.96
584.169	10241.24
584.529	10229.04
584.889	10328.25
585.249	10291.64
585.609	10216.16
585.969	10223.84
586.329	10269.94
586.688	10248.7
587.048	10284.18
587.408	10241.92
587.768	10280.34
588.127	10260.9
588.487	10236.95
588.846	10336.38
589.206	10220
589.565	10288.02
589.925	10343.84
590.284	10324.18
590.643	10312.2
591.003	10343.61
591.362	10359.66
591.721	10370.73
592.08	10320.79
592.44	10427.23
592.799	10430.16
593.158	10390.39
593.517	10378.19
593.876	10400.56
594.235	10375.7
594.593	10321.01
594.952	10397.17
595.311	10358.53
595.67	10420.9
596.029	10460.9
596.387	10414.57
596.746	10481.46
597.104	10438.3
597.463	10424.06
597.822	10440.56
598.18	10452.76
598.538	10397.17
598.897	10484.85
599.255	10418.41
599.613	10555.36
599.972	10469.03
600.33	10508.35
600.688	10457.73
601.046	10534.79
601.404	10567.56
601.762	10501.12
602.12	10555.36
602.478	10520.56
602.836	10549.48
603.194	10500.44
603.552	10553.78
603.91	10504.51
604.268	10495.92
604.625	10565.98
604.983	10572.76
605.341	10515.36
605.698	10629.93
606.056	10654.11
606.413	10574.34
606.771	10614.34
607.128	10589.48
607.485	10611.18
607.843	10672.64
608.2	10618.41
608.557	10698.86
608.914	10638.07
609.272	10693.89
609.629	10711.51
609.986	10760.55
610.343	10714.22
610.7	10765.75
611.057	10768.69
611.414	10758.29
611.771	10762.81
612.127	10869.25
612.484	10777.95
612.841	10854.33
613.198	10776.6
613.554	10845.52
613.911	10834.45
614.267	10927.33
614.624	10821.57
614.98	10895.91
615.337	10968
615.693	10926.2
616.05	10912.18
616.406	10983.6
616.762	10925.07
617.118	10967.32
617.475	10933.88
617.831	10945.63
618.187	10964.16
618.543	10955.57
618.899	11077.15
619.255	11002.35
619.611	10976.14
619.967	11037.15
620.323	11112.18
620.678	11108.11
621.034	11025.18
621.39	11007.32
621.746	11057.72
622.101	11119.86
622.457	11036.48
622.812	11031.5
623.168	11064.95
623.523	11057.49
623.879	11064.05
624.234	11033.09
624.589	11001.45
624.945	11158.96
625.3	11071.73
625.655	11046.19
626.01	11097.49
626.365	11126.42
626.72	11111.5
627.075	11138.39
627.43	11080.99
627.785	11036.7
628.14	11168
628.495	11116.47
628.85	11110.82
629.205	11070.37
629.559	11099.98
629.914	11020.88
630.269	11076.93
630.623	11060.43
630.978	10974.78
631.332	11099.52
631.687	11100.2
632.041	11088.23
632.396	11078.96
632.75	11003.93
633.104	11033.54
633.459	10974.1
633.813	11007.1
634.167	10970.04
634.521	10932.75
634.875	11000.09
635.229	11038.06
635.583	10969.81
635.937	10909.25
636.291	11022.69
636.645	10886.87
636.999	10864.73
637.352	10968.45
637.706	10806.88
638.06	10927.33
638.413	10916.48
638.767	10907.21
639.121	10935.24
639.474	10785.18
639.828	10807.78
640.181	10832.41
640.534	10867.89
640.888	10863.82
641.241	10762.58
641.594	10787.44
641.947	10791.74
642.301	10778.63
642.654	10835.58
643.007	10864.05
643.36	10733.21
643.713	10802.81
644.066	10848.46
644.419	10813.43
644.771	10671.51
645.124	10581.8
645.477	10604.4
645.83	10551.74
646.182	10457.51
646.535	10532.99
646.888	10443.72
647.24	10406.66
647.593	10458.41
647.945	10536.38
648.298	10443.04
648.65	10390.16
649.002	10386.77
649.355	10474.68
649.707	10463.16
650.059	10506.55
650.411	10550.39
650.763	10576.83
651.115	10752.87
651.467	10663.38
651.819	10661.12
652.171	10667.45
652.523	10694.56
652.875	10645.07
653.227	10615.02
653.578	10661.34
653.93	10645.98
654.282	10627.9
654.633	10698.41
654.985	10622.7
655.337	10627.9
655.688	10628.35
656.039	10610.5
656.391	10560.56
656.742	10601.68
657.094	10535.25
657.445	10630.38
657.796	10628.8
658.147	10619.54
658.498	10620.44
658.849	10697.95
659.2	10637.84
659.551	10634.9
659.902	10619.31
660.253	10694.34
660.604	10670.61
660.955	10585.87
661.306	10652.08
661.656	10661.8
662.007	10583.83
662.358	10623.38
662.708	10604.62
663.059	10652.3
663.409	10539.31
663.76	10577.73
664.11	10627.9
664.461	10613.44
664.811	10657.05
665.161	10502.93
665.511	10590.84
665.862	10636.71
666.212	10628.8
666.562	10663.6
666.912	10554.91
667.262	10649.59
667.612	10649.59
667.962	10615.24
668.312	10583.61
668.662	10639.2
669.011	10622.25
669.361	10576.15
669.711	10611.85
670.06	10579.31
670.41	10544.51
670.76	10552.65
671.109	10553.78
671.459	10703.6
671.808	10584.96
672.157	10511.74
672.507	10488.47
672.856	10492.99
673.205	10502.7
673.554	10542.48
673.904	10542.25
674.253	10604.4
674.602	10553.78
674.951	10394.23
675.3	10347.68
675.649	10416.6
675.998	10475.13
676.346	10498.18
676.695	10501.57
677.044	10414.8
677.393	10485.76
677.741	10450.73
678.09	10448.02
678.438	10391.07
678.787	10381.35
679.135	10465.64
679.484	10391.75
679.832	10339.09
680.181	10353.56
680.529	10375.48
680.877	10334.57
681.225	10303.61
681.573	10379.77
681.922	10325.99
682.27	10305.2
682.618	10182.49
682.966	10238.76
683.314	10283.27
683.661	10265.42
684.009	10212.09
684.357	10188.59
684.705	10068.59
685.053	10130.06
685.4	10200.11
685.748	10104.75
686.095	10116.95
686.443	10001.25
686.79	10021.36
687.138	10011.19
687.485	9967.35
687.832	9994.24
688.18	9991.98
688.527	9861.37
688.874	10022.04
689.221	9913.57
689.568	9889.39
689.915	9856.62
690.262	9834.93
690.609	9802.61
690.956	9752.67
691.303	9793.8
691.65	9696.85
691.997	9710.63
692.344	9716.51
692.69	9630.18
693.037	9657.75
693.383	9645.33
693.73	9655.72
694.077	9554.48
694.423	9562.39
694.769	9479
695.116	9518.78
695.462	9407.14
695.808	9422.28
696.155	9467.03
696.501	9453.01
696.847	9358.55
697.193	9291.89
697.539	9364.65
697.885	9279.69
698.231	9267.48
698.577	9207.37
698.923	9186.13
699.269	9156.3
699.614	9128.28
699.96	9098.9
700.306	9101.84
700.651	9018.9
700.997	9015.06
701.342	8969.41
701.688	9027.26
702.033	9028.17
702.379	8917.21
702.724	8891
703.069	8925.57
703.415	8917.44
703.76	8842.86
704.105	8796.31
704.45	8778.91
704.795	8794.5
705.14	8755.63
705.485	8728.97
705.83	8678.57
706.175	8655.52
706.52	8707.95
706.865	8585.92
707.209	8605.35
707.554	8593.15
707.899	8637.22
708.243	8589.08
708.588	8545.47
708.932	8485.13
709.277	8482.64
709.621	8413.72
709.966	8438.35
710.31	8478.58
710.654	8390.67
710.998	8401.74
711.342	8451.46
711.687	8345.92
712.031	8326.72
712.375	8277.23
712.719	8277.23
713.063	8304.57
713.407	8330.78
713.75	8254.85
714.094	8208.3
714.438	8205.82
714.782	8260.96
715.125	8241.52
715.469	8248.98
715.812	8221.18
716.156	8169.88
716.499	8124.69
716.843	8199.71
717.186	8164.46
717.53	8184.35
717.873	8176.89
718.216	8142.09
718.559	8125.37
718.902	8119.04
719.246	8070.23
719.589	8052.6
719.932	8023
720.275	8015.99
720.617	8013.73
720.96	8030.68
721.303	8072.71
721.646	8032.71
721.989	7964.24
722.331	7978.25
722.674	7988.65
723.016	8015.76
723.359	8034.97
723.701	7956.56
724.044	7959.49
724.386	7942.55
724.729	7937.35
725.071	8018.7
725.413	7999.04
725.755	7939.38
726.097	7892.83
726.439	7862.77
726.782	7868.2
727.124	7990.23
727.465	7851.25
727.807	7855.54
728.149	7921.53
728.491	7827.07
728.833	7860.29
729.175	7898.48
729.516	7867.75
729.858	7846.05
730.199	7900.96
730.541	7823.9
730.882	7836.33
731.224	7862.32
731.565	7868.42
731.906	7825.49
732.248	7857.58
732.589	7775.09
732.93	7780.97
733.271	7783.91
733.612	7818.25
733.953	7792.94
734.294	7813.28
734.635	7808.31
734.976	7793.4
735.317	7734.42
735.658	7737.58
735.999	7790.23
736.339	7739.16
736.68	7761.99
737.021	7757.92
737.361	7698.03
737.702	7774.41
738.042	7828.42
738.383	7727.86
738.723	7718.37
739.063	7750.46
739.404	7799.95
739.744	7754.98
740.084	7727.86
740.424	7719.73
740.764	7755.21
741.104	7795.2
741.444	7721.99
741.784	7653.06
742.124	7683.8
742.464	7742.55
742.804	7698.03
743.143	7683.57
743.483	7695.09
743.823	7706.17
744.162	7713.62
744.502	7737.81
744.841	7692.38
745.181	7761.31
745.52	7662.1
745.86	7739.39
746.199	7698.71
746.538	7669.56
746.877	7703.46
747.216	7672.04
747.556	7704.13
747.895	7693.51
748.234	7653.29
748.573	7663
748.911	7682.89
749.25	7666.17
749.589	7656
749.928	7654.64
750.267	7661.42
750.605	7667.3
750.944	7662.55
751.283	7565.38
751.621	7592.72
751.96	7547.98
752.298	7599.05
752.636	7529.9
752.975	7546.62
753.313	7504.82
753.651	7571.93
753.989	7544.82
754.327	7511.82
754.666	7479.51
755.004	7546.62
755.342	7515.66
755.679	7501.43
756.017	7437.02
756.355	7516.79
756.693	7478.83
757.031	7472.05
757.368	7425.5
757.706	7388.89
758.044	7366.06
758.381	7380.3
758.719	7398.38
759.056	7344.37
759.394	7371.71
759.731	7341.43
760.068	7251.26
760.405	7263.47
760.743	7199.51
761.08	7209.23
761.417	7224.6
761.754	7205.39
762.091	7227.99
762.428	7147.76
762.765	7126.3
763.102	7188.67
763.438	7151.15
763.775	7069.35
764.112	7132.85
764.449	7116.8
764.785	7041.55
