Data from mousepad_grey_FLMS001491_00084.txt Node
Date: Wed Feb 08 14:30:03 GMT 2017
User: dcchb
Spectrometer: FLMS00149
Trigger mode: 0
Integration Time (sec): 2.000000E-2
Scans to average: 10
Electric dark correction enabled: true
Nonlinearity correction enabled: false
Boxcar width: 0
XAxis mode: Wavelengths
Number of Pixels in Spectrum: 2048
>>>>>Begin Spectral Data<<<<<
341.393	-4.31
341.776	-4.31
342.16	-4.31
342.543	-70.52
342.927	-69.39
343.31	-51.31
343.693	-82.05
344.077	-51.99
344.46	-54.02
344.843	-60.13
345.226	-52.44
345.61	-28.26
345.993	-20.35
346.376	-23.97
346.759	12.64
347.142	32.98
347.525	60.32
347.908	44.96
348.291	73.2
348.674	78.4
349.057	122.02
349.44	111.17
349.823	126.08
350.206	164.73
350.588	164.73
350.971	210.83
351.354	206.76
351.737	201.56
352.119	241.56
352.502	227.1
352.884	263.03
353.267	244.27
353.65	256.25
354.032	292.86
354.414	284.72
354.797	282.46
355.179	294.44
355.562	286.53
355.944	298.96
356.326	296.7
356.709	293.31
357.091	297.83
357.473	321.11
357.855	317.72
358.238	336.02
358.62	315.23
359.002	313.88
359.384	322.46
359.766	317.72
360.148	326.08
360.53	334.44
360.912	307.77
361.294	321.33
361.676	299.64
362.057	305.29
362.439	314.1
362.821	307.55
363.203	305.51
363.584	306.64
363.966	301.9
364.348	291.73
364.729	292.86
365.111	308.23
365.493	289.47
365.874	289.7
366.256	293.31
366.637	303.48
367.019	288.79
367.4	306.19
367.781	295.57
368.163	305.74
368.544	312.29
368.925	274.55
369.306	286.53
369.688	296.7
370.069	300.99
370.45	281.33
370.831	305.06
371.212	289.92
371.593	299.86
371.974	281.79
372.355	292.18
372.736	295.8
373.117	292.63
373.498	297.38
373.879	296.48
374.26	291.05
374.641	292.41
375.021	311.39
375.402	305.97
375.783	306.64
376.163	283.59
376.544	292.63
376.925	305.29
377.305	295.8
377.686	309.36
378.066	279.53
378.447	328.79
378.827	307.55
379.208	318.85
379.588	301.22
379.968	305.51
380.349	311.16
380.729	297.38
381.109	332.18
381.489	318.17
381.87	338.73
382.25	337.38
382.63	301.67
383.01	334.89
383.39	330.82
383.77	318.62
384.15	315.68
384.53	314.78
384.91	310.26
385.29	338.51
385.67	311.39
386.049	315.91
386.429	319.98
386.809	340.32
387.189	322.24
387.568	327.66
387.948	336.25
388.328	326.98
388.707	326.76
389.087	333.76
389.466	344.38
389.846	342.35
390.225	336.02
390.605	335.57
390.984	338.73
391.363	355.91
391.743	348.23
392.122	343.71
392.501	362.69
392.881	352.74
393.26	349.58
393.639	363.59
394.018	373.54
394.397	331.05
394.776	375.12
395.155	355.68
395.534	352.52
395.913	352.07
396.292	353.42
396.671	372.63
397.05	363.37
397.429	372.63
397.808	363.59
398.186	370.82
398.565	378.73
398.944	367.21
399.323	376.47
399.701	380.99
400.08	391.84
400.458	382.8
400.837	383.25
401.215	398.17
401.594	390.94
401.972	376.47
402.351	379.64
402.729	399.52
403.107	396.13
403.486	385.29
403.864	401.11
404.242	382.8
404.62	404.04
404.999	408.34
405.377	441.56
405.755	415.12
406.133	413.08
406.511	411.5
406.889	405.17
407.267	446.98
407.645	433.65
408.023	434.78
408.401	435.91
408.779	423.48
409.156	446.98
409.534	437.49
409.912	452.86
410.29	433.87
410.667	439.75
411.045	435.68
411.422	442.23
411.8	454.89
412.178	467.09
412.555	457.15
412.933	457.6
413.31	463.25
413.687	469.58
414.065	461.22
414.442	468
414.819	485.62
415.197	474.55
415.574	500.76
415.951	483.59
416.328	496.02
416.705	482.46
417.082	500.99
417.46	511.61
417.837	506.87
418.214	518.84
418.591	514.77
418.967	507.09
419.344	510.71
419.721	515
420.098	514.1
420.475	534.89
420.852	523.36
421.228	536.47
421.605	539.86
421.982	558.84
422.358	548.22
422.735	552.97
423.111	531.72
423.488	563.36
423.864	544.38
424.241	540.76
424.617	570.14
424.994	576.47
425.37	585.06
425.746	595.45
426.123	583.93
426.499	571.95
426.875	571.72
427.251	600.42
427.627	593.42
428.003	606.3
428.379	596.81
428.756	629.8
429.132	618.95
429.507	590.93
429.883	611.95
430.259	644.26
430.635	640.87
431.011	619.18
431.387	640.42
431.763	646.52
432.138	633.19
432.514	675.22
432.89	667.99
433.265	664.83
433.641	674.32
434.016	696.92
434.392	697.59
434.767	697.37
435.143	680.87
435.518	695.79
435.894	716.13
436.269	739.18
436.644	705.5
437.02	727.88
437.395	712.74
437.77	725.39
438.145	750.02
438.52	770.59
438.895	743.24
439.271	771.94
439.646	753.19
440.021	775.78
440.395	810.81
440.77	787.31
441.145	792.51
441.52	794.09
441.895	795.45
442.27	798.61
442.645	800.64
443.019	801.77
443.394	795.67
443.769	831.15
444.143	813.75
444.518	847.87
444.892	815.56
445.267	821.66
445.641	839.51
446.016	841.09
446.39	852.84
446.764	864.6
447.139	860.3
447.513	844.94
447.887	868.89
448.262	841.55
448.636	837.93
449.01	872.51
449.384	884.48
449.758	883.58
450.132	900.3
450.506	922.22
450.88	890.13
451.254	903.46
451.628	933.52
452.002	933.52
452.376	952.96
452.75	930.36
453.123	931.71
453.497	950.7
453.871	946.63
454.244	979.17
454.618	983.01
454.992	998.6
455.365	1018.94
455.739	1022.56
456.112	1010.81
456.486	1014.42
456.859	1027.98
457.232	1045.83
457.606	1043.12
457.979	1067.08
458.352	1064.14
458.725	1067.75
459.099	1094.42
459.472	1115.44
459.845	1074.31
460.218	1120.41
460.591	1121.09
460.964	1150.24
461.337	1148.43
461.71	1152.95
462.083	1193.17
462.456	1194.08
462.829	1172.16
463.201	1191.82
463.574	1218.48
463.947	1237.69
464.32	1247.41
464.692	1256.9
465.065	1277.24
465.438	1294.64
465.81	1257.13
466.183	1314.53
466.555	1336.22
466.928	1330.8
467.3	1343
467.672	1345.71
468.045	1370.57
468.417	1391.36
468.789	1394.98
469.161	1368.99
469.534	1406.05
469.906	1439.27
470.278	1480.62
470.65	1416.45
471.022	1510.68
471.394	1517.69
471.766	1530.34
472.138	1542.09
472.51	1589.55
472.882	1561.07
473.253	1610.11
473.625	1608.76
473.997	1644.01
474.369	1669.77
474.74	1678.59
475.112	1709.32
475.484	1728.75
475.855	1742.31
476.227	1752.26
476.598	1791.13
476.97	1829.09
477.341	1832.48
477.713	1859.6
478.084	1864.34
478.455	1928.97
478.827	1938.92
479.198	1988.18
479.569	1972.82
479.94	2083.09
480.311	2058.01
480.682	2088.97
481.053	2105.24
481.424	2210.78
481.795	2175.97
482.166	2191.34
482.537	2196.99
482.908	2262.75
483.279	2258.68
483.65	2327.38
484.021	2381.39
484.391	2388.17
484.762	2397.66
485.133	2418.45
485.503	2482.86
485.874	2507.26
486.244	2511.56
486.615	2534.83
486.985	2533.03
487.356	2643.98
487.726	2643.98
488.097	2663.87
488.467	2707.94
488.837	2751.55
489.207	2802.62
489.578	2801.27
489.948	2795.62
490.318	2867.03
490.688	2890.53
491.058	2940.02
491.428	2947.25
491.798	2975.05
492.168	3003.07
492.538	3044.65
492.908	3068.61
493.278	3082.84
493.648	3108.38
494.017	3161.71
494.387	3174.59
494.757	3208.94
495.126	3250.97
495.496	3245.1
495.866	3236.28
496.235	3284.19
496.605	3308.6
496.974	3316.51
497.344	3370.29
497.713	3386.79
498.082	3443.29
498.452	3460.46
498.821	3423.4
499.19	3469.05
499.559	3528.71
499.928	3528.03
500.298	3508.82
500.667	3584.3
501.036	3585.43
501.405	3596.95
501.774	3621.13
502.143	3649.16
502.512	3671.3
502.88	3690.51
503.249	3714.46
503.618	3726.44
503.987	3753.33
504.356	3756.95
504.724	3794.01
505.093	3790.85
505.462	3856.83
505.83	3834.46
506.199	3858.19
506.567	3907.91
506.936	3934.35
507.304	3956.04
507.672	3970.05
508.041	3986.55
508.409	4036.04
508.777	4059.54
509.145	4122.36
509.514	4111.52
509.882	4156.49
510.25	4099.31
510.618	4153.77
510.986	4185.41
511.354	4203.04
511.722	4236.26
512.09	4299.99
512.458	4304.51
512.826	4270.38
513.193	4361.91
513.561	4395.8
513.929	4376.59
514.297	4420.21
514.664	4423.82
515.032	4430.15
515.4	4512.64
515.767	4537.04
516.135	4574.1
516.502	4548.11
516.869	4629.02
517.237	4579.98
517.604	4605.97
517.972	4667.66
518.339	4694.55
518.706	4722.35
519.073	4742.01
519.44	4784.72
519.808	4777.94
520.175	4847.09
520.542	4868.33
520.909	4841.67
521.276	4906.07
521.643	4967.54
522.009	4988.33
522.376	5043.92
522.743	5051.15
523.11	5084.37
523.477	5107.87
523.843	5130.92
524.21	5237.14
524.577	5239.85
524.943	5255.21
525.31	5325.04
525.676	5334.08
526.043	5360.07
526.409	5412.95
526.776	5442.78
527.142	5512.38
527.508	5503.8
527.874	5529.78
528.241	5623.57
528.607	5577.24
528.973	5629.22
529.339	5648.88
529.705	5674.64
530.071	5747.41
530.437	5763.9
530.803	5819.04
531.169	5783.56
531.535	5817.91
531.901	5896.1
532.267	5835.31
532.632	5924.8
532.998	5929.32
533.364	5992.82
533.73	5983.33
534.095	6062.65
534.461	6057.91
534.826	6057.91
535.192	6074.85
535.557	6142.2
535.923	6166.83
536.288	6164.8
536.653	6292.48
537.019	6244.79
537.384	6287.28
537.749	6289.76
538.114	6308.29
538.479	6370.21
538.845	6370.21
539.21	6371.8
539.575	6437.56
539.94	6425.81
540.305	6452.92
540.67	6517.55
541.034	6514.39
541.399	6570.43
541.764	6580.38
542.129	6630.77
542.494	6560.72
542.858	6643.43
543.223	6650.66
543.587	6697.89
543.952	6730.66
544.316	6742.41
544.681	6791.45
545.045	6813.59
545.41	6826.93
545.774	6842.29
546.138	6828.05
546.503	6927.49
546.867	6981.5
547.231	6938.33
547.595	7065.56
547.959	7060.59
548.324	7048.61
548.688	7062.4
549.052	7065.11
549.416	7044.32
549.779	7118.89
550.143	7124.09
550.507	7183.3
550.871	7221.72
551.235	7256.29
551.599	7268.72
551.962	7281.15
552.326	7299.23
552.689	7372.45
553.053	7423.75
553.417	7401.37
553.78	7501.48
554.143	7456.06
554.507	7509.17
554.87	7501.26
555.234	7608.37
555.597	7596.85
555.96	7614.7
556.323	7604.76
556.686	7667.13
557.05	7703.29
557.413	7762.27
557.776	7723.17
558.139	7807.46
558.502	7848.14
558.865	7801.59
559.228	7851.3
559.59	7919.78
559.953	7917.74
560.316	7952.77
560.679	8017.18
561.041	8112.54
561.404	8119.09
561.767	8136.5
562.129	8075.93
562.492	8224.63
562.854	8209.71
563.217	8193.67
563.579	8201.8
563.941	8327
564.304	8306.66
564.666	8353.44
565.028	8410.16
565.39	8451.52
565.753	8498.29
566.115	8495.36
566.477	8533.09
566.839	8566.77
567.201	8672.3
567.563	8588.46
567.925	8671.85
568.287	8696.93
568.648	8748.46
569.01	8770.83
569.372	8853.99
569.734	8810.15
570.095	8814.22
570.457	8877.72
570.819	8946.64
571.18	8915.23
571.542	8945.97
571.903	9028.68
572.265	9028.45
572.626	9045.85
572.987	9099.86
573.349	9116.81
573.71	9158.84
574.071	9219.4
574.432	9232.96
574.794	9318.84
575.155	9267.76
575.516	9220.31
575.877	9267.31
576.238	9295.79
576.599	9322.68
576.96	9351.6
577.32	9343.24
577.681	9369.01
578.042	9428.89
578.403	9464.37
578.763	9380.08
579.124	9407.42
579.485	9466.4
579.845	9568.32
580.206	9529.9
580.566	9462.79
580.927	9538.49
581.287	9500.53
581.648	9468.66
582.008	9587.76
582.368	9577.14
582.728	9603.35
583.089	9510.7
583.449	9500.3
583.809	9592.05
584.169	9595.67
584.529	9626.63
584.889	9620.75
585.249	9609.22
585.609	9553.41
585.969	9745.72
586.329	9526.52
586.688	9680.41
587.048	9577.81
587.408	9604.48
587.768	9633.4
588.127	9673.86
588.487	9609.22
588.846	9692.39
589.206	9672.95
589.565	9666.62
589.925	9693.29
590.284	9654.65
590.643	9572.62
591.003	9601.32
591.362	9691.03
591.721	9703.69
592.08	9700.97
592.44	9708.43
592.799	9642.44
593.158	9705.49
593.517	9677.47
593.876	9733.29
594.235	9665.27
594.593	9645.83
594.952	9771.71
595.311	9740.07
595.67	9714.53
596.029	9751.37
596.387	9689.45
596.746	9785.27
597.104	9720.41
597.463	9737.58
597.822	9776.9
598.18	9735.1
598.538	9765.6
598.897	9796.11
599.255	9712.5
599.613	9797.24
599.972	9806.06
600.33	9774.87
600.688	9726.96
601.046	9758.37
601.404	9870.23
601.762	9809.45
602.12	9908.43
602.478	9819.84
602.836	9838.37
603.194	9884.25
603.552	9874.98
603.91	9755.21
604.268	9815.77
604.625	9750.92
604.983	9844.92
605.341	9869.78
605.698	9892.83
606.056	9882.44
606.413	9926.96
606.771	9902.78
607.128	9914.75
607.485	9859.61
607.843	9855.55
608.2	9942.78
608.557	9997.24
608.914	9967.41
609.272	9911.14
609.629	9944.36
609.986	10002.43
610.343	9969.22
610.7	10035.43
611.057	9994.98
611.414	10002.89
611.771	9993.85
612.127	10060.06
612.484	10000.85
612.841	10058.7
613.198	10070.46
613.554	10091.92
613.911	10107.29
614.267	10134.63
614.624	10093.28
614.98	10083.11
615.337	10191.36
615.693	10210.11
616.05	10151.13
616.406	10206.05
616.762	10115.65
617.118	10136.22
617.475	10167.85
617.831	10181.64
618.187	10215.54
618.543	10161.3
618.899	10262.09
619.255	10277
619.611	10149.32
619.967	10256.89
620.323	10286.95
620.678	10279.26
621.034	10268.64
621.39	10238.13
621.746	10256.67
622.101	10342.31
622.457	10261.41
622.812	10269.32
623.168	10264.8
623.523	10239.94
623.879	10367.85
624.234	10211.47
624.589	10263.67
624.945	10267.74
625.3	10314.52
625.655	10302.54
626.01	10279.72
626.365	10315.42
626.72	10266.83
627.075	10251.02
627.43	10319.49
627.785	10178.48
628.14	10348.64
628.495	10269.77
628.85	10381.63
629.205	10226.61
629.559	10348.19
629.914	10263.22
630.269	10272.94
630.623	10269.09
630.978	10275.2
631.332	10277.91
631.687	10310.68
632.041	10213.95
632.396	10160.85
632.75	10211.47
633.104	10297.57
633.459	10160.62
633.813	10172.6
634.167	10091.02
634.521	10135.31
634.875	10171.7
635.229	10217.57
635.583	10145.48
635.937	10120.85
636.291	10099.61
636.645	10182.09
636.999	10125.82
637.352	10162.2
637.706	10077.91
638.06	10094.86
638.413	10064.35
638.767	10021.19
639.121	10103.22
639.474	10098.25
639.828	10121.08
640.181	10033.62
640.534	10080.85
640.888	9992.04
641.241	9964.24
641.594	9954.98
641.947	10065.71
642.301	9948.65
642.654	10006.5
643.007	9978.03
643.36	9985.03
643.713	10000.4
644.066	9919.73
644.419	9991.14
644.771	9873.62
645.124	9787.98
645.477	9737.81
645.83	9703.91
646.182	9659.62
646.535	9698.94
646.888	9693.97
647.24	9660.3
647.593	9697.36
647.945	9682.44
648.298	9651.48
648.65	9643.35
649.002	9609
649.355	9614.42
649.707	9651.71
650.059	9696.68
650.411	9834.3
650.763	9845.15
651.115	9892.83
651.467	9891.93
651.819	9896.67
652.171	9840.86
652.523	9883.79
652.875	9867.07
653.227	9841.76
653.578	9884.25
653.93	9849.67
654.282	9844.7
654.633	9838.82
654.985	9841.76
655.337	9897.8
655.688	9869.78
656.039	9855.32
656.391	9801.99
656.742	9855.77
657.094	9860.97
657.445	9867.52
657.796	9791.37
658.147	9807.86
658.498	9755.21
658.849	9872.72
659.2	9797.47
659.551	9827.98
659.902	9811.25
660.253	9781.88
660.604	9888.31
660.955	9829.78
661.306	9843.79
661.656	9777.13
662.007	9873.85
662.358	9841.31
662.708	9806.96
663.059	9833.17
663.409	9776.23
663.76	9814.42
664.11	9806.73
664.461	9826.17
664.811	9847.18
665.161	9877.69
665.511	9817.35
665.862	9800.63
666.212	9920.4
666.562	9837.02
666.912	9859.16
667.262	9822.55
667.612	9805.83
667.962	9812.38
668.312	9811.93
668.662	9844.25
669.011	9780.97
669.361	9793.63
669.711	9760.41
670.06	9773.97
670.41	9730.35
670.76	9749.33
671.109	9854.19
671.459	9842.66
671.808	9789.78
672.157	9776.68
672.507	9730.58
672.856	9719.96
673.205	9668.21
673.554	9721.76
673.904	9715.66
674.253	9754.53
674.602	9714.31
674.951	9613.07
675.3	9500.75
675.649	9679.51
675.998	9651.48
676.346	9695.1
676.695	9701.2
677.044	9622.11
677.393	9656.91
677.741	9704.36
678.09	9678.83
678.438	9559.73
678.787	9637.02
679.135	9580.52
679.484	9577.36
679.832	9599.06
680.181	9513.86
680.529	9574.2
680.877	9513.86
681.225	9504.59
681.573	9552.5
681.922	9444.71
682.27	9474.31
682.618	9491.26
682.966	9383.92
683.314	9456.01
683.661	9408.55
684.009	9360.64
684.357	9374.65
684.705	9333.07
685.053	9373.52
685.4	9380.08
685.748	9340.08
686.095	9317.71
686.443	9261.66
686.79	9232.06
687.138	9156.36
687.485	9242.23
687.832	9209.46
688.18	9190.7
688.527	9142.57
688.874	9117.71
689.221	9147.77
689.568	9031.16
689.915	9139.63
690.262	9112.29
690.609	9005.62
690.956	8917.49
691.303	8986.87
691.65	8920.66
691.997	8933.08
692.344	8900.54
692.69	8882.69
693.037	8890.6
693.383	8806.31
693.73	8840.21
694.077	8769.02
694.423	8771.28
694.769	8752.75
695.116	8705.75
695.462	8723.82
695.808	8731.96
696.155	8716.37
696.501	8606.31
696.847	8578.74
697.193	8526.09
697.539	8528.35
697.885	8481.34
698.231	8450.61
698.577	8470.5
698.923	8419.88
699.269	8436.83
699.614	8357.05
699.96	8345.53
700.306	8358.64
700.651	8291.75
700.997	8267.11
701.342	8264.18
701.688	8218.53
702.033	8248.58
702.379	8156.38
702.724	8181.47
703.069	8248.81
703.415	8121.35
703.76	8090.39
704.105	8101.92
704.45	8049.94
704.795	7971.75
705.14	7959.78
705.485	8049.72
705.83	7970.85
706.175	7980.79
706.52	7900.8
706.865	7910.06
707.209	7884.07
707.554	7861.7
707.899	7763.4
708.243	7819.22
708.588	7827.35
708.932	7774.7
709.277	7735.38
709.621	7734.92
709.966	7713
710.31	7694.25
710.654	7626.23
710.998	7637.98
711.342	7647.92
711.687	7657.19
712.031	7659.45
712.375	7618.99
712.719	7631.65
713.063	7544.42
713.407	7577.64
713.75	7489.73
714.094	7545.78
714.438	7493.8
714.782	7492.67
715.125	7520.92
715.469	7566.57
715.812	7413.35
716.156	7398.21
716.499	7430.75
716.843	7486.57
717.186	7373.58
717.53	7426.01
717.873	7454.25
718.216	7431.88
718.559	7366.57
718.902	7323.41
719.246	7317.08
719.589	7327.02
719.932	7343.07
720.275	7303.07
720.617	7324.31
720.96	7282.73
721.303	7374.26
721.646	7352.56
721.989	7266.91
722.331	7350.08
722.674	7274.37
723.016	7283.86
723.359	7308.49
723.701	7340.58
724.044	7277.31
724.386	7243.64
724.729	7307.14
725.071	7269.17
725.413	7235.28
725.755	7242.73
726.097	7222.62
726.439	7222.17
726.782	7268.5
727.124	7278.21
727.465	7234.37
727.807	7203.86
728.149	7237.31
728.491	7190.53
728.833	7209.97
729.175	7138.56
729.516	7231.43
729.858	7148.95
730.199	7251.77
730.541	7204.99
730.882	7188.5
731.224	7223.07
731.565	7156.18
731.906	7153.47
732.248	7232.34
732.589	7157.31
732.93	7152.57
733.271	7139.01
733.612	7122.51
733.953	7200.7
734.294	7146.46
734.635	7154.6
734.976	7210.19
735.317	7132.91
735.658	7136.3
735.999	7099.01
736.339	7110.08
736.68	7136.75
737.021	7132.23
737.361	7117.09
737.702	7114.15
738.042	7126.8
738.383	7110.53
738.723	7205.9
739.063	7090.87
739.404	7157.09
739.744	7109.18
740.084	7125.9
740.424	7099.01
740.764	7065.34
741.104	7118.89
741.444	7103.3
741.784	7100.59
742.124	7112.57
742.464	7126.13
742.804	7085.45
743.143	7097.43
743.483	7128.39
743.823	7077.99
744.162	7116.18
744.502	7046.35
744.841	7068.95
745.181	7123.41
745.52	7027.6
745.86	7102.4
746.199	7060.14
746.538	7030.54
746.877	7111.66
747.216	7153.24
747.556	7062.17
747.895	7080.25
748.234	7047.03
748.573	6984.89
748.911	7026.47
749.25	7061.95
749.589	7028.5
749.928	7045.9
750.267	7043.19
750.605	7049.97
750.944	6976.53
751.283	7001.16
751.621	7011.55
751.96	6960.93
752.298	7022.17
752.636	6972.46
752.975	6999.8
753.313	6950.31
753.651	7012.68
753.989	6939.69
754.327	6948.28
754.666	6898.34
755.004	6924.55
755.342	6893.59
755.679	6863.08
756.017	6906.02
756.355	6918.22
756.693	6920.03
757.031	6885
757.368	6865.79
757.706	6842.52
758.044	6800.03
758.381	6837.09
758.719	6812.46
759.056	6866.25
759.394	6804.55
759.731	6715.97
760.068	6729.07
760.405	6707.61
760.743	6699.02
761.08	6709.41
761.417	6673.71
761.754	6677.1
762.091	6692.24
762.428	6678
762.765	6621.28
763.102	6673.26
763.438	6629.42
763.775	6563.2
764.112	6591.9
764.449	6528.85
764.785	6562.07
765.122	6506.71
765.458	6458.57
765.795	6459.25
766.131	6505.35
766.467	6471.91
766.804	6399.37
767.14	6372.93
767.476	6406.37
767.812	6370.21
768.148	6374.73
768.485	6359.37
768.821	6355.52
