Data from mousepad_grey_FLMS001491_00068.txt Node
Date: Wed Feb 08 14:29:47 GMT 2017
User: dcchb
Spectrometer: FLMS00149
Trigger mode: 0
Integration Time (sec): 2.000000E-2
Scans to average: 10
Electric dark correction enabled: true
Nonlinearity correction enabled: false
Boxcar width: 0
XAxis mode: Wavelengths
Number of Pixels in Spectrum: 2048
>>>>>Begin Spectral Data<<<<<
341.393	-6.89
341.776	-6.89
342.16	-6.89
342.543	-80.79
342.927	-73.11
343.31	-74.01
343.693	-77.4
344.077	-67.91
344.46	-60.45
344.843	-64.29
345.226	-37.85
345.61	-31.07
345.993	-23.39
346.376	0.11
346.759	15.71
347.142	34.91
347.525	55.25
347.908	53.67
348.291	54.35
348.674	99.77
349.057	122.6
349.44	129.6
349.823	139.54
350.206	144.29
350.588	171.41
350.971	194.46
351.354	210.73
351.737	221.35
352.119	227.9
352.502	247.79
352.884	272.87
353.267	247.11
353.65	282.59
354.032	281.01
354.414	310.16
354.797	291.86
355.179	297.96
355.562	297.28
355.944	313.1
356.326	299.09
356.709	324.85
357.091	309.26
357.473	309.71
357.855	316.49
358.238	327.56
358.62	324.4
359.002	305.19
359.384	317.39
359.766	310.84
360.148	315.58
360.53	326.66
360.912	335.7
361.294	290.95
361.676	349.48
362.057	323.95
362.439	315.36
362.821	322.36
363.203	302.93
363.584	285.76
363.966	307.9
364.348	312.65
364.729	295.7
365.111	286.43
365.493	288.02
365.874	298.41
366.256	319.65
366.637	316.94
367.019	287.56
367.4	303.61
367.781	317.84
368.163	304.96
368.544	304.06
368.925	285.76
369.306	292.76
369.688	309.71
370.069	293.89
370.45	315.81
370.831	282.82
371.212	282.37
371.593	297.96
371.974	305.64
372.355	304.51
372.736	298.41
373.117	278.3
373.498	319.65
373.879	277.62
374.26	298.18
374.641	310.61
375.021	301.35
375.402	288.24
375.783	302.48
376.163	301.8
376.544	326.88
376.925	293.66
377.305	315.81
377.686	319.43
378.066	302.03
378.447	299.54
378.827	327.56
379.208	320.56
379.588	324.17
379.968	304.74
380.349	331.4
380.729	313.55
381.109	323.95
381.489	310.16
381.87	343.61
382.25	323.49
382.63	323.49
383.01	306.77
383.39	335.47
383.77	323.04
384.15	320.78
384.53	326.21
384.91	334.57
385.29	311.52
385.67	321.23
386.049	332.76
386.429	347.67
386.809	341.12
387.189	339.77
387.568	324.4
387.948	363.49
388.328	354
388.707	344.28
389.087	361.69
389.466	343.61
389.846	344.74
390.225	341.35
390.605	362.36
390.984	352.19
391.363	359.88
391.743	347.67
392.122	384.06
392.501	356.49
392.881	345.41
393.26	362.14
393.639	352.19
394.018	348.8
394.397	375.92
394.776	348.35
395.155	379.99
395.534	366.66
395.913	377.5
396.292	368.01
396.671	383.38
397.05	368.69
397.429	407.11
397.808	397.16
398.186	386.77
398.565	374.11
398.944	376.6
399.323	377.96
399.701	372.76
400.08	396.94
400.458	400.1
400.837	385.19
401.215	379.09
401.594	385.19
401.972	392.87
402.351	423.6
402.729	393.32
403.107	408.69
403.486	409.37
403.864	382.48
404.242	413.66
404.62	408.69
404.999	409.82
405.377	421.8
405.755	417.28
406.133	398.29
406.511	425.19
406.889	427.9
407.267	416.83
407.645	414.11
408.023	437.39
408.401	430.16
408.779	443.27
409.156	445.75
409.534	445.3
409.912	454.56
410.29	434.68
410.667	453.43
411.045	470.84
411.422	475.81
411.8	452.08
412.178	476.71
412.555	471.29
412.933	477.84
413.31	487.33
413.687	496.15
414.065	480.33
414.442	494.11
414.819	500.44
415.197	493.21
415.574	511.51
415.951	515.35
416.328	503.83
416.705	523.04
417.082	497.28
417.46	510.83
417.837	512.19
418.214	504.73
418.591	536.6
418.967	535.47
419.344	533.21
419.721	522.81
420.098	508.35
420.475	528.23
420.852	557.61
421.228	532.3
421.605	551.51
421.982	549.93
422.358	564.62
422.735	574.34
423.111	559.19
423.488	577.27
423.864	588.57
424.241	585.63
424.617	592.19
424.994	590.83
425.37	586.09
425.746	573.21
426.123	590.15
426.499	612.98
426.875	584.28
427.251	601.23
427.627	604.62
428.003	600.78
428.379	626.76
428.756	608.68
429.132	637.16
429.507	617.72
429.883	640.55
430.259	643.49
430.635	636.48
431.011	665.41
431.387	647.78
431.763	691.85
432.138	655.91
432.514	669.93
432.89	692.75
433.265	690.94
433.641	695.01
434.016	705.86
434.392	703.37
434.767	714.67
435.143	708.79
435.518	729.59
435.894	735.01
436.269	739.98
436.644	728.68
437.02	749.25
437.395	746.76
437.77	746.99
438.145	772.07
438.52	768.68
438.895	755.35
439.271	769.58
439.646	810.94
440.021	789.7
440.395	803.03
440.77	800.77
441.145	810.71
441.52	810.94
441.895	810.04
442.27	818.4
442.645	829.47
443.019	856.59
443.394	804.61
443.769	842.8
444.143	842.8
444.518	840.09
444.892	856.36
445.267	873.76
445.641	852.29
446.016	838.06
446.39	885.06
446.764	874.67
447.139	884.61
447.513	870.15
447.887	892.74
448.262	886.64
448.636	898.85
449.01	899.98
449.384	916.25
449.758	916.25
450.132	900.88
450.506	933.2
450.88	916.47
451.254	941.78
451.628	951.5
452.002	952.4
452.376	965.96
452.75	963.25
453.123	982.01
453.497	999.41
453.871	997.37
454.244	1018.39
454.618	1017.26
454.992	1021.56
455.365	1054.77
455.739	1046.64
456.112	1043.02
456.486	1054.55
456.859	1071.27
457.232	1059.29
457.606	1079.41
457.979	1094.77
458.352	1116.24
458.725	1122.34
459.099	1108.78
459.472	1146.3
459.845	1159.4
460.218	1180.19
460.591	1186.07
460.964	1181.78
461.337	1196.47
461.71	1222.91
462.083	1248.44
462.456	1221.78
462.829	1223.58
463.201	1253.41
463.574	1262.9
463.947	1296.58
464.32	1321.66
464.692	1326.18
465.065	1300.87
465.438	1334.99
465.81	1337.25
466.183	1364.82
466.555	1387.87
466.928	1368.89
467.3	1405.95
467.672	1424.26
468.045	1429
468.417	1444.37
468.789	1448.44
469.161	1451.37
469.534	1485.95
469.906	1484.37
470.278	1508.77
470.65	1540.19
471.022	1552.16
471.394	1580.41
471.766	1596.68
472.138	1633.06
472.51	1623.35
472.882	1674.87
473.253	1675.1
473.625	1700.41
473.997	1713.06
474.369	1742.44
474.74	1724.59
475.112	1780.63
475.484	1840.29
475.855	1856.79
476.227	1822.21
476.598	1881.87
476.97	1868.09
477.341	1932.72
477.713	1940.17
478.084	1934.98
478.455	1975.88
478.827	2064.01
479.198	2097.91
479.569	2099.04
479.94	2157.12
480.311	2141.75
480.682	2209.09
481.053	2253.39
481.424	2228.53
481.795	2268.08
482.166	2320.96
482.537	2371.35
482.908	2386.04
483.279	2399.6
483.65	2437.56
484.021	2515.3
484.391	2542.65
484.762	2551.68
485.133	2543.1
485.503	2590.33
485.874	2635.75
486.244	2653.83
486.615	2736.31
486.985	2771.79
487.356	2813.6
487.726	2821.73
488.097	2818.34
488.467	2878
488.837	2892.24
489.207	2962.07
489.578	2972.01
489.948	3010.66
490.318	3060.37
490.688	3053.37
491.058	3136.98
491.428	3121.16
491.798	3191.44
492.168	3241.84
492.538	3243.87
492.908	3280.48
493.278	3313.92
493.648	3308.95
494.017	3370.65
494.387	3345.34
494.757	3399.12
495.126	3457.42
495.496	3465.78
495.866	3437.99
496.235	3504.88
496.605	3539.91
496.974	3534.26
497.344	3589.4
497.713	3617.42
498.082	3630.53
498.452	3683.18
498.821	3740.35
499.19	3711.2
499.559	3728.83
499.928	3792.56
500.298	3799.56
500.667	3853.12
501.036	3817.64
501.405	3888.37
501.774	3856.06
502.143	3910.07
502.512	3906.45
502.88	3948.48
503.249	3985.32
503.618	4011.76
503.987	4021.02
504.356	4059.44
504.724	4066.67
505.093	4088.37
505.462	4102.38
505.83	4153.68
506.199	4105.09
506.567	4231.41
506.936	4170.62
507.304	4225.54
507.672	4253.79
508.041	4282.49
508.409	4330.39
508.777	4345.08
509.145	4371.52
509.514	4373.78
509.882	4374.24
510.25	4483.61
510.618	4481.13
510.986	4502.14
511.354	4512.08
511.722	4563.83
512.09	4649.48
512.458	4663.72
512.826	4583.5
513.193	4667.79
513.561	4695.36
513.929	4734.45
514.297	4812.87
514.664	4785.07
515.032	4843.83
515.4	4882.24
515.767	4852.87
516.135	4862.81
516.502	4897.84
516.869	4947.55
517.237	5030.26
517.604	4978.74
517.972	5050.83
518.339	5095.35
518.706	5134.89
519.073	5114.78
519.44	5112.52
519.808	5210.6
520.175	5173.08
520.542	5255.57
520.909	5301.22
521.276	5309.35
521.643	5367.88
522.009	5347.09
522.376	5446.07
522.743	5517.26
523.11	5507.54
523.477	5609.91
523.843	5603.36
524.21	5663.01
524.577	5736.91
524.943	5730.13
525.31	5749.11
525.676	5811.71
526.043	5835.44
526.409	5872.27
526.776	5937.58
527.142	5959.73
527.508	5978.94
527.874	5997.7
528.241	6037.24
528.607	6070.91
528.973	6135.09
529.339	6152.72
529.705	6216.45
530.071	6199.27
530.437	6239.95
530.803	6260.29
531.169	6339.16
531.535	6280.17
531.901	6393.17
532.267	6412.83
532.632	6462.09
532.998	6508.87
533.364	6510.22
533.73	6524.69
534.095	6590.9
534.461	6594.29
534.826	6661.18
535.192	6748.64
535.557	6707.06
535.923	6748.64
536.288	6782.76
536.653	6802.19
537.019	6764.45
537.384	6828.41
537.749	6878.35
538.114	6881.51
538.479	6897.78
538.845	6941.63
539.21	6944.56
539.575	7011.23
539.94	7027.5
540.305	7103.88
540.67	7095.97
541.034	7101.62
541.399	7126.25
541.764	7191.79
542.129	7192.69
542.494	7227.72
542.858	7266.14
543.223	7291.9
543.587	7323.76
543.952	7363.99
544.316	7424.1
544.681	7405.12
545.045	7417.09
545.41	7476.3
545.774	7463.42
546.138	7510.2
546.503	7519.92
546.867	7495.28
547.231	7593.59
547.595	7668.84
547.959	7695.5
548.324	7676.3
548.688	7682.62
549.052	7702.74
549.416	7793.81
549.779	7782.28
550.143	7813.69
550.507	7872.9
550.871	7923.07
551.235	7894.14
551.599	7931.66
551.962	7942.05
552.326	7986.8
552.689	8080.58
553.053	8034.25
553.417	8048.71
553.78	8170.52
554.143	8106.34
554.507	8199.22
554.87	8211.87
555.234	8251.2
555.597	8257.97
555.96	8331.87
556.323	8379.78
556.686	8340.68
557.05	8414.13
557.413	8463.85
557.776	8448.25
558.139	8520.57
558.502	8572.77
558.865	8602.37
559.228	8645.54
559.59	8642.37
559.953	8630.62
560.316	8750.84
560.679	8817.06
561.041	8774.8
561.404	8811.41
561.767	8903.61
562.129	8910.61
562.492	8993.1
562.854	8990.61
563.217	9008.69
563.579	9095.69
563.941	9087.78
564.304	9182.7
564.666	9161.23
565.028	9201
565.39	9245.29
565.753	9321.68
566.115	9341.79
566.477	9386.76
566.839	9399.41
567.201	9395.12
567.563	9465.4
567.925	9509.47
568.287	9523.7
568.648	9558.28
569.01	9619.07
569.372	9695.45
569.734	9667.2
570.095	9711.04
570.457	9725.73
570.819	9785.17
571.18	9782.68
571.542	9840.53
571.903	9890.25
572.265	9859.97
572.626	9958.5
572.987	9939.29
573.349	10024.71
573.71	10089.11
574.071	9994.43
574.432	10086.4
574.794	10132.05
575.155	10170.02
575.516	10099.51
575.877	10146.29
576.238	10183.8
576.599	10249.79
576.96	10286.85
577.32	10303.8
577.681	10343.12
578.042	10308.54
578.403	10314.19
578.763	10361.65
579.124	10403.91
579.485	10410.91
579.845	10429.22
580.206	10408.2
580.566	10427.64
580.927	10460.4
581.287	10509.22
581.648	10466.05
582.008	10428.54
582.368	10551.25
582.728	10483.23
583.089	10459.05
583.449	10507.63
583.809	10509.22
584.169	10522.32
584.529	10528.2
584.889	10628.31
585.249	10605.94
585.609	10538.59
585.969	10580.4
586.329	10583.56
586.688	10599.83
587.048	10537.01
587.408	10582.21
587.768	10558.93
588.127	10565.71
588.487	10530.23
588.846	10683
589.206	10516.9
589.565	10542.43
589.925	10697.23
590.284	10567.29
590.643	10672.6
591.003	10635.77
591.362	10704.92
591.721	10672.83
592.08	10593.51
592.44	10640.29
592.799	10693.62
593.158	10606.16
593.517	10618.82
593.876	10712.83
594.235	10695.88
594.593	10670.11
594.952	10732.26
595.311	10637.8
595.67	10706.72
596.029	10791.69
596.387	10770.23
596.746	10765.93
597.104	10728.64
597.463	10705.59
597.822	10844.57
598.18	10741.07
598.538	10752.15
598.897	10783.33
599.255	10652.04
599.613	10851.81
599.972	10751.92
600.33	10799.15
600.688	10733.62
601.046	10753.5
601.404	10811.13
601.762	10850.45
602.12	10895.19
602.478	10886.61
602.836	10878.25
603.194	10823.33
603.552	10832.14
603.91	10847.29
604.268	10870.56
604.625	10864.23
604.983	10941.75
605.341	10857
605.698	10913.05
606.056	10933.61
606.413	10941.07
606.771	10901.97
607.128	10980.39
607.485	10937.23
607.843	10956.66
608.2	11052.03
608.557	11067.39
608.914	11049.31
609.272	11028.52
609.629	10948.07
609.986	11119.37
610.343	11010.67
610.7	11098.13
611.057	11043.21
611.414	11045.25
611.771	11156.88
612.127	11132.93
612.484	11095.19
612.841	11217.67
613.198	11079.82
613.554	11154.4
613.911	11202.76
614.267	11247.95
614.624	11151.46
614.98	11226.94
615.337	11234.62
615.693	11241.63
616.05	11279.82
616.406	11279.14
616.762	11329.31
617.118	11270.1
617.475	11271.91
617.831	11322.98
618.187	11343.54
618.543	11342.41
618.899	11335.41
619.255	11301.06
619.611	11329.76
619.967	11346.71
620.323	11449.3
620.678	11348.52
621.034	11336.31
621.39	11318.46
621.746	11319.36
622.101	11493.82
622.457	11339.02
622.812	11397.33
623.168	11434.84
623.523	11453.82
623.879	11403.88
624.234	11320.95
624.589	11380.38
624.945	11426.71
625.3	11453.6
625.655	11477.55
626.01	11456.99
626.365	11415.63
626.72	11447.95
627.075	11422.86
627.43	11368.63
627.785	11394.84
628.14	11422.41
628.495	11424.45
628.85	11431
629.205	11348.52
629.559	11420.38
629.914	11397.33
630.269	11384.22
630.623	11441.62
630.978	11365.69
631.332	11504.22
631.687	11410.89
632.041	11336.09
632.396	11329.08
632.75	11396.42
633.104	11357.55
633.459	11285.47
633.813	11357.78
634.167	11307.61
634.521	11299.25
634.875	11286.6
635.229	11388.06
635.583	11174.06
635.937	11253.83
636.291	11325.92
636.645	11269.65
636.999	11280.72
637.352	11256.54
637.706	11125.7
638.06	11214.96
638.413	11227.61
638.767	11226.26
639.121	11214.73
639.474	11142.64
639.828	11146.94
640.181	11188.07
640.534	11186.49
640.888	11120.72
641.241	11117.11
641.594	11104
641.947	11103.55
642.301	11162.31
642.654	11068.3
643.007	11108.3
643.36	11110.56
643.713	11100.84
644.066	11112.14
644.419	11083.21
644.771	11028.98
645.124	10897.91
645.477	10905.59
645.83	10784.46
646.182	10834.86
646.535	10821.07
646.888	10790.34
647.24	10738.59
647.593	10831.92
647.945	10791.02
648.298	10728.19
648.65	10732.71
649.002	10727.74
649.355	10732.03
649.707	10759.83
650.059	10824.46
650.411	10900.84
650.763	10834.18
651.115	10978.36
651.467	10991.69
651.819	10961.18
652.171	11004.57
652.523	10957.79
652.875	10955.53
653.227	10944.23
653.578	10946.04
653.93	10936.32
654.282	10979.49
654.633	10889.54
654.985	10875.53
655.337	10895.42
655.688	10884.8
656.039	10947.85
656.391	10859.94
656.742	10917.57
657.094	10907.85
657.445	10967.73
657.796	10873.73
658.147	10859.94
658.498	10867.62
658.849	10927.28
659.2	10922.54
659.551	10821.75
659.902	10951.46
660.253	10885.93
660.604	10876.66
660.955	10851.81
661.306	10896.32
661.656	10844.12
662.007	10906.27
662.358	10894.06
662.708	10862.65
663.059	10889.09
663.409	10821.07
663.76	10898.58
664.11	10973.38
664.461	10863.56
664.811	10875.76
665.161	10883.89
665.511	10908.53
665.862	10825.82
666.212	10934.97
666.562	10882.09
666.912	10896.1
667.262	10897.45
667.612	10925.48
667.962	10933.38
668.312	10855.42
668.662	10869.88
669.011	10918.47
669.361	10815.87
669.711	10915.08
670.06	10880.05
670.41	10802.31
670.76	10824.46
671.109	10833.27
671.459	10856.78
671.808	10847.74
672.157	10822.2
672.507	10682.32
672.856	10752.15
673.205	10760.96
673.554	10822.88
673.904	10777.46
674.253	10774.97
674.602	10792.15
674.951	10635.54
675.3	10544.24
675.649	10716.22
675.998	10777
676.346	10767.51
676.695	10742.66
677.044	10742.43
677.393	10714.63
677.741	10720.06
678.09	10667.63
678.438	10658.82
678.787	10619.49
679.135	10713.96
679.484	10641.19
679.832	10643.45
680.181	10563.23
680.529	10626.73
680.877	10572.94
681.225	10553.28
681.573	10611.59
681.922	10568.2
682.27	10509.44
682.618	10553.73
682.966	10513.28
683.314	10567.29
683.661	10389.67
684.009	10450.23
684.357	10383.57
684.705	10392.16
685.053	10380.18
685.4	10325.04
685.748	10224.93
686.095	10341.08
686.443	10300.41
686.79	10237.58
687.138	10283.01
687.485	10338.15
687.832	10198.26
688.18	10198.94
688.527	10174.08
688.874	10212.05
689.221	10117.81
689.568	10098.38
689.915	10141.99
690.262	10102.22
690.609	10068.1
690.956	10026.29
691.303	9974.77
691.65	9989.45
691.997	9927.54
692.344	9957.82
692.69	9902
693.037	9915.33
693.383	9778.16
693.73	9888.67
694.077	9729.57
694.423	9768.67
694.769	9708.33
695.116	9679.86
695.462	9699.97
695.808	9685.96
696.155	9644.38
696.501	9676.69
696.847	9613.87
697.193	9523.03
697.539	9525.51
697.885	9527.55
698.231	9437.83
698.577	9525.51
698.923	9546.3
699.269	9441.45
699.614	9371.17
699.96	9232.41
700.306	9320.09
700.651	9281
700.997	9270.83
701.342	9257.27
701.688	9203.71
702.033	9161.23
702.379	9082.59
702.724	9142.25
703.069	9146.31
703.415	9024.51
703.76	9034
704.105	9015.47
704.45	9057.05
704.795	8988.35
705.14	8911.97
705.485	8927.11
705.83	8888.47
706.175	8902.7
706.52	8848.24
706.865	8801.01
707.209	8844.63
707.554	8822.03
707.899	8828.36
708.243	8795.36
708.588	8762.59
708.932	8696.16
709.277	8699.32
709.621	8704.06
709.966	8611.41
710.31	8610.73
710.654	8590.4
710.998	8621.36
711.342	8629.94
711.687	8600.11
712.031	8532.09
712.375	8508.59
712.719	8537.06
713.063	8499.78
713.407	8513.56
713.75	8496.61
714.094	8488.48
714.438	8437.41
714.782	8439.21
715.125	8391.08
715.469	8410.74
715.812	8420
716.156	8340.23
716.499	8323.96
716.843	8337.07
717.186	8297.75
717.53	8411.19
717.873	8386.11
718.216	8290.06
718.559	8288.48
718.902	8279.67
719.246	8275.6
719.589	8400.34
719.932	8269.73
720.275	8290.97
720.617	8239.9
720.96	8235.15
721.303	8254.36
721.646	8262.72
721.989	8275.6
722.331	8171.88
722.674	8177.53
723.016	8169.62
723.359	8157.64
723.701	8236.73
724.044	8207.13
724.386	8060.01
724.729	8167.36
725.071	8148.37
725.413	8117.87
725.755	8116.74
726.097	8144.08
726.439	8080.35
726.782	8046.23
727.124	8160.8
727.465	8098.66
727.807	8065.66
728.149	8116.28
728.491	8080.35
728.833	8117.19
729.175	8057.3
729.516	8052.78
729.858	8072.67
730.199	8025.21
730.541	8030.64
730.882	7986.34
731.224	8042.61
731.565	7996.06
731.906	8000.58
732.248	8003.97
732.589	8045.33
732.93	8016.85
733.271	7954.03
733.612	7916.74
733.953	8014.14
734.294	7973.01
734.635	7981.15
734.976	7969.62
735.317	7915.16
735.658	7877.42
735.999	7970.98
736.339	7938.21
736.68	7983.63
737.021	7953.12
737.361	7930.75
737.702	7968.49
738.042	7975.72
738.383	7938.21
738.723	7985.44
739.063	7992.67
739.404	7876.06
739.744	7938.89
740.084	7938.66
740.424	7937.31
740.764	7918.1
741.104	7906.35
741.444	7927.81
741.784	7850.98
742.124	7831.77
742.464	7856.18
742.804	7842.84
743.143	7841.71
743.483	7837.87
743.823	7785.9
744.162	7846.91
744.502	7865.22
744.841	7840.81
745.181	7892.33
745.52	7880.81
745.86	7874.26
746.199	7830.42
746.538	7818.66
746.877	7815.05
747.216	7862.73
747.556	7848.04
747.895	7861.6
748.234	7842.39
748.573	7801.04
748.911	7746.12
749.25	7755.84
749.589	7760.59
749.928	7782.51
750.267	7794.94
750.605	7786.35
750.944	7772.56
751.283	7708.61
751.621	7777.99
751.96	7688.05
752.298	7726.46
752.636	7771.21
752.975	7676.3
753.313	7619.12
753.651	7734.37
753.989	7620.25
754.327	7697.76
754.666	7603.98
755.004	7639.01
755.342	7647.14
755.679	7675.62
756.017	7541.84
756.355	7590.87
756.693	7563.76
757.031	7603.53
757.368	7594.94
757.706	7593.13
758.044	7517.88
758.381	7571.21
758.719	7475.4
759.056	7472.01
759.394	7505.23
759.731	7442.63
760.068	7486.7
760.405	7426.58
760.743	7373.93
761.08	7415.96
761.417	7323.99
761.754	7380.48
762.091	7293.03
762.428	7304.33
762.765	7258.91
763.102	7289.41
763.438	7255.29
763.775	7243.31
764.112	7162.86
