Data from mousepad_grey_FLMS001491_00012.txt Node
Date: Wed Feb 08 14:29:02 GMT 2017
User: dcchb
Spectrometer: FLMS00149
Trigger mode: 0
Integration Time (sec): 2.000000E-2
Scans to average: 10
Electric dark correction enabled: true
Nonlinearity correction enabled: false
Boxcar width: 0
XAxis mode: Wavelengths
Number of Pixels in Spectrum: 2048
>>>>>Begin Spectral Data<<<<<
341.393	-8.28
341.776	-8.28
342.16	-8.28
342.543	-57.77
342.927	-80.59
343.31	-61.38
343.693	-67.94
344.077	-62.96
344.46	-70.42
344.843	-47.82
345.226	-56.18
345.61	-35.17
345.993	-29.74
346.376	3.02
346.759	0.31
347.142	50.03
347.525	35.34
347.908	54.55
348.291	89.8
348.674	98.84
349.057	99.74
349.44	127.09
349.823	141.32
350.206	149.01
350.588	168.22
350.971	181.55
351.354	208.89
351.737	220.19
352.119	231.72
352.502	269
352.884	251.38
353.267	255.22
353.65	245.5
354.032	290.7
354.414	276.69
354.797	275.78
355.179	302.68
355.562	303.13
355.944	310.81
356.326	318.72
356.709	312.84
357.091	310.81
357.473	323.24
357.855	309.91
358.238	317.36
358.62	322.34
359.002	308.33
359.384	334.54
359.766	311.26
360.148	318.72
360.53	308.78
360.912	311.04
361.294	319.62
361.676	307.42
362.057	302
362.439	305.16
362.821	304.48
363.203	294.31
363.584	304.94
363.966	325.73
364.348	307.65
364.729	289.57
365.111	309.46
365.493	326.4
365.874	296.12
366.256	284.15
366.637	290.47
367.019	292.05
367.4	296.8
367.781	295.22
368.163	288.21
368.544	291.6
368.925	286.18
369.306	300.42
369.688	303.35
370.069	287.53
370.45	307.42
370.831	278.5
371.212	305.39
371.593	291.15
371.974	282.79
372.355	299.74
372.736	307.65
373.117	274.43
373.498	284.37
373.879	310.81
374.26	291.83
374.641	289.34
375.021	308.55
375.402	312.84
375.783	300.19
376.163	329.79
376.544	311.71
376.925	312.17
377.305	307.87
377.686	301.09
378.066	299.29
378.447	307.87
378.827	317.59
379.208	293.86
379.588	296.35
379.968	290.25
380.349	300.87
380.729	329.34
381.109	297.25
381.489	321.21
381.87	318.72
382.25	308.33
382.63	327.08
383.01	308.33
383.39	313.3
383.77	319.85
384.15	331.38
384.53	306.52
384.91	313.52
385.29	348.32
385.67	324.82
386.049	332.05
386.429	327.53
386.809	313.3
387.189	336.12
387.568	334.99
387.948	318.04
388.328	342.45
388.707	337.03
389.087	346.29
389.466	331.6
389.846	342.22
390.225	351.04
390.605	344.71
390.984	332.73
391.363	326.86
391.743	350.81
392.122	344.48
392.501	358.04
392.881	342.67
393.26	357.14
393.639	339.74
394.018	352.84
394.397	367.98
394.776	349
395.155	350.13
395.534	347.19
395.913	339.28
396.292	352.84
396.671	368.44
397.05	354.65
397.429	372.28
397.808	360.3
398.186	354.65
398.565	353.3
398.944	368.89
399.323	375.67
399.701	365.05
400.08	386.74
400.458	368.89
400.837	378.83
401.215	372.5
401.594	368.89
401.972	375.89
402.351	367.31
402.729	381.09
403.107	401.2
403.486	405.5
403.864	395.55
404.242	420.64
404.62	395.1
404.999	397.36
405.377	414.09
405.755	400.53
406.133	422.22
406.511	411.37
406.889	418.15
407.267	424.93
407.645	434.2
408.023	414.09
408.401	447.3
408.779	426.74
409.156	432.39
409.534	423.8
409.912	453.41
410.29	436.91
410.667	440.53
411.045	472.84
411.422	455.21
411.8	462.22
412.178	443.01
412.555	473.74
412.933	472.39
413.31	476.46
413.687	483.01
414.065	478.72
414.442	513.52
414.819	498.15
415.197	494.08
415.574	480.98
415.951	485.27
416.328	505.38
416.705	491.15
417.082	493.86
417.46	509.68
417.837	493.63
418.214	513.97
418.591	504.03
418.967	501.31
419.344	511.26
419.721	530.47
420.098	501.31
420.475	516.23
420.852	535.21
421.228	530.92
421.605	542.9
421.982	533.18
422.358	521.2
422.735	555.1
423.111	552.61
423.488	571.82
423.864	562.78
424.241	563.91
424.617	566.85
424.994	563.91
425.37	552.84
425.746	569.34
426.123	549.9
426.499	577.92
426.875	596.91
427.251	580.86
427.627	609.79
428.003	604.59
428.379	587.64
428.756	600.29
429.132	614.98
429.507	619.5
429.883	639.62
430.259	640.29
430.635	646.62
431.011	642.33
431.387	664.93
431.763	635.1
432.138	660.41
432.514	656.34
432.89	662.67
433.265	691.82
433.641	688.65
434.016	695.43
434.392	707.41
434.767	721.2
435.143	718.26
435.518	701.76
435.894	711.7
436.269	721.87
436.644	746.28
437.02	734.08
437.395	758.93
437.77	740.18
438.145	736.34
438.52	761.19
438.895	767.52
439.271	750.8
439.646	788.99
440.021	763.68
440.395	803.68
440.77	786.05
441.145	779.73
441.52	804.36
441.895	807.52
442.27	800.29
442.645	794.87
443.019	824.92
443.394	826.96
443.769	818.37
444.143	800.52
444.518	838.03
444.892	809.78
445.267	845.49
445.641	848.88
446.016	850.91
446.39	838.93
446.764	871.02
447.139	859.5
447.513	857.01
447.887	873.96
448.262	885.26
448.636	857.01
449.01	859.95
449.384	888.87
449.758	901.98
450.132	897.46
450.506	919.61
450.88	905.37
451.254	937.69
451.628	933.39
452.002	965.48
452.376	927.07
452.75	948.53
453.123	938.37
453.497	974.3
453.871	985.82
454.244	997.12
454.618	988.76
454.992	1003.9
455.365	1009.78
455.739	1021.07
456.112	1045.71
456.486	1001.64
456.859	1048.64
457.232	1066.72
457.606	1053.16
457.979	1068.76
458.352	1088.42
458.725	1106.5
459.099	1107.17
459.472	1115.54
459.845	1138.81
460.218	1128.64
460.591	1178.13
460.964	1153.27
461.337	1158.92
461.71	1165.03
462.083	1188.98
462.456	1215.42
462.829	1222.2
463.201	1218.58
463.574	1221.75
463.947	1262.2
464.32	1275.76
464.692	1267.4
465.065	1262.42
465.438	1317.79
465.81	1323.44
466.183	1294.29
466.555	1341.52
466.928	1368.64
467.3	1336.55
467.672	1387.17
468.045	1402.76
468.417	1439.82
468.789	1420.39
469.161	1424.68
469.534	1463.1
469.906	1480.72
470.278	1512.81
470.65	1461.74
471.022	1523.43
471.394	1540.61
471.766	1573.38
472.138	1587.61
472.51	1602.08
472.882	1618.57
473.253	1619.25
473.625	1699.02
473.997	1679.59
474.369	1693.37
474.74	1744.45
475.112	1745.58
475.484	1788.29
475.855	1810.21
476.227	1819.02
476.598	1829.87
476.97	1843.43
477.341	1893.14
477.713	1917.1
478.084	1932.92
478.455	1968.85
478.827	1985.12
479.198	2068.96
479.569	2032.8
479.94	2102.63
480.311	2125.23
480.682	2132.91
481.053	2166.36
481.424	2170.88
481.795	2277.31
482.166	2292
482.537	2313.7
482.908	2312.57
483.279	2358.44
483.65	2380.14
484.021	2412.45
484.391	2452.22
484.762	2512.11
485.133	2506.91
485.503	2539.23
485.874	2564.54
486.244	2615.61
486.615	2631.2
486.985	2687.25
487.356	2732.67
487.726	2764.53
488.097	2780.12
488.467	2833.68
488.837	2880.69
489.207	2912.1
489.578	2892.21
489.948	2942.15
490.318	2996.62
490.688	2984.87
491.058	3064.41
491.428	3070.29
491.798	3094.24
492.168	3138.08
492.538	3137.86
492.908	3199.1
493.278	3264.18
493.648	3253.56
494.017	3310.28
494.387	3323.16
494.757	3321.35
495.126	3334.91
495.496	3373.56
495.866	3458.52
496.235	3442.48
496.605	3483.61
496.974	3515.47
497.344	3497.85
497.713	3530.16
498.082	3571.06
498.452	3577.39
498.821	3640.22
499.19	3636.83
499.559	3642.47
499.928	3701.23
500.298	3686.32
500.667	3728.57
501.036	3736.94
501.405	3778.06
501.774	3815.58
502.143	3822.36
502.512	3835.24
502.88	3875.69
503.249	3876.82
503.618	3921.56
503.987	3931.96
504.356	3938.51
504.724	3967.21
505.093	4000.88
505.462	3996.14
505.83	4043.82
506.199	4091.28
506.567	4138.73
506.936	4096.93
507.304	4132.63
507.672	4150.48
508.041	4180.31
508.409	4260.54
508.777	4259.18
509.145	4271.61
509.514	4312.29
509.882	4298.5
510.25	4319.52
510.618	4359.07
510.986	4386.41
511.354	4413.75
511.722	4429.8
512.09	4484.26
512.458	4511.83
512.826	4514.77
513.193	4555.67
513.561	4529.91
513.929	4620.3
514.297	4651.26
514.664	4699.85
515.032	4717.02
515.4	4753.63
515.767	4729
516.135	4769
516.502	4753.41
516.869	4830.01
517.237	4818.94
517.604	4814.2
517.972	4922.44
518.339	4979.84
518.706	4961.99
519.073	4993.63
519.44	5067.75
519.808	5053.74
520.175	5091.7
520.542	5163.34
520.909	5171.47
521.276	5120.85
521.643	5269.55
522.009	5285.6
522.376	5321.3
522.743	5323.79
523.11	5393.39
523.477	5446.95
523.843	5414.86
524.21	5469.77
524.577	5571.69
524.943	5540.5
525.31	5600.62
525.676	5637.22
526.043	5619.6
526.409	5675.87
526.776	5794.73
527.142	5769.65
527.508	5797.22
527.874	5812.36
528.241	5940.72
528.607	5966.26
528.973	5946.82
529.339	5978.91
529.705	6038.8
530.071	6043.09
530.437	6104.56
530.803	6143.2
531.169	6223.42
531.535	6143.2
531.901	6212.58
532.267	6185.68
532.632	6236.76
532.998	6287.38
533.364	6307.49
533.73	6353.36
534.095	6427.49
534.461	6436.3
534.826	6469.29
535.192	6526.47
535.557	6511.33
535.923	6554.04
536.288	6616.63
536.653	6604.2
537.019	6633.81
537.384	6652.34
537.749	6715.16
538.114	6707.7
538.479	6733.02
538.845	6774.6
539.21	6750.64
539.575	6825.44
539.94	6830.41
540.305	6890.07
540.67	6902.5
541.034	6960.13
541.399	6940.69
541.764	6989.28
542.129	6999.67
542.494	7004.65
542.858	7063.63
543.223	7086.9
543.587	7104.08
543.952	7120.58
544.316	7171.65
544.681	7153.12
545.045	7166.22
545.41	7225.21
545.774	7270.63
546.138	7248.48
546.503	7312.21
546.867	7328.48
547.231	7367.57
547.595	7458.65
547.959	7414.81
548.324	7516.05
548.688	7491.19
549.052	7554.69
549.416	7542.94
549.779	7604.4
550.143	7568.93
550.507	7639.43
550.871	7712.65
551.235	7631.52
551.599	7735.93
551.962	7787
552.326	7830.61
552.689	7833.78
553.053	7824.51
553.417	7823.83
553.78	7919.42
554.143	7867.45
554.507	7919.65
554.87	7969.14
555.234	8060.21
555.597	8000.78
555.96	8023.83
556.323	8077.84
556.686	8134.56
557.05	8184.5
557.413	8186.76
557.776	8233.31
558.139	8297.49
558.502	8305.63
558.865	8351.73
559.228	8364.84
559.59	8442.57
559.953	8443.48
560.316	8532.06
560.679	8516.25
561.041	8522.8
561.404	8573.42
561.767	8720.53
562.129	8679.63
562.492	8721.21
562.854	8668.78
563.217	8693.42
563.579	8828.1
563.941	8841.43
564.304	8862.68
564.666	8892.05
565.028	8958.72
565.39	8997.81
565.753	9001.66
566.115	9024.03
566.477	9089.56
566.839	9142.44
567.201	9152.39
567.563	9168.21
567.925	9262.21
568.287	9282.1
568.648	9217.92
569.01	9304.02
569.372	9428.76
569.734	9365.71
570.095	9456.11
570.457	9525.26
570.819	9469.89
571.18	9499.27
571.542	9566.61
571.903	9567.29
572.265	9598.25
572.626	9640.74
572.987	9645.25
573.349	9654.97
573.71	9721.19
574.071	9741.98
574.432	9819.04
574.794	9831.01
575.155	9894.06
575.516	9783.78
575.877	9849.32
576.238	9897.68
576.599	9915.3
576.96	9934.51
577.32	9943.1
577.681	9890.45
578.042	10110.78
578.403	9986.49
578.763	9969.31
579.124	10023.55
579.485	10072.81
579.845	10119.82
580.206	10128.18
580.566	10131.8
580.927	10190.33
581.287	10184.45
581.648	10115.52
582.008	10182.42
582.368	10209.99
582.728	10208.18
583.089	10193.04
583.449	10123.66
583.809	10241.85
584.169	10258.8
584.529	10239.36
584.889	10330.89
585.249	10216.54
585.609	10181.51
585.969	10247.05
586.329	10244.79
586.688	10233.71
587.048	10236.2
587.408	10320.72
587.768	10251.57
588.127	10250.89
588.487	10243.66
588.846	10426.48
589.206	10220.16
589.565	10221.74
589.925	10304.67
590.284	10270.32
590.643	10318.91
591.003	10243.66
591.362	10355.97
591.721	10326.37
592.08	10305.58
592.44	10402.98
592.799	10419.25
593.158	10281.17
593.517	10317.1
593.876	10332.69
594.235	10360.26
594.593	10410.88
594.952	10407.04
595.311	10303.99
595.67	10402.75
596.029	10438.91
596.387	10467.38
596.746	10431.45
597.104	10374.95
597.463	10435.29
597.822	10464.67
598.18	10435.52
598.538	10444.56
598.897	10495.63
599.255	10317.78
599.613	10507.61
599.972	10458.11
600.33	10464.44
600.688	10466.48
601.046	10519.58
601.404	10535.85
601.762	10464.22
602.12	10540.82
602.478	10563.65
602.836	10543.31
603.194	10501.28
603.552	10514.61
603.91	10488.17
604.268	10522.52
604.625	10494.05
604.983	10566.36
605.341	10548.96
605.698	10577.21
606.056	10563.42
606.413	10610.2
606.771	10634.16
607.128	10588.51
607.485	10598
607.843	10635.29
608.2	10745.79
608.557	10640.26
608.914	10622.18
609.272	10711.67
609.629	10675.96
609.986	10766.36
610.343	10673.02
610.7	10794.38
611.057	10735.4
611.414	10765.23
611.771	10791.21
612.127	10774.94
612.484	10721.38
612.841	10831.89
613.198	10788.73
613.554	10706.24
613.911	10852.91
614.267	10868.27
614.624	10856.75
614.98	10832.57
615.337	10939.46
615.693	10867.37
616.05	10891.1
616.406	10944.66
616.762	10880.25
617.118	10879.12
617.475	10939.91
617.831	10936.29
618.187	11007.03
618.543	10949.85
618.899	11005.22
619.255	10988.27
619.611	10972.45
619.967	11189.62
620.323	11056.52
620.678	11015.39
621.034	10970.87
621.39	11012.45
621.746	11026.91
622.101	11146.91
622.457	10989.63
622.812	11017.65
623.168	11073.47
623.523	11038.66
623.879	11109.17
624.234	11031.89
624.589	11007.03
624.945	11029.63
625.3	11114.14
625.655	11105.33
626.01	11030.3
626.365	11070.08
626.72	11087.93
627.075	11098.78
627.43	11075.05
627.785	11039.79
628.14	11053.81
628.495	11086.35
628.85	11113.01
629.205	11031.43
629.559	11041.83
629.914	11031.43
630.269	11022.39
630.623	11056.74
630.978	11035.5
631.332	11109.17
631.687	11071.66
632.041	10957.08
632.396	11033.01
632.75	10994.6
633.104	11054.71
633.459	10943.3
633.813	10930.19
634.167	10963.64
634.521	10998.44
634.875	10923.87
635.229	10936.75
635.583	10936.97
635.937	10960.93
636.291	10841.83
636.645	10879.8
636.999	10937.42
637.352	10983.07
637.706	10856.07
638.06	10896.97
638.413	10901.49
638.767	10812.91
639.121	10920.48
639.474	10792.12
639.828	10881.38
640.181	10894.04
640.534	10847.03
640.888	10782.17
641.241	10774.72
641.594	10704.21
641.947	10853.81
642.301	10797.99
642.654	10814.72
643.007	10798.22
643.36	10718.9
643.713	10746.47
644.066	10821.5
644.419	10737.2
644.771	10675.96
645.124	10627.83
645.477	10528.4
645.83	10569.07
646.182	10432.13
646.535	10465.12
646.888	10477.55
647.24	10388.51
647.593	10447.49
647.945	10482.75
648.298	10380.15
648.65	10451.56
649.002	10361.85
649.355	10388.51
649.707	10436.19
650.059	10390.09
650.411	10573.14
650.763	10565.68
651.115	10719.8
651.467	10656.08
651.819	10642.29
652.171	10654.95
652.523	10557.55
652.875	10669.86
653.227	10670.09
653.578	10694.72
653.93	10708.05
654.282	10595.96
654.633	10584.89
654.985	10591.67
655.337	10628.96
655.688	10596.64
656.039	10680.71
656.391	10594.61
656.742	10591.22
657.094	10568.62
657.445	10646.58
657.796	10607.49
658.147	10658.56
658.498	10598.45
658.849	10614.27
659.2	10627.83
659.551	10588.05
659.902	10616.53
660.253	10637.55
660.604	10656.98
660.955	10566.81
661.306	10659.47
661.656	10580.37
662.007	10609.98
662.358	10625.79
662.708	10662.63
663.059	10631.22
663.409	10499.7
663.76	10603.2
664.11	10668.73
664.461	10539.92
664.811	10666.47
665.161	10601.84
665.511	10638
665.862	10598.22
666.212	10649.07
666.562	10626.25
666.912	10586.02
667.262	10533.14
667.612	10605.91
667.962	10550.99
668.312	10548.28
668.662	10689.52
669.011	10625.57
669.361	10618.79
669.711	10606.13
670.06	10563.65
670.41	10566.59
670.76	10543.08
671.109	10572.46
671.459	10503.09
671.808	10514.61
672.157	10550.32
672.507	10503.31
672.856	10485.23
673.205	10493.82
673.554	10546.25
673.904	10541.05
674.253	10551.22
674.602	10460.83
674.951	10398.68
675.3	10280.04
675.649	10412.69
675.998	10427.61
676.346	10414.73
676.695	10502.86
677.044	10395.29
677.393	10509.86
677.741	10453.14
678.09	10432.58
678.438	10410.88
678.787	10424.9
679.135	10415.4
679.484	10306.71
679.832	10383.54
680.181	10246.82
680.529	10320.72
680.877	10287.72
681.225	10305.35
681.573	10346.71
681.922	10302.64
682.27	10218.57
682.618	10189.2
682.966	10249.31
683.314	10211.57
683.661	10215.41
684.009	10169.76
684.357	10135.19
684.705	10185.35
685.053	10157.78
685.4	10117.33
685.748	10081.85
686.095	10040.5
686.443	10007.28
686.79	10048.18
687.138	10009.99
687.485	10005.92
687.832	9976.77
688.18	9995.3
688.527	9942.87
688.874	9927.73
689.221	9805.7
689.568	9815.42
689.915	9843.89
690.262	9855.87
690.609	9872.82
690.956	9754.18
691.303	9769.32
691.65	9682.09
691.997	9725.03
692.344	9638.48
692.69	9685.93
693.037	9626.72
693.383	9592.6
693.73	9555.77
694.077	9508.31
694.423	9541.3
694.769	9498.82
695.116	9470.12
695.462	9454.75
695.808	9462.66
696.155	9432.83
696.501	9316.22
696.847	9386.73
697.193	9406.39
697.539	9310.35
697.885	9258.6
698.231	9216.57
698.577	9229.9
698.923	9220.41
699.269	9165.49
699.614	9095.21
699.96	9089.79
700.306	9064.03
700.651	9019.28
700.997	9022.45
701.342	9000.07
701.688	8952.62
702.033	8971.83
702.379	8965.72
702.724	8889.12
703.069	8963.69
703.415	8836.91
703.76	8787.42
704.105	8806.41
704.45	8740.65
704.795	8751.27
705.14	8693.19
705.485	8682.12
705.83	8678.27
706.175	8634.89
706.52	8664.94
706.865	8558.5
707.209	8629.91
707.554	8586.53
707.899	8612.51
708.243	8516.92
708.588	8528.67
708.932	8466.98
709.277	8505.85
709.621	8468.11
709.966	8367.32
710.31	8470.14
710.654	8352.41
710.998	8369.13
711.342	8423.82
711.687	8375.01
712.031	8233.99
712.375	8274.67
712.719	8324.16
713.063	8313.76
713.407	8364.84
713.75	8281
714.094	8212.3
714.438	8204.61
714.782	8276.48
715.125	8218.85
715.469	8200.32
715.812	8161.68
716.156	8158.51
716.499	8134.11
716.843	8167.78
717.186	8121
717.53	8152.86
717.873	8156.25
718.216	8147.22
718.559	8119.19
718.902	8086.43
719.246	8041.46
719.589	8045.52
719.932	8050.49
720.275	8051.62
720.617	8006.88
720.96	8070.61
721.303	8027.67
721.646	7942.7
721.989	7943.6
722.331	8004.85
722.674	7955.81
723.016	7952.19
723.359	7984.96
723.701	8038.52
724.044	7964.85
724.386	7873.55
724.729	7939.31
725.071	7885.75
725.413	8002.81
725.755	7899.09
726.097	7891.63
726.439	7891.18
726.782	7890.5
727.124	7939.31
727.465	7851.86
727.807	7892.53
728.149	7856.83
728.491	7864.51
728.833	7870.61
729.175	7833.1
729.516	7862.02
729.858	7861.8
730.199	7848.92
730.541	7804.17
730.882	7793.78
731.224	7844.85
731.565	7764.85
731.906	7828.35
732.248	7847.34
732.589	7816.83
732.93	7796.49
733.271	7711.97
733.612	7781.58
733.953	7834
734.294	7812.31
734.635	7813.89
734.976	7779.32
735.317	7743.38
735.658	7732.54
735.999	7791.52
736.339	7755.59
736.68	7828.35
737.021	7746.1
737.361	7742.48
737.702	7771.63
738.042	7736.83
738.383	7690.05
738.723	7767.56
739.063	7702.48
739.404	7772.31
739.744	7776.38
740.084	7731.41
740.424	7784.96
740.764	7720.79
741.104	7771.18
741.444	7716.49
741.784	7665.42
742.124	7770.05
742.464	7731.41
742.804	7708.58
743.143	7696.15
743.483	7725.53
743.823	7638.75
744.162	7675.36
744.502	7723.5
744.841	7639.21
745.181	7794
745.52	7658.41
745.86	7696.61
746.199	7669.49
746.538	7645.53
746.877	7761.69
747.216	7692.76
747.556	7630.62
747.895	7722.82
748.234	7635.59
748.573	7638.3
748.911	7638.98
749.25	7651.18
749.589	7587.91
749.928	7599.43
750.267	7598.76
750.605	7572.09
750.944	7580.9
751.283	7585.65
751.621	7572.77
751.96	7527.8
752.298	7583.16
752.636	7519.66
752.975	7549.72
753.313	7500.45
753.651	7547.23
753.989	7514.69
754.327	7456.16
754.666	7494.35
755.004	7488.7
755.342	7519.44
755.679	7453.22
756.017	7459.32
756.355	7444.63
756.693	7426.56
757.031	7396.27
757.368	7390.85
757.706	7459.32
758.044	7368.93
758.381	7371.19
758.719	7322.83
759.056	7362.83
759.394	7296.84
759.731	7309.5
760.068	7290.97
760.405	7202.38
760.743	7249.61
761.08	7172.78
761.417	7244.87
761.754	7178.2
762.091	7168.71
762.428	7180.69
762.765	7144.3
763.102	7170.97
763.438	7087.81
763.775	7084.87
764.112	7100.01
764.449	7106.56
764.785	6989.73
