Data from mousepad_grey_FLMS001491_00018.txt Node
Date: Wed Feb 08 14:29:03 GMT 2017
User: dcchb
Spectrometer: FLMS00149
Trigger mode: 0
Integration Time (sec): 2.000000E-2
Scans to average: 10
Electric dark correction enabled: true
Nonlinearity correction enabled: false
Boxcar width: 0
XAxis mode: Wavelengths
Number of Pixels in Spectrum: 2048
>>>>>Begin Spectral Data<<<<<
341.393	-4.56
341.776	-4.56
342.16	-4.56
342.543	-61.28
342.927	-67.84
343.31	-59.7
343.693	-76.42
344.077	-52.92
344.46	-64.67
344.843	-40.27
345.226	-43.66
345.61	-24.45
345.993	-13.38
346.376	-2.08
346.759	-2.08
347.142	31.37
347.525	27.08
347.908	65.27
348.291	54.87
348.674	84.7
349.057	116.34
349.44	146.39
349.823	139.16
350.206	165.15
350.588	193.62
350.971	186.85
351.354	223.68
351.737	229.33
352.119	248.31
352.502	261.19
352.884	251.7
353.267	273.4
353.65	294.87
354.032	278.82
354.414	301.19
354.797	299.61
355.179	297.12
355.562	300.51
355.944	317.92
356.326	328.99
356.709	298.71
357.091	335.99
357.473	304.13
357.855	324.69
358.238	317.92
358.62	327.18
359.002	325.15
359.384	318.82
359.766	329.21
360.148	333.51
360.53	301.87
360.912	327.63
361.294	331.47
361.676	309.33
362.057	325.15
362.439	319.05
362.821	308.42
363.203	321.98
363.584	302.55
363.966	321.53
364.348	322.89
364.729	303.9
365.111	310.01
365.493	319.05
365.874	311.36
366.256	293.06
366.637	288.31
367.019	296.9
367.4	293.74
367.781	305.03
368.163	297.12
368.544	280.85
368.925	304.36
369.306	309.78
369.688	302.1
370.069	307.52
370.45	302.55
370.831	296.67
371.212	290.12
371.593	310.01
371.974	300.74
372.355	316.79
372.736	315.43
373.117	288.31
373.498	310.68
373.879	315.2
374.26	294.87
374.641	299.84
375.021	309.1
375.402	316.33
375.783	294.41
376.163	299.16
376.544	311.59
376.925	313.85
377.305	304.81
377.686	321.76
378.066	300.97
378.447	325.37
378.827	311.81
379.208	298.71
379.588	316.56
379.968	316.11
380.349	314.98
380.729	319.95
381.109	322.21
381.489	321.08
381.87	321.08
382.25	304.36
382.63	332.38
383.01	304.58
383.39	338.71
383.77	320.18
384.15	328.54
384.53	337.58
384.91	320.63
385.29	342.1
385.67	333.28
386.049	340.06
386.429	354.52
386.809	341.87
387.189	338.93
387.568	339.38
387.948	327.86
388.328	348.65
388.707	320.4
389.087	334.19
389.466	350
389.846	350.46
390.225	355.43
390.605	350
390.984	357.91
391.363	342.32
391.743	334.41
392.122	352.49
392.501	358.82
392.881	354.52
393.26	349.78
393.639	358.37
394.018	348.2
394.397	347.52
394.776	353.17
395.155	387.29
395.534	379.38
395.913	366.28
396.292	383.22
396.671	377.12
397.05	371.93
397.429	374.64
397.808	375.54
398.186	383.9
398.565	368.31
398.944	399.95
399.323	377.57
399.701	397.24
400.08	383.45
400.458	379.61
400.837	386.16
401.215	407.86
401.594	403.56
401.972	379.16
402.351	394.52
402.729	401.75
403.107	403.34
403.486	400.63
403.864	398.82
404.242	399.04
404.62	398.14
404.999	417.12
405.377	426.39
405.755	406.73
406.133	396.56
406.511	420.96
406.889	380.51
407.267	410.34
407.645	400.85
408.023	398.59
408.401	430.45
408.779	465.71
409.156	444.01
409.534	430.68
409.912	447.4
410.29	438.59
410.667	432.26
411.045	456.89
411.422	440.4
411.8	464.35
412.178	470.23
412.555	485.59
412.933	485.59
413.31	478.82
413.687	454.41
414.065	462.77
414.442	489.21
414.819	507.06
415.197	503
415.574	489.66
415.951	509.55
416.328	519.27
416.705	504.58
417.082	500.06
417.46	504.58
417.837	529.89
418.214	517.23
418.591	499.38
418.967	530.34
419.344	515.65
419.721	515.2
420.098	500.28
420.475	517.68
420.852	530.11
421.228	541.41
421.605	526.05
421.982	534.63
422.358	541.19
422.735	552.26
423.111	554.75
423.488	541.41
423.864	559.94
424.241	568.76
424.617	570.79
424.994	561.3
425.37	556.33
425.746	583.22
426.123	565.82
426.499	569.89
426.875	585.48
427.251	584.8
427.627	611.24
428.003	622.31
428.379	611.69
428.756	590.9
429.132	618.25
429.507	634.52
429.883	622.54
430.259	631.81
430.635	641.52
431.011	635.42
431.387	646.95
431.763	641.52
432.138	667.96
432.514	686.04
432.89	688.3
433.265	673.39
433.641	677.23
434.016	673.16
434.392	694.63
434.767	721.29
435.143	700.05
435.518	711.35
435.894	727.85
436.269	717.45
436.644	719.26
437.02	745.25
437.395	732.14
437.77	753.61
438.145	765.59
438.52	761.97
438.895	768.52
439.271	759.94
439.646	778.02
440.021	772.82
440.395	783.21
440.77	774.85
441.145	783.44
441.52	780.5
441.895	788.41
442.27	800.61
442.645	818.92
443.019	820.95
443.394	815.98
443.769	849.2
444.143	825.92
444.518	834.51
444.892	838.58
445.267	826.83
445.641	862.99
446.016	840.61
446.39	855.53
446.764	856.43
447.139	869.09
447.513	879.71
447.887	869.31
448.262	874.28
448.636	894.62
449.01	887.17
449.384	884.68
449.758	902.08
450.132	899.82
450.506	919.71
450.88	919.71
451.254	918.35
451.628	921.06
452.002	952.25
452.376	927.84
452.75	949.99
453.123	942.53
453.497	973.04
453.871	968.07
454.244	993.6
454.618	989.08
454.992	999.03
455.365	1011.46
455.739	1032.02
456.112	1025.69
456.486	1034.28
456.859	1048.07
457.232	1074.05
457.606	1060.27
457.979	1061.85
458.352	1075.18
458.725	1116.99
459.099	1106.37
459.472	1141.62
459.845	1164.67
460.218	1142.07
460.591	1183.2
460.964	1166.48
461.337	1176.65
461.71	1187.27
462.083	1189.08
462.456	1208.97
462.829	1218.68
463.201	1232.24
463.574	1248.96
463.947	1265.46
464.32	1258.68
464.692	1248.96
465.065	1300.04
465.438	1307.95
465.81	1323.99
466.183	1333.03
466.555	1352.92
466.928	1391.79
467.3	1355.63
467.672	1380.71
468.045	1427.04
468.417	1409.64
468.789	1415.97
469.161	1443.99
469.534	1473.14
469.906	1464.33
470.278	1499.58
470.65	1523.31
471.022	1514.27
471.394	1567.6
471.766	1573.48
472.138	1560.82
472.51	1643.53
472.882	1620.25
473.253	1637.65
473.625	1684.89
473.997	1703.87
474.369	1713.36
474.74	1713.13
475.112	1754.49
475.484	1776.63
475.855	1813.92
476.227	1819.12
476.598	1854.6
476.97	1862.06
477.341	1906.12
477.713	1921.49
478.084	1940.7
478.455	2013.01
478.827	1981.37
479.198	2041.26
479.569	2063.41
479.94	2111.09
480.311	2068.15
480.682	2156.74
481.053	2195.38
481.424	2203.29
481.795	2233.8
482.166	2286.45
482.537	2328.26
482.908	2328.71
483.279	2379.56
483.65	2386.34
484.021	2435.6
484.391	2477.18
484.762	2492.77
485.133	2513.56
485.503	2571.42
485.874	2577.97
486.244	2616.39
486.615	2641.92
486.985	2669.04
487.356	2724.18
487.726	2748.13
488.097	2762.37
488.467	2806.89
488.837	2864.29
489.207	2885.98
489.578	2899.32
489.948	2943.84
490.318	2984.51
490.688	3017.96
491.058	3048.47
491.428	3092.76
491.798	3126.88
492.168	3123.27
492.538	3205.75
492.908	3159.87
493.278	3243.94
493.648	3269.25
494.017	3311.28
494.387	3326.2
494.757	3343.6
495.126	3368.23
495.496	3391.73
495.866	3444.39
496.235	3408.91
496.605	3478.74
496.974	3514.89
497.344	3524.16
497.713	3566.64
498.082	3556.47
498.452	3588.56
498.821	3624.04
499.19	3661.56
499.559	3668.79
499.928	3706.07
500.298	3719.86
500.667	3764.83
501.036	3722.8
501.405	3794.21
501.774	3768.67
502.143	3799.18
502.512	3847.54
502.88	3873.53
503.249	3891.38
503.618	3935.67
503.987	3937.48
504.356	3923.02
504.724	3992.85
505.093	4012.51
505.462	4036.91
505.83	4012.28
506.199	4114.65
506.567	4141.54
506.936	4109.68
507.304	4168.66
507.672	4209.79
508.041	4215.21
508.409	4257.47
508.777	4238.26
509.145	4314.42
509.514	4302.9
509.882	4354.87
510.25	4365.49
510.618	4391.25
510.986	4405.72
511.354	4466.28
511.722	4516.45
512.09	4470.12
512.458	4539.5
512.826	4557.35
513.193	4575.66
513.561	4612.72
513.929	4644.81
514.297	4699.5
514.664	4647.29
515.032	4732.71
515.4	4741.75
515.767	4768.65
516.135	4815.88
516.502	4805.48
516.869	4840.96
517.237	4886.38
517.604	4882.32
517.972	4942.65
518.339	4984.23
518.706	4968.64
519.073	5042.76
519.44	5029.88
519.808	5104.91
520.175	5109.2
520.542	5146.49
520.909	5171.12
521.276	5174.28
521.643	5208.41
522.009	5252.47
522.376	5305.13
522.743	5365.01
523.11	5380.38
523.477	5411.11
523.843	5475.75
524.21	5551
524.577	5562.75
524.943	5575.86
525.31	5636.87
525.676	5680.26
526.043	5688.4
526.409	5699.47
526.776	5765.68
527.142	5793.93
527.508	5840.71
527.874	5893.36
528.241	5889.97
528.607	5902.63
528.973	5959.8
529.339	5924.32
529.705	6023.75
530.071	6073.92
530.437	6093.13
530.803	6145.11
531.169	6186.46
531.535	6197.08
531.901	6237.53
532.267	6264.43
532.632	6307.81
532.998	6296.97
533.364	6321.6
533.73	6366.8
534.095	6444.08
534.461	6490.41
534.826	6515.94
535.192	6501.26
535.557	6565.89
535.923	6536.51
536.288	6625.55
536.653	6656.05
537.019	6581.03
537.384	6642.49
537.749	6696.28
538.114	6747.12
538.479	6758.42
538.845	6799.1
539.21	6792.55
539.575	6885.65
539.94	6844.75
540.305	6868.7
540.67	6855.82
541.034	6934.69
541.399	6978.98
541.764	6962.26
542.129	7043.61
542.494	7082.94
542.858	7047.91
543.223	7068.47
543.587	7151.86
543.952	7137.17
544.316	7200.67
544.681	7187.34
545.045	7153.89
545.41	7269.6
545.774	7288.81
546.138	7294
546.503	7373.55
546.867	7326.09
547.231	7420.55
547.595	7421.46
547.959	7459.65
548.324	7468.46
548.688	7517.05
549.052	7586.65
549.416	7586.65
549.779	7614.9
550.143	7620.1
550.507	7672.52
550.871	7684.95
551.235	7707.33
551.599	7770.37
551.962	7773.54
552.326	7833.65
552.689	7882.01
553.053	7832.52
553.417	7818.74
553.78	7945.29
554.143	7932.86
554.507	7910.26
554.87	7933.53
555.234	8141.21
555.597	8071.16
555.96	8079.07
556.323	8140.31
556.686	8114.32
557.05	8237.48
557.413	8224.6
557.776	8188.44
558.139	8259.63
558.502	8301.21
558.865	8330.59
559.228	8378.49
559.59	8465.05
559.953	8483.8
560.316	8583.91
560.679	8527.19
561.041	8539.17
561.404	8529.45
561.767	8649.67
562.129	8634.31
562.492	8688.77
562.854	8732.38
563.217	8756.79
563.579	8867.07
563.941	8830.46
564.304	8853.96
564.666	8927.41
565.028	8952.72
565.39	8959.04
565.753	9028.87
566.115	9014.86
566.477	9083.79
566.839	9083.79
567.201	9138.7
567.563	9173.73
567.925	9278.81
568.287	9265.93
568.648	9297.11
569.01	9271.8
569.372	9462.08
569.734	9371.01
570.095	9467.51
570.457	9462.53
570.819	9507.05
571.18	9512.02
571.542	9559.71
571.903	9515.19
572.265	9583.89
572.626	9637.9
572.987	9653.72
573.349	9692.13
573.71	9726.48
574.071	9679.93
574.432	9763.32
574.794	9862.98
575.155	9877.66
575.516	9831.11
575.877	9899.58
576.238	9928.96
576.599	9945.46
576.96	9881.05
577.32	9937.78
577.681	9980.03
578.042	9976.19
578.403	10039.02
578.763	10133.02
579.124	9979.13
579.485	10109.52
579.845	10144.32
580.206	10138.9
580.566	10087.83
580.927	10127.37
581.287	10135.96
581.648	10120.82
582.008	10175.51
582.368	10187.94
582.728	10199.92
583.089	10217.77
583.449	10200.37
583.809	10247.37
584.169	10215.06
584.529	10221.61
584.889	10312.91
585.249	10314.49
585.609	10263.42
585.969	10275.17
586.329	10323.3
586.688	10296.41
587.048	10278.33
587.408	10286.24
587.768	10269.52
588.127	10224.1
588.487	10322.4
588.846	10345.67
589.206	10295.96
589.565	10265.45
589.925	10310.87
590.284	10342.74
590.643	10288.95
591.003	10361.04
591.362	10371.44
591.721	10302.51
592.08	10361.72
592.44	10358.1
592.799	10402.4
593.158	10368.5
593.517	10354.71
593.876	10393.13
594.235	10402.62
594.593	10359.46
594.952	10384.77
595.311	10316.52
595.67	10346.58
596.029	10392.45
596.387	10378.44
596.746	10422.51
597.104	10433.13
597.463	10472.9
597.822	10469.74
598.18	10426.58
598.538	10447.59
598.897	10460.7
599.255	10433.36
599.613	10533.01
599.972	10483.07
600.33	10502.96
600.688	10439.46
601.046	10553.35
601.404	10542.28
601.762	10598.32
602.12	10546.35
602.478	10600.58
602.836	10494.37
603.194	10489.85
603.552	10588.83
603.91	10473.35
604.268	10561.49
604.625	10561.04
604.983	10560.13
605.341	10569.62
605.698	10638.55
606.056	10586.57
606.413	10614.82
606.771	10678.09
607.128	10726.46
607.485	10605.33
607.843	10636.74
608.2	10675.84
608.557	10663.63
608.914	10667.93
609.272	10705.21
609.629	10782.27
609.986	10690.98
610.343	10680.81
610.7	10813.23
611.057	10802.39
611.414	10745.44
611.771	10802.61
612.127	10840.58
612.484	10878.99
612.841	10834.48
613.198	10794.25
613.554	10819.79
613.911	10919.67
614.267	10857.07
614.624	10889.39
614.98	10953.57
615.337	10992.66
615.693	10898.88
616.05	10934.81
616.406	11041.93
616.762	10876.06
617.118	10979.1
617.475	10931.42
617.831	11019.78
618.187	11004.41
618.543	11045.32
618.899	11076.05
619.255	11030.63
619.611	10987.01
619.967	11008.71
620.323	11120.34
620.678	10939.56
621.034	11025.88
621.39	11098.42
621.746	10980.23
622.101	11122.83
622.457	11012.1
622.812	11066.33
623.168	11112.43
623.523	11084.41
623.879	11146.11
624.234	11042.83
624.589	11097.74
624.945	11115.6
625.3	11151.98
625.655	11071.3
626.01	11173
626.365	11172.55
626.72	11150.17
627.075	11148.59
627.43	11075.37
627.785	11058.2
628.14	11149.72
628.495	11049.16
628.85	11049.61
629.205	11052.1
629.559	11128.25
629.914	11096.39
630.269	11048.71
630.623	11090.97
630.978	10944.3
631.332	11091.19
631.687	11043.96
632.041	11085.32
632.396	11068.37
632.75	11027.69
633.104	11040.8
633.459	10963.51
633.813	11006.22
634.167	10987.47
634.521	11082.38
634.875	10973.68
635.229	11050.06
635.583	10941.36
635.937	10998.76
636.291	10934.36
636.645	10943.85
636.999	10925.77
637.352	10884.64
637.706	10857.75
638.06	10932.78
638.413	10869.05
638.767	10893.46
639.121	10910.41
639.474	10824.53
639.828	10900.91
640.181	10852.33
640.534	10867.92
640.888	10795.38
641.241	10751.31
641.594	10829.73
641.947	10818.2
642.301	10792.44
642.654	10853.01
643.007	10798.54
643.36	10787.92
643.713	10798.09
644.066	10818.66
644.419	10789.96
644.771	10751.54
645.124	10594.93
645.477	10563.97
645.83	10559.45
646.182	10519.68
646.535	10471.55
646.888	10440.59
647.24	10452.34
647.593	10442.85
647.945	10533.24
648.298	10425.9
648.65	10388.16
649.002	10351.1
649.355	10464.54
649.707	10428.84
650.059	10439.46
650.411	10649.4
650.763	10616.85
651.115	10747.7
651.467	10633.58
651.819	10754.7
652.171	10634.48
652.523	10603.52
652.875	10648.72
653.227	10631.54
653.578	10779.79
653.93	10693.24
654.282	10563.07
654.633	10563.75
654.985	10624.76
655.337	10658.43
655.688	10638.32
656.039	10683.29
656.391	10616.18
656.742	10572.34
657.094	10677.87
657.445	10630.19
657.796	10675.61
658.147	10592.22
658.498	10600.36
658.849	10688.04
659.2	10646.01
659.551	10544.77
659.902	10638.1
660.253	10589.28
660.604	10659.79
660.955	10581.6
661.306	10636.97
661.656	10597.87
662.007	10695.04
662.358	10616.63
662.708	10641.26
663.059	10595.39
663.409	10546.12
663.76	10616.85
664.11	10627.7
664.461	10660.47
664.811	10631.09
665.161	10596.74
665.511	10594.26
665.862	10540.02
666.212	10617.08
666.562	10606.91
666.912	10608.94
667.262	10612.56
667.612	10549.51
667.962	10652.56
668.312	10641.26
668.662	10671.32
669.011	10592.45
669.361	10599
669.711	10621.15
670.06	10556.06
670.41	10565.56
670.76	10549.51
671.109	10575.95
671.459	10628.38
671.808	10549.51
672.157	10556.97
672.507	10484.88
672.856	10516.97
673.205	10431.55
673.554	10561.71
673.904	10509.06
674.253	10547.48
674.602	10604.2
674.951	10363.07
675.3	10344.09
675.649	10528.27
675.998	10472.68
676.346	10493.92
676.695	10522.62
677.044	10481.72
677.393	10462.96
677.741	10457.31
678.09	10426.35
678.438	10419.34
678.787	10436.75
679.135	10457.08
679.484	10388.39
679.832	10406.92
680.181	10327.6
680.529	10435.39
680.877	10298.67
681.225	10298.44
681.573	10425.67
681.922	10298.67
682.27	10324.66
682.618	10269.07
682.966	10204.89
683.314	10318.78
683.661	10216.86
684.009	10208.28
684.357	10139.13
684.705	10180.48
685.053	10163.98
685.4	10096.19
685.748	10166.7
686.095	10124.21
686.443	10043.31
686.79	10051.67
687.138	10038.34
687.485	10043.99
687.832	10000.82
688.18	10006.93
688.527	9950.2
688.874	9930.77
689.221	9891
689.568	9911.56
689.915	9829.76
690.262	9861.62
690.609	9816.87
690.956	9848.29
691.303	9739.59
691.65	9708.85
691.997	9775.75
692.344	9672.25
692.69	9629.53
693.037	9681.06
693.383	9618.01
693.73	9644.9
694.077	9534.62
694.423	9554.28
694.769	9506.15
695.116	9472.48
695.462	9485.58
695.808	9421.86
696.155	9387.06
696.501	9394.96
696.847	9386.6
697.193	9305.25
697.539	9348.64
697.885	9305.93
698.231	9318.36
698.577	9189.32
698.923	9234.97
699.269	9122.43
699.614	9120.4
699.96	9099.38
700.306	9063.45
700.651	9114.52
700.997	9019.83
701.342	9044.69
701.688	8978.25
702.033	8999.5
702.379	8902.32
702.724	8912.04
703.069	8947.97
703.415	8812.61
703.76	8839.05
704.105	8828.43
704.45	8778.48
704.795	8805.15
705.14	8729.45
705.485	8710.92
705.83	8674.98
706.175	8693.74
706.52	8651.48
706.865	8619.17
707.209	8583.91
707.554	8542.11
707.899	8570.35
708.243	8481.54
708.588	8561.09
708.932	8520.64
709.277	8448.78
709.621	8533.07
709.966	8425.95
710.31	8470.47
710.654	8387.99
710.998	8396.35
711.342	8408.55
711.687	8399.51
712.031	8356.12
712.375	8304.82
712.719	8331.04
713.063	8317.25
713.407	8408.78
713.75	8226.18
714.094	8314.54
714.438	8256.69
714.782	8246.52
715.125	8195.9
715.469	8251.94
715.812	8232.74
716.156	8167.43
716.499	8192.74
716.843	8140.53
717.186	8082.46
717.53	8184.38
717.873	8128.11
718.216	8148.9
718.559	8112.96
718.902	8060.31
719.246	8080.88
719.589	8049.01
719.932	8054.66
720.275	8042.46
720.617	8085.62
720.96	8031.38
721.303	8059.86
721.646	7981.67
721.989	8010.82
722.331	8027.77
722.674	7956.13
723.016	8026.19
723.359	7990.93
723.701	8047.66
724.044	7951.39
724.386	7930.6
724.729	7966.3
725.071	7950.26
725.413	7917.26
725.755	7922.01
726.097	7881.33
726.439	7832.07
726.782	7874.78
727.124	7932.63
727.465	7848.11
727.807	7952.74
728.149	7842.92
728.491	7896.47
728.833	7927.21
729.175	7913.87
729.516	7871.16
729.858	7842.46
730.199	7835.01
730.541	7861.45
730.882	7844.5
731.224	7866.19
731.565	7810.15
731.906	7788
732.248	7857.38
732.589	7834.55
732.93	7766.76
733.271	7809.02
733.612	7822.8
733.953	7784.39
734.294	7814.67
734.635	7803.37
734.976	7796.14
735.317	7750.94
735.658	7788.45
735.999	7799.98
736.339	7759.98
736.68	7784.16
737.021	7747.1
737.361	7735.57
737.702	7809.7
738.042	7793.88
738.383	7774.89
738.723	7795.91
739.063	7790.71
739.404	7765.63
739.744	7753.65
740.084	7731.28
740.424	7759.75
740.764	7675.24
741.104	7738.06
741.444	7733.09
741.784	7714.78
742.124	7748.45
742.464	7737.61
742.804	7697.38
743.143	7757.95
743.483	7712.07
743.823	7683.82
744.162	7702.13
744.502	7714.11
744.841	7712.75
745.181	7717.49
745.52	7647.89
745.86	7716.82
746.199	7745.06
746.538	7668
746.877	7721.56
747.216	7707.55
747.556	7675.01
747.895	7665.74
748.234	7696.25
748.573	7582.58
748.911	7658.97
749.25	7682.69
749.589	7639.08
749.928	7595.24
750.267	7637.95
750.605	7618.29
750.944	7568.8
751.283	7548.69
751.621	7664.61
751.96	7525.86
752.298	7579.87
752.636	7560.89
752.975	7565.18
753.313	7547.33
753.651	7555.01
753.989	7527.22
754.327	7541.23
754.666	7541.91
755.004	7484.28
755.342	7515.01
755.679	7494.45
756.017	7470.27
756.355	7470.5
756.693	7504.39
757.031	7477.73
757.368	7338.97
757.706	7444.73
758.044	7386.43
758.381	7432.76
758.719	7344.17
759.056	7362.25
759.394	7368.8
759.731	7356.6
760.068	7321.57
760.405	7239.09
760.743	7312.31
761.08	7282.93
761.417	7216.49
761.754	7203.16
762.091	7197.96
762.428	7195.25
762.765	7148.24
763.102	7170.39
763.438	7144.63
763.775	7077.51
764.112	7080
764.449	7085.65
