Data from mousepad_grey_FLMS001491_00073.txt Node
Date: Wed Feb 08 14:29:54 GMT 2017
User: dcchb
Spectrometer: FLMS00149
Trigger mode: 0
Integration Time (sec): 2.000000E-2
Scans to average: 10
Electric dark correction enabled: true
Nonlinearity correction enabled: false
Boxcar width: 0
XAxis mode: Wavelengths
Number of Pixels in Spectrum: 2048
>>>>>Begin Spectral Data<<<<<
341.393	4.6
341.776	4.6
342.16	4.6
342.543	-61.61
342.927	-57.99
343.31	-57.77
343.693	-76.07
344.077	-74.94
344.46	-60.7
344.843	-45.34
345.226	-39.01
345.61	-29.52
345.993	-25.9
346.376	-0.82
346.759	-9.63
347.142	32.63
347.525	38.05
347.908	71.95
348.291	78.05
348.674	102.68
349.057	96.35
349.44	125.73
349.823	162.34
350.206	162.79
350.588	165.5
350.971	196.24
351.354	207.99
351.737	210.02
352.119	225.39
352.502	241.43
352.884	252.73
353.267	259.29
353.65	296.12
354.032	282.79
354.414	294.09
354.797	294.31
355.179	311.71
355.562	283.47
355.944	312.62
356.326	296.57
356.709	309.68
357.091	323.01
357.473	327.53
357.855	328.21
358.238	306.74
358.62	337.48
359.002	317.14
359.384	321.21
359.766	332.05
360.148	322.79
360.53	349.45
360.912	326.18
361.294	307.42
361.676	313.07
362.057	325.73
362.439	313.75
362.821	320.75
363.203	304.03
363.584	292.28
363.966	299.74
364.348	324.14
364.729	307.87
365.111	308.1
365.493	313.07
365.874	306.07
366.256	301.77
366.637	298.61
367.019	294.54
367.4	290.25
367.781	292.73
368.163	309.46
368.544	301.55
368.925	314.65
369.306	304.48
369.688	294.09
370.069	296.57
370.45	298.61
370.831	282.79
371.212	302.22
371.593	290.92
371.974	285.27
372.355	313.3
372.736	309.68
373.117	288.89
373.498	292.96
373.879	294.77
374.26	301.32
374.641	309.46
375.021	290.02
375.402	285.73
375.783	287.08
376.163	314.43
376.544	320.75
376.925	306.74
377.305	293.86
377.686	306.29
378.066	318.72
378.447	304.03
378.827	311.71
379.208	311.26
379.588	309.23
379.968	317.14
380.349	318.72
380.729	311.49
381.109	314.2
381.489	300.42
381.87	353.75
382.25	312.17
382.63	337.7
383.01	341.77
383.39	323.69
383.77	338.15
384.15	334.99
384.53	328.89
384.91	343.13
385.29	322.34
385.67	329.12
386.049	335.22
386.429	332.28
386.809	334.54
387.189	314.43
387.568	346.29
387.948	313.3
388.328	336.57
388.707	352.17
389.087	349.68
389.466	352.17
389.846	347.65
390.225	374.76
390.605	361.66
390.984	338.61
391.363	351.26
391.743	358.04
392.122	338.38
392.501	348.32
392.881	366.63
393.26	364.59
393.639	359.62
394.018	377.02
394.397	350.36
394.776	353.75
395.155	361.88
395.534	368.21
395.913	360.08
396.292	370.47
396.671	372.73
397.05	382.22
397.429	385.16
397.808	357.14
398.186	369.57
398.565	366.63
398.944	382.67
399.323	396.23
399.701	409.34
400.08	390.81
400.458	376.57
400.837	417.25
401.215	400.3
401.594	380.87
401.972	389
402.351	391.71
402.729	399.62
403.107	399.85
403.486	392.39
403.864	421.32
404.242	403.46
404.62	406.18
404.999	415.67
405.377	424.25
405.755	424.93
406.133	421.32
406.511	432.39
406.889	420.64
407.267	426.29
407.645	423.35
408.023	412.73
408.401	446.85
408.779	434.88
409.156	435.33
409.534	446.4
409.912	455.67
410.29	453.86
410.667	451.37
411.045	443.91
411.422	459.96
411.8	465.16
412.178	464.48
412.555	455.89
412.933	470.58
413.31	484.14
413.687	481.2
414.065	492.73
414.442	490.02
414.819	492.95
415.197	504.48
415.574	492.5
415.951	524.59
416.328	510.35
416.705	503.12
417.082	528.88
417.46	504.25
417.837	506.06
418.214	510.13
418.591	528.66
418.967	526.85
419.344	499.28
419.721	527.08
420.098	538.83
420.475	537.47
420.852	553.97
421.228	534.53
421.605	550.13
421.982	568.43
422.358	561.2
422.735	557.58
423.111	549.9
423.488	567.98
423.864	573.18
424.241	553.06
424.617	573.85
424.994	565.04
425.37	587.19
425.746	595.78
426.123	577.24
426.499	576.79
426.875	593.29
427.251	599.62
427.627	634.42
428.003	619.28
428.379	614.76
428.756	623.8
429.132	635.55
429.507	646.4
429.883	650.24
430.259	655.66
430.635	646.17
431.011	635.1
431.387	657.92
431.763	662.44
432.138	640.97
432.514	692.72
432.89	694.53
433.265	685.49
433.641	719.16
434.016	678.03
434.392	722.1
434.767	713.96
435.143	710.57
435.518	730.01
435.894	716.45
436.269	738.6
436.644	715.55
437.02	748.09
437.395	737.47
437.77	759.16
438.145	764.36
438.52	775.66
438.895	783.79
439.271	789.67
439.646	802.1
440.021	788.54
440.395	797.13
440.77	799.84
441.145	787.63
441.52	784.24
441.895	823.57
442.27	830.8
442.645	831.93
443.019	828.54
443.394	835.54
443.769	838.48
444.143	814.07
444.518	855.88
444.892	833.28
445.267	839.61
445.641	858.37
446.016	862.43
446.39	865.37
446.764	862.89
447.139	871.93
447.513	871.25
447.887	880.97
448.262	875.54
448.636	891.81
449.01	902.43
449.384	881.19
449.758	909.44
450.132	913.51
450.506	912.15
450.88	931.13
451.254	932.72
451.628	943.79
452.002	970.91
452.376	948.53
452.75	962.55
453.123	971.81
453.497	991.25
453.871	966.39
454.244	1020.62
454.618	1019.04
454.992	1000.96
455.365	1001.87
455.739	1041.64
456.112	1022.66
456.486	1033.5
456.859	1057.23
457.232	1059.04
457.606	1088.42
457.979	1068.31
458.352	1094.29
458.725	1115.08
459.099	1120.28
459.472	1118.25
459.845	1152.82
460.218	1169.55
460.591	1151.47
460.964	1145.82
461.337	1202.09
461.71	1226.27
462.083	1221.75
462.456	1191.69
462.829	1233.5
463.201	1227.62
463.574	1258.81
463.947	1253.16
464.32	1277.11
464.692	1291.58
465.065	1299.03
465.438	1273.27
465.81	1338.35
466.183	1346.04
466.555	1377
466.928	1397.34
467.3	1377
467.672	1399.6
468.045	1407.96
468.417	1414.96
468.789	1420.61
469.161	1473.04
469.534	1501.29
469.906	1502.42
470.278	1487.28
470.65	1521.63
471.022	1538.35
471.394	1551
471.766	1572.92
472.138	1584.22
472.51	1609.99
472.882	1636.2
473.253	1675.07
473.625	1650.66
473.997	1702.64
474.369	1715.97
474.74	1752.36
475.112	1767.72
475.484	1744.67
475.855	1817.66
476.227	1820.15
476.598	1856.08
476.97	1863.54
477.341	1922.97
477.713	1927.49
478.084	1946.02
478.455	1999.13
478.827	1997.55
479.198	2047.94
479.569	2089.3
479.94	2096.75
480.311	2101.27
480.682	2149.18
481.053	2192.34
481.424	2213.13
481.795	2271.44
482.166	2260.14
482.537	2320.93
482.908	2367.25
483.279	2386.24
483.65	2455.16
484.021	2475.95
484.391	2446.35
484.762	2511.21
485.133	2527.48
485.503	2511.66
485.874	2560.7
486.244	2635.04
486.615	2655.83
486.985	2670.97
487.356	2687.92
487.726	2772.89
488.097	2762.95
488.467	2844.53
488.837	2866.45
489.207	2885.43
489.578	2925.66
489.948	2939.22
490.318	2975.15
490.688	3001.14
491.058	3064.64
491.428	3036.16
491.798	3136.05
492.168	3133.11
492.538	3164.07
492.908	3208.36
493.278	3193
493.648	3242.03
494.017	3269.15
494.387	3320.45
494.757	3334.91
495.126	3366.1
495.496	3370.17
495.866	3402.26
496.235	3437.73
496.605	3471.63
496.974	3510.73
497.344	3483.61
497.713	3537.17
498.082	3558.64
498.452	3583.27
498.821	3587.11
499.19	3612.19
499.559	3657.62
499.928	3672.76
500.298	3697.16
500.667	3772.41
501.036	3759.31
501.405	3808.35
501.774	3767.67
502.143	3825.97
502.512	3846.54
502.88	3852.19
503.249	3850.38
503.618	3941
503.987	3896.71
504.356	3917.72
504.724	3962.92
505.093	3952.3
505.462	3978.74
505.83	4023.26
506.199	4011.96
506.567	4108.45
506.936	4089.02
507.304	4130.6
507.672	4170.82
508.041	4209.24
508.409	4196.36
508.777	4246.98
509.145	4322.23
509.514	4271.84
509.882	4292.85
510.25	4315.45
510.618	4407.65
510.986	4351.38
511.354	4389.8
511.722	4436.35
512.09	4468.67
512.458	4451.27
512.826	4504.83
513.193	4547.99
513.561	4530.81
513.929	4592.51
514.297	4627.08
514.664	4663.24
515.032	4674.76
515.4	4760.64
515.767	4695.33
516.135	4743.24
516.502	4739.85
516.869	4861.43
517.237	4798.38
517.604	4866.62
517.972	4929.22
518.339	4926.28
518.706	4945.04
519.073	4955.43
519.44	5002.44
519.808	5011.48
520.175	5053.06
520.542	5088.54
520.909	5146.16
521.276	5147.07
521.643	5150.01
522.009	5212.83
522.376	5271.58
522.743	5309.55
523.11	5305.93
523.477	5429.55
523.843	5468.64
524.21	5517.23
524.577	5514.74
524.943	5492.82
525.31	5537.79
525.676	5627.06
526.043	5680.61
526.409	5661.18
526.776	5700.73
527.142	5716.32
527.508	5777.11
527.874	5836.09
528.241	5868.63
528.607	5870.21
528.973	5925.13
529.339	5926.48
529.705	5978.91
530.071	6014.39
530.437	6012.13
530.803	6097.33
531.169	6123.99
531.535	6066.82
531.901	6150.21
532.267	6178.45
532.632	6192.01
532.998	6275.63
533.364	6248.51
533.73	6233.59
534.095	6387.26
534.461	6355.85
534.826	6387.94
535.192	6421.38
535.557	6487.15
535.923	6464.1
536.288	6523.98
536.653	6521.27
537.019	6528.5
537.384	6639.68
537.749	6581.15
538.114	6678.78
538.479	6629.97
538.845	6708.38
539.21	6703.19
539.575	6716.07
539.94	6801.04
540.305	6798.55
540.67	6823.63
541.034	6872.22
541.399	6888.27
541.764	6848.94
542.129	6891.43
542.494	6972.56
542.858	6942.73
543.223	6977.98
543.587	7114.02
543.952	7081.03
544.316	7093.01
544.681	6968.49
545.045	7075.15
545.41	7122.84
545.774	7220.23
546.138	7290.74
546.503	7233.34
546.867	7252.78
547.231	7343.85
547.595	7327.8
547.959	7358.31
548.324	7378.2
548.688	7365.09
549.052	7458.87
549.416	7429.49
549.779	7494.8
550.143	7502.26
550.507	7576.38
550.871	7627.45
551.235	7542.94
551.599	7518.76
551.962	7613.67
552.326	7667.68
552.689	7718.53
553.053	7703.61
553.417	7754.23
553.78	7792.2
554.143	7823.38
554.507	7910.39
554.87	7881.23
555.234	8007.56
555.597	7882.14
555.96	7989.93
556.323	8059.76
556.686	8035.58
557.05	8160.77
557.413	8057.27
557.776	8137.05
558.139	8222.92
558.502	8206.2
558.865	8253.43
559.228	8289.36
559.59	8284.16
559.953	8336.59
560.316	8422.24
560.679	8401.9
561.041	8507.66
561.404	8510.6
561.767	8525.28
562.129	8570.93
562.492	8594.66
562.854	8673.08
563.217	8611.84
563.579	8610.48
563.941	8710.36
564.304	8758.72
564.666	8790.36
565.028	8826.29
565.39	8850.02
565.753	8891.15
566.115	8912.39
566.477	8944.03
566.839	8992.84
567.201	9031.49
567.563	9030.81
567.925	9133.18
568.287	9141.31
568.648	9200.29
569.01	9220.63
569.372	9251.37
569.734	9230.35
570.095	9299.05
570.457	9366.39
570.819	9370.46
571.18	9424.47
571.542	9375.88
571.903	9438.93
572.265	9411.59
572.626	9537.69
572.987	9522.55
573.349	9574.3
573.71	9581.53
574.071	9583.11
574.432	9628.08
574.794	9696.33
575.155	9717.8
575.516	9666.05
575.877	9743.11
576.238	9669.21
576.599	9813.39
576.96	9827.62
577.32	9824.46
577.681	9879.15
578.042	9857.9
578.403	9895.87
578.763	9874.4
579.124	9932.93
579.485	9982.42
579.845	10030.56
580.206	9909.43
580.566	9993.72
580.927	9954.85
581.287	10080.95
581.648	9992.82
582.008	9987.84
582.368	10027.62
582.728	9980.16
583.089	9972.93
583.449	10028.52
583.809	10096.99
584.169	10118.24
584.529	10097.22
584.889	10151.91
585.249	10017
585.609	10018.8
585.969	10176.31
586.329	10094.96
586.688	10098.35
587.048	10138.35
587.408	10208.63
587.768	10095.19
588.127	10159.14
588.487	10106.26
588.846	10167.95
589.206	10115.52
589.565	10144.68
589.925	10134.73
590.284	10201.62
590.643	10154.17
591.003	10158.24
591.362	10173.6
591.721	10204.56
592.08	10192.81
592.44	10201.62
592.799	10203.66
593.158	10115.75
593.517	10116.43
593.876	10156.88
594.235	10127.28
594.593	10193.94
594.952	10262.64
595.311	10209.53
595.67	10243.66
596.029	10271.23
596.387	10265.13
596.746	10309.64
597.104	10202.3
597.463	10247.72
597.822	10253.83
598.18	10283.66
598.538	10235.97
598.897	10292.47
599.255	10190.78
599.613	10376.31
599.972	10268.74
600.33	10297.89
600.688	10272.58
601.046	10326.59
601.404	10329.76
601.762	10361.39
602.12	10365.46
602.478	10376.76
602.836	10403.2
603.194	10269.87
603.552	10345.35
603.91	10305.12
604.268	10277.1
604.625	10321.85
604.983	10401.62
605.341	10325.69
605.698	10352.35
606.056	10394.16
606.413	10422.18
606.771	10452.24
607.128	10471.67
607.485	10390.77
607.843	10436.87
608.2	10452.01
608.557	10515.97
608.914	10444.33
609.272	10496.53
609.629	10567.49
609.986	10527.04
610.343	10503.09
610.7	10581.05
611.057	10597.32
611.414	10527.27
611.771	10530.2
612.127	10619.69
612.484	10595.74
612.841	10597.32
613.198	10473.93
613.554	10575.63
613.911	10650.2
614.267	10605.46
614.624	10584.89
614.98	10636.19
615.337	10718
615.693	10694.27
616.05	10702.18
616.406	10706.47
616.762	10679.58
617.118	10696.3
617.475	10689.75
617.831	10755.28
618.187	10763.19
618.543	10746.69
618.899	10751.44
619.255	10728.39
619.611	10735.17
619.967	10792.57
620.323	10758.22
620.678	10776.3
621.034	10761.38
621.39	10754.15
621.746	10706.47
622.101	10889.06
622.457	10789.86
622.812	10800.93
623.168	10838.44
623.523	10841.61
623.879	10886.8
624.234	10794.38
624.589	10801.16
624.945	10840.7
625.3	10839.8
625.655	10829.18
626.01	10818.11
626.365	10825.34
626.72	10790.76
627.075	10822.17
627.43	10847.26
627.785	10799.12
628.14	10803.64
628.495	10807.71
628.85	10815.39
629.205	10797.31
629.559	10849.07
629.914	10814.72
630.269	10775.62
630.623	10738.11
630.978	10774.26
631.332	10805.68
631.687	10806.81
632.041	10757.32
632.396	10752.34
632.75	10738.11
633.104	10769.97
633.459	10722.74
633.813	10668.05
634.167	10689.3
634.521	10639.58
634.875	10678
635.229	10736.53
635.583	10665.12
635.937	10701.05
636.291	10671.44
636.645	10648.62
636.999	10584.89
637.352	10595.06
637.706	10613.59
638.06	10604.78
638.413	10584.67
638.767	10642.52
639.121	10617.21
639.474	10577.21
639.828	10566.59
640.181	10604.33
640.534	10570.88
640.888	10537.89
641.241	10560.26
641.594	10548.73
641.947	10597.77
642.301	10482.75
642.654	10576.76
643.007	10495.18
643.36	10590.09
643.713	10549.19
644.066	10564.55
644.419	10473.48
644.771	10436.19
645.124	10336.31
645.477	10327.04
645.83	10238.69
646.182	10193.49
646.535	10150.55
646.888	10223.54
647.24	10181.06
647.593	10197.56
647.945	10231.68
648.298	10171.34
648.65	10151.68
649.002	10110.1
649.355	10182.64
649.707	9998.92
650.059	10154.85
650.411	10295.18
650.763	10339.47
651.115	10416.53
651.467	10387.38
651.819	10340.15
652.171	10398.23
652.523	10383.77
652.875	10325.46
653.227	10329.53
653.578	10413.6
653.93	10423.99
654.282	10372.69
654.633	10340.15
654.985	10357.78
655.337	10383.31
655.688	10442.52
656.039	10375.86
656.391	10269.65
656.742	10289.76
657.094	10329.98
657.445	10391.9
657.796	10346.25
658.147	10329.98
658.498	10343.77
658.849	10387.83
659.2	10272.13
659.551	10288.18
659.902	10400.26
660.253	10359.81
660.604	10341.06
660.955	10339.47
661.306	10337.21
661.656	10333.6
662.007	10310.77
662.358	10309.87
662.708	10329.3
663.059	10325.24
663.409	10238.91
663.76	10334.95
664.11	10292.7
664.461	10328.63
664.811	10335.18
665.161	10273.26
665.511	10295.63
665.862	10344.45
666.212	10344.22
666.562	10348.51
666.912	10286.59
667.262	10244.56
667.612	10321.17
667.962	10272.58
668.312	10258.57
668.662	10317.55
669.011	10299.7
669.361	10263.77
669.711	10255.18
670.06	10373.6
670.41	10252.92
670.76	10232.81
671.109	10237.78
671.459	10243.88
671.808	10168.63
672.157	10180.16
672.507	10164.34
672.856	10171.34
673.205	10258.57
673.554	10248.85
673.904	10187.16
674.253	10278.01
674.602	10192.13
674.951	10118.69
675.3	10029.2
675.649	10154.62
675.998	10141.51
676.346	10132.47
676.695	10232.36
677.044	10098.35
677.393	10127.05
677.741	10151.23
678.09	10103.55
678.438	10097.9
678.787	10075.75
679.135	10102.19
679.484	10059.26
679.832	10023.78
680.181	10057.45
680.529	10058.35
680.877	9949.65
681.225	9937.22
681.573	10000.95
681.922	9987.84
682.27	9973.16
682.618	9959.14
682.966	9891.8
683.314	9989.2
683.661	9920.28
684.009	9873.27
684.357	9887.96
684.705	9830.33
685.053	9766.83
685.4	9820.39
685.748	9804.57
686.095	9806.83
686.443	9728.42
686.79	9721.64
687.138	9673.95
687.485	9721.19
687.832	9660.62
688.18	9688.19
688.527	9590.57
688.874	9616.33
689.221	9632.6
689.568	9503.11
689.915	9520.29
690.262	9462.43
690.609	9551.92
690.956	9400.97
691.303	9451.81
691.65	9403.91
691.997	9421.98
692.344	9374.98
692.69	9258.15
693.037	9367.97
693.383	9270.58
693.73	9245.49
694.077	9225.6
694.423	9184.48
694.769	9136.34
695.116	9139.05
695.462	9180.63
695.808	9127.98
696.155	9183.35
696.501	9012.05
696.847	9009.79
697.193	8929.12
697.539	9009.57
697.885	8923.24
698.231	8936.12
698.577	8913.52
698.923	8905.16
699.269	8888.89
699.614	8779.06
699.96	8789.23
700.306	8824.71
700.651	8734.32
700.997	8726.86
701.342	8632.4
701.688	8646.41
702.033	8662.91
702.379	8643.47
702.724	8600.08
703.069	8596.02
703.415	8483.48
703.76	8480.99
704.105	8496.36
704.45	8502.46
704.795	8467.21
705.14	8380.43
705.485	8428.34
705.83	8367.77
706.175	8302.24
706.52	8362.58
706.865	8362.8
707.209	8279.19
707.554	8299.53
707.899	8277.16
708.243	8277.16
708.588	8176.37
708.932	8105.63
709.277	8183.37
709.621	8190.15
709.966	8122.81
710.31	8192.86
710.654	8071.06
710.998	8132.07
711.342	8115.58
711.687	8023.83
712.031	8011.4
712.375	7973.66
712.719	8069.48
713.063	8012.3
713.407	8081
713.75	7973.89
714.094	7950.16
714.438	7922.81
714.782	7923.27
715.125	7899.09
715.469	7901.8
715.812	7803.72
716.156	7872.42
716.499	7896.83
716.843	7818.18
717.186	7832.2
717.53	7843.27
717.873	7864.51
718.216	7813.66
718.559	7799.2
718.902	7685.08
719.246	7834.46
719.589	7728.47
719.932	7760.11
720.275	7761.01
720.617	7737.96
720.96	7690.73
721.303	7692.09
721.646	7692.09
721.989	7676.04
722.331	7739.77
722.674	7683.72
723.016	7735.93
723.359	7659.54
723.701	7661.13
724.044	7600.11
724.386	7652.99
724.729	7647.12
725.071	7657.28
725.413	7651.41
725.755	7632.65
726.097	7560.56
726.439	7562.6
726.782	7576.16
727.124	7636.95
727.465	7531.86
727.807	7589.94
728.149	7552.65
728.491	7594.46
728.833	7547
729.175	7566.89
729.516	7609.83
729.858	7541.58
730.199	7580.45
730.541	7544.75
730.882	7589.04
731.224	7548.13
731.565	7505.42
731.906	7478.31
732.248	7528.25
732.589	7474.69
732.93	7494.12
733.271	7539.55
733.612	7495.71
733.953	7530.28
734.294	7431.53
734.635	7531.41
734.976	7481.24
735.317	7532.99
735.658	7472.43
735.999	7555.14
736.339	7477.18
736.68	7463.84
737.021	7494.35
737.361	7495.25
737.702	7436.5
738.042	7471.75
738.383	7493
738.723	7443.96
739.063	7474.01
739.404	7473.56
739.744	7475.82
740.084	7440.57
740.424	7465.43
740.764	7473.56
741.104	7513.56
741.444	7454.58
741.784	7390.4
742.124	7466.33
742.464	7428.59
742.804	7436.27
743.143	7434.92
743.483	7380.23
743.823	7371.64
744.162	7402.6
744.502	7382.94
744.841	7373.68
745.181	7429.49
745.52	7400.79
745.86	7422.49
746.199	7440.34
746.538	7396.73
746.877	7449.61
747.216	7453
747.556	7393.56
747.895	7374.13
748.234	7338.42
748.573	7382.04
748.911	7381.36
749.25	7344.75
749.589	7383.39
749.928	7376.61
750.267	7367.12
750.605	7339.55
750.944	7365.09
751.283	7291.87
751.621	7330.51
751.96	7333.45
752.298	7348.14
752.636	7339.55
752.975	7234.24
753.313	7195.6
753.651	7279.22
753.989	7234.92
754.327	7244.87
754.666	7221.82
755.004	7231.31
755.342	7243.06
755.679	7223.4
756.017	7154.7
756.355	7215.49
756.693	7190.63
757.031	7148.6
757.368	7169.16
757.706	7193.12
758.044	7096.62
758.381	7125.32
758.719	7163.29
759.056	7074.02
759.394	7130.52
759.731	7047.13
760.068	6998.54
760.405	6983.86
760.743	7018.66
761.08	7025.89
761.417	6949.05
761.754	6878.32
762.091	6919
762.428	6970.97
762.765	6893.24
763.102	6941.37
763.438	6905.21
763.775	6862.05
764.112	6856.4
764.449	6809.85
764.785	6854.14
765.122	6794.93
