Data from mousepad_grey_FLMS001491_00077.txt Node
Date: Wed Feb 08 14:29:55 GMT 2017
User: dcchb
Spectrometer: FLMS00149
Trigger mode: 0
Integration Time (sec): 2.000000E-2
Scans to average: 10
Electric dark correction enabled: true
Nonlinearity correction enabled: false
Boxcar width: 0
XAxis mode: Wavelengths
Number of Pixels in Spectrum: 2048
>>>>>Begin Spectral Data<<<<<
341.393	-18.23
341.776	-18.23
342.16	-18.23
342.543	-74.28
342.927	-91.23
343.31	-75.86
343.693	-53.49
344.077	-71.11
344.46	-53.71
344.843	-65.69
345.226	-36.76
345.61	-23.66
345.993	-6.71
346.376	-26.6
346.759	9.56
347.142	19.05
347.525	34.19
347.908	67.19
348.291	78.26
348.674	96.79
349.057	108.54
349.44	116
349.823	130.69
350.206	142.89
350.588	172.04
350.971	203
351.354	177.92
351.737	233.96
352.119	218.37
352.502	241.19
352.884	282.55
353.267	270.35
353.65	286.62
354.032	268.76
354.414	304.47
354.797	299.95
355.179	312.6
355.562	311.93
355.944	291.81
356.326	305.83
356.709	291.14
357.091	312.6
357.473	315.77
357.855	299.5
358.238	292.49
358.62	302.89
359.002	317.8
359.384	321.42
359.766	322.55
360.148	318.25
360.53	307.86
360.912	319.61
361.294	316.22
361.676	332.27
362.057	311.7
362.439	306.28
362.821	329.33
363.203	304.47
363.584	319.16
363.966	304.02
364.348	307.86
364.729	312.83
365.111	307.86
365.493	299.72
365.874	316.45
366.256	290.01
366.637	288.65
367.019	301.76
367.4	298.59
367.781	319.16
368.163	293.17
368.544	299.72
368.925	279.84
369.306	300.85
369.688	294.98
370.069	300.18
370.45	285.03
370.831	325.03
371.212	287.29
371.593	294.75
371.974	292.72
372.355	292.94
372.736	279.16
373.117	269.44
373.498	304.02
373.879	287.07
374.26	308.31
374.641	308.54
375.021	290.91
375.402	304.47
375.783	297.92
376.163	307.63
376.544	298.37
376.925	296.33
377.305	306.96
377.686	312.83
378.066	325.71
378.447	318.25
378.827	314.19
379.208	300.85
379.588	298.14
379.968	291.36
380.349	313.06
380.729	313.51
381.109	315.32
381.489	321.19
381.87	314.86
382.25	317.12
382.63	322.77
383.01	319.61
383.39	301.76
383.77	322.55
384.15	319.38
384.53	341.3
384.91	327.52
385.29	325.71
385.67	352.38
386.049	332.27
386.429	330.01
386.809	336.33
387.189	348.08
387.568	323.23
387.948	353.73
388.328	339.27
388.707	333.17
389.087	318.25
389.466	326.84
389.846	331.81
390.225	339.5
390.605	360.29
390.984	341.98
391.363	353.28
391.743	330.46
392.122	335.66
392.501	366.39
392.881	355.09
393.26	355.77
393.639	357.12
394.018	355.09
394.397	365.03
394.776	357.35
395.155	374.52
395.534	355.77
395.913	328.65
396.292	366.39
396.671	369.1
397.05	371.59
397.429	368.65
397.808	391.7
398.186	372.49
398.565	374.75
398.944	368.42
399.323	389.44
399.701	393.96
400.08	397.8
400.458	381.53
400.837	383.79
401.215	399.83
401.594	398.93
401.972	398.48
402.351	401.87
402.729	382.21
403.107	394.41
403.486	390.12
403.864	395.77
404.242	402.09
404.62	400.51
404.999	424.24
405.377	414.07
405.755	406.39
406.133	431.7
406.511	424.47
406.889	406.61
407.267	417.46
407.645	417.91
408.023	413.39
408.401	440.74
408.779	438.7
409.156	466.27
409.534	449.1
409.912	439.61
410.29	451.81
410.667	448.19
411.045	450.23
411.422	470.57
411.8	466.5
412.178	474.63
412.555	455.65
412.933	457.91
413.31	466.05
413.687	478.93
414.065	454.3
414.442	470.34
414.819	484.13
415.197	503.33
415.574	491.13
415.951	487.06
416.328	499.49
416.705	490.23
417.082	504.46
417.46	498.14
417.837	506.5
418.214	504.01
418.591	512.15
418.967	527.06
419.344	512.83
419.721	526.84
420.098	534.52
420.475	535.2
420.852	535.65
421.228	538.81
421.605	539.72
421.982	546.72
422.358	540.62
422.735	530.9
423.111	564.8
423.488	573.39
423.864	555.54
424.241	592.82
424.617	567.51
424.994	569.1
425.37	576.1
425.746	572.71
426.123	598.92
426.499	585.37
426.875	583.56
427.251	595.08
427.627	610
428.003	611.35
428.379	620.39
428.756	599.6
429.132	607.74
429.507	624.91
429.883	625.14
430.259	632.14
430.635	638.7
431.011	654.74
431.387	650.45
431.763	670.56
432.138	662.43
432.514	665.36
432.89	669.43
433.265	669.43
433.641	705.14
434.016	702.2
434.392	688.87
434.767	707.62
435.143	720.5
435.518	704.46
435.894	739.26
436.269	732.03
436.644	730.9
437.02	740.84
437.395	759.37
437.77	754.4
438.145	755.53
438.52	766.6
438.895	777.68
439.271	776.77
439.646	800.28
440.021	775.87
440.395	796.43
440.77	787.39
441.145	794.4
441.52	804.8
441.895	812.7
442.27	808.41
442.645	799.15
443.019	835.98
443.394	838.69
443.769	821.07
444.143	813.16
444.518	838.24
444.892	854.96
445.267	859.48
445.641	856.77
446.016	850.67
446.39	855.87
446.764	861.52
447.139	868.07
447.513	880.05
447.887	883.44
448.262	872.36
448.636	887.05
449.01	906.94
449.384	887.28
449.758	907.39
450.132	931.57
450.506	937.45
450.88	937.67
451.254	913.72
451.628	964.57
452.002	952.14
452.376	939.03
452.75	980.84
453.123	955.53
453.497	982.42
453.871	1007.05
454.244	987.39
454.618	987.62
454.992	1033.49
455.365	1023.09
455.739	1040.27
456.112	1024.9
456.486	1057.9
456.859	1069.2
457.232	1057.67
457.606	1070.78
457.979	1090.21
458.352	1080.04
458.725	1119.14
459.099	1113.71
459.472	1122.53
459.845	1159.81
460.218	1148.06
460.591	1171.57
460.964	1148.97
461.337	1180.83
461.71	1209.98
462.083	1213.15
462.456	1216.54
462.829	1254.5
463.201	1243.65
463.574	1232.58
463.947	1255.4
464.32	1307.15
464.692	1275.97
465.065	1325.69
465.438	1282.97
465.81	1325.46
466.183	1351.22
466.555	1344.89
466.928	1366.36
467.3	1392.58
467.672	1398.45
468.045	1420.6
468.417	1409.3
468.789	1423.08
469.161	1438.22
469.534	1464.21
469.906	1517.32
470.278	1507.38
470.65	1520.03
471.022	1548.73
471.394	1541.95
471.766	1561.84
472.138	1592.8
472.51	1623.3
472.882	1620.37
473.253	1669.86
473.625	1693.81
473.997	1697.88
474.369	1703.3
474.74	1724.32
475.112	1710.53
475.484	1782.85
475.855	1798.22
476.227	1816.07
476.598	1903.75
476.97	1862.85
477.341	1896.97
477.713	1937.42
478.084	1948.27
478.455	1972.45
478.827	1990.75
479.198	2049.96
479.569	2031.88
479.94	2121.82
480.311	2126.34
480.682	2166.79
481.053	2213.12
481.424	2239.33
481.795	2254.47
482.166	2251.99
482.537	2287.92
482.908	2348.26
483.279	2371.99
483.65	2405.88
484.021	2416.05
484.391	2471.19
484.762	2486.11
485.133	2548.7
485.503	2564.52
485.874	2585.99
486.244	2651.75
486.615	2647.68
486.985	2678.42
487.356	2705.08
487.726	2779.43
488.097	2801.8
488.467	2809.49
488.837	2861.69
489.207	2892.65
489.578	2930.16
489.948	2901.24
490.318	2970.39
490.688	2995.92
491.058	3047
491.428	3076.83
491.798	3083.83
492.168	3144.39
492.538	3174.9
492.908	3180.78
493.278	3256.26
493.648	3229.14
494.017	3304.39
494.387	3317.95
494.757	3352.75
495.126	3366.08
495.496	3399.3
495.866	3396.82
496.235	3453.54
496.605	3426.42
496.974	3496.02
497.344	3525.85
497.713	3524.05
498.082	3555.01
498.452	3590.03
498.821	3588.45
499.19	3599.3
499.559	3659.86
499.928	3652.18
500.298	3722.68
500.667	3737.37
501.036	3745.28
501.405	3718.16
501.774	3775.79
502.143	3854.66
502.512	3804.94
502.88	3840.2
503.249	3857.37
503.618	3883.81
503.987	3879.06
504.356	3913.41
504.724	3913.19
505.093	3940.53
505.462	4021.21
505.83	4023.47
506.199	4064.82
506.567	4094.43
506.936	4091.49
507.304	4122.9
507.672	4136.23
508.041	4179.85
508.409	4239.06
508.777	4232.95
509.145	4296
509.514	4290.13
509.882	4334.42
510.25	4336.23
510.618	4338.04
510.986	4392.5
511.354	4400.41
511.722	4463.46
512.09	4490.8
512.458	4481.76
512.826	4534.64
513.193	4514.3
513.561	4593.17
513.929	4620.97
514.297	4634.07
514.664	4653.06
515.032	4703.9
515.4	4765.82
515.767	4707.52
516.135	4772.6
516.502	4751.13
516.869	4800.85
517.237	4903.44
517.604	4797.68
517.972	4885.14
518.339	4921.07
518.706	4951.8
519.073	4994.52
519.44	4996.55
519.808	5069.09
520.175	5060.05
520.542	5090.11
520.909	5173.04
521.276	5138.01
521.643	5163.55
522.009	5198.13
522.376	5237.45
522.743	5254.4
523.11	5375.07
523.477	5371.91
523.843	5434.28
524.21	5467.05
524.577	5502.07
524.943	5515.63
525.31	5524.67
525.676	5616.19
526.043	5658.9
526.409	5637.89
526.776	5680.83
527.142	5738.68
527.508	5745
527.874	5811.67
528.241	5866.13
528.607	5898.67
528.973	5909.97
529.339	5937.32
529.705	5993.81
530.071	6080.59
530.437	6056.41
530.803	6076.3
531.169	6076.07
531.535	6174.15
531.901	6164.43
532.267	6191.32
532.632	6212.34
532.998	6254.82
533.364	6340.47
533.73	6333.69
534.095	6361.94
534.461	6320.13
534.826	6396.29
535.192	6431.77
535.557	6490.3
535.923	6535.72
536.288	6504.76
536.653	6520.13
537.019	6555.6
537.384	6618.88
537.749	6630.18
538.114	6638.77
538.479	6664.53
538.845	6688.03
539.21	6671.08
539.575	6733.68
539.94	6798.54
540.305	6733.45
540.67	6776.62
541.034	6881.25
541.399	6896.61
541.764	6873.34
542.129	6911.53
542.494	6966.22
542.858	7010.28
543.223	7003.05
543.587	7037.4
543.952	7048.7
544.316	7096.16
544.681	7043.05
545.045	7140.67
545.41	7171.63
545.774	7241.24
546.138	7244.17
546.503	7243.72
546.867	7288.01
547.231	7404.4
547.595	7300.67
547.959	7323.04
548.324	7335.02
548.688	7412.31
549.052	7442.59
549.416	7439.87
549.779	7517.61
550.143	7519.87
550.507	7542.92
550.871	7557.39
551.235	7608.23
551.599	7666.99
551.962	7631.06
552.326	7702.47
552.689	7774.56
553.053	7702.69
553.417	7735.46
553.78	7865.85
554.143	7840.77
554.507	7906.08
554.87	7919.18
555.234	8041.22
555.597	7983.59
555.96	7988.34
556.323	8005.06
556.686	8025.62
557.05	8111.72
557.413	8126.86
557.776	8165.73
558.139	8213.19
558.502	8180.19
558.865	8214.09
559.228	8247.76
559.59	8330.93
559.953	8280.53
560.316	8379.74
560.679	8389.91
561.041	8472.39
561.404	8523.24
561.767	8556.23
562.129	8518.49
562.492	8636.45
562.854	8656.11
563.217	8588.09
563.579	8702.44
563.941	8749.67
564.304	8737.02
564.666	8838.71
565.028	8845.94
565.39	8842.55
565.753	8995.99
566.115	8928.42
566.477	9000.06
566.839	9048.42
567.201	9058.14
567.563	9062.21
567.925	9172.26
568.287	9092.71
568.648	9157.57
569.01	9160.28
569.372	9215.87
569.734	9266.72
570.095	9348.53
570.457	9327.06
570.819	9371.58
571.18	9354.4
571.542	9464.68
571.903	9372.93
572.265	9447.28
572.626	9485.7
572.987	9557.33
573.349	9584.68
573.71	9593.49
574.071	9642.08
574.432	9682.3
574.794	9663.55
575.155	9713.71
575.516	9702.19
575.877	9761.17
576.238	9739.7
576.599	9779.25
576.96	9778.12
577.32	9864.44
577.681	9868.96
578.042	9875.74
578.403	9947.38
578.763	9880.49
579.124	9909.87
579.485	9959.81
579.845	9960.49
580.206	9973.37
580.566	9987.83
580.927	10020.15
581.287	10030.09
581.648	9989.19
582.008	10082.29
582.368	10044.55
582.728	10070.77
583.089	10093.14
583.449	10006.59
583.809	10065.79
584.169	10075.51
584.529	10090.43
584.889	10134.72
585.249	10079.81
585.609	10011.78
585.969	10097.43
586.329	10085
586.688	10130.2
587.048	10101.73
587.408	10096.75
587.768	10101.95
588.127	10076.42
588.487	10110.99
588.846	10136.75
589.206	10135.17
589.565	10144.44
589.925	10114.83
590.284	10105.12
590.643	10163.19
591.003	10181.5
591.362	10195.51
591.721	10143.98
592.08	10106.92
592.44	10110.77
592.799	10158.22
593.158	10259.46
593.517	10144.44
593.876	10277.54
594.235	10183.08
594.593	10252.91
594.952	10228.28
595.311	10169.29
595.67	10188.5
596.029	10203.64
596.387	10217.88
596.746	10254.26
597.104	10207.71
597.463	10234.38
597.822	10230.99
598.18	10282.51
598.538	10296.52
598.897	10348.05
599.255	10241.61
599.613	10331.32
599.972	10314.83
600.33	10308.73
600.688	10256.75
601.046	10297.88
601.404	10390.53
601.762	10341.95
602.12	10343.3
602.478	10322.51
602.836	10380.81
603.194	10316.86
603.552	10348.95
603.91	10358.89
604.268	10456.52
604.625	10292
604.983	10362.74
605.341	10375.62
605.698	10406.8
606.056	10325
606.413	10419.01
606.771	10426.46
607.128	10427.59
607.485	10412.9
607.843	10388.27
608.2	10459.23
608.557	10522.73
608.914	10493.13
609.272	10474.37
609.629	10478.67
609.986	10574.03
610.343	10543.3
610.7	10539
611.057	10573.13
611.414	10511.66
611.771	10522.51
612.127	10642.05
612.484	10580.13
612.841	10595.27
613.198	10454.48
613.554	10561.15
613.911	10671.65
614.267	10628.04
614.624	10633.24
614.98	10701.71
615.337	10696.51
615.693	10729.51
616.05	10623.97
616.406	10729.28
616.762	10707.59
617.118	10700.13
617.475	10627.81
617.831	10741.48
618.187	10706
618.543	10668.49
618.899	10849.5
619.255	10821.03
619.611	10783.29
619.967	10745.78
620.323	10866.9
620.678	10847.24
621.034	10731.99
621.39	10741.94
621.746	10717.53
622.101	10882.5
622.457	10802.72
622.812	10826.23
623.168	10854.7
623.523	10751.88
623.879	10873.46
624.234	10821.71
624.589	10840.69
624.945	10841.14
625.3	10815.38
625.655	10818.32
626.01	10923.17
626.365	10824.64
626.72	10835.04
627.075	10870.97
627.43	10786.23
627.785	10788.71
628.14	10787.81
628.495	10852.89
628.85	10850.18
629.205	10796.85
629.559	10854.02
629.914	10832.33
630.269	10783.74
630.623	10754.82
630.978	10759.79
631.332	10784.65
631.687	10803.18
632.041	10787.58
632.396	10722.73
632.75	10769.28
633.104	10759.56
633.459	10689.28
633.813	10698.77
634.167	10660.36
634.521	10705.33
634.875	10760.24
635.229	10634.82
635.583	10657.64
635.937	10661.49
636.291	10644.54
636.645	10669.17
636.999	10677.76
637.352	10697.42
637.706	10545.1
638.06	10625.78
638.413	10636.85
638.767	10572.22
639.121	10615.84
639.474	10569.28
639.828	10547.82
640.181	10562.05
640.534	10591.88
640.888	10523.64
641.241	10530.87
641.594	10479.8
641.947	10605.22
642.301	10569.06
642.654	10575.16
643.007	10560.02
643.36	10531.55
643.713	10552.34
644.066	10578.1
644.419	10504.88
644.771	10388.95
645.124	10283.19
645.477	10320.93
645.83	10252
646.182	10229.41
646.535	10192.34
646.888	10171.1
647.24	10142.4
647.593	10269.63
647.945	10204.1
648.298	10153.02
648.65	10156.41
649.002	10093.36
649.355	10198.67
649.707	10199.35
650.059	10171.78
650.411	10283.64
650.763	10309.86
651.115	10448.61
651.467	10388.27
651.819	10411.55
652.171	10369.97
652.523	10347.14
652.875	10353.02
653.227	10327.48
653.578	10386.24
653.93	10367.26
654.282	10352.57
654.633	10337.88
654.985	10358.44
655.337	10298.1
655.688	10442.73
656.039	10398.67
656.391	10246.35
656.742	10352.34
657.094	10307.14
657.445	10296.75
657.796	10290.2
658.147	10364.54
658.498	10312.34
658.849	10328.16
659.2	10360.7
659.551	10326.58
659.902	10335.62
660.253	10333.81
660.604	10347.14
660.955	10312.12
661.306	10371.55
661.656	10310.99
662.007	10335.39
662.358	10380.81
662.708	10362.51
663.059	10282.51
663.409	10297.65
663.76	10365.9
664.11	10285.68
664.461	10326.13
664.811	10363.41
665.161	10351.21
665.511	10349.85
665.862	10341.04
666.212	10372.45
666.562	10340.59
666.912	10335.84
667.262	10306.47
667.612	10337.65
667.962	10315.96
668.312	10314.15
668.662	10349.63
669.011	10357.54
669.361	10243.42
669.711	10273.92
670.06	10248.16
670.41	10240.25
670.76	10236.19
671.109	10288.16
671.459	10323.64
671.808	10252
672.157	10262.4
672.507	10227.37
672.856	10235.28
673.205	10197.99
673.554	10277.54
673.904	10168.84
674.253	10301.49
674.602	10257.2
674.951	10061.73
675.3	9953.93
675.649	10184.66
675.998	10149.86
676.346	10168.16
676.695	10272.79
677.044	10092.69
677.393	10172.68
677.741	10119.13
678.09	10086.59
678.438	10111.22
678.787	10104.89
679.135	10037.09
679.484	10039.13
679.832	10086.13
680.181	9994.38
680.529	10052.69
680.877	9986.02
681.225	10005.68
681.573	9980.37
681.922	9944.67
682.27	9960.03
682.618	9966.36
682.966	9973.59
683.314	9912.35
683.661	9860.15
684.009	9878.23
684.357	9889.08
684.705	9803.43
685.053	9825.8
685.4	9845.24
685.748	9751
686.095	9803.2
686.443	9740.61
686.79	9791.23
687.138	9710.32
687.485	9700.83
687.832	9633.04
688.18	9656.77
688.527	9653.83
688.874	9630.1
689.221	9584.45
689.568	9541.74
689.915	9552.36
690.262	9528.86
690.609	9490.44
690.956	9407.51
691.303	9506.71
691.65	9379.71
691.997	9416.55
692.344	9342.42
692.69	9328.64
693.037	9299.71
693.383	9184.91
693.73	9272.14
694.077	9134.52
694.423	9253.61
694.769	9174.74
695.116	9111.7
695.462	9171.81
695.808	9092.94
696.155	9110.34
696.501	9040.06
696.847	9024.47
697.193	8916.9
697.539	8943.56
697.885	8925.03
698.231	8891.36
698.577	8932.04
698.923	8882.55
699.269	8865.83
699.614	8852.27
699.96	8768.43
700.306	8730.24
700.651	8721.88
700.997	8741.31
701.342	8689.56
701.688	8609.34
702.033	8652.05
702.379	8600.3
702.724	8582.67
703.069	8582.44
703.415	8526.4
703.76	8464.03
704.105	8481.88
704.45	8508.1
704.795	8437.36
705.14	8426.74
705.485	8420.64
705.83	8362.56
706.175	8392.84
706.52	8294.09
706.865	8311.04
707.209	8337.7
707.554	8236.92
707.899	8256.12
708.243	8214.77
708.588	8194.21
708.932	8206.86
709.277	8160.76
709.621	8174.54
709.966	8120.76
710.31	8083.02
710.654	8043.7
710.998	8064.72
711.342	8141.1
711.687	8087.77
712.031	7994.66
712.375	7919.86
712.719	7998.05
713.063	7958.05
713.407	8022.68
713.75	7979.97
714.094	7961.9
714.438	7913.53
714.782	7931.61
715.125	7946.75
715.469	7886.19
715.812	7856.59
716.156	7859.98
716.499	7806.42
716.843	7826.08
717.186	7808
717.53	7854.55
717.873	7876.02
718.216	7842.35
718.559	7791.96
718.902	7750.15
719.246	7763.71
719.589	7832.18
719.932	7747.44
720.275	7722.58
720.617	7704.73
720.96	7675.58
721.303	7714.22
721.646	7783.59
721.989	7703.6
722.331	7736.82
722.674	7754.67
723.016	7719.87
723.359	7692.98
723.701	7728.23
724.044	7643.94
724.386	7619.08
724.729	7664.5
725.071	7592.87
725.413	7648.91
725.755	7626.54
726.097	7625.86
726.439	7600.55
726.782	7599.87
727.124	7623.37
727.465	7569.59
727.807	7551.51
728.149	7633.77
728.491	7558.74
728.833	7577.5
729.175	7596.93
729.516	7506.31
729.858	7501.79
730.199	7536.6
730.541	7588.57
730.882	7504.51
731.224	7581.11
731.565	7517.16
731.906	7529.59
732.248	7522.58
732.589	7521.68
732.93	7483.72
733.271	7507.22
733.612	7526.65
733.953	7512.19
734.294	7494.56
734.635	7466.31
734.976	7542.25
735.317	7487.78
735.658	7439.42
735.999	7498.18
736.339	7550.83
736.68	7507.44
737.021	7471.96
737.361	7463.15
737.702	7461.8
738.042	7464.28
738.383	7424.06
738.723	7491.63
739.063	7439.42
739.404	7478.52
739.744	7405.3
740.084	7419.54
740.424	7474.9
740.764	7453.43
741.104	7445.75
741.444	7449.37
741.784	7429.48
742.124	7427.45
742.464	7495.69
742.804	7445.3
743.143	7399.88
743.483	7374.57
743.823	7436.03
744.162	7388.12
744.502	7410.5
744.841	7399.2
745.181	7388.35
745.52	7375.7
745.86	7414.34
746.199	7424.96
746.538	7382.48
746.877	7452.3
747.216	7426.32
747.556	7410.5
747.895	7439.87
748.234	7363.27
748.573	7415.47
748.911	7364.62
749.25	7326.88
749.589	7337.5
749.928	7378.18
750.267	7335.92
750.605	7324.62
750.944	7293.44
751.283	7305.42
751.621	7376.6
751.96	7269.26
752.298	7323.95
752.636	7291.4
752.975	7332.76
753.313	7267
753.651	7276.26
753.989	7236.94
754.327	7257.28
754.666	7229.26
755.004	7267.68
755.342	7313.1
755.679	7283.27
756.017	7139.77
756.355	7226.77
756.693	7201.01
757.031	7193.33
757.368	7142.93
757.706	7171.41
758.044	7142.26
758.381	7166.21
758.719	7109.71
759.056	7082.37
759.394	7086.21
759.731	7029.04
760.068	7073.1
760.405	7007.12
760.743	7013.67
761.08	6998.98
761.417	6956.27
761.754	7003.05
762.091	6968.93
762.428	6972.09
762.765	6912.21
763.102	6931.64
763.438	6852.77
763.775	6812.09
764.112	6880.79
764.449	6884.64
764.785	6833.56
765.122	6700.69
765.458	6678.77
765.795	6753.57
