Data from mousepad_grey_FLMS001491_00052.txt Node
Date: Wed Feb 08 14:29:37 GMT 2017
User: dcchb
Spectrometer: FLMS00149
Trigger mode: 0
Integration Time (sec): 2.000000E-2
Scans to average: 10
Electric dark correction enabled: true
Nonlinearity correction enabled: false
Boxcar width: 0
XAxis mode: Wavelengths
Number of Pixels in Spectrum: 2048
>>>>>Begin Spectral Data<<<<<
341.393	-18.54
341.776	-18.54
342.16	-18.54
342.543	-56.74
342.927	-87.02
343.31	-66.45
343.693	-67.81
344.077	-63.29
344.46	-75.49
344.843	-55.15
345.226	-51.76
345.61	-42.05
345.993	-2.95
346.376	9.25
346.759	3.15
347.142	12.87
347.525	57.84
347.908	51.51
348.291	92.41
348.674	88.12
349.057	109.81
349.44	117.27
349.823	139.42
350.206	139.87
350.588	162.47
350.971	192.07
351.354	188.68
351.737	221
352.119	222.35
352.502	265.29
352.884	240.21
353.267	257.38
353.65	248.57
354.032	274.55
354.414	288.79
354.797	289.47
355.179	293.09
355.562	302.12
355.944	289.24
356.326	298.96
356.709	322.46
357.091	296.25
357.473	324.72
357.855	314.33
358.238	315.46
358.62	317.27
359.002	318.85
359.384	312.75
359.766	312.07
360.148	317.72
360.53	307.1
360.912	314.55
361.294	309.58
361.676	312.75
362.057	301.22
362.439	292.18
362.821	296.93
363.203	282.46
363.584	306.19
363.966	328.11
364.348	291.05
364.729	298.06
365.111	303.93
365.493	294.67
365.874	285.85
366.256	293.54
366.637	289.7
367.019	276.59
367.4	278.17
367.781	291.28
368.163	282.01
368.544	276.59
368.925	292.41
369.306	279.75
369.688	299.41
370.069	289.24
370.45	289.24
370.831	283.82
371.212	281.33
371.593	281.11
371.974	300.32
372.355	288.57
372.736	272.3
373.117	308.9
373.498	298.28
373.879	284.95
374.26	287.66
374.641	264.61
375.021	310.71
375.402	291.5
375.783	284.95
376.163	279.3
376.544	293.09
376.925	284.72
377.305	307.32
377.686	278.62
378.066	284.72
378.447	303.03
378.827	304.38
379.208	322.69
379.588	288.34
379.968	304.84
380.349	289.7
380.729	307.1
381.109	310.94
381.489	313.42
381.87	296.48
382.25	307.55
382.63	309.36
383.01	309.58
383.39	297.15
383.77	324.5
384.15	309.81
384.53	313.2
384.91	315.46
385.29	300.54
385.67	331.95
386.049	342.35
386.429	328.34
386.809	306.87
387.189	301.67
387.568	312.97
387.948	320.43
388.328	326.98
388.707	311.16
389.087	340.32
389.466	338.06
389.846	327.21
390.225	311.84
390.605	331.28
390.984	339.64
391.363	332.41
391.743	346.42
392.122	327.21
392.501	333.54
392.881	339.41
393.26	323.37
393.639	317.72
394.018	333.99
394.397	326.3
394.776	336.7
395.155	326.3
395.534	331.95
395.913	347.77
396.292	354.1
396.671	353.2
397.05	357.26
397.429	345.97
397.808	362.01
398.186	356.59
398.565	331.5
398.944	359.52
399.323	349.81
399.701	333.08
400.08	352.52
400.458	346.19
400.837	357.94
401.215	362.46
401.594	333.99
401.972	351.84
402.351	362.24
402.729	382.8
403.107	371.28
403.486	392.07
403.864	363.82
404.242	380.99
404.62	358.85
404.999	375.34
405.377	383.48
405.755	386.19
406.133	399.52
406.511	392.29
406.889	369.02
407.267	372.41
407.645	407.88
408.023	399.98
408.401	403.14
408.779	402.01
409.156	419.18
409.534	392.07
409.912	409.69
410.29	407.21
410.667	421.67
411.045	412.86
411.422	396.59
411.8	435.45
412.178	423.7
412.555	419.41
412.933	441.56
413.31	438.84
413.687	432.52
414.065	431.16
414.442	433.87
414.819	429.35
415.197	454.89
415.574	444.04
415.951	460.54
416.328	457.37
416.705	441.33
417.082	453.08
417.46	448.34
417.837	438.39
418.214	449.01
418.591	447.43
418.967	459.63
419.344	470.71
419.721	457.37
420.098	447.43
420.475	457.6
420.852	469.58
421.228	477.26
421.605	491.72
421.982	516.36
422.358	484.27
422.735	489.69
423.111	495.57
423.488	489.01
423.864	489.46
424.241	523.59
424.617	495.79
424.994	499.63
425.37	524.27
425.746	512.29
426.123	523.36
426.499	528.56
426.875	507.32
427.251	507.32
427.627	516.36
428.003	540.76
428.379	561.1
428.756	529.46
429.132	537.6
429.507	548.45
429.883	548.67
430.259	552.74
430.635	545.06
431.011	562.68
431.387	569.24
431.763	574.89
432.138	593.87
432.514	594.55
432.89	602.68
433.265	583.93
433.641	619.18
434.016	597.94
434.392	609.24
434.767	611.95
435.143	618.95
435.518	602
435.894	623.92
436.269	649.23
436.644	654.66
437.02	639.74
437.395	626.18
437.77	646.97
438.145	652.62
438.52	655.34
438.895	658.95
439.271	659.18
439.646	660.76
440.021	681.78
440.395	667.76
440.77	670.93
441.145	669.35
441.52	707.09
441.895	705.5
442.27	716.35
442.645	690.36
443.019	686.3
443.394	690.14
443.769	708.89
444.143	706.41
444.518	700.76
444.892	701.44
445.267	735.56
445.641	716.13
446.016	727.42
446.39	730.81
446.764	755.22
447.139	724.94
447.513	737.59
447.887	739.63
448.262	743.92
448.636	743.7
449.01	747.08
449.384	744.37
449.758	769.01
450.132	791.83
450.506	780.3
450.88	783.47
451.254	763.81
451.628	799.29
452.002	793.86
452.376	797.71
452.75	786.41
453.123	800.42
453.497	809
453.871	816.91
454.244	836.57
454.618	848.78
454.992	845.16
455.365	806.29
455.739	836.35
456.112	893.07
456.486	874.31
456.859	865.5
457.232	897.14
457.606	871.15
457.979	929.45
458.352	902.34
458.725	933.75
459.099	929.45
459.472	933.97
459.845	952.05
460.218	953.86
460.591	982.78
460.964	954.09
461.337	968.55
461.71	984.59
462.083	976.68
462.456	1008.55
462.829	1023.46
463.201	1022.78
463.574	1011.71
463.947	1046.29
464.32	1070.01
464.692	1053.07
465.065	1058.04
465.438	1098.49
465.81	1113.4
466.183	1143.46
466.555	1087.87
466.928	1138.94
467.3	1151.82
467.672	1158.6
468.045	1147.98
468.417	1191.59
468.789	1168.54
469.161	1189.56
469.534	1213.06
469.906	1220.52
470.278	1258.03
470.65	1248.31
471.022	1239.05
471.394	1235.89
471.766	1265.26
472.138	1300.74
472.51	1310.23
472.882	1312.49
473.253	1340.29
473.625	1364.7
473.997	1403.34
474.369	1360.18
474.74	1400.63
475.112	1410.57
475.484	1441.3
475.855	1456.67
476.227	1434.3
476.598	1494.41
476.97	1519.72
477.341	1548.19
477.713	1571.47
478.084	1534.63
478.455	1586.84
478.827	1634.52
479.198	1659.83
479.569	1644.01
479.94	1702.99
480.311	1677.23
480.682	1742.76
481.053	1769.88
481.424	1781.63
481.795	1784.35
482.166	1821.63
482.537	1832.03
482.908	1885.13
483.279	1869.99
483.65	1921.74
484.021	1930.1
484.391	1966.04
484.762	1979.14
485.133	2000.84
485.503	2005.58
485.874	2066.82
486.244	2101.85
486.615	2123.32
486.985	2125.58
487.356	2133.94
487.726	2146.82
488.097	2220.94
488.467	2201.96
488.837	2299.13
489.207	2278.57
489.578	2301.17
489.948	2314.28
490.318	2356.99
490.688	2390.88
491.058	2405.12
491.428	2452.12
491.798	2480.37
492.168	2463.65
492.538	2519.69
492.908	2525.34
493.278	2554.49
493.648	2539.13
494.017	2574.16
494.387	2622.74
494.757	2643.98
495.126	2677.2
495.496	2685.34
495.866	2699.35
496.235	2701.61
496.605	2728.5
496.974	2750.87
497.344	2770.08
497.713	2808.5
498.082	2777.77
498.452	2833.36
498.821	2827.93
499.19	2880.59
499.559	2917.42
499.928	2889.18
500.298	2918.78
500.667	2894.83
501.036	2925.11
501.405	2946.12
501.774	2963.3
502.143	3020.25
502.512	3000.81
502.88	3056.85
503.249	3024.31
503.618	3090.07
503.987	3089.17
504.356	3094.82
504.724	3101.37
505.093	3125.55
505.462	3129.85
505.83	3198.77
506.199	3208.94
506.567	3208.26
506.936	3260.24
507.304	3254.59
507.672	3258.43
508.041	3268.15
508.409	3321.93
508.777	3315.38
509.145	3367.13
509.514	3373.46
509.882	3430.86
510.25	3433.57
510.618	3437.41
510.986	3420.69
511.354	3483.96
511.722	3474.24
512.09	3507.69
512.458	3502.94
512.826	3581.13
513.193	3561.02
513.561	3582.72
513.929	3608.93
514.297	3658.19
514.664	3645.09
515.032	3711.3
515.4	3705.88
515.767	3685.09
516.135	3749.49
516.502	3740.68
516.869	3782.71
517.237	3834.69
517.604	3784.07
517.972	3849.38
518.339	3852.31
518.706	3882.37
519.073	3877.85
519.44	3961.92
519.808	3919.88
520.175	3957.4
520.542	3990.62
520.909	4040.11
521.276	4024.51
521.643	4101.57
522.009	4103.83
522.376	4069.71
522.743	4156.03
523.11	4169.82
523.477	4195.58
523.843	4240.78
524.21	4253.43
524.577	4289.36
524.943	4292.53
525.31	4323.49
525.676	4327.33
526.043	4387.67
526.409	4433.54
526.776	4454.11
527.142	4478.74
527.508	4513.31
527.874	4549.24
528.241	4538.4
528.607	4553.09
528.973	4593.99
529.339	4609.13
529.705	4673.76
530.071	4725.96
530.437	4722.35
530.803	4770.03
531.169	4725.96
531.535	4794.89
531.901	4762.8
532.267	4779.3
532.632	4850.93
532.998	4862.23
533.364	4914.43
533.73	4922.57
534.095	4931.83
534.461	4982.91
534.826	4962.12
535.192	4969.8
535.557	5082.79
535.923	5060.64
536.288	5090.7
536.653	5102
537.019	5126.4
537.384	5113.52
537.749	5163.47
538.114	5191.94
538.479	5146.97
538.845	5221.77
539.21	5207.76
539.575	5255.89
539.94	5278.72
540.305	5309.9
540.67	5331.6
541.034	5349.68
541.399	5360.52
541.764	5353.07
542.129	5384.48
542.494	5414.53
542.858	5445.27
543.223	5447.75
543.587	5485.27
543.952	5495.66
544.316	5563.23
544.681	5520.29
545.045	5565.04
545.41	5629.22
545.774	5668.31
546.138	5648.88
546.503	5644.81
546.867	5609.56
547.231	5717.58
547.595	5711.25
547.959	5773.17
548.324	5797.57
548.688	5802.77
549.052	5839.61
549.416	5827.4
549.779	5841.19
550.143	5836.44
550.507	5925.71
550.871	5874.41
551.235	5903.33
551.599	5951.47
551.962	5998.47
552.326	5969.09
552.689	6029.66
553.053	6020.17
553.417	6048.41
553.78	6160.28
554.143	6082.09
554.507	6141.29
554.87	6202.53
555.234	6160.95
555.597	6197.56
555.96	6247.73
556.323	6206.15
556.686	6253.83
557.05	6315.98
557.413	6343.1
557.776	6334.96
558.139	6355.3
558.502	6379.48
558.865	6400.72
559.228	6379.25
559.59	6453.83
559.953	6464.9
560.316	6553.94
560.679	6526.14
561.041	6557.78
561.404	6580.15
561.767	6681.62
562.129	6660.38
562.492	6746.93
562.854	6699.47
563.217	6680.04
563.579	6756.87
563.941	6782.41
564.304	6794.61
564.666	6820.6
565.028	6813.14
565.39	6882.74
565.753	6938.56
566.115	6953.7
566.477	6964.77
566.839	6957.09
567.201	7016.07
567.563	7006.81
567.925	7034.6
568.287	7094.49
568.648	7140.36
569.01	7116.18
569.372	7226.69
569.734	7163.87
570.095	7236.18
570.457	7232.11
570.819	7251.32
571.18	7255.84
571.542	7319.34
571.903	7311.88
572.265	7319.12
572.626	7377.64
572.987	7373.58
573.349	7389.85
573.71	7442.73
574.071	7425.55
574.432	7491.31
574.794	7534.93
575.155	7585.55
575.516	7562.05
575.877	7615.6
576.238	7562.72
576.599	7610.63
576.96	7624.19
577.32	7683.85
577.681	7571.99
578.042	7716.39
578.403	7654.25
578.763	7683.4
579.124	7649.5
579.485	7755.04
579.845	7765.43
580.206	7809.27
580.566	7762.72
580.927	7755.26
581.287	7803.62
581.648	7831.87
582.008	7890.17
582.368	7781.48
582.728	7806.56
583.089	7846.33
583.449	7794.58
583.809	7804.53
584.169	7816.73
584.529	7873.23
584.889	7855.82
585.249	7887.91
585.609	7872.32
585.969	7920
586.329	7881.81
586.688	7855.15
587.048	7803.85
587.408	7868.93
587.768	7890.85
588.127	7857.41
588.487	7875.26
588.846	7917.97
589.206	7903.96
589.565	7880.23
589.925	7909.83
590.284	7955.26
590.643	7967.46
591.003	7894.69
591.362	7957.97
591.721	7929.72
592.08	7852.43
592.44	7962.94
592.799	7936.95
593.158	7912.09
593.517	7876.61
593.876	7934.47
594.235	7946.9
594.593	7992.77
594.952	7954.8
595.311	7972.21
595.67	7991.41
596.029	8016.5
596.387	7966.56
596.746	7996.39
597.104	7984.18
597.463	7967.01
597.822	8022.15
598.18	7988.93
598.538	8008.14
598.897	8011.07
599.255	7931.75
599.613	8024.63
599.972	8022.83
600.33	8033.9
600.688	8023.5
601.046	8030.74
601.404	8060.11
601.762	8065.76
602.12	8058.31
602.478	8112.54
602.836	8062.82
603.194	8021.24
603.552	8085.87
603.91	8024.18
604.268	8074.8
604.625	8040.23
604.983	8039.55
605.341	8056.05
605.698	8110.28
606.056	8142.14
606.413	8115.7
606.771	8157.51
607.128	8156.61
607.485	8076.61
607.843	8196.15
608.2	8147.34
608.557	8178.3
608.914	8177.4
609.272	8254.91
609.629	8254.23
609.986	8186.66
610.343	8163.16
610.7	8266.44
611.057	8213.78
611.414	8300.11
611.771	8212.65
612.127	8230.73
612.484	8290.62
612.841	8329.03
613.198	8257.85
613.554	8213.78
613.911	8306.89
614.267	8299.2
614.624	8286.77
614.98	8310.5
615.337	8320.67
615.693	8381.23
616.05	8267.34
616.406	8369.71
616.762	8338.3
617.118	8324.96
617.475	8349.37
617.831	8347.79
618.187	8343.04
618.543	8406.32
618.899	8494
619.255	8386.88
619.611	8403.15
619.967	8477.05
620.323	8446.54
620.678	8437.73
621.034	8389.14
621.39	8417.62
621.746	8369.26
622.101	8492.87
622.457	8450.84
622.812	8433.89
623.168	8447.67
623.523	8447.45
623.879	8506.88
624.234	8355.92
624.589	8418.97
624.945	8432.31
625.3	8451.06
625.655	8534.68
626.01	8467.79
626.365	8492.64
626.72	8430.5
627.075	8404.06
627.43	8512.08
627.785	8415.13
628.14	8460.1
628.495	8474.79
628.85	8482.93
629.205	8386.43
629.559	8536.71
629.914	8392.53
630.269	8409.71
630.623	8426.66
630.978	8504.85
631.332	8463.49
631.687	8452.64
632.041	8466.43
632.396	8465.98
632.75	8409.93
633.104	8435.92
633.459	8395.47
633.813	8427.79
634.167	8369.26
634.521	8360.9
634.875	8361.12
635.229	8344.4
635.583	8337.62
635.937	8359.31
636.291	8314.34
636.645	8360.22
636.999	8291.07
637.352	8342.59
637.706	8316.38
638.06	8359.99
638.413	8303.5
638.767	8281.35
639.121	8316.38
639.474	8247.45
639.828	8293.78
640.181	8271.86
640.534	8223.5
640.888	8284.51
641.241	8308.69
641.594	8289.49
641.947	8299.88
642.301	8199.54
642.654	8281.8
643.007	8263.05
643.36	8249.71
643.713	8212.43
644.066	8331.07
644.419	8223.27
644.771	8137.85
645.124	8120.45
645.477	8131.07
645.83	8036.84
646.182	7990.74
646.535	8033.22
646.888	8057.18
647.24	7982.37
647.593	8010.17
647.945	8022.83
648.298	8007.23
648.65	7978.08
649.002	7967.23
649.355	7988.25
649.707	7970.17
650.059	8058.98
650.411	8117.96
650.763	8114.57
651.115	8190.28
651.467	8214.46
651.819	8152.99
652.171	8160.22
652.523	8122.03
652.875	8178.98
653.227	8126.1
653.578	8247
653.93	8246.32
654.282	8109.15
654.633	8144.18
654.985	8176.49
655.337	8145.99
655.688	8177.17
656.039	8175.36
656.391	8146.44
656.742	8150.96
657.094	8169.94
657.445	8168.81
657.796	8154.12
658.147	8115.7
658.498	8181.47
658.849	8213.56
659.2	8237.51
659.551	8127.91
659.902	8209.49
660.253	8170.62
660.604	8164.74
660.955	8121.81
661.306	8137.17
661.656	8157.74
662.007	8141.24
662.358	8200.9
662.708	8110.51
663.059	8164.29
663.409	8108.93
663.76	8171.97
664.11	8148.25
664.461	8144.63
664.811	8146.89
665.161	8131.75
665.511	8125.2
665.862	8177.17
666.212	8178.53
666.562	8182.37
666.912	8204.52
667.262	8176.95
667.612	8174.46
667.962	8217.4
668.312	8086.1
668.662	8256.27
669.011	8160.45
669.361	8075.71
669.711	8107.57
670.06	8081.81
670.41	8114.12
670.76	8104.86
671.109	8089.72
671.459	8151.86
671.808	8123.61
672.157	8123.84
672.507	8034.12
672.856	8079.77
673.205	8144.18
673.554	8098.53
673.904	8082.03
674.253	8163.84
674.602	8074.8
674.951	8047.23
675.3	7905.77
675.649	7990.28
675.998	8055.59
676.346	8075.03
676.695	8018.53
677.044	8037.06
677.393	8047.46
677.741	8030.28
678.09	7980.57
678.438	7973.79
678.787	8015.59
679.135	7972.21
679.484	7952.77
679.832	7981.7
680.181	7920.68
680.529	8030.28
680.877	7891.53
681.225	7939.66
681.573	7939.44
681.922	7922.04
682.27	7863.28
682.618	7899.21
682.966	7867.58
683.314	7850.85
683.661	7849.72
684.009	7838.42
684.357	7786.9
684.705	7813.79
685.053	7754.13
685.4	7804.3
685.748	7710.29
686.095	7774.02
686.443	7720.46
686.79	7679.78
687.138	7685.21
687.485	7676.85
687.832	7630.29
688.18	7646.34
688.527	7644.08
688.874	7574.25
689.221	7610.86
689.568	7531.54
689.915	7559.79
690.262	7575.61
690.609	7546.45
690.956	7528.83
691.303	7492.22
691.65	7470.52
691.997	7415.38
692.344	7402.73
692.69	7457.87
693.037	7414.03
693.383	7345.56
693.73	7367.7
694.077	7318.21
694.423	7311.43
694.769	7282.96
695.116	7269.4
695.462	7242.73
695.808	7247.03
696.155	7262.62
696.501	7197.31
696.847	7143.75
697.193	7155.28
697.539	7199.12
697.885	7095.17
698.231	7047.26
698.577	7099.91
698.923	7006.81
699.269	6951.44
699.614	6966.81
699.96	6971.78
700.306	6993.93
700.651	6898.11
700.997	6862.18
701.342	6827.38
701.688	6872.35
702.033	6854.49
702.379	6840.48
702.724	6849.75
703.069	6808.17
703.415	6754.61
703.76	6804.1
704.105	6743.31
704.45	6748.73
704.795	6655.18
705.14	6682.07
705.485	6661.05
705.83	6603.43
706.175	6696.76
706.52	6638.46
706.865	6562.75
707.209	6614.5
707.554	6587.84
707.899	6558.23
708.243	6539.7
708.588	6507.39
708.932	6498.35
709.277	6498.12
709.621	6453.83
709.966	6427.16
710.31	6511.23
710.654	6412.02
710.998	6386.48
711.342	6491.34
711.687	6433.26
712.031	6396.43
712.375	6332.93
712.719	6365.47
713.063	6338.12
713.407	6346.49
713.75	6308.52
714.094	6321.85
714.438	6294.28
714.782	6306.94
715.125	6263.1
715.469	6310.1
715.812	6262.87
716.156	6227.39
716.499	6229.43
716.843	6224.68
717.186	6201.86
717.53	6253.83
717.873	6254.51
718.216	6190.11
718.559	6199.82
718.902	6165.02
719.246	6204.34
719.589	6217
719.932	6171.12
720.275	6192.59
720.617	6173.16
720.96	6158.24
721.303	6168.19
721.646	6179.48
721.989	6106.49
722.331	6198.69
722.674	6148.3
723.016	6136.55
723.359	6107.4
723.701	6133.38
724.044	6112.37
724.386	6051.35
724.729	6121.86
725.071	6071.92
725.413	6111.69
725.755	6046.61
726.097	6030.11
726.439	6035.31
726.782	5998.47
727.124	6065.14
727.465	6077.57
727.807	6050.22
728.149	6039.83
728.491	6045.02
728.833	6075.08
729.175	6079.15
729.516	5992.14
729.858	6034.63
730.199	6054.74
730.541	5963.22
730.882	6018.13
731.224	6073.72
731.565	6007.96
731.906	6014.52
732.248	6074.4
732.589	6068.53
732.93	6012.03
733.271	6038.25
733.612	6011.13
733.953	6001.86
734.294	6023.78
734.635	5997.57
734.976	5997.12
735.317	5965.93
735.658	6059.26
735.999	5996.89
736.339	6015.87
736.68	6032.6
737.021	5971.13
737.361	5981.75
737.702	6045.25
738.042	6042.99
738.383	6011.58
738.723	6033.05
739.063	6015.87
739.404	6035.31
739.744	6000.73
740.084	5947.63
740.424	6012.48
740.764	5980.62
741.104	6017.23
741.444	5946.95
741.784	5959.83
742.124	5992.37
742.464	5991.24
742.804	5953.95
743.143	5981.3
743.483	5998.47
743.823	5976.78
744.162	5961.19
744.502	5958.02
744.841	6013.39
745.181	6005.93
745.52	5968.42
745.86	5981.07
746.199	5968.87
746.538	5995.08
746.877	5941.52
747.216	5971.81
747.556	5987.4
747.895	5968.19
748.234	5957.34
748.573	5967.06
748.911	5987.4
749.25	5988.75
749.589	5937.23
749.928	5956.21
750.267	5979.72
750.605	5997.57
750.944	5879.38
751.283	5912.15
751.621	5906.72
751.96	5890.45
752.298	5878.02
752.636	5881.19
752.975	5905.59
753.313	5869.21
753.651	5957.12
753.989	5891.13
754.327	5878.7
754.666	5847.97
755.004	5881.64
755.342	5878.93
755.679	5835.54
756.017	5831.47
756.355	5842.09
756.693	5803.22
757.031	5828.76
757.368	5769.55
757.706	5829.66
758.044	5755.77
758.381	5786.73
758.719	5770.68
759.056	5764.13
759.394	5763.45
759.731	5716.9
760.068	5689.33
760.405	5711.93
760.743	5663.57
761.08	5688.65
761.417	5713.06
761.754	5704.47
762.091	5659.05
762.428	5641.65
762.765	5641.87
763.102	5635.54
763.438	5602.32
763.775	5570.01
764.112	5610.69
764.449	5567.07
764.785	5552.83
765.122	5504.93
765.458	5485.04
765.795	5470.35
766.131	5447.53
766.467	5516.23
766.804	5445.27
767.14	5453.18
767.476	5422.22
767.812	5419.73
768.148	5450.46
768.485	5358.94
768.821	5355.33
769.157	5335.89
769.492	5370.24
769.828	5313.97
770.164	5204.82
770.5	5243.92
770.836	5308.55
