Data from mousepad_grey_FLMS001491_00007.txt Node
Date: Wed Feb 08 14:28:54 GMT 2017
User: dcchb
Spectrometer: FLMS00149
Trigger mode: 0
Integration Time (sec): 2.000000E-2
Scans to average: 10
Electric dark correction enabled: true
Nonlinearity correction enabled: false
Boxcar width: 0
XAxis mode: Wavelengths
Number of Pixels in Spectrum: 2048
>>>>>Begin Spectral Data<<<<<
341.393	7.57
341.776	7.57
342.16	7.57
342.543	-56.83
342.927	-43.28
343.31	-62.94
343.693	-88.92
344.077	-48.47
344.46	-57.29
344.843	-67
345.226	-34.69
345.61	-36.5
345.993	-25.42
346.376	-12.99
346.759	16.38
347.142	25.88
347.525	40.79
347.908	43.95
348.291	80.34
348.674	95.48
349.057	131.41
349.44	128.02
349.823	133.67
350.206	169.37
350.588	171.63
350.971	195.59
351.354	200.56
351.737	238.75
352.119	236.04
352.502	244.4
352.884	271.97
353.267	272.87
353.65	267.45
354.032	282.59
354.414	269.48
354.797	289.82
355.179	274.91
355.562	303.61
355.944	324.62
356.326	315.58
356.709	316.71
357.091	306.55
357.473	327.56
357.855	327.56
358.238	312.2
358.62	313.78
359.002	324.85
359.384	316.04
359.766	326.43
360.148	335.25
360.53	312.65
360.912	303.83
361.294	308.13
361.676	307.22
362.057	315.13
362.439	331.63
362.821	324.4
363.203	313.1
363.584	311.52
363.966	286.89
364.348	321.46
364.729	320.56
365.111	295.7
365.493	309.26
365.874	278.75
366.256	291.18
366.637	284.63
367.019	283.27
367.4	293.44
367.781	321.69
368.163	294.79
368.544	308.81
368.925	294.57
369.306	304.74
369.688	299.31
370.069	288.47
370.45	280.33
370.831	289.82
371.212	278.98
371.593	311.29
371.974	291.86
372.355	285.3
372.736	301.35
373.117	293.89
373.498	298.64
373.879	306.55
374.26	290.5
374.641	328.24
375.021	309.94
375.402	301.12
375.783	301.57
376.163	327.34
376.544	295.92
376.925	315.58
377.305	316.49
377.686	311.07
378.066	305.19
378.447	309.03
378.827	309.26
379.208	323.27
379.588	314.23
379.968	321.69
380.349	306.32
380.729	298.41
381.109	311.52
381.489	326.21
381.87	316.71
382.25	317.62
382.63	326.21
383.01	341.57
383.39	315.81
383.77	340.22
384.15	325.98
384.53	319.43
384.91	336.15
385.29	318.75
385.67	312.87
386.049	328.01
386.429	338.64
386.809	319.88
387.189	309.26
387.568	330.95
387.948	335.7
388.328	321.23
388.707	340.22
389.087	331.4
389.466	348.35
389.846	324.62
390.225	345.19
390.605	330.27
390.984	330.05
391.363	334.12
391.743	355.81
392.122	344.51
392.501	342.93
392.881	334.12
393.26	347.67
393.639	372.98
394.018	334.79
394.397	351.74
394.776	362.14
395.155	356.94
395.534	355.58
395.913	339.09
396.292	359.43
396.671	375.47
397.05	366.43
397.429	354.23
397.808	341.8
398.186	377.28
398.565	384.51
398.944	364.4
399.323	349.93
399.701	371.85
400.08	367.33
400.458	372.08
400.837	392.65
401.215	401.01
401.594	367.56
401.972	398.52
402.351	379.54
402.729	394.23
403.107	406.88
403.486	398.75
403.864	396.71
404.242	391.52
404.62	381.8
404.999	385.64
405.377	393.1
405.755	399.88
406.133	388.58
406.511	409.59
406.889	408.69
407.267	382.02
407.645	408.92
408.023	416.83
408.401	438.75
408.779	424.96
409.156	430.38
409.534	425.64
409.912	424.06
410.29	427.67
410.667	431.97
411.045	438.07
411.422	436.49
411.8	436.49
412.178	441.91
412.555	443.49
412.933	433.32
413.31	455.47
413.687	469.03
414.065	487.78
414.442	466.77
414.819	457.73
415.197	478.97
415.574	446.43
415.951	488.01
416.328	475.58
416.705	487.11
417.082	471.74
417.46	480.55
417.837	474.68
418.214	464.73
418.591	467.45
418.967	473.32
419.344	482.81
419.721	478.97
420.098	485.52
420.475	493.43
420.852	490.72
421.228	509.03
421.605	498.63
421.982	512.42
422.358	496.6
422.735	503.6
423.111	520.78
423.488	530.49
423.864	520.33
424.241	543.83
424.617	528.23
424.994	533.43
425.37	505.86
425.746	540.21
426.123	537.73
426.499	525.52
426.875	554.22
427.251	544.28
427.627	551.96
428.003	555.35
428.379	567.78
428.756	561.23
429.132	578.63
429.507	570.95
429.883	586.54
430.259	591.28
430.635	588.35
431.011	598.06
431.387	604.62
431.763	609.81
432.138	627.89
432.514	622.02
432.89	591.28
433.265	630.6
433.641	629.7
434.016	645.75
434.392	635.8
434.767	645.75
435.143	649.59
435.518	680.1
435.894	669.7
436.269	652.07
436.644	668.12
437.02	662.47
437.395	670.15
437.77	692.52
438.145	701.56
438.52	701.56
438.895	677.84
439.271	692.75
439.646	736.14
440.021	705.86
440.395	729.13
440.77	706.76
441.145	705.18
441.52	725.97
441.895	743.14
442.27	728.91
442.645	741.11
443.019	737.95
443.394	736.59
443.769	743.14
444.143	756.7
444.518	769.58
444.892	772.75
445.267	768.91
445.641	779.3
446.016	757.61
446.39	772.3
446.764	772.3
447.139	789.47
447.513	782.69
447.887	794.44
448.262	772.97
448.636	815.68
449.01	810.94
449.384	833.76
449.758	806.87
450.132	829.24
450.506	826.98
450.88	844.16
451.254	809.81
451.628	859.75
452.002	864.05
452.376	853.2
452.75	854.78
453.123	852.75
453.497	857.49
453.871	873.54
454.244	895.68
454.618	922.8
454.992	917.38
455.365	889.81
455.739	912.63
456.112	937.94
456.486	948.56
456.859	943.82
457.232	944.04
457.606	943.14
457.979	966.19
458.352	973.87
458.725	986.75
459.099	1006.41
459.472	1004.83
459.845	1018.17
460.218	1009.35
460.591	1010.26
460.964	1051.84
461.337	1063.59
461.71	1065.17
462.083	1109.46
462.456	1087.99
462.829	1071.5
463.201	1103.81
463.574	1060.88
463.947	1093.19
464.32	1129.35
464.692	1097.03
465.065	1131.83
465.438	1156.92
465.81	1172.51
466.183	1204.38
466.555	1181.1
466.928	1209.35
467.3	1224.94
467.672	1218.39
468.045	1239.63
468.417	1247.76
468.789	1238.95
469.161	1278.95
469.534	1273.3
469.906	1295.67
470.278	1323.24
470.65	1337.93
471.022	1354.2
471.394	1393.75
471.766	1425.16
472.138	1387.2
472.51	1407.31
472.882	1432.84
473.253	1457.48
473.625	1437.36
473.997	1510.13
474.369	1489.11
474.74	1515.33
475.112	1543.35
475.484	1547.42
475.855	1606.62
476.227	1581.54
476.598	1623.35
476.97	1626.96
477.341	1670.13
477.713	1664.48
478.084	1711.93
478.455	1725.27
478.827	1747.41
479.198	1751.25
479.569	1781.76
479.94	1797.13
480.311	1845.49
480.682	1877.13
481.053	1934.07
481.424	1907.18
481.795	1927.52
482.166	1968.87
482.537	1977.01
482.908	2045.48
483.279	2053.17
483.65	2099.04
484.021	2116.22
484.391	2121.87
484.762	2120.74
485.133	2166.38
485.503	2197.57
485.874	2223.78
486.244	2270.34
486.615	2278.02
486.985	2338.36
487.356	2334.51
487.726	2352.59
488.097	2417.22
488.467	2457.68
488.837	2488.18
489.207	2490.89
489.578	2508.75
489.948	2565.7
490.318	2559.14
490.688	2572.02
491.058	2627.39
491.428	2680.04
491.798	2673.04
492.168	2688.18
492.538	2762.53
492.908	2747.16
493.278	2781.06
493.648	2771.34
494.017	2827.61
494.387	2856.99
494.757	2877.78
495.126	2915.52
495.496	2927.95
495.866	2931.56
496.235	2953.48
496.605	2970.66
496.974	3024.67
497.344	3031.45
497.713	3059.02
498.082	3062.86
498.452	3078.45
498.821	3110.09
499.19	3116.19
499.559	3134.72
499.928	3186.7
500.298	3180.37
500.667	3207.03
501.036	3212.68
501.405	3235.06
501.774	3225.56
502.143	3267.37
502.512	3275.96
502.88	3346.69
503.249	3320.03
503.618	3327.03
503.987	3369.06
504.356	3366.8
504.724	3412.68
505.093	3437.76
505.462	3438.44
505.83	3466.46
506.199	3493.13
506.567	3530.87
506.936	3503.3
507.304	3566.12
507.672	3591.66
508.041	3599.34
508.409	3635.27
508.777	3630.3
509.145	3656.29
509.514	3693.12
509.882	3708.49
510.25	3716.17
510.618	3776.96
510.986	3766.34
511.354	3871.88
511.722	3822.84
512.09	3863.74
512.458	3856.96
512.826	3903.06
513.193	3920.91
513.561	3928.37
513.929	3931.76
514.297	3985.32
514.664	4007.01
515.032	3993.45
515.4	4059.44
515.767	4065.32
516.135	4114.58
516.502	4091.76
516.869	4133.56
517.237	4176.73
517.604	4202.49
517.972	4201.13
518.339	4243.84
518.706	4250.62
519.073	4266.22
519.44	4301.24
519.808	4347.8
520.175	4383.05
520.542	4334.91
520.909	4436.83
521.276	4433.22
521.643	4464.63
522.009	4466.21
522.376	4517.28
522.743	4550.95
523.11	4562.03
523.477	4656.71
523.843	4681.12
524.21	4704.17
524.577	4745.07
524.943	4776.48
525.31	4768.12
525.676	4822.59
526.043	4843.15
526.409	4836.37
526.776	4948.91
527.142	4931.51
527.508	4935.12
527.874	5002.92
528.241	4990.04
528.607	5066.42
528.973	5078.85
529.339	5111.39
529.705	5148.9
530.071	5190.48
530.437	5155.23
530.803	5181.9
531.169	5238.39
531.535	5239.98
531.901	5278.17
532.267	5317.26
532.632	5379.63
532.998	5345.06
533.364	5403.13
533.73	5393.64
534.095	5470.48
534.461	5464.38
534.826	5479.97
535.192	5450.59
535.557	5556.8
535.923	5514.32
536.288	5623.24
536.653	5636.8
537.019	5643.81
537.384	5620.98
537.749	5688.78
538.114	5667.76
538.479	5751.83
538.845	5749.57
539.21	5745.5
539.575	5756.57
539.94	5834.08
540.305	5849.22
540.67	5832.73
541.034	5869.34
541.399	5890.58
541.764	5934.42
542.129	5958.6
542.494	6009.67
542.858	5978.71
543.223	5976
543.587	6041.31
543.952	6055.55
544.316	6048.77
544.681	6075.89
545.045	6133.51
545.41	6158.6
545.774	6151.82
546.138	6164.47
546.503	6267.74
546.867	6252.38
547.231	6357.46
547.595	6281.3
547.959	6342.55
548.324	6343.22
548.688	6364.92
549.052	6453.73
549.416	6427.74
549.779	6428.42
550.143	6504.12
550.507	6482.88
550.871	6480.39
551.235	6561.07
551.599	6608.75
551.962	6622.76
552.326	6622.76
552.689	6614.85
553.053	6680.39
553.417	6688.75
553.78	6809.88
554.143	6731.46
554.507	6771.69
554.87	6725.59
555.234	6894.85
555.597	6839.71
555.96	6889.65
556.323	6927.61
556.686	6898.01
557.05	6899.37
557.413	6982.98
557.776	7013.04
558.139	7093.49
558.502	7085.12
558.865	7056.2
559.228	7078.34
559.59	7152.69
559.953	7197.66
560.316	7203.31
560.679	7248.06
561.041	7336.19
561.404	7297.1
561.767	7380.48
562.129	7386.59
562.492	7422.06
562.854	7422.97
563.217	7465
563.579	7548.16
563.941	7544.32
564.304	7514.72
564.666	7580.03
565.028	7592.91
565.39	7582.06
565.753	7666.58
566.115	7687.37
566.477	7746.8
566.839	7776.86
567.201	7748.38
567.563	7782.73
567.925	7854.82
568.287	7871.32
568.648	7872
569.01	7965.78
569.372	7948.6
569.734	8004.42
570.095	8020.92
570.457	8075.61
570.819	8051.88
571.18	8039.45
571.542	8101.14
571.903	8176.4
572.265	8187.47
572.626	8173.68
572.987	8284.41
573.349	8203.74
573.71	8255.49
574.071	8249.84
574.432	8322.83
574.794	8376.84
575.155	8384.98
575.516	8349.95
575.877	8354.92
576.238	8356.5
576.599	8433.11
576.96	8422.26
577.32	8466.78
577.681	8458.2
578.042	8527.8
578.403	8453.68
578.763	8549.94
579.124	8491.19
579.485	8598.08
579.845	8577.29
580.206	8628.36
580.566	8576.84
580.927	8568.93
581.287	8697.29
581.648	8624.07
582.008	8666.78
582.368	8657.74
582.728	8730.96
583.089	8690.96
583.449	8643.05
583.809	8675.82
584.169	8704.97
584.529	8704.52
584.889	8700
585.249	8686.89
585.609	8663.61
585.969	8763.05
586.329	8669.26
586.688	8700.45
587.048	8757.4
587.408	8707.91
587.768	8746.32
588.127	8683.5
588.487	8718.08
588.846	8794.23
589.206	8757.17
589.565	8734.12
589.925	8725.99
590.284	8748.13
590.643	8768.02
591.003	8759.88
591.362	8738.19
591.721	8773.22
592.08	8805.76
592.44	8822.93
592.799	8746.78
593.158	8812.99
593.517	8817.73
593.876	8842.14
594.235	8810.28
594.593	8801.46
594.952	8828.58
595.311	8795.14
595.67	8857.96
596.029	8889.6
596.387	8909.94
596.746	8827.45
597.104	8876.26
597.463	8899.54
597.822	8875.36
598.18	8884.4
598.538	8874
598.897	8882.59
599.255	8819.77
599.613	8989.03
599.972	8947
600.33	8901.35
600.688	8896.83
601.046	8913.32
601.404	8970.95
601.762	8933.21
602.12	8941.35
602.478	9011.85
602.836	8970.72
603.194	8841.69
603.552	8887.56
603.91	8957.17
604.268	8920.1
604.625	8914.45
604.983	9016.15
605.341	8966.2
605.698	9065.64
606.056	8999.2
606.413	8978.18
606.771	9037.62
607.128	9057.05
607.485	8965.53
607.843	8959.65
608.2	9023.83
608.557	9025.86
608.914	9016.15
609.272	9096.37
609.629	9086.65
609.986	9099.08
610.343	9119.2
610.7	9179.08
611.057	9113.32
611.414	9191.74
611.771	9050.72
612.127	9158.97
612.484	9144.51
612.841	9219.98
613.198	9103.15
613.554	9178.4
613.911	9265.18
614.267	9246.65
614.624	9208.91
614.98	9263.15
615.337	9249.14
615.693	9244.39
616.05	9243.49
616.406	9328
616.762	9338.17
617.118	9255.69
617.475	9347.44
617.831	9338.85
618.187	9316.25
618.543	9305.86
618.899	9340.66
619.255	9346.53
619.611	9372.52
619.967	9386.53
620.323	9392.18
620.678	9318.06
621.034	9317.61
621.39	9366.65
621.746	9381.11
622.101	9392.63
622.457	9391.28
622.812	9433.31
623.168	9408.45
623.523	9457.27
623.879	9474.44
624.234	9379.53
624.589	9380.43
624.945	9432.63
625.3	9428.57
625.655	9376.82
626.01	9429.02
626.365	9423.59
626.72	9385.18
627.075	9415.46
627.43	9450.49
627.785	9439.64
628.14	9409.13
628.495	9435.57
628.85	9422.92
629.205	9388.57
629.559	9415.23
629.914	9399.64
630.269	9384.5
630.623	9367.32
630.978	9365.74
631.332	9349.92
631.687	9410.49
632.041	9433.09
632.396	9401
632.75	9383.14
633.104	9403.48
633.459	9261.79
633.813	9316.48
634.167	9343.6
634.521	9330.26
634.875	9236.48
635.229	9332.07
635.583	9235.35
635.937	9283.03
636.291	9256.82
636.645	9293.88
636.999	9294.56
637.352	9299.3
637.706	9230.83
638.06	9301.56
638.413	9292.98
638.767	9259.98
639.121	9309.92
639.474	9205.52
639.828	9187.67
640.181	9239.64
640.534	9235.35
640.888	9139.08
641.241	9132.53
641.594	9139.08
641.947	9206.42
642.301	9182.02
642.654	9233.77
643.007	9250.72
643.36	9143.83
643.713	9214.33
644.066	9152.64
644.419	9122.81
644.771	9058.63
645.124	9038.52
645.477	9023.83
645.83	8970.5
646.182	8969.82
646.535	8899.09
646.888	8911.29
647.24	8831.29
647.593	8959.43
647.945	8910.84
648.298	8846.89
648.65	8863.83
649.002	8825.64
649.355	8857.73
649.707	8878.07
650.059	8939.31
650.411	8993.55
650.763	9034.9
651.115	9121.91
651.467	9087.33
651.819	9073.32
652.171	9130.04
652.523	9105.64
652.875	9037.39
653.227	9037.16
653.578	9138.86
653.93	9159.19
654.282	9029.03
654.633	9040.33
654.985	8972.76
655.337	9019.31
655.688	9077.84
656.039	9059.99
656.391	8993.1
656.742	9011.18
657.094	9071.51
657.445	9109.25
657.796	9088.01
658.147	9041.91
658.498	9040.33
658.849	9035.81
659.2	9083.49
659.551	9064.28
659.902	9041.68
660.253	9085.3
660.604	9008.46
660.955	9037.39
661.306	9059.08
661.656	9061.8
662.007	9037.62
662.358	9073.32
662.708	9017.5
663.059	9003.49
663.409	8980.22
663.76	9019.08
664.11	9096.37
664.461	9111.06
664.811	9088.46
665.161	9022.7
665.511	9077.84
665.862	9048.24
666.212	8999.42
666.562	9035.58
666.912	9048.01
667.262	9026.32
667.612	8997.84
667.962	9055.69
668.312	9042.36
668.662	9066.77
669.011	9073.77
669.361	9057.5
669.711	9026.99
670.06	8998.97
670.41	8980.67
670.76	9000.78
671.109	9029.93
671.459	8966.88
671.808	8932.99
672.157	8993.1
672.507	8942.48
672.856	8980.67
673.205	9006.66
673.554	8963.49
673.904	8961.46
674.253	8988.13
674.602	8943.83
674.951	8884.63
675.3	8786.1
675.649	8932.31
675.998	8942.48
676.346	8952.87
676.695	8943.15
677.044	8860.67
677.393	8943.61
677.741	8919.43
678.09	8850.95
678.438	8841.91
678.787	8840.33
679.135	8932.99
679.484	8867.22
679.832	8843.04
680.181	8829.71
680.529	8796.49
680.877	8791.29
681.225	8785.19
681.573	8764.4
681.922	8766.89
682.27	8752.65
682.618	8689.15
682.966	8732.99
683.314	8730.5
683.661	8612.32
684.009	8634.46
684.357	8615.93
684.705	8684.18
685.053	8709.71
685.4	8617.06
685.748	8639.21
686.095	8601.47
686.443	8588.36
686.79	8524.41
687.138	8585.2
687.485	8492.09
687.832	8589.49
688.18	8482.83
688.527	8514.01
688.874	8491.87
689.221	8404.86
689.568	8457.74
689.915	8382.27
690.262	8399.67
690.609	8396.28
690.956	8353.34
691.303	8323.06
691.65	8301.82
691.997	8327.35
692.344	8288.71
692.69	8290.74
693.037	8245.09
693.383	8175.49
693.73	8236.05
694.077	8114.93
694.423	8131.88
694.769	8105.21
695.116	8076.74
695.462	8018.89
695.808	8070.64
696.155	8076.51
696.501	7963.75
696.847	8040.35
697.193	7912.45
697.539	7973.46
697.885	7879.45
698.231	7862.96
698.577	7885.1
698.923	7856.86
699.269	7791.09
699.614	7752
699.96	7782.96
700.306	7732.57
700.651	7699.8
700.997	7740.7
701.342	7731.44
701.688	7684.88
702.033	7680.14
702.379	7661.15
702.724	7592.91
703.069	7601.72
703.415	7497.09
703.76	7556.3
704.105	7500.48
704.45	7505
704.795	7493.7
705.14	7390.43
705.485	7422.74
705.83	7398.11
706.175	7385
706.52	7377.55
706.865	7382.52
707.209	7303.65
707.554	7275.63
707.899	7345.68
708.243	7228.62
708.588	7270.66
708.932	7234.95
709.277	7250.09
709.621	7213.03
709.966	7180.26
710.31	7189.75
710.654	7125.12
710.998	7125.35
711.342	7143.43
711.687	7132.13
712.031	7165.35
712.375	7032.92
712.719	7090.77
713.063	7093.71
713.407	7095.75
713.75	7027.72
714.094	7062.98
714.438	6975.07
714.782	6995.18
715.125	7045.13
715.469	6997.67
715.812	6949.53
716.156	6948.18
716.499	6976.65
716.843	6942.08
717.186	6869.76
717.53	6927.84
717.873	6930.33
718.216	6946.15
718.559	6920.38
718.902	6873.83
719.246	6914.51
719.589	6824.57
719.932	6852.14
720.275	6845.36
720.617	6822.31
720.96	6846.94
721.303	6860.27
721.646	6866.83
721.989	6778.24
722.331	6829.76
722.674	6768.97
723.016	6822.08
723.359	6824.34
723.701	6817.33
724.044	6792.93
724.386	6716.09
724.729	6718.81
725.071	6789.09
725.413	6840.16
725.755	6791.35
726.097	6715.64
726.439	6703.67
726.782	6759.71
727.124	6763.78
727.465	6678.81
727.807	6686.49
728.149	6729.88
728.491	6776.21
728.833	6751.12
729.175	6735.98
729.516	6706.38
729.858	6726.49
730.199	6714.29
730.541	6700.95
730.882	6742.53
731.224	6779.14
731.565	6645.59
731.906	6740.05
732.248	6754.74
732.589	6699.82
732.93	6688.98
733.271	6705.25
733.612	6683.55
733.953	6676.55
734.294	6695.53
734.635	6672.25
734.976	6670.67
735.317	6731.24
735.658	6696.89
735.999	6712.03
736.339	6676.1
736.68	6664.12
737.021	6699.37
737.361	6632.03
737.702	6693.27
738.042	6648.98
738.383	6669.09
738.723	6680.39
739.063	6652.37
739.404	6682.2
739.744	6657.11
740.084	6637.68
740.424	6626.83
740.764	6629.32
741.104	6629.09
741.444	6610.79
741.784	6631.13
742.124	6677.9
742.464	6662.99
742.804	6599.71
743.143	6652.82
743.483	6617.11
743.823	6558.13
744.162	6645.59
744.502	6656.66
744.841	6599.49
745.181	6566.04
745.52	6606.72
745.86	6670.67
746.199	6609.88
746.538	6544.8
746.877	6617.34
747.216	6616.21
747.556	6655.98
747.895	6601.75
748.234	6575.53
748.573	6607.4
748.911	6598.58
749.25	6610.56
749.589	6573.5
749.928	6569.66
750.267	6596.78
750.605	6527.17
750.944	6555.19
751.283	6530.56
751.621	6554.97
751.96	6548.87
752.298	6519.94
752.636	6479.04
752.975	6453.95
753.313	6452.15
753.651	6526.5
753.989	6480.85
754.327	6494.86
754.666	6455.99
755.004	6485.82
755.342	6473.84
755.679	6508.42
756.017	6515.42
756.355	6445.59
756.693	6502.31
757.031	6391.36
757.368	6397.68
757.706	6436.78
758.044	6395.2
758.381	6332.6
758.719	6363.56
759.056	6381.19
759.394	6333.51
759.731	6313.85
760.068	6319.49
760.405	6301.42
760.743	6295.09
761.08	6275.2
761.417	6243.34
761.754	6240.17
762.091	6223.68
762.428	6209.67
762.765	6123.12
763.102	6201.53
763.438	6188.2
763.775	6154.3
764.112	6129.44
764.449	6131.7
764.785	6106.17
765.122	6088.54
765.458	6033.17
765.795	6103.46
766.131	6060.97
766.467	6050.12
766.804	5993.18
767.14	5984.14
767.476	5956.34
767.812	6014.87
768.148	5959.05
768.485	5933.97
768.821	5897.13
769.157	5889.45
769.492	5890.58
769.828	5865.5
770.164	5801.99
770.5	5852.61
770.836	5794.54
