Data from mousepad_grey_FLMS001491_00080.txt Node
Date: Wed Feb 08 14:29:56 GMT 2017
User: dcchb
Spectrometer: FLMS00149
Trigger mode: 0
Integration Time (sec): 2.000000E-2
Scans to average: 10
Electric dark correction enabled: true
Nonlinearity correction enabled: false
Boxcar width: 0
XAxis mode: Wavelengths
Number of Pixels in Spectrum: 2048
>>>>>Begin Spectral Data<<<<<
341.393	-23.38
341.776	-23.38
342.16	-23.38
342.543	-53.88
342.927	-83.49
343.31	-61.57
343.693	-86.65
344.077	-54.56
344.46	-64.5
344.843	-46.88
345.226	-27.22
345.61	-60.66
345.993	-15.92
346.376	-1
346.759	-6.43
347.142	32.22
347.525	52.33
347.908	57.3
348.291	55.72
348.674	106.56
349.057	121.25
349.44	135.49
349.823	146.56
350.206	141.14
350.588	172.33
350.971	196.73
351.354	188.6
351.737	211.87
352.119	228.37
352.502	221.36
352.884	255.04
353.267	285.54
353.65	288.03
354.032	286.67
354.414	285.32
354.797	300.91
355.179	305.88
355.562	308.82
355.944	305.43
356.326	305.88
356.709	309.5
357.091	318.08
357.473	338.65
357.855	320.12
358.238	324.19
358.62	333.45
359.002	309.27
359.384	318.08
359.766	329.84
360.148	304.3
360.53	332.55
360.912	320.57
361.294	315.6
361.676	318.76
362.057	323.73
362.439	309.95
362.821	323.73
363.203	309.27
363.584	320.57
363.966	309.5
364.348	321.7
364.729	304.98
365.111	295.71
365.493	292.77
365.874	297.07
366.256	303.4
366.637	290.74
367.019	304.3
367.4	301.81
367.781	307.46
368.163	283.28
368.544	299.1
368.925	289.16
369.306	310.63
369.688	302.72
370.069	290.74
370.45	322.15
370.831	298.88
371.212	309.95
371.593	309.95
371.974	294.81
372.355	280.8
372.736	313.79
373.117	291.19
373.498	282.61
373.879	309.05
374.26	297.97
374.641	303.17
375.021	299.33
375.402	303.62
375.783	317.86
376.163	309.95
376.544	303.85
376.925	300.46
377.305	293.9
377.686	314.7
378.066	305.43
378.447	307.92
378.827	321.02
379.208	321.47
379.588	318.31
379.968	338.88
380.349	311.76
380.729	308.82
381.109	311.08
381.489	308.59
381.87	303.17
382.25	324.64
382.63	328.03
383.01	315.15
383.39	317.41
383.77	304.3
384.15	324.19
384.53	347.69
384.91	340.91
385.29	344.98
385.67	348.59
386.049	342.04
386.429	330.29
386.809	352.89
387.189	337.52
387.568	355.82
387.948	333.9
388.328	354.47
388.707	334.13
389.087	337.97
389.466	336.84
389.846	347.01
390.225	338.65
390.605	342.94
390.984	334.36
391.363	350.4
391.743	356.05
392.122	337.75
392.501	354.69
392.881	362.38
393.26	336.16
393.639	367.8
394.018	341.14
394.397	350.4
394.776	352.66
395.155	379.33
395.534	362.83
395.913	363.06
396.292	365.99
396.671	367.12
397.05	372.32
397.429	363.73
397.808	368.7
398.186	378.42
398.565	387.46
398.944	382.94
399.323	384.98
399.701	367.8
400.08	396.27
400.458	380.23
400.837	387.91
401.215	381.36
401.594	396.05
401.972	388.59
402.351	396.27
402.729	435.82
403.107	381.59
403.486	400.57
403.864	403.73
404.242	405.77
404.62	408.25
404.999	404.64
405.377	430.4
405.755	404.41
406.133	410.96
406.511	436.27
406.889	429.95
407.267	432.66
407.645	427.69
408.023	424.97
408.401	429.95
408.779	445.31
409.156	456.16
409.534	445.99
409.912	436.95
410.29	437.63
410.667	450.51
411.045	464.97
411.422	466.56
411.8	475.59
412.178	465.43
412.555	472.88
412.933	483.05
413.31	501.58
413.687	463.84
414.065	497.74
414.442	497.97
414.819	497.52
415.197	463.39
415.574	511.53
415.951	483.5
416.328	500.23
416.705	507.46
417.082	508.81
417.46	500.23
417.837	514.46
418.214	518.08
418.591	530.06
418.967	515.59
419.344	530.06
419.721	532.32
420.098	513.11
420.475	512.43
420.852	554.01
421.228	560.11
421.605	529.6
421.982	547.23
422.358	570.51
422.735	559.89
423.111	552.43
423.488	553.11
423.864	565.31
424.241	555.37
424.617	589.49
424.994	582.94
425.37	578.42
425.746	594.69
426.123	588.13
426.499	562.82
426.875	593.78
427.251	594.91
427.627	611.18
428.003	591.98
428.379	604.41
428.756	626.78
429.132	638.98
429.507	633.56
429.883	634.46
430.259	650.28
430.635	642.14
431.011	660.22
431.387	649.6
431.763	636.04
432.138	672.88
432.514	678.08
432.89	699.32
433.265	693.67
433.641	699.54
434.016	682.14
434.392	709.26
434.767	722.82
435.143	724.4
435.518	712.65
435.894	740.22
436.269	739.32
436.644	746.55
437.02	734.12
437.395	722.14
437.77	778.41
438.145	762.82
438.52	773.21
438.895	795.81
439.271	783.16
439.646	790.61
440.021	791.07
440.395	791.29
440.77	791.74
441.145	802.14
441.52	796.72
441.895	785.64
442.27	804.85
442.645	805.53
443.019	821.35
443.394	835.81
443.769	818.18
444.143	828.58
444.518	818.41
444.892	839.2
445.267	852.53
445.641	874.91
446.016	853.89
446.39	840.33
446.764	888.92
447.139	868.8
447.513	871.29
447.887	864.74
448.262	874.23
448.636	881.23
449.01	885.98
449.384	914.91
449.758	918.75
450.132	907.67
450.506	935.92
450.88	934.34
451.254	908.8
451.628	941.57
452.002	949.03
452.376	936.37
452.75	966.88
453.123	982.25
453.497	981.12
453.871	960.78
454.244	989.48
454.618	1004.62
454.992	1020.89
455.365	1022.7
455.739	1027.9
456.112	1080.78
456.486	1030.83
456.859	1054.79
457.232	1071.06
457.606	1085.07
457.979	1090.95
458.352	1106.31
458.725	1132.3
459.099	1122.81
459.472	1136.37
459.845	1128.23
460.218	1138.18
460.591	1149.7
460.964	1170.04
461.337	1200.55
461.71	1198.51
462.083	1203.26
462.456	1217.95
462.829	1226.08
463.201	1268.57
463.574	1257.5
463.947	1288.68
464.32	1279.19
464.692	1290.26
465.065	1288.68
465.438	1320.32
465.81	1343.59
466.183	1326.87
466.555	1368
466.928	1370.49
467.3	1382.69
467.672	1389.92
468.045	1434.44
468.417	1405.97
468.789	1437.38
469.161	1450.48
469.534	1481.9
469.906	1502.23
470.278	1509.69
470.65	1550.37
471.022	1533.42
471.394	1596.92
471.766	1560.31
472.138	1600.09
472.51	1612.29
472.882	1635.34
473.253	1645.96
473.625	1665.39
473.997	1688.9
474.369	1707.65
474.74	1744.71
475.112	1756.01
475.484	1801.21
475.855	1814.77
476.227	1824.26
476.598	1850.47
476.97	1851.15
477.341	1896.57
477.713	1934.77
478.084	1963.47
478.455	1960.53
478.827	2002.79
479.198	2044.14
479.569	2071.71
479.94	2120.98
480.311	2121.65
480.682	2172.95
481.053	2195.55
481.424	2239.16
481.795	2273.51
482.166	2267.19
482.537	2302.44
482.908	2324.59
483.279	2400.97
483.65	2396.22
484.021	2453.17
484.391	2487.07
484.762	2462.66
485.133	2505.82
485.503	2575.65
485.874	2607.97
486.244	2674.41
486.615	2644.13
486.985	2684.8
487.356	2727.74
487.726	2745.59
488.097	2826.72
488.467	2823.1
488.837	2832.37
489.207	2889.77
489.578	2933.16
489.948	2950.56
490.318	3002.99
490.688	2995.98
491.058	3035.3
491.428	3098.12
491.798	3078.92
492.168	3178.35
492.538	3157.11
492.908	3194.39
493.278	3222.19
493.648	3249.99
494.017	3304.9
494.387	3292.02
494.757	3355.97
495.126	3372.92
495.496	3415.4
495.866	3384.9
496.235	3468.74
496.605	3484.1
496.974	3485.46
497.344	3506.02
497.713	3549.86
498.082	3576.98
498.452	3603.2
498.821	3611.11
499.19	3647.49
499.559	3659.24
499.928	3680.03
500.298	3692.23
500.667	3726.13
501.036	3740.14
501.405	3774.27
501.774	3733.81
502.143	3831.89
502.512	3818.33
502.88	3892.91
503.249	3842.74
503.618	3932
503.987	3898.1
504.356	3943.75
504.724	3996.18
505.093	3972.9
505.462	3961.6
505.83	4037.08
506.199	4054.26
506.567	4085.22
506.936	4099
507.304	4133.58
507.672	4171.99
508.041	4157.31
508.409	4249.73
508.777	4224.42
509.145	4270.98
509.514	4283.86
509.882	4331.09
510.25	4339.22
510.618	4342.61
510.986	4372.22
511.354	4423.29
511.722	4442.04
512.09	4484.08
512.458	4438.43
512.826	4562.94
513.193	4532.44
513.561	4594.36
513.929	4602.94
514.297	4622.15
514.664	4680.23
515.032	4667.8
515.4	4704.64
515.767	4733.79
516.135	4738.76
516.502	4741.47
516.869	4823.28
517.237	4872.32
517.604	4879.55
517.972	4920
518.339	4920.9
518.706	4908.7
519.073	4947.12
519.44	4967.91
519.808	5026.21
520.175	5032.31
520.542	5077.51
520.909	5157.96
521.276	5101.69
521.643	5157.73
522.009	5218.07
522.376	5252.87
522.743	5283.83
523.11	5307.56
523.477	5392.53
523.843	5431.85
524.21	5473.66
524.577	5514.56
524.943	5515.24
525.31	5609.92
525.676	5589.58
526.043	5605.18
526.409	5654.67
526.776	5680.43
527.142	5736.7
527.508	5738.51
527.874	5815.34
528.241	5850.82
528.607	5863.48
528.973	5947.09
529.339	5921.78
529.705	5990.03
530.071	6038.61
530.437	6021.66
530.803	6102.34
531.169	6113.64
531.535	6117.71
531.901	6185.28
532.267	6153.19
532.632	6197.25
532.998	6253.97
533.364	6350.24
533.73	6357.25
534.095	6324.71
534.461	6360.86
534.826	6403.35
535.192	6458.04
535.557	6476.79
535.923	6514.76
536.288	6481.76
536.653	6489.45
537.019	6561.31
537.384	6576
537.749	6604.47
538.114	6667.97
538.479	6650.57
538.845	6695.54
539.21	6704.36
539.575	6749.78
539.94	6743.9
540.305	6880.4
540.67	6787.97
541.034	6850.79
541.399	6850.34
541.764	6918.14
542.129	6922.88
542.494	6959.49
542.858	7030.22
543.223	7038.81
543.587	7028.19
543.952	7062.09
544.316	7100.51
544.681	7075.42
545.045	7137.79
545.41	7164.23
545.774	7218.92
546.138	7239.94
546.503	7242.65
546.867	7275.87
547.231	7356.32
547.595	7401.06
547.959	7402.64
548.324	7427.28
548.688	7390.22
549.052	7422.76
549.416	7435.86
549.779	7426.15
550.143	7493.72
550.507	7568.29
550.871	7589.76
551.235	7679.02
551.599	7680.15
551.962	7640.6
552.326	7714.73
552.689	7748.62
553.053	7730.09
553.417	7768.74
553.78	7821.39
554.143	7795.85
554.507	7910.88
554.87	7889.41
555.234	7979.13
555.597	7995.85
555.96	7970.09
556.323	8046.24
556.686	8056.19
557.05	8060.48
557.413	8056.64
557.776	8140.48
558.139	8233.81
558.502	8187.71
558.865	8218.44
559.228	8285.33
559.59	8316.29
559.953	8324.43
560.316	8447.59
560.679	8337.54
561.041	8470.64
561.404	8455.5
561.767	8584.08
562.129	8517.87
562.492	8626.34
562.854	8596.96
563.217	8614.14
563.579	8665.89
563.941	8786.34
564.304	8816.62
564.666	8849.61
565.028	8913.11
565.39	8810.52
565.753	8950.85
566.115	8929.61
566.477	8995.82
566.839	9007.8
567.201	9053.67
567.563	9094.58
567.925	9125.31
568.287	9102.49
568.648	9158.08
569.01	9224.74
569.372	9283.95
569.734	9223.39
570.095	9359.43
570.457	9358.3
570.819	9392.42
571.18	9324.4
571.542	9390.61
571.903	9389.94
572.265	9469.48
572.626	9501.8
572.987	9527.11
573.349	9611.17
573.71	9662.47
574.071	9636.48
574.432	9630.38
574.794	9730.72
575.155	9704.73
575.516	9655.47
575.877	9775.92
576.238	9716.71
576.599	9801.45
576.96	9875.35
577.32	9845.74
577.681	9872.86
578.042	9886.65
578.403	9865.63
578.763	9935.91
579.124	9924.84
579.485	9964.61
579.845	10017.04
580.206	9973.88
580.566	9993.76
580.927	9960.54
581.287	10004.38
581.648	9978.62
582.008	10071.5
582.368	10073.99
582.728	10047.55
583.089	10063.37
583.449	10053.65
583.809	10034.44
584.169	10083.03
584.529	10109.01
584.889	10182.23
585.249	10060.43
585.609	10043.03
585.969	10165.51
586.329	10144.72
586.688	10153.08
587.048	10064.04
587.408	10122.57
587.768	10117.83
588.127	10107.43
588.487	10118.28
588.846	10153.76
589.206	10157.15
589.565	10125.51
589.925	10223.59
590.284	10112.18
590.643	10142.23
591.003	10164.15
591.362	10223.36
591.721	10156.92
592.08	10165.74
592.44	10156.7
592.799	10226.52
593.158	10171.84
593.517	10159.63
593.876	10204.38
594.235	10202.8
594.593	10247.99
594.952	10211.84
595.311	10184.94
595.67	10243.25
596.029	10203.47
596.387	10290.48
596.746	10292.74
597.104	10211.61
597.463	10283.47
597.822	10306.75
598.18	10158.05
598.538	10217.03
598.897	10345.17
599.255	10177.71
599.613	10379.97
599.972	10250.25
600.33	10362.34
600.688	10255.9
601.046	10261.55
601.404	10307.2
601.762	10324.15
602.12	10328.9
602.478	10310.82
602.836	10411.15
603.194	10300.42
603.552	10356.01
603.91	10300.87
604.268	10370.48
604.625	10351.95
604.983	10420.87
605.341	10370.48
605.698	10426.75
606.056	10352.85
606.413	10415.45
606.771	10362.57
607.128	10412.96
607.485	10397.59
607.843	10459.29
608.2	10467.65
608.557	10558.04
608.914	10401.89
609.272	10529.34
609.629	10538.83
609.986	10569.11
610.343	10470.59
610.7	10525.05
611.057	10591.26
611.414	10540.19
611.771	10501.77
612.127	10592.16
612.484	10600.3
612.841	10592.39
613.198	10544.26
613.554	10613.18
613.911	10612.28
614.267	10619.06
614.624	10607.98
614.98	10700.18
615.337	10650.69
615.693	10667.64
616.05	10697.02
616.406	10777.92
616.762	10614.31
617.118	10745.61
617.475	10741.09
617.831	10675.78
618.187	10795.55
618.543	10663.35
618.899	10709.22
619.255	10743.57
619.611	10726.17
619.967	10787.41
620.323	10797.81
620.678	10863.12
621.034	10797.36
621.39	10777.7
621.746	10749
622.101	10934.98
622.457	10753.29
622.812	10826.51
623.168	10816.79
623.523	10862.89
623.879	10897.24
624.234	10816.57
624.589	10817.7
624.945	10898.82
625.3	10828.32
625.655	10851.59
626.01	10828.77
626.365	10849.79
626.72	10852.5
627.075	10806.4
627.43	10851.59
627.785	10842.1
628.14	10872.38
628.495	10878.26
628.85	10800.97
629.205	10822.89
629.559	10866.73
629.914	10745.16
630.269	10843.01
630.623	10807.98
630.978	10857.69
631.332	10770.01
631.687	10785.38
632.041	10798.94
632.396	10815.44
632.75	10819.28
633.104	10777.92
633.459	10725.04
633.813	10725.95
634.167	10688.66
634.521	10680.3
634.875	10743.8
635.229	10690.24
635.583	10670.36
635.937	10693.41
636.291	10723.23
636.645	10664.93
636.999	10637.59
637.352	10725.27
637.706	10537.25
638.06	10633.07
638.413	10698.38
638.767	10540.19
639.121	10605.05
639.474	10551.94
639.828	10517.14
640.181	10614.09
640.534	10521.66
640.888	10573.86
641.241	10532.05
641.594	10535.9
641.947	10517.82
642.301	10468.78
642.654	10560.3
643.007	10563.01
643.36	10494.09
643.713	10498.38
644.066	10589.91
644.419	10496.35
644.771	10433.3
645.124	10287.31
645.477	10217.26
645.83	10228.33
646.182	10238.05
646.535	10242.12
646.888	10291.16
647.24	10149.24
647.593	10224.27
647.945	10213.42
648.298	10179.52
648.65	10090.26
649.002	10118.73
649.355	10226.3
649.707	10110.82
650.059	10176.81
650.411	10321.44
650.763	10295.22
651.115	10476.01
651.467	10457.48
651.819	10422.9
652.171	10406.86
652.523	10370.7
652.875	10374.09
653.227	10307.2
653.578	10391.72
653.93	10411.38
654.282	10363.92
654.633	10363.47
654.985	10363.24
655.337	10358.27
655.688	10356.69
656.039	10361.66
656.391	10294.09
656.742	10328.44
657.094	10368.22
657.445	10378.16
657.796	10324.38
658.147	10317.6
658.498	10332.28
658.849	10403.7
659.2	10293.87
659.551	10295.9
659.902	10367.99
660.253	10314.21
660.604	10296.13
660.955	10329.35
661.306	10309.91
661.656	10338.84
662.007	10308.1
662.358	10301.78
662.708	10323.02
663.059	10362.34
663.409	10245.51
663.76	10309.91
664.11	10345.39
664.461	10360.53
664.811	10322.57
665.161	10350.82
665.511	10356.24
665.862	10325.05
666.212	10387.2
666.562	10343.81
666.912	10270.14
667.262	10336.58
667.612	10273.08
667.962	10267.65
668.312	10308.56
668.662	10390.36
669.011	10345.17
669.361	10287.31
669.711	10275.79
670.06	10246.41
670.41	10241.44
670.76	10247.77
671.109	10277.37
671.459	10240.99
671.808	10207.77
672.157	10236.69
672.507	10233.3
672.856	10225.62
673.205	10283.25
673.554	10245.28
673.904	10228.56
674.253	10247.09
674.602	10239.41
674.951	10081.9
675.3	9992.63
675.649	10143.59
675.998	10187.66
676.346	10142.69
676.695	10188.33
677.044	10033.54
677.393	10171.61
677.741	10151.27
678.09	10106.08
678.438	10058.39
678.787	10098.39
679.135	10095.45
679.484	9985.4
679.832	10108.11
680.181	10046.19
680.529	10057.72
680.877	10024.5
681.225	9993.08
681.573	10091.61
681.922	9940.43
682.27	9998.73
682.618	9899.08
682.966	9926.42
683.314	9921.45
683.661	9924.61
684.009	9857.27
684.357	9775.01
684.705	9857.72
685.053	9832.86
685.4	9793.09
685.748	9751.74
686.095	9804.62
686.443	9670.16
686.79	9642.81
687.138	9787.89
687.485	9714.22
687.832	9647.11
688.18	9690.49
688.527	9592.87
688.874	9602.13
689.221	9626.77
689.568	9527.33
689.915	9497.28
690.262	9535.92
690.609	9531.4
690.956	9456.38
691.303	9479.2
691.65	9380.9
691.997	9397.17
692.344	9352.88
692.69	9346.55
693.037	9313.55
693.383	9271.75
693.73	9314.23
694.077	9190.62
694.423	9236.27
694.769	9184.29
695.116	9169.6
695.462	9103.62
695.808	9081.47
696.155	9102.26
696.501	9054.35
696.847	9086.22
697.193	9004.41
697.539	9002.15
697.885	8965.54
698.231	8897.75
698.577	8931.42
698.923	8837.86
699.269	8762.61
699.614	8756.28
699.96	8757.86
700.306	8735.94
700.651	8681.25
700.997	8678.77
701.342	8679.22
701.688	8660.01
702.033	8676.06
702.379	8665.66
702.724	8574.36
703.069	8572.11
703.415	8497.53
703.76	8493.69
704.105	8480.13
704.45	8447.36
704.795	8447.36
705.14	8461.83
705.485	8446.23
705.83	8387.48
706.175	8379.57
706.52	8373.24
706.865	8269.97
707.209	8362.85
707.554	8200.36
707.899	8260.93
708.243	8200.82
708.588	8178.67
708.932	8133.25
709.277	8189.52
709.621	8197.2
709.966	8162.4
710.31	8099.8
710.654	8044.89
710.998	8061.16
711.342	8028.84
711.687	8116.52
712.031	8035.4
712.375	7953.82
712.719	8008.96
713.063	7975.96
713.407	8047.37
713.75	7954.49
714.094	7916.76
714.438	7898
714.782	7929.64
715.125	7890.54
715.469	7927.38
715.812	7930.31
716.156	7882.18
716.499	7897.77
716.843	7847.38
717.186	7799.92
717.53	7860.26
717.873	7856.64
718.216	7818.45
718.559	7820.26
718.902	7820.71
719.246	7770.77
719.589	7787.72
719.932	7756.99
720.275	7740.26
720.617	7729.64
720.96	7732.58
721.303	7749.53
721.646	7745.23
721.989	7756.76
722.331	7687.38
722.674	7724.9
723.016	7706.82
723.359	7699.36
723.701	7759.02
724.044	7673.6
724.386	7607.61
724.729	7658.91
725.071	7616.42
725.413	7694.84
725.755	7654.39
726.097	7582.3
726.439	7647.84
726.782	7547.95
727.124	7637.67
727.465	7612.81
727.807	7550.66
728.149	7585.92
728.491	7556.76
728.833	7632.02
729.175	7571.45
729.516	7644.22
729.858	7528.97
730.199	7545.92
730.541	7543.43
730.882	7537.56
731.224	7558.35
731.565	7497.33
731.906	7531
732.248	7562.41
732.589	7547.5
732.93	7467.28
733.271	7538.23
733.612	7494.17
733.953	7497.56
734.294	7458.46
734.635	7519.48
734.976	7482.42
735.317	7489.87
735.658	7543.43
735.999	7494.39
736.339	7493.04
736.68	7482.64
737.021	7484.68
737.361	7443.77
737.702	7482.42
738.042	7466.37
738.383	7514.28
738.723	7496.88
739.063	7511.57
739.404	7540.27
739.744	7464.11
740.084	7457.78
740.424	7435.19
740.764	7459.37
741.104	7507.05
741.444	7385.92
741.784	7399.71
742.124	7433.38
742.464	7445.36
742.804	7436.77
743.143	7428.41
743.483	7452.59
743.823	7408.52
744.162	7403.77
744.502	7354.06
744.841	7402.64
745.181	7418.24
745.52	7379.37
745.86	7377.33
746.199	7406.71
746.538	7371.01
746.877	7442.19
747.216	7432.7
747.556	7401.74
747.895	7363.1
748.234	7351.8
748.573	7412.14
748.911	7322.65
749.25	7350.22
749.589	7376.43
749.928	7330.56
750.267	7352.02
750.605	7333.95
750.944	7372.81
751.283	7276.77
751.621	7371.23
751.96	7367.84
752.298	7362.42
752.636	7297.79
752.975	7362.42
753.313	7211.01
753.651	7275.42
753.989	7231.58
754.327	7288.07
754.666	7198.13
755.004	7240.39
755.342	7264.79
755.679	7179.83
756.017	7225.93
756.355	7191.8
756.693	7150.67
757.031	7205.14
757.368	7136.66
757.706	7150.45
758.044	7117
758.381	7172.37
758.719	7150.22
759.056	7096.89
759.394	7068.19
759.731	7115.42
760.068	7035.42
760.405	6936.67
760.743	7085.82
761.08	7009.21
761.417	7009.21
761.754	6935.54
762.091	7023.45
762.428	6926.05
762.765	6897.57
763.102	6954.52
763.438	6884.24
763.775	6873.17
764.112	6877.69
764.449	6815.09
764.785	6840.4
765.122	6837.46
