Data from mousepad_grey_FLMS001491_00040.txt Node
Date: Wed Feb 08 14:29:22 GMT 2017
User: dcchb
Spectrometer: FLMS00149
Trigger mode: 0
Integration Time (sec): 2.000000E-2
Scans to average: 10
Electric dark correction enabled: true
Nonlinearity correction enabled: false
Boxcar width: 0
XAxis mode: Wavelengths
Number of Pixels in Spectrum: 2048
>>>>>Begin Spectral Data<<<<<
341.393	-22.54
341.776	-22.54
342.16	-22.54
342.543	-71.13
342.927	-46.5
343.31	-82.43
343.693	-62.99
344.077	-58.25
344.46	-55.54
344.843	-65.25
345.226	-54.18
345.61	-34.29
345.993	-29.55
346.376	0.73
346.759	15.88
347.142	30.79
347.525	37.12
347.908	73.95
348.291	75.08
348.674	90
349.057	118.92
349.44	103.1
349.823	150.79
350.206	160.5
350.588	194.18
350.971	196.66
351.354	210.67
351.737	232.37
352.119	244.34
352.502	230.78
352.884	264
353.267	252.03
353.65	276.43
354.032	279.6
354.414	293.16
354.797	291.12
355.179	296.77
355.562	315.53
355.944	334.06
356.326	306.94
356.709	314.85
357.091	312.59
357.473	326.83
357.855	323.44
358.238	313.27
358.62	316.21
359.002	329.54
359.384	324.12
359.766	316.21
360.148	300.16
360.53	305.59
360.912	323.21
361.294	309.88
361.676	302.65
362.057	318.92
362.439	315.08
362.821	313.04
363.203	327.73
363.584	309.88
363.966	329.54
364.348	299.94
364.729	298.81
365.111	305.13
365.493	294.29
365.874	283.21
366.256	281.41
366.637	288.86
367.019	300.16
367.4	304.23
367.781	294.06
368.163	306.72
368.544	270.56
368.925	291.35
369.306	292.03
369.688	288.41
370.069	299.26
370.45	288.41
370.831	272.59
371.212	285.92
371.593	291.57
371.974	295.64
372.355	290.22
372.736	303.78
373.117	314.17
373.498	295.87
373.879	310.56
374.26	297
374.641	300.61
375.021	293.61
375.402	298.35
375.783	282.99
376.163	308.3
376.544	301.52
376.925	285.25
377.305	310.33
377.686	306.49
378.066	309.2
378.447	311.91
378.827	327.05
379.208	314.85
379.588	306.94
379.968	311.69
380.349	304
380.729	306.04
381.109	289.09
381.489	300.39
381.87	304.68
382.25	299.94
382.63	314.85
383.01	315.53
383.39	304.68
383.77	294.06
384.15	355.98
384.53	323.66
384.91	315.75
385.29	351.01
385.67	327.28
386.049	321.63
386.429	323.44
386.809	315.08
387.189	316.43
387.568	325.47
387.948	334.74
388.328	331.12
388.707	335.19
389.087	327.05
389.466	328.86
389.846	343.78
390.225	331.12
390.605	321.18
390.984	337.9
391.363	346.04
391.743	350.78
392.122	351.91
392.501	359.37
392.881	368.63
393.26	319.82
393.639	341.52
394.018	331.12
394.397	355.53
394.776	352.82
395.155	337.9
395.534	343.1
395.913	344.45
396.292	352.59
396.671	365.24
397.05	357.56
397.429	368.63
397.808	371.35
398.186	341.97
398.565	371.35
398.944	360.05
399.323	354.62
399.701	391.68
400.08	382.42
400.458	371.8
400.837	366.15
401.215	368.41
401.594	386.71
401.972	381.06
402.351	373.61
402.729	402.53
403.107	376.77
403.486	392.59
403.864	393.27
404.242	375.64
404.62	388.29
404.999	378.13
405.377	397.11
405.755	391.91
406.133	392.36
406.511	407.28
406.889	399.82
407.267	422.42
407.645	409.76
408.023	416.54
408.401	431.23
408.779	420.61
409.156	419.03
409.534	415.19
409.912	434.62
410.29	430.55
410.667	407.73
411.045	440.04
411.422	424.9
411.8	426.49
412.178	453.38
412.555	429.88
412.933	444.34
413.31	443.43
413.687	455.19
414.065	464.9
414.442	456.09
414.819	466.48
415.197	466.03
415.574	469.65
415.951	477.78
416.328	456.77
416.705	464.68
417.082	467.61
417.46	489.08
417.837	487.73
418.214	512.36
418.591	497.22
418.967	487.73
419.344	488.86
419.721	485.02
420.098	499.48
420.475	520.27
420.852	507.39
421.228	531.57
421.605	518.69
421.982	498.35
422.358	529.76
422.735	538.12
423.111	520.04
423.488	541.51
423.864	533.6
424.241	540.83
424.617	536.09
424.994	538.57
425.37	529.76
425.746	567.73
426.123	571.11
426.499	572.47
426.875	553.94
427.251	572.47
427.627	553.04
428.003	576.54
428.379	575.18
428.756	598.01
429.132	593.49
429.507	590.1
429.883	589.87
430.259	600.94
430.635	581.06
431.011	591.91
431.387	606.82
431.763	640.27
432.138	633.49
432.514	622.64
432.89	637.1
433.265	638.91
433.641	638.68
434.016	633.94
434.392	650.66
434.767	635.07
435.143	679.36
435.518	677.33
435.894	647.05
436.269	704.44
436.644	686.82
437.02	659.93
437.395	681.62
437.77	722.98
438.145	690.43
438.52	708.29
438.895	736.08
439.271	701.96
439.646	741.05
440.021	736.08
440.395	722.07
440.77	717.1
441.145	723.43
441.52	734.27
441.895	745.35
442.27	761.39
442.645	771.79
443.019	756.87
443.394	767.49
443.769	751.45
444.143	786.02
444.518	781.5
444.892	784.44
445.267	782.41
445.641	787.83
446.016	814.72
446.39	790.54
446.764	804.33
447.139	783.99
447.513	819.92
447.887	803.65
448.262	815.63
448.636	805.91
449.01	821.96
449.384	839.58
449.758	834.61
450.132	846.59
450.506	872.58
450.88	889.3
451.254	856.53
451.628	855.63
452.002	870.77
452.376	872.8
452.75	879.81
453.123	905.12
453.497	906.47
453.871	934.04
454.244	914.16
454.618	920.94
454.992	953.7
455.365	946.25
455.739	955.74
456.112	946.02
456.486	949.86
456.859	972.01
457.232	976.75
457.606	990.09
457.979	1006.58
458.352	987.6
458.725	1014.49
459.099	1025.34
459.472	1023.53
459.845	1051.78
460.218	1066.47
460.591	1072.8
460.964	1075.73
461.337	1099.46
461.71	1082.97
462.083	1118.45
462.456	1113.02
462.829	1101.27
463.201	1133.59
463.574	1146.47
463.947	1150.53
464.32	1175.84
464.692	1189.4
465.065	1197.99
465.438	1194.83
465.81	1230.98
466.183	1247.03
466.555	1261.72
466.928	1241.83
467.3	1266.01
467.672	1281.38
468.045	1297.65
468.417	1306.46
468.789	1301.04
469.161	1321.38
469.534	1329.51
469.906	1348.72
470.278	1351.43
470.65	1409.96
471.022	1410.19
471.394	1444.54
471.766	1458.32
472.138	1452
472.51	1486.57
472.882	1467.36
473.253	1510.3
473.625	1548.72
473.997	1519.79
474.369	1570.64
474.74	1588.94
475.112	1582.61
475.484	1607.47
475.855	1634.36
476.227	1669.62
476.598	1679.11
476.97	1713.01
477.341	1735.15
477.713	1756.17
478.084	1790.29
478.455	1842.27
478.827	1853.79
479.198	1889.95
479.569	1899.44
479.94	1925.2
480.311	1938.08
480.682	1954.58
481.053	2011.53
481.424	2039.55
481.795	2017.18
482.166	2091.53
482.537	2056.95
482.908	2134.92
483.279	2191.41
483.65	2179.89
484.021	2228.7
484.391	2262.14
484.762	2283.39
485.133	2306.66
485.503	2309.83
485.874	2366.55
486.244	2404.29
486.615	2399.77
486.985	2432.31
487.356	2477.73
487.726	2518.41
488.097	2517.73
488.467	2540.55
488.837	2618.07
489.207	2634.34
489.578	2657.16
489.948	2669.82
490.318	2736.93
490.688	2690.16
491.058	2755.69
491.428	2788.91
491.798	2844.05
492.168	2884.95
492.538	2884.05
492.908	2886.99
493.278	2930.15
493.648	2913.43
494.017	2992.29
494.387	3013.99
494.757	3048.79
495.126	3082.01
495.496	3047.66
495.866	3115.45
496.235	3126.53
496.605	3132.4
496.974	3198.16
497.344	3207.43
497.713	3229.58
498.082	3224.83
498.452	3290.59
498.821	3268.45
499.19	3284.72
499.559	3334.43
499.928	3381.21
500.298	3390.48
500.667	3375.33
501.036	3413.53
501.405	3458.27
501.774	3424.37
502.143	3451.94
502.512	3491.94
502.88	3521.77
503.249	3537.14
503.618	3535.78
503.987	3561.09
504.356	3580.98
504.724	3650.58
505.093	3680.19
505.462	3625.5
505.83	3689.23
506.199	3708.66
506.567	3769.22
506.936	3701.88
507.304	3777.58
507.672	3788.21
508.041	3805.15
508.409	3837.47
508.777	3881.08
509.145	3891.03
509.514	3878.6
509.882	3954.75
510.25	3939.61
510.618	3977.35
510.986	3990.91
511.354	4008.99
511.722	4078.37
512.09	4115.88
512.458	4111.81
512.826	4128.08
513.193	4155.88
513.561	4197.01
513.929	4169.89
514.297	4227.52
514.664	4272.26
515.032	4285.82
515.4	4317.23
515.767	4338.7
516.135	4380.05
516.502	4355.2
516.869	4430.67
517.237	4463.89
517.604	4424.12
517.972	4469.32
518.339	4562.2
518.706	4551.8
519.073	4547.96
519.44	4571.24
519.808	4619.6
520.175	4607.39
520.542	4674.74
520.909	4698.46
521.276	4686.49
521.643	4714.06
522.009	4742.08
522.376	4826.14
522.743	4841.51
523.11	4847.39
523.477	4953.6
523.843	4977.78
524.21	5024.11
524.577	5024.78
524.943	5075.63
525.31	5087.38
525.676	5167.38
526.043	5191.33
526.409	5207.6
526.776	5222.52
527.142	5272.01
527.508	5284.66
527.874	5271.1
528.241	5325.11
528.607	5337.09
528.973	5415.51
529.339	5466.35
529.705	5446.92
530.071	5487.37
530.437	5524.66
530.803	5574.37
531.169	5570.31
531.535	5633.58
531.901	5603.52
532.267	5637.2
532.632	5698.89
532.998	5682.17
533.364	5767.81
533.73	5738.21
534.095	5762.39
534.461	5796.74
534.826	5862.73
535.192	5889.17
535.557	5980.92
535.923	5877.42
536.288	5979.56
536.653	6019.56
537.019	5990.41
537.384	6001.25
537.749	6085.55
538.114	6032.21
538.479	6118.99
538.845	6149.73
539.21	6106.11
539.575	6165.09
539.94	6152.21
540.305	6187.69
540.67	6235.82
541.034	6275.37
541.399	6278.08
541.764	6334.58
542.129	6359.21
542.494	6375.71
542.858	6393.11
543.223	6395.82
543.587	6451.86
543.952	6443.73
544.316	6535.7
544.681	6471.3
545.045	6587.68
545.41	6531.18
545.774	6611.18
546.138	6609.15
546.503	6653.89
546.867	6660.9
547.231	6714.46
547.595	6715.59
547.959	6770.95
548.324	6762.36
548.688	6810.27
549.052	6849.59
549.416	6861.57
549.779	6888.46
550.143	6894.34
550.507	6888.24
550.871	6980.66
551.235	6893.21
551.599	7038.97
551.962	6976.37
552.326	7019.98
552.689	7049.59
553.053	7103.15
553.417	7107.89
553.78	7205.29
554.143	7161.45
554.507	7281.67
554.87	7254.33
555.234	7355.57
555.597	7271.28
555.96	7372.07
556.323	7331.62
556.686	7332.29
557.05	7445.51
557.413	7456.13
557.776	7456.81
558.139	7532.29
558.502	7466.75
558.865	7492.97
559.228	7603.02
559.59	7620.65
559.953	7609.8
560.316	7738.16
560.679	7706.07
561.041	7777.48
561.404	7799.17
561.767	7843.92
562.129	7821.55
562.492	7912.62
562.854	7938.83
563.217	7907.19
563.579	7971.15
563.941	7986.74
564.304	8091.37
564.666	8093.18
565.028	8106.51
565.39	8120.07
565.753	8222.21
566.115	8214.76
566.477	8248.88
566.839	8274.42
567.201	8317.58
567.563	8343.79
567.925	8343.34
568.287	8383.34
568.648	8432.6
569.01	8471.02
569.372	8500.4
569.734	8495.43
570.095	8549.89
570.457	8594.41
570.819	8618.36
571.18	8646.61
571.542	8608.64
571.903	8609.32
572.265	8699.49
572.626	8716.44
572.987	8780.62
573.349	8804.8
573.71	8793.95
574.071	8777.23
574.432	8894.51
574.794	8959.82
575.155	8941.29
575.516	8905.36
575.877	8897.9
576.238	8926.83
576.599	9049.31
576.96	8941.74
577.32	8984
577.681	9087.05
578.042	9036.66
578.403	9060.38
578.763	9101.06
579.124	9166.14
579.485	9227.38
579.845	9184.22
580.206	9193.71
580.566	9203.43
580.927	9210.44
581.287	9266.03
581.648	9225.12
582.008	9283.43
582.368	9219.25
582.728	9337.44
583.089	9250.66
583.449	9282.75
583.809	9280.04
584.169	9260.15
584.529	9287.5
584.889	9275.07
585.249	9269.87
585.609	9275.29
585.969	9279.13
586.329	9329.75
586.688	9327.95
587.048	9329.98
587.408	9306.03
587.768	9355.06
588.127	9317.1
588.487	9334.73
588.846	9346.93
589.206	9316.2
589.565	9324.78
589.925	9325.91
590.284	9372.01
590.643	9386.02
591.003	9343.99
591.362	9373.37
591.721	9396.19
592.08	9348.74
592.44	9456.08
592.799	9460.82
593.158	9382.41
593.517	9390.77
593.876	9430.99
594.235	9437.55
594.593	9468.28
594.952	9384.22
595.311	9348.96
595.67	9362.75
596.029	9485.46
596.387	9433.93
596.746	9485.23
597.104	9373.6
597.463	9477.1
597.822	9473.25
598.18	9490.88
598.538	9484.1
598.897	9559.81
599.255	9422.86
599.613	9561.84
599.972	9550.09
600.33	9551.67
600.688	9457.66
601.046	9503.08
601.404	9498.56
601.762	9509.18
602.12	9571.56
602.478	9604.78
602.836	9562.29
603.194	9555.74
603.552	9576.75
603.91	9529.98
604.268	9550.31
604.625	9567.49
604.983	9568.62
605.341	9566.81
605.698	9580.82
606.056	9631.89
606.413	9650.42
606.771	9656.3
607.128	9677.99
607.485	9666.92
607.843	9593.48
608.2	9663.31
608.557	9704.21
608.914	9666.02
609.272	9698.78
609.629	9760.48
609.986	9788.27
610.343	9701.27
610.7	9791.89
611.057	9815.62
611.414	9758.22
611.771	9777.88
612.127	9817.88
612.484	9835.28
612.841	9837.54
613.198	9831.21
613.554	9750.76
613.911	9902.85
614.267	9826.46
614.624	9825.56
614.98	9871.66
615.337	9884.99
615.693	9898.78
616.05	9903.98
616.406	9900.81
616.762	9901.27
617.118	9923.86
617.475	10002.51
617.831	9952.79
618.187	9966.35
618.543	10033.69
618.899	9957.76
619.255	9929.96
619.611	10003.18
619.967	10059.23
620.323	9980.81
620.678	10000.47
621.034	9975.39
621.39	9987.36
621.746	9992.56
622.101	10142.61
622.457	9985.78
622.812	10075.95
623.168	10041.83
623.523	10084.54
623.879	10087.47
624.234	10055.61
624.589	10052.67
624.945	10065.55
625.3	10056.52
625.655	10056.52
626.01	10047.02
626.365	10086.34
626.72	10110.75
627.075	10029.62
627.43	9972.22
627.785	10018.78
628.14	10086.57
628.495	10072.33
628.85	10059.45
629.205	10028.27
629.559	10046.35
629.914	10084.09
630.269	10050.87
630.623	10032.34
630.978	9998.21
631.332	10044.09
631.687	10043.63
632.041	10026.01
632.396	10012
632.75	9956.4
633.104	9984.65
633.459	9931.09
633.813	10003.18
634.167	10009.51
634.521	10002.73
634.875	9927.93
635.229	9975.84
635.583	9869.63
635.937	9891.1
636.291	9930.64
636.645	9914.15
636.999	9901.04
637.352	9867.37
637.706	9860.14
638.06	9914.6
638.413	9874.37
638.767	9828.72
639.121	9856.75
639.474	9759.57
639.828	9832.11
640.181	9861.72
640.534	9820.59
640.888	9781.04
641.241	9728.84
641.594	9836.18
641.947	9816.07
642.301	9805.45
642.654	9767.03
643.007	9854.26
643.36	9814.94
643.713	9739.91
644.066	9863.07
644.419	9742.17
644.771	9677.32
645.124	9671.89
645.477	9658.56
645.83	9518.22
646.182	9602.97
646.535	9496.76
646.888	9483.87
647.24	9480.26
647.593	9535.17
647.945	9520.94
648.298	9475.74
648.65	9446.81
649.002	9452.24
649.355	9499.92
649.707	9488.62
650.059	9526.59
650.411	9620.82
650.763	9605.23
651.115	9708.95
651.467	9693.59
651.819	9704.66
652.171	9704.89
652.523	9659.92
652.875	9665.57
653.227	9708.05
653.578	9746.47
653.93	9708.73
654.282	9665.57
654.633	9599.13
654.985	9682.97
655.337	9666.92
655.688	9590.09
656.039	9757.77
656.391	9578.11
656.742	9635.74
657.094	9651.78
657.445	9637.77
657.796	9668.95
658.147	9639.58
658.498	9697.2
658.849	9719.57
659.2	9648.39
659.551	9661.05
659.902	9678.22
660.253	9705.56
660.604	9647.71
660.955	9654.27
661.306	9691.1
661.656	9654.04
662.007	9647.03
662.358	9659.69
662.708	9640.71
663.059	9622.63
663.409	9636.64
663.76	9645.45
664.11	9635.51
664.461	9696.3
664.811	9693.36
665.161	9686.36
665.511	9619.69
665.862	9590.99
666.212	9705.11
666.562	9608.17
666.912	9657.2
667.262	9655.17
667.612	9613.82
667.962	9656.75
668.312	9649.52
668.662	9687.26
669.011	9685.9
669.361	9652.01
669.711	9629.41
670.06	9618.33
670.41	9631.44
670.76	9553.93
671.109	9615.85
671.459	9583.08
671.808	9602.97
672.157	9594.15
672.507	9536.3
672.856	9553.7
673.205	9603.87
673.554	9597.54
673.904	9535.62
674.253	9635.06
674.602	9525.68
674.951	9424.44
675.3	9394.61
675.649	9506.93
675.998	9578.11
676.346	9498.56
676.695	9496.76
677.044	9449.75
677.393	9592.8
677.741	9478.68
678.09	9441.16
678.438	9449.98
678.787	9493.14
679.135	9454.95
679.484	9420.83
679.832	9478.45
680.181	9383.31
680.529	9455.4
680.877	9384.67
681.225	9435.29
681.573	9485.23
681.922	9412.01
682.27	9366.82
682.618	9341.51
682.966	9302.64
683.314	9346.7
683.661	9262.41
684.009	9242.53
684.357	9308.74
684.705	9220.83
685.053	9192.13
685.4	9214.05
685.748	9166.14
686.095	9149.42
686.443	9153.04
686.79	9105.35
687.138	9138.8
687.485	9129.76
687.832	9096.77
688.18	9118.46
688.527	9015.86
688.874	9058.12
689.221	9036.88
689.568	8962.53
689.915	8942.19
690.262	8980.84
690.609	8926.15
690.956	8944.45
691.303	8855.19
691.65	8830.33
691.997	8876.43
692.344	8802.76
692.69	8825.59
693.037	8802.99
693.383	8702.88
693.73	8669.21
694.077	8709.21
694.423	8668.3
694.769	8608.19
695.116	8642.54
695.462	8595.76
695.808	8586.27
696.155	8584.46
696.501	8491.13
696.847	8520.06
697.193	8475.09
697.539	8502.43
697.885	8401.87
698.231	8388.08
698.577	8393.73
698.923	8398.71
699.269	8303.34
699.614	8303.57
699.96	8245.94
700.306	8247.98
700.651	8260.63
700.997	8211.59
701.342	8186.73
701.688	8180.18
702.033	8137.24
702.379	8093.18
702.724	8130.46
703.069	8116.91
703.415	8029.22
703.76	8064.48
704.105	8093.4
704.45	7982.67
704.795	7934.99
705.14	7962.11
705.485	7976.8
705.83	7903.58
706.175	7974.99
706.52	7839.62
706.865	7851.6
707.209	7818.16
707.554	7806.63
707.899	7833.97
708.243	7786.29
708.588	7761.43
708.932	7671.27
709.277	7693.64
709.621	7739.06
709.966	7659.74
710.31	7670.14
710.654	7650.25
710.998	7637.82
711.342	7692.74
711.687	7598.27
712.031	7593.3
712.375	7573.64
712.719	7576.81
713.063	7521.89
713.407	7558.28
713.75	7596.24
714.094	7522.57
714.438	7518.73
714.782	7493.87
715.125	7520.08
715.469	7512.4
715.812	7472.85
716.156	7393.08
716.499	7454.55
716.843	7503.81
717.186	7398.73
717.53	7479.63
717.873	7407.09
718.216	7414.1
718.559	7388.79
718.902	7241.22
719.246	7395.34
719.589	7397.83
719.932	7329.58
720.275	7289.81
720.617	7273.31
720.96	7279.64
721.303	7277.83
721.646	7379.3
721.989	7234.67
722.331	7250.94
722.674	7305.63
723.016	7304.05
723.359	7234.22
723.701	7308.56
724.044	7182.92
724.386	7141.11
724.729	7300.2
725.071	7228.79
725.413	7222.24
725.755	7214.56
726.097	7215.46
726.439	7158.51
726.782	7188.12
727.124	7194.22
727.465	7184.05
727.807	7125.74
728.149	7163.71
728.491	7148.34
728.833	7172.75
729.175	7143.37
729.516	7070.61
729.858	7129.81
730.199	7161.68
730.541	7148.8
730.882	7169.81
731.224	7113.54
731.565	7125.97
731.906	7118.74
732.248	7145.18
732.589	7133.88
732.93	7076.93
733.271	7093.2
733.612	7120.77
733.953	7116.48
734.294	7135.24
734.635	7072.64
734.976	7170.04
735.317	7093.88
735.658	7079.64
735.999	7123.71
736.339	7071.73
736.68	7093.43
737.021	7099.3
737.361	7032.87
737.702	7125.29
738.042	7091.62
738.383	7081.45
738.723	7144.28
739.063	7105.86
739.404	7058.63
739.744	7099.76
740.084	7068.35
740.424	7044.84
740.764	7021.57
741.104	7081.23
741.444	7050.27
741.784	7060.44
742.124	7077.84
742.464	7038.06
742.804	7032.64
743.143	7037.61
743.483	7026.76
743.823	7013.88
744.162	7058.85
744.502	7059.53
744.841	7000.78
745.181	7023.6
745.52	7059.98
745.86	7038.52
746.199	7006.2
746.538	7017.73
746.877	7081.9
747.216	7027.67
747.556	6994.9
747.895	7053.88
748.234	7023.83
748.573	6966.2
748.911	7005.3
749.25	7022.47
749.589	7009.14
749.928	6969.59
750.267	7023.6
750.605	6943.38
750.944	6939.31
751.283	6868.12
751.621	6982.25
751.96	6938.18
752.298	6984.05
752.636	6959.2
752.975	6893.66
753.313	6902.47
753.651	6916.03
753.989	6939.54
754.327	6864.28
754.666	6827.9
755.004	6902.93
755.342	6918.07
755.679	6820.22
756.017	6818.86
756.355	6857.73
756.693	6841.23
757.031	6816.83
757.368	6814.11
757.706	6797.17
758.044	6765.08
758.381	6753.1
758.719	6719.65
759.056	6721.01
759.394	6737.51
759.731	6717.62
760.068	6695.25
760.405	6696.38
760.743	6667
761.08	6682.37
761.417	6612.76
761.754	6624.97
762.091	6587.68
762.428	6599.43
762.765	6569.15
763.102	6627
763.438	6566.44
763.775	6555.82
764.112	6533.67
764.449	6502.03
764.785	6487.12
765.122	6469.49
765.458	6439.66
765.795	6443.5
766.131	6445.54
766.467	6364.18
766.804	6401.24
767.14	6369.61
767.476	6341.36
767.812	6287.57
768.148	6347.23
768.485	6295.48
768.821	6243.28
769.157	6218.88
769.492	6191.98
769.828	6262.04
