Data from mousepad_grey_FLMS001491_00021.txt Node
Date: Wed Feb 08 14:29:11 GMT 2017
User: dcchb
Spectrometer: FLMS00149
Trigger mode: 0
Integration Time (sec): 2.000000E-2
Scans to average: 10
Electric dark correction enabled: true
Nonlinearity correction enabled: false
Boxcar width: 0
XAxis mode: Wavelengths
Number of Pixels in Spectrum: 2048
>>>>>Begin Spectral Data<<<<<
341.393	-0.85
341.776	-0.85
342.16	-0.85
342.543	-78.36
342.927	-80.85
343.31	-70
343.693	-69.09
344.077	-64.35
344.46	-57.34
344.843	-49.43
345.226	-31.58
345.61	-24.58
345.993	-36.1
346.376	-11.47
346.759	33.5
347.142	25.37
347.525	37.57
347.908	63.33
348.291	64.69
348.674	75.76
349.057	113.73
349.44	124.8
349.823	131.58
350.206	149.43
350.588	193.05
350.971	201.86
351.354	206.83
351.737	213.84
352.119	210.9
352.502	255.64
352.884	278.47
353.267	274.17
353.65	262.42
354.032	290.9
354.414	283.66
354.797	313.04
355.179	313.04
355.562	281.18
355.944	299.03
356.326	315.98
356.709	325.02
357.091	336.09
357.473	335.64
357.855	312.82
358.238	340.61
358.62	341.29
359.002	327.28
359.384	319.37
359.766	311.46
360.148	336.32
360.53	314.62
360.912	332.7
361.294	324.57
361.676	311.91
362.057	307.39
362.439	306.26
362.821	297
363.203	294.74
363.584	319.14
363.966	299.94
364.348	309.2
364.729	289.54
365.111	306.49
365.493	283.89
365.874	299.94
366.256	306.04
366.637	314.62
367.019	284.57
367.4	295.19
367.781	287.51
368.163	311.01
368.544	302.87
368.925	283.21
369.306	310.56
369.688	283.89
370.069	273.95
370.45	299.71
370.831	302.65
371.212	281.18
371.593	311.01
371.974	286.83
372.355	286.38
372.736	293.83
373.117	284.57
373.498	299.48
373.879	297.9
374.26	275.76
374.641	298.35
375.021	296.09
375.402	311.01
375.783	286.15
376.163	302.42
376.544	297.22
376.925	309.2
377.305	294.96
377.686	309.65
378.066	309.65
378.447	322.08
378.827	294.74
379.208	287.28
379.588	308.75
379.968	320.95
380.349	323.21
380.729	300.84
381.109	314.17
381.489	307.39
381.87	308.75
382.25	326.38
382.63	318.47
383.01	313.49
383.39	302.87
383.77	315.53
384.15	337.67
384.53	335.41
384.91	323.44
385.29	332.25
385.67	333.83
386.049	329.77
386.429	306.49
386.809	320.95
387.189	334.06
387.568	327.05
387.948	344.68
388.328	336.77
388.707	312.59
389.087	335.19
389.466	322.76
389.846	353.49
390.225	329.31
390.605	333.16
390.984	352.36
391.363	367.73
391.743	345.81
392.122	370.44
392.501	350.1
392.881	344.45
393.26	343.32
393.639	354.85
394.018	351.91
394.397	357.56
394.776	348.52
395.155	339.71
395.534	361.4
395.913	364.57
396.292	351.46
396.671	364.34
397.05	354.85
397.429	362.08
397.808	357.11
398.186	362.31
398.565	358.47
398.944	361.18
399.323	376.77
399.701	370.67
400.08	353.49
400.458	374.74
400.837	387.39
401.215	386.94
401.594	365.7
401.972	371.8
402.351	377.22
402.729	383.55
403.107	372.02
403.486	371.57
403.864	393.49
404.242	395.3
404.62	393.72
404.999	403.44
405.377	398.46
405.755	399.82
406.133	391.46
406.511	390.78
406.889	394.62
407.267	405.92
407.645	417.22
408.023	433.49
408.401	423.1
408.779	422.87
409.156	417.67
409.534	426.26
409.912	428.07
410.29	424.68
410.667	440.95
411.045	451.34
411.422	434.62
411.8	442.3
412.178	446.6
412.555	447.73
412.933	463.77
413.31	458.35
413.687	465.58
414.065	468.52
414.442	473.49
414.819	480.5
415.197	456.77
415.574	488.63
415.951	476.2
416.328	480.04
416.705	472.81
417.082	480.72
417.46	496.77
417.837	489.99
418.214	471.23
418.591	487.05
418.967	490.21
419.344	497.44
419.721	487.28
420.098	498.12
420.475	509.2
420.852	480.95
421.228	516.88
421.605	494.05
421.982	501.51
422.358	520.49
422.735	532.7
423.111	510.33
423.488	518.46
423.864	507.84
424.241	526.37
424.617	554.39
424.994	529.76
425.37	542.87
425.746	559.59
426.123	543.77
426.499	538.35
426.875	556.2
427.251	550.78
427.627	566.37
428.003	557.1
428.379	560.27
428.756	566.82
429.132	577.22
429.507	596.88
429.883	575.18
430.259	586.48
430.635	600.27
431.011	596.42
431.387	619.02
431.763	604.56
432.138	619.25
432.514	590.1
432.89	616.76
433.265	628.97
433.641	633.03
434.016	640.27
434.392	652.24
434.767	654.5
435.143	666.03
435.518	648.4
435.894	644.11
436.269	676.65
436.644	668.06
437.02	670.32
437.395	688.63
437.77	696.08
438.145	704.9
438.52	705.35
438.895	712.58
439.271	721.39
439.646	720.04
440.021	713.94
440.395	714.84
440.77	725.91
441.145	719.13
441.52	731.11
441.895	718.23
442.27	718.68
442.645	742.86
443.019	749.64
443.394	749.42
443.769	729.75
444.143	731.79
444.518	765.91
444.892	751.9
445.267	767.49
445.641	780.83
446.016	786.93
446.39	808.4
446.764	816.76
447.139	793.93
447.513	790.77
447.887	802.07
448.262	802.3
448.636	802.07
449.01	824.89
449.384	817.89
449.758	823.09
450.132	828.51
450.506	845.23
450.88	857.89
451.254	846.81
451.628	852.46
452.002	856.53
452.376	860.37
452.75	871.22
453.123	889.98
453.497	876.42
453.871	896.76
454.244	873.48
454.618	889.75
454.992	910.54
455.365	927.72
455.739	950.99
456.112	961.61
456.486	955.74
456.859	948.28
457.232	965.23
457.606	940.37
457.979	983.76
458.352	962.29
458.725	992.35
459.099	1000.71
459.472	1007.26
459.845	1010.65
460.218	1033.25
460.591	1024.21
460.964	1041.61
461.337	1061.27
461.71	1078.22
462.083	1085
462.456	1072.8
462.829	1107.15
463.201	1085.9
463.574	1100.59
463.947	1118.45
464.32	1148.5
464.692	1139.01
465.065	1163.87
465.438	1158.9
465.81	1175.62
466.183	1190.31
466.555	1223.3
466.928	1205.45
467.3	1241.38
467.672	1240.48
468.045	1249.97
468.417	1260.59
468.789	1244.54
469.161	1290.64
469.534	1309.85
469.906	1334.03
470.278	1362.73
470.65	1335.39
471.022	1354.6
471.394	1368.61
471.766	1389.62
472.138	1390.3
472.51	1434.37
472.882	1456.29
473.253	1454.26
473.625	1472.11
473.997	1496.51
474.369	1516.17
474.74	1522.95
475.112	1563.41
475.484	1557.53
475.855	1591.43
476.227	1589.85
476.598	1623.29
476.97	1657.87
477.341	1698.09
477.713	1707.58
478.084	1737.41
478.455	1732.21
478.827	1748.03
479.198	1772.44
479.569	1796.62
479.94	1814.25
480.311	1866.67
480.682	1894.02
481.053	1935.6
481.424	1957.29
481.795	1951.87
482.166	1955.26
482.537	2016.73
482.908	2023.28
483.279	2090.85
483.65	2099.21
484.021	2132.2
484.391	2116.84
484.762	2157.51
485.133	2211.07
485.503	2209.04
485.874	2274.57
486.244	2269.38
486.615	2314.35
486.985	2312.54
487.356	2369.94
487.726	2369.49
488.097	2453.1
488.467	2446.77
488.837	2466.66
489.207	2501.01
489.578	2500.56
489.948	2507.11
490.318	2604.06
490.688	2587.33
491.058	2616.94
491.428	2663.04
491.798	2659.65
492.168	2726.31
492.538	2742.81
492.908	2762.47
493.278	2800.66
493.648	2752.07
494.017	2833.43
494.387	2845.63
494.757	2868.23
495.126	2920.66
495.496	2905.52
495.866	2929.7
496.235	2974.44
496.605	2978.96
496.974	2991.62
497.344	3014.21
497.713	3068
498.082	3075.91
498.452	3099.64
498.821	3087.43
499.19	3152.06
499.559	3169.46
499.928	3167.43
500.298	3205.85
500.667	3195.23
501.036	3230.03
501.405	3251.72
501.774	3257.6
502.143	3299.4
502.512	3302.79
502.88	3313.42
503.249	3311.61
503.618	3359.74
503.987	3374.43
504.356	3366.75
504.724	3366.52
505.093	3424.6
505.462	3430.93
505.83	3460.76
506.199	3478.61
506.567	3507.76
506.936	3545.73
507.304	3572.17
507.672	3573.97
508.041	3585.05
508.409	3613.52
508.777	3679.06
509.145	3703.24
509.514	3650.36
509.882	3694.42
510.25	3718.6
510.618	3754.08
510.986	3757.92
511.354	3838.6
511.722	3822.33
512.09	3800.63
512.458	3825.94
512.826	3863.91
513.193	3916.79
513.561	3930.35
513.929	3945.04
514.297	3978.03
514.664	3995.43
515.032	4038.37
515.4	4032.49
515.767	4048.09
516.135	4076.79
516.502	4025.94
516.869	4133.96
517.237	4179.16
517.604	4150.68
517.972	4206.5
518.339	4162.21
518.706	4217.12
519.073	4213.05
519.44	4260.51
519.808	4352.48
520.175	4328.76
520.542	4402.2
520.909	4385.93
521.276	4391.35
521.643	4415.76
522.009	4496.44
522.376	4476.55
522.743	4484.91
523.11	4564.68
523.477	4575.98
523.843	4611.69
524.21	4684.68
524.577	4752.25
524.943	4675.64
525.31	4713.83
525.676	4738.46
526.043	4820.49
526.409	4850.78
526.776	4853.71
527.142	4903.2
527.508	4919.48
527.874	4954.73
528.241	4982.07
528.607	4978.23
528.973	5029.53
529.339	5044.22
529.705	5107.27
530.071	5118.79
530.437	5115.18
530.803	5127.15
531.169	5205.8
531.535	5248.73
531.901	5247.15
532.267	5258.9
532.632	5269.52
532.998	5300.03
533.364	5348.84
533.73	5375.06
534.095	5408.95
534.461	5415.06
534.826	5462.06
535.192	5487.82
535.557	5516.75
535.923	5478.56
536.288	5502.96
536.653	5563.75
537.019	5565.79
537.384	5625.9
537.749	5660.25
538.114	5685.56
538.479	5648.72
538.845	5695.27
539.21	5716.74
539.575	5722.62
539.94	5815.27
540.305	5776.85
540.67	5767.59
541.034	5867.47
541.399	5868.38
541.764	5894.36
542.129	5900.92
542.494	5930.52
542.858	5970.75
543.223	5925.1
543.587	6008.94
543.952	5983.4
544.316	6014.14
544.681	6049.61
545.045	6082.16
545.41	6102.49
545.774	6142.49
546.138	6124.19
546.503	6161.48
546.867	6189.5
547.231	6229.05
547.595	6266.78
547.959	6264.07
548.324	6251.64
548.688	6305.65
549.052	6388.36
549.416	6339.1
549.779	6311.98
550.143	6392.2
550.507	6423.16
550.871	6445.99
551.235	6463.39
551.599	6474.24
551.962	6484.86
552.326	6528.25
552.689	6521.01
553.053	6557.4
553.417	6553.33
553.78	6695.25
554.143	6643.05
554.507	6662.71
554.87	6703.16
555.234	6748.81
555.597	6714.91
555.96	6751.97
556.323	6863.6
556.686	6811.63
557.05	6843.72
557.413	6862.47
557.776	6845.98
558.139	6992.64
558.502	6951.74
558.865	7016.14
559.228	7026.54
559.59	7002.36
559.953	7072.86
560.316	7132.75
560.679	7140.43
561.041	7120.55
561.404	7223.6
561.767	7239.87
562.129	7222.24
562.492	7244.61
562.854	7326.64
563.217	7297.04
563.579	7330.71
563.941	7402.8
564.304	7456.13
564.666	7457.94
565.028	7441.67
565.39	7555.79
565.753	7566.86
566.115	7563.02
566.477	7656.58
566.839	7593.3
567.201	7655.45
567.563	7669.46
567.925	7807.53
568.287	7744.94
568.648	7739.74
569.01	7824.26
569.372	7874.2
569.734	7771.15
570.095	7912.16
570.457	7957.14
570.819	7920.75
571.18	7972.5
571.542	8002.33
571.903	8031.71
572.265	8025.61
572.626	8061.09
572.987	8126.4
573.349	8133.4
573.71	8120.07
574.071	8155.55
574.432	8245.26
574.794	8259.5
575.155	8260.86
575.516	8238.26
575.877	8258.37
576.238	8272.83
576.599	8293.4
576.96	8339.72
577.32	8282.32
577.681	8373.85
578.042	8388.76
578.403	8405.94
578.763	8428.76
579.124	8455.2
579.485	8446.39
579.845	8506.73
580.206	8448.42
580.566	8456.33
580.927	8453.85
581.287	8527.06
581.648	8442.09
582.008	8512.6
582.368	8539.72
582.728	8513.05
583.089	8503.34
583.449	8497.23
583.809	8568.64
584.169	8579.04
584.529	8520.06
584.889	8603.22
585.249	8551.7
585.609	8544.01
585.969	8675.31
586.329	8614.29
586.688	8622.88
587.048	8551.7
587.408	8573.16
587.768	8620.62
588.127	8616.33
588.487	8555.31
588.846	8610.45
589.206	8571.13
589.565	8590.79
589.925	8585.59
590.284	8604.12
590.643	8570.23
591.003	8650
591.362	8668.76
591.721	8661.07
592.08	8665.82
592.44	8698.36
592.799	8677.12
593.158	8650
593.517	8648.87
593.876	8699.26
594.235	8657.23
594.593	8702.88
594.952	8666.27
595.311	8653.84
595.67	8705.82
596.029	8716.66
596.387	8711.01
596.746	8746.72
597.104	8685.03
597.463	8706.49
597.822	8730.22
598.18	8698.58
598.538	8680.28
598.897	8802.31
599.255	8685.03
599.613	8755.08
599.972	8788.53
600.33	8752.59
600.688	8729.54
601.046	8726.15
601.404	8757.11
601.762	8853.61
602.12	8830.56
602.478	8765.25
602.836	8775.87
603.194	8742.2
603.552	8806.83
603.91	8750.79
604.268	8782.88
604.625	8785.14
604.983	8784.46
605.341	8771.35
605.698	8849.77
606.056	8837.34
606.413	8830.11
606.771	8851.12
607.128	8855.42
607.485	8768.41
607.843	8809.99
608.2	8941.52
608.557	8965.47
608.914	8801.18
609.272	8895.19
609.629	8918.92
609.986	8923.66
610.343	8904.68
610.7	8992.36
611.057	8896.77
611.414	8919.14
611.771	9000.27
612.127	8960.72
612.484	9006.37
612.841	8998.01
613.198	8986.26
613.554	8945.81
613.911	9070.1
614.267	8986.94
614.624	9016.32
614.98	9044.34
615.337	9065.81
615.693	9048.41
616.05	9044.11
616.406	9074.17
616.762	9069.87
617.118	9104.22
617.475	9053.38
617.831	9104.9
618.187	9088.63
618.543	9145.35
618.899	9161.17
619.255	9165.01
619.611	9125.47
619.967	9158.46
620.323	9193.04
620.678	9129.31
621.034	9118.23
621.39	9108.97
621.746	9142.64
622.101	9238.01
622.457	9102.19
622.812	9157.33
623.168	9167.05
623.523	9200.27
623.879	9270.55
624.234	9198.68
624.589	9238.46
624.945	9182.64
625.3	9214.73
625.655	9208.63
626.01	9160.72
626.365	9208.63
626.72	9207.72
627.075	9204.33
627.43	9135.64
627.785	9188.97
628.14	9224.22
628.495	9208.18
628.85	9161.4
629.205	9188.97
629.559	9195.52
629.914	9129.31
630.269	9205.69
630.623	9170.66
630.978	9110.78
631.332	9199.81
631.687	9207.27
632.041	9147.84
632.396	9181.96
632.75	9129.53
633.104	9150.78
633.459	9105.81
633.813	9078.46
634.167	9086.6
634.521	9141.96
634.875	9139.48
635.229	9104.68
635.583	8993.04
635.937	9100.38
636.291	9105.13
636.645	9079.14
636.999	9062.87
637.352	9098.57
637.706	8962.08
638.06	9094.05
638.413	9035.75
638.767	8962.08
639.121	9015.86
639.474	8959.37
639.828	8936.32
640.181	9013.38
640.534	8997.33
640.888	8948.3
641.241	8951.91
641.594	8951.23
641.947	9020.38
642.301	8985.58
642.654	8998.24
643.007	8965.24
643.36	8950.56
643.713	8984.9
644.066	8974.28
644.419	8876.89
644.771	8899.71
645.124	8784.23
645.477	8707.62
645.83	8710.34
646.182	8706.27
646.535	8659.26
646.888	8672.82
647.24	8630.79
647.593	8695.42
647.945	8746.27
648.298	8593.28
648.65	8618.81
649.002	8577.01
649.355	8713.05
649.707	8610.23
650.059	8722.31
650.411	8835.98
650.763	8779.94
651.115	8890.9
651.467	8909.88
651.819	8885.7
652.171	8858.58
652.523	8826.27
652.875	8834.4
653.227	8814.97
653.578	8932.7
653.93	8837.56
654.282	8798.92
654.633	8840.5
654.985	8793.05
655.337	8840.5
655.688	8869.2
656.039	8922.31
656.391	8772.48
656.742	8798.7
657.094	8870.33
657.445	8881.63
657.796	8809.54
658.147	8801.63
658.498	8777.9
658.849	8843.21
659.2	8819.49
659.551	8795.31
659.902	8866.04
660.253	8867.62
660.604	8866.04
660.955	8733.16
661.306	8836.66
661.656	8827.4
662.007	8821.75
662.358	8857.68
662.708	8849.32
663.059	8821.52
663.409	8792.37
663.76	8819.71
664.11	8821.75
664.461	8878.92
664.811	8842.31
665.161	8856.55
665.511	8791.24
665.862	8806.6
666.212	8848.86
666.562	8842.08
666.912	8877.34
667.262	8814.06
667.612	8780.62
667.962	8819.94
668.312	8819.03
668.662	8889.31
669.011	8841.63
669.361	8781.07
669.711	8782.2
670.06	8773.39
670.41	8735.42
670.76	8779.71
671.109	8777.45
671.459	8785.59
671.808	8772.48
672.157	8798.7
672.507	8694.52
672.856	8670.56
673.205	8690
673.554	8795.76
673.904	8749.66
674.253	8797.79
674.602	8786.49
674.951	8642.09
675.3	8538.14
675.649	8757.34
675.998	8693.61
676.346	8678.47
676.695	8741.52
677.044	8670.11
677.393	8675.99
677.741	8699.04
678.09	8672.37
678.438	8537.91
678.787	8659.26
679.135	8713.5
679.484	8588.31
679.832	8658.36
680.181	8577.68
680.529	8680.73
680.877	8574.97
681.225	8582.88
681.573	8591.47
681.922	8524.35
682.27	8501.75
682.618	8535.43
682.966	8519.38
683.314	8541.98
683.661	8511.92
684.009	8412.72
684.357	8410.68
684.705	8382.21
685.053	8429.89
685.4	8403
685.748	8378.14
686.095	8376.56
686.443	8314.41
686.79	8327.97
687.138	8357.12
687.485	8339.27
687.832	8301.08
688.18	8287.07
688.527	8277.58
688.874	8272.61
689.221	8236.45
689.568	8256.56
689.915	8212.04
690.262	8195.1
690.609	8186.96
690.956	8101.99
691.303	8113.74
691.65	8101.54
691.997	8076.91
692.344	8032.39
692.69	7991.26
693.037	7949.68
693.383	7996.68
693.73	7951.49
694.077	7888.21
694.423	7945.16
694.769	7889.57
695.116	7863.35
695.462	7845.5
695.808	7808.21
696.155	7816.12
696.501	7767.99
696.847	7728.67
697.193	7723.92
697.539	7801.89
697.885	7750.59
698.231	7612.96
698.577	7657.93
698.923	7566.41
699.269	7575.45
699.614	7524.6
699.96	7596.24
700.306	7499.97
700.651	7487.54
700.997	7452.06
701.342	7471.05
701.688	7406.42
702.033	7473.31
702.379	7376.13
702.724	7391.5
703.069	7351.95
703.415	7266.76
703.76	7285.06
704.105	7301.79
704.45	7239.19
704.795	7234.22
705.14	7238.28
705.485	7154.9
705.83	7178.4
706.175	7173.43
706.52	7144.05
706.865	7073.32
707.209	7185.86
707.554	7105.86
707.899	7104.95
708.243	7051.62
708.588	7029.02
708.932	7021.79
709.277	7001.23
709.621	6983.38
709.966	6952.64
710.31	6906.09
710.654	6911.29
710.998	6950.38
711.342	6927.56
711.687	6904.28
712.031	6876.26
712.375	6815.02
712.719	6896.82
713.063	6821.35
713.407	6838.07
713.75	6826.32
714.094	6803.49
714.438	6768.47
714.782	6808.24
715.125	6709.26
715.469	6805.75
715.812	6751.97
716.156	6736.6
716.499	6762.36
716.843	6728.24
717.186	6700.9
717.53	6732.99
717.873	6736.83
718.216	6720.56
718.559	6757.84
718.902	6629.71
719.246	6686.21
719.589	6632.65
719.932	6636.27
720.275	6653.67
720.617	6639.66
720.96	6662.93
721.303	6652.99
721.646	6653.21
721.989	6601.92
722.331	6634.01
722.674	6627
723.016	6624.29
723.359	6642.82
723.701	6636.04
724.044	6605.08
724.386	6528.92
724.729	6603.27
725.071	6578.41
725.413	6564.86
725.755	6566.89
726.097	6526.44
726.439	6516.04
726.782	6574.35
727.124	6554.01
727.465	6538.42
727.807	6502.94
728.149	6519.43
728.491	6515.59
728.833	6532.09
729.175	6482.15
729.516	6506.55
729.858	6518.3
730.199	6585.19
730.541	6535.7
730.882	6466.55
731.224	6564.86
731.565	6534.8
731.906	6516.04
732.248	6481.02
732.589	6494.35
732.93	6481.92
733.271	6467.46
733.612	6464.97
733.953	6494.8
734.294	6507.23
734.635	6481.69
734.976	6509.49
735.317	6465.42
735.658	6499.09
735.999	6457.06
736.339	6452.99
736.68	6495.48
737.021	6510.17
737.361	6422.26
737.702	6496.16
738.042	6468.81
738.383	6475.59
738.723	6477.63
739.063	6467.68
739.404	6445.31
739.744	6448.93
740.084	6456.61
740.424	6425.42
740.764	6470.85
741.104	6509.72
741.444	6484.18
741.784	6389.94
742.124	6455.93
742.464	6443.95
742.804	6399.66
743.143	6433.56
743.483	6422.49
743.823	6397.4
744.162	6420.68
744.502	6445.76
744.841	6399.44
745.181	6443.95
745.52	6474.24
745.86	6493.45
746.199	6421.58
746.538	6447.57
746.877	6449.6
747.216	6466.1
747.556	6429.04
747.895	6460.9
748.234	6377.06
748.573	6430.4
748.911	6478.08
749.25	6399.89
749.589	6417.06
749.928	6392.66
750.267	6405.09
750.605	6401.47
750.944	6377.97
751.283	6384.52
751.621	6424.07
751.96	6341.81
752.298	6391.98
752.636	6379.78
752.975	6391.3
753.313	6298.2
753.651	6325.99
753.989	6294.13
754.327	6333.45
754.666	6316.05
755.004	6263.85
755.342	6322.15
755.679	6333.45
756.017	6291.87
756.355	6292.77
756.693	6250.97
757.031	6321.92
757.368	6218.65
757.706	6250.51
758.044	6181.36
758.381	6273.11
758.719	6219.78
759.056	6233.11
759.394	6176.17
759.731	6160.12
760.068	6149.05
760.405	6130.29
760.743	6145.66
761.08	6077.18
761.417	6147.69
761.754	6135.04
762.091	6037.41
762.428	6066.79
762.765	6061.37
763.102	6043.97
763.438	6043.74
763.775	5997.64
764.112	6034.93
764.449	5980.24
764.785	5979.56
765.122	5954.25
765.458	5912.67
765.795	5966.23
766.131	5908.6
766.467	5918.32
766.804	5863.18
767.14	5803.75
767.476	5801.03
767.812	5801.26
768.148	5839
768.485	5781.15
768.821	5761.49
769.157	5742.5
769.492	5749.51
769.828	5723.75
770.164	5665.9
770.5	5715.39
770.836	5667.7
771.171	5620.25
