Data from mousepad_grey_FLMS001491_00009.txt Node
Date: Wed Feb 08 14:28:55 GMT 2017
User: dcchb
Spectrometer: FLMS00149
Trigger mode: 0
Integration Time (sec): 2.000000E-2
Scans to average: 10
Electric dark correction enabled: true
Nonlinearity correction enabled: false
Boxcar width: 0
XAxis mode: Wavelengths
Number of Pixels in Spectrum: 2048
>>>>>Begin Spectral Data<<<<<
341.393	-4.24
341.776	-4.24
342.16	-4.24
342.543	-67.96
342.927	-64.57
343.31	-55.99
343.693	-62.77
344.077	-51.24
344.46	-72.26
344.843	-78.81
345.226	-30.23
345.61	-44.24
345.993	-31.58
346.376	2.09
346.759	24.91
347.142	38.7
347.525	45.48
347.908	46.61
348.291	78.47
348.674	90
349.057	100.84
349.44	130.45
349.823	147.85
350.206	151.01
350.588	183.78
350.971	177.68
351.354	215.42
351.737	211.8
352.119	239.37
352.502	234.85
352.884	249.99
353.267	252.93
353.65	275.08
354.032	279.37
354.414	290.44
354.797	302.2
355.179	295.64
355.562	285.92
355.944	299.71
356.326	297
356.709	311.91
357.091	319.82
357.473	331.35
357.855	329.99
358.238	325.47
358.62	324.12
359.002	318.24
359.384	332.25
359.766	311.23
360.148	315.53
360.53	335.19
360.912	311.91
361.294	318.01
361.676	294.74
362.057	312.82
362.439	301.07
362.821	297
363.203	297
363.584	318.69
363.966	331.35
364.348	284.57
364.729	315.53
365.111	291.35
365.493	284.57
365.874	302.42
366.256	284.34
366.637	303.1
367.019	289.31
367.4	298.81
367.781	291.12
368.163	302.2
368.544	298.35
368.925	280.5
369.306	303.1
369.688	277.34
370.069	287.73
370.45	278.92
370.831	279.6
371.212	295.19
371.593	274.4
371.974	297.45
372.355	290.22
372.736	284.57
373.117	286.15
373.498	297.68
373.879	282.08
374.26	264.91
374.641	291.8
375.021	284.79
375.402	310.56
375.783	298.35
376.163	299.03
376.544	298.58
376.925	296.09
377.305	296.32
377.686	301.07
378.066	312.14
378.447	315.98
378.827	317.11
379.208	310.1
379.588	303.55
379.968	319.14
380.349	297.68
380.729	289.77
381.109	315.3
381.489	317.79
381.87	332.03
382.25	302.65
382.63	326.38
383.01	325.02
383.39	310.56
383.77	331.35
384.15	322.53
384.53	308.07
384.91	316.66
385.29	324.57
385.67	318.24
386.049	318.92
386.429	313.04
386.809	334.74
387.189	335.19
387.568	327.05
387.948	310.78
388.328	318.47
388.707	331.57
389.087	330.22
389.466	347.84
389.846	303.1
390.225	332.03
390.605	332.7
390.984	330.44
391.363	337.45
391.743	341.52
392.122	344
392.501	330.22
392.881	339.26
393.26	356.88
393.639	331.12
394.018	349.65
394.397	344
394.776	360.05
395.155	358.24
395.534	359.37
395.913	363.89
396.292	348.97
396.671	376.09
397.05	353.49
397.429	344
397.808	347.62
398.186	366.6
398.565	358.47
398.944	356.88
399.323	374.96
399.701	365.7
400.08	385.81
400.458	352.59
400.837	375.64
401.215	381.52
401.594	375.41
401.972	374.28
402.351	389.65
402.729	369.54
403.107	384.68
403.486	371.57
403.864	385.58
404.242	385.81
404.62	390.33
404.999	400.95
405.377	385.13
405.755	405.47
406.133	395.98
406.511	389.65
406.889	413.6
407.267	396.66
407.645	392.14
408.023	413.15
408.401	417.67
408.779	431.46
409.156	401.4
409.534	397.56
409.912	406.15
410.29	414.51
410.667	425.36
411.045	419.48
411.422	445.24
411.8	430.78
412.178	419.25
412.555	415.64
412.933	426.03
413.31	443.89
413.687	438.24
414.065	458.12
414.442	406.37
414.819	445.69
415.197	458.8
415.574	484.79
415.951	444.56
416.328	472.36
416.705	461.29
417.082	462.87
417.46	479.14
417.837	467.61
418.214	483.66
418.591	484.11
418.967	459.03
419.344	470.33
419.721	477.33
420.098	494.51
420.475	482.08
420.852	503.32
421.228	515.98
421.605	494.28
421.982	513.04
422.358	492.7
422.735	490.44
423.111	514.62
423.488	508.74
423.864	509.2
424.241	532.7
424.617	523.43
424.994	525.24
425.37	539.48
425.746	516.2
426.123	554.17
426.499	554.17
426.875	551.91
427.251	567.73
427.627	542.19
428.003	549.19
428.379	567.95
428.756	565.47
429.132	574.73
429.507	566.6
429.883	582.19
430.259	611.34
430.635	596.42
431.011	587.84
431.387	616.31
431.763	595.07
432.138	618.12
432.514	628.74
432.89	613.6
433.265	615.86
433.641	606.14
434.016	619.25
434.392	631
434.767	645.69
435.143	663.09
435.518	669.87
435.894	638.01
436.269	645.46
436.644	670.55
437.02	668.29
437.395	656.54
437.77	682.52
438.145	704.67
438.52	715.97
438.895	701.51
439.271	700.38
439.646	711
440.021	708.29
440.395	710.09
440.77	702.18
441.145	689.76
441.52	720.49
441.895	719.59
442.27	722.98
442.645	725.24
443.019	751
443.394	740.38
443.769	765.69
444.143	753.03
444.518	745.35
444.892	770.88
445.267	749.42
445.641	766.36
446.016	749.64
446.39	759.13
446.764	757.32
447.139	765.69
447.513	757.32
447.887	776.08
448.262	789.19
448.636	818.79
449.01	799.36
449.384	814.05
449.758	819.47
450.132	814.72
450.506	817.44
450.88	815.63
451.254	824.22
451.628	834.16
452.002	863.08
452.376	824.67
452.75	859.24
453.123	863.08
453.497	851.11
453.871	869.86
454.244	900.37
454.618	900.15
454.992	885
455.365	908.73
455.739	915.74
456.112	934.5
456.486	918
456.859	953.25
457.232	965.23
457.606	939.69
457.979	946.7
458.352	967.26
458.725	973.36
459.099	994.61
459.472	1001.61
459.845	1007.04
460.218	996.19
460.591	1034.61
460.964	1049.75
461.337	1036.87
461.71	1059.24
462.083	1074.15
462.456	1076.86
462.829	1094.04
463.201	1078.67
463.574	1098.56
463.947	1092.68
464.32	1132
464.692	1127.03
465.065	1132.68
465.438	1145.79
465.81	1186.92
466.183	1194.83
466.555	1200.7
466.928	1197.09
467.3	1190.08
467.672	1203.64
468.045	1243.64
468.417	1260.36
468.789	1253.36
469.161	1276.18
469.534	1270.53
469.906	1294.71
470.278	1302.17
470.65	1340.36
471.022	1332.9
471.394	1384.88
471.766	1379.46
472.138	1397.53
472.51	1411.09
472.882	1404.31
473.253	1437.53
473.625	1456.06
473.997	1463.75
474.369	1480.47
474.74	1483.18
475.112	1523.41
475.484	1562.73
475.855	1583.07
476.227	1586
476.598	1634.59
476.97	1633.01
477.341	1633.01
477.713	1685.21
478.084	1721.37
478.455	1730.41
478.827	1743.06
479.198	1775.6
479.569	1767.69
479.94	1828.48
480.311	1822.83
480.682	1856.73
481.053	1898.31
481.424	1921.59
481.795	1931.98
482.166	1951.87
482.537	2024.86
482.908	2015.37
483.279	2037.07
483.65	2076.39
484.021	2080.91
484.391	2157.51
484.762	2173.56
485.133	2157.97
485.503	2232.77
485.874	2249.04
486.244	2295.82
486.615	2289.49
486.985	2323.16
487.356	2354.34
487.726	2374.91
488.097	2408.13
488.467	2398.86
488.837	2487.67
489.207	2491.06
489.578	2530.39
489.948	2545.3
490.318	2592.3
490.688	2549.37
491.058	2571.06
491.428	2651.96
491.798	2667.11
492.168	2727.67
492.538	2691.29
492.908	2757.05
493.278	2760.89
493.648	2767.22
494.017	2821.23
494.387	2852.41
494.757	2869.36
495.126	2898.06
495.496	2865.29
495.866	2920.66
496.235	2960.88
496.605	2953.43
496.974	3004.95
497.344	3025.29
497.713	3017.83
498.082	3051.05
498.452	3098.28
498.821	3083.37
499.19	3104.16
499.559	3156.13
499.928	3153.19
500.298	3191.16
500.667	3195.9
501.036	3232.06
501.405	3207.88
501.774	3251.04
502.143	3314.77
502.512	3311.38
502.88	3320.65
503.249	3322.46
503.618	3366.07
503.987	3338.5
504.356	3383.92
504.724	3410.59
505.093	3438.84
505.462	3421.21
505.83	3444.71
506.199	3511.83
506.567	3566.74
506.936	3514.99
507.304	3548.66
507.672	3597.25
508.041	3598.83
508.409	3602
508.777	3681.77
509.145	3721.77
509.514	3689.9
509.882	3671.82
510.25	3718.83
510.618	3759.05
510.986	3787.98
511.354	3806.96
511.722	3833.18
512.09	3880.86
512.458	3858.94
512.826	3868.66
513.193	3936.22
513.561	3901.65
513.929	3943.68
514.297	3976.22
514.664	4010.35
515.032	4055.77
515.4	4053.06
515.767	4077.01
516.135	4073.85
516.502	4042.44
516.869	4147.29
517.237	4196.1
517.604	4148.42
517.972	4235.43
518.339	4283.56
518.706	4269.77
519.073	4270.68
519.44	4267.97
519.808	4384.57
520.175	4354.07
520.542	4355.65
520.909	4433.16
521.276	4453.05
521.643	4499.15
522.009	4479.03
522.376	4516.77
522.743	4536.66
523.11	4605.59
523.477	4620.95
523.843	4658.24
524.21	4684.68
524.577	4735.53
524.943	4778.91
525.31	4762.19
525.676	4842.19
526.043	4801.29
526.409	4891
526.776	4902.3
527.142	4916.99
527.508	4958.8
527.874	4980.72
528.241	5023.88
528.607	5059.36
528.973	5079.02
529.339	5045.8
529.705	5146.81
530.071	5138.23
530.437	5195.4
530.803	5237.88
531.169	5256.42
531.535	5216.87
531.901	5264.55
532.267	5301.61
532.632	5319.92
532.998	5316.98
533.364	5385.9
533.73	5384.32
534.095	5414.83
534.461	5453.92
534.826	5498.67
535.192	5565.11
535.557	5539.35
535.923	5564.43
536.288	5587.48
536.653	5639.46
537.019	5590.19
537.384	5629.06
537.749	5696.4
538.114	5712.45
538.479	5727.82
538.845	5738.44
539.21	5783.18
539.575	5730.3
539.94	5802.39
540.305	5839.9
540.67	5862.95
541.034	5864.31
541.399	5880.35
541.764	5940.01
542.129	5948.15
542.494	5985.21
542.858	6007.58
543.223	6030.41
543.587	6086.68
543.952	6050.29
544.316	6148.37
544.681	6118.99
545.045	6138.2
545.41	6135.94
545.774	6159.89
546.138	6189.95
546.503	6231.53
546.867	6227.24
547.231	6295.26
547.595	6264.52
547.959	6361.7
548.324	6294.35
548.688	6376.61
549.052	6374.58
549.416	6404.63
549.779	6410.51
550.143	6504.52
550.507	6505.65
550.871	6485.54
551.235	6512.43
551.599	6565.53
551.962	6624.29
552.326	6637.62
552.689	6650.96
553.053	6607.57
553.417	6660.45
553.78	6679.88
554.143	6744.51
554.507	6735.02
554.87	6837.39
555.234	6852.76
555.597	6774.57
555.96	6834
556.323	6909.25
556.686	6877.62
557.05	7023.37
557.413	6977.5
557.776	7003.71
558.139	7011.62
558.502	7020.21
558.865	7023.6
559.228	7168.91
559.59	7139.98
559.953	7194.9
560.316	7277.61
560.679	7258.17
561.041	7278.96
561.404	7298.17
561.767	7373.87
562.129	7290.26
562.492	7428.56
562.854	7436.47
563.217	7395.34
563.579	7459.07
563.941	7468.56
564.304	7559.63
564.666	7570.48
565.028	7615.68
565.39	7644.6
565.753	7650.02
566.115	7687.54
566.477	7727.08
566.839	7761.21
567.201	7814.99
567.563	7823.58
567.925	7874.65
568.287	7873.07
568.648	7876.23
569.01	7922.56
569.372	8003.69
569.734	7909
570.095	8000.75
570.457	8144.7
570.819	8060.18
571.18	8059.73
571.542	8150.58
571.903	8148.54
572.265	8197.13
572.626	8175.89
572.987	8249.56
573.349	8212.27
573.71	8271.03
574.071	8308.54
574.432	8350.35
574.794	8365.94
575.155	8352.83
575.516	8330.91
575.877	8408.87
576.238	8466.05
576.599	8410
576.96	8480.29
577.32	8435.09
577.681	8459.72
578.042	8418.37
578.403	8464.01
578.763	8531.13
579.124	8526.16
579.485	8623.11
579.845	8627.85
580.206	8547.18
580.566	8550.79
580.927	8571.36
581.287	8639.15
581.648	8612.49
582.008	8678.47
582.368	8662.65
582.728	8667.4
583.089	8686.38
583.449	8678.25
583.809	8669.66
584.169	8679.83
584.529	8719.83
584.889	8760.05
585.249	8672.6
585.609	8688.64
585.969	8818.36
586.329	8746.95
586.688	8720.73
587.048	8740.39
587.408	8675.53
587.768	8747.4
588.127	8740.84
588.487	8706.72
588.846	8791.24
589.206	8722.31
589.565	8719.6
589.925	8792.14
590.284	8716.66
590.643	8768.87
591.003	8687.51
591.362	8759.83
591.721	8789.88
592.08	8814.51
592.44	8819.71
592.799	8773.16
593.158	8814.29
593.517	8861.74
593.876	8848.64
594.235	8806.83
594.593	8826.04
594.952	8860.16
595.311	8736.1
595.67	8838.69
596.029	8889.77
596.387	8847.73
596.746	8904.68
597.104	8810.22
597.463	8861.07
597.822	8869.88
598.18	8851.12
598.538	8829.65
598.897	8851.58
599.255	8860.61
599.613	8935.19
599.972	8877.11
600.33	8897.68
600.688	8878.02
601.046	8951.01
601.404	8924.57
601.762	8845.93
602.12	8946.04
602.478	8978.35
602.836	9034.17
603.194	8883.21
603.552	8925.02
603.91	8908.07
604.268	8961.18
604.625	8991.46
604.983	9019.03
605.341	8984.9
605.698	8965.7
606.056	9003.44
606.413	9002.98
606.771	9025.13
607.128	8999.59
607.485	9065.35
607.843	8979.48
608.2	9111.23
608.557	9073.49
608.914	8988.07
609.272	9126.82
609.629	9087.73
609.986	9165.01
610.343	9080.04
610.7	9202.75
611.057	9198.01
611.414	9123.43
611.771	9085.02
612.127	9192.81
612.484	9142.41
612.841	9259.25
613.198	9164.34
613.554	9175.41
613.911	9192.36
614.267	9195.29
614.624	9252.02
614.98	9201.85
615.337	9234.62
615.693	9295.63
616.05	9260.38
616.406	9319.59
616.762	9314.61
617.118	9236.2
617.475	9229.87
617.831	9294.5
618.187	9240.72
618.543	9282.75
618.899	9384.22
619.255	9394.16
619.611	9363.65
619.967	9339.7
620.323	9349.87
620.678	9311.68
621.034	9380.15
621.39	9343.54
621.746	9343.09
622.101	9394.84
622.457	9362.3
622.812	9381.05
623.168	9351.68
623.523	9444.1
623.879	9453.59
624.234	9313.26
624.589	9414.95
624.945	9432.8
625.3	9443.2
625.655	9410.2
626.01	9462.41
626.365	9387.38
626.72	9393.03
627.075	9422.41
627.43	9441.16
627.785	9424.22
628.14	9397.32
628.495	9484.1
628.85	9406.59
629.205	9337.21
629.559	9416.53
629.914	9332.92
630.269	9454.95
630.623	9344.44
630.978	9371.34
631.332	9381.96
631.687	9405.23
632.041	9382.41
632.396	9413.82
632.75	9337.21
633.104	9362.75
633.459	9218.12
633.813	9356.87
634.167	9291.79
634.521	9372.01
634.875	9294.5
635.229	9359.36
635.583	9296.08
635.937	9288.17
636.291	9304.67
636.645	9233.71
636.999	9289.76
637.352	9298.12
637.706	9198.91
638.06	9279.59
638.413	9241.62
638.767	9184.9
639.121	9247.5
639.474	9225.35
639.828	9193.71
640.181	9238.01
640.534	9225.35
640.888	9211.34
641.241	9113.49
641.594	9199.59
641.947	9177.67
642.301	9156.2
642.654	9139.25
643.007	9160.72
643.36	9154.62
643.713	9132.02
644.066	9218.8
644.419	9158.69
644.771	9160.72
645.124	9021.06
645.477	9042.08
645.83	8920.73
646.182	8996.43
646.535	8854.06
646.888	8904.68
647.24	8847.28
647.593	8923.89
647.945	8956.66
648.298	8852.71
648.65	8777.68
649.002	8795.98
649.355	8901.52
649.707	8858.81
650.059	8863.78
650.411	8975.41
650.763	9023.77
651.115	9082.08
651.467	9061.51
651.819	9112.36
652.171	9069.2
652.523	9007.05
652.875	9068.07
653.227	9047.95
653.578	9079.59
653.93	9105.13
654.282	9021.74
654.633	8984.45
654.985	9069.2
655.337	9031.46
655.688	9045.69
656.039	9129.31
656.391	9024.23
656.742	8977.22
657.094	9047.5
657.445	9110.55
657.796	9027.16
658.147	9002.98
658.498	9029.42
658.849	9065.13
659.2	9051.34
659.551	8998.24
659.902	9086.15
660.253	8989.42
660.604	9104.9
660.955	9032.59
661.306	9041.85
661.656	9036.2
662.007	9047.5
662.358	9108.29
662.708	9012.47
663.059	8986.71
663.409	8966.83
663.76	9089.08
664.11	9077.33
664.461	9013.38
664.811	9012.25
665.161	9060.16
665.511	9099.25
665.862	9087.05
666.212	9060.38
666.562	9132.47
666.912	9062.87
667.262	9079.14
667.612	9063.1
667.962	9065.58
668.312	8958.92
668.662	9020.16
669.011	9010.44
669.361	9017.22
669.711	9009.54
670.06	9026.26
670.41	9022.87
670.76	9027.84
671.109	9020.38
671.459	9032.36
671.808	9017.45
672.157	8968.41
672.507	8935.87
672.856	8984.68
673.205	9015.41
673.554	8981.74
673.904	9014.73
674.253	8961.4
674.602	8978.58
674.951	8846.15
675.3	8770.67
675.649	8922.31
675.998	8895.19
676.346	8911.46
676.695	8943.1
677.044	8854.96
677.393	8905.36
677.741	8920.95
678.09	8884.12
678.438	8874.63
678.787	8851.8
679.135	8853.16
679.484	8904.23
679.832	8858.58
680.181	8872.82
680.529	8801.86
680.877	8731.58
681.225	8763.44
681.573	8824.91
681.922	8729.54
682.27	8777.68
682.618	8672.37
682.966	8763.67
683.314	8750.33
683.661	8664.46
684.009	8703.78
684.357	8670.11
684.705	8664.69
685.053	8608.87
685.4	8684.12
685.748	8572.26
686.095	8614.07
686.443	8545.37
686.79	8542.88
687.138	8489.55
687.485	8554.86
687.832	8571.36
688.18	8513.96
688.527	8459.95
688.874	8518.25
689.221	8505.14
689.568	8397.8
689.915	8446.16
690.262	8410
690.609	8363
690.956	8343.57
691.303	8258.14
691.65	8285.26
691.997	8263.57
692.344	8220.63
692.69	8279.16
693.037	8167.53
693.383	8198.94
693.73	8166.4
694.077	8097.92
694.423	8173.85
694.769	8075.55
695.116	8084.82
695.462	8058.6
695.808	8043.69
696.155	8030.13
696.501	8020.41
696.847	7959.85
697.193	7943.12
697.539	8005.5
697.885	7902.9
698.231	7901.32
698.577	7834.43
698.923	7890.02
699.269	7856.12
699.614	7721.89
699.96	7726.86
700.306	7748.33
700.651	7732.06
700.997	7729.12
701.342	7671.04
701.688	7671.72
702.033	7623.13
702.379	7608.9
702.724	7579.52
703.069	7635.56
703.415	7548.56
703.76	7581.33
704.105	7507.43
704.45	7485.74
704.795	7445.06
705.14	7428.11
705.485	7456.58
705.83	7406.19
706.175	7414.78
706.52	7400.77
706.865	7341.33
707.209	7286.19
707.554	7265.4
707.899	7345.17
708.243	7323.48
708.588	7323.71
708.932	7256.36
709.277	7224.05
709.621	7238.51
709.966	7189.7
710.31	7195.35
710.654	7158.06
710.998	7157.16
711.342	7191.28
711.687	7144.05
712.031	7088.23
712.375	7100.21
712.719	7039.65
713.063	7024.73
713.407	7057.95
713.75	7015.69
714.094	7005.75
714.438	7074.9
714.782	6990.83
715.125	6985.86
715.469	6981.34
715.812	6988.57
716.156	6946.31
716.499	6963.72
716.843	6946.77
717.186	6969.59
717.53	6942.47
717.873	6923.49
718.216	6930.95
718.559	6880.33
718.902	6837.39
719.246	6883.04
719.589	6888.69
719.932	6820.89
720.275	6864.51
720.617	6838.07
720.96	6869.25
721.303	6828.8
721.646	6842.36
721.989	6817.28
722.331	6825.19
722.674	6835.58
723.016	6810.72
723.359	6848.69
723.701	6850.72
724.044	6808.01
724.386	6744.96
724.729	6819.54
725.071	6788.13
725.413	6810.5
725.755	6775.25
726.097	6783.38
726.439	6746.77
726.782	6729.82
727.124	6775.7
727.465	6762.59
727.807	6769.14
728.149	6717.17
728.491	6745.19
728.833	6751.97
729.175	6692.99
729.516	6706.77
729.858	6676.49
730.199	6690.5
730.541	6681.69
730.882	6689.15
731.224	6739.99
731.565	6693.67
731.906	6744.96
732.248	6705.87
732.589	6706.32
732.93	6632.2
733.271	6638.07
733.612	6693.89
733.953	6698.64
734.294	6644.63
734.635	6703.16
734.976	6736.15
735.317	6617.28
735.658	6648.24
735.999	6658.19
736.339	6624.97
736.68	6705.64
737.021	6622.26
737.361	6623.16
737.702	6668.58
738.042	6693.44
738.383	6624.06
738.723	6739.99
739.063	6628.36
739.404	6647.34
739.744	6619.32
740.084	6625.87
740.424	6625.64
740.764	6597.85
741.104	6674.46
741.444	6587
741.784	6649.15
742.124	6615.25
742.464	6642.59
742.804	6654.57
743.143	6631.52
743.483	6630.62
743.823	6613.67
744.162	6609.6
744.502	6659.09
744.841	6584.29
745.181	6579.32
745.52	6589.94
745.86	6602.82
746.199	6622.26
746.538	6649.83
746.877	6650.05
747.216	6595.14
747.556	6555.59
747.895	6610.05
748.234	6556.49
748.573	6552.88
748.911	6575.48
749.25	6584.06
749.589	6539.09
749.928	6560.34
750.267	6554.91
750.605	6634.01
750.944	6555.59
751.283	6498.19
751.621	6570.51
751.96	6536.83
752.298	6541.81
752.636	6496.16
752.975	6487.57
753.313	6520.56
753.651	6505.65
753.989	6460.68
754.327	6490.06
754.666	6487.12
755.004	6454.8
755.342	6495.93
755.679	6460.68
756.017	6405.76
756.355	6478.76
756.693	6400.79
757.031	6448.93
757.368	6412.77
757.706	6409.61
758.044	6390.4
758.381	6293
758.719	6316.05
759.056	6328.7
759.394	6341.36
759.731	6295.71
760.068	6331.87
760.405	6253
760.743	6267.91
761.08	6241.7
761.417	6207.58
761.754	6257.75
762.091	6265.2
762.428	6211.42
762.765	6179.78
763.102	6237.86
763.438	6180.46
763.775	6141.82
764.112	6167.8
764.449	6122.16
764.785	6117.86
765.122	6104.98
765.458	6085.55
765.795	6066.34
766.131	6058.65
766.467	5981.14
766.804	5997.64
767.14	6006.23
767.476	5987.7
767.812	5926.91
768.148	5916.96
768.485	5897.53
768.821	5940.92
769.157	5904.76
769.492	5859.79
769.828	5858.21
770.164	5837.42
770.5	5817.08
770.836	5835.61
771.171	5823.63
771.507	5784.31
771.842	5764.42
