Data from mousepad_grey_FLMS001491_00041.txt Node
Date: Wed Feb 08 14:29:28 GMT 2017
User: dcchb
Spectrometer: FLMS00149
Trigger mode: 0
Integration Time (sec): 2.000000E-2
Scans to average: 10
Electric dark correction enabled: true
Nonlinearity correction enabled: false
Boxcar width: 0
XAxis mode: Wavelengths
Number of Pixels in Spectrum: 2048
>>>>>Begin Spectral Data<<<<<
341.393	-12.22
341.776	-12.22
342.16	-12.22
342.543	-59.45
342.927	-67.58
343.31	-74.36
343.693	-66.91
344.077	-77.75
344.46	-62.16
344.843	-47.7
345.226	-36.17
345.61	-25.1
345.993	-28.26
346.376	-0.24
346.759	-0.69
347.142	35.47
347.525	36.14
347.908	37.72
348.291	67.1
348.674	98.51
349.057	144.39
349.44	119.76
349.823	156.37
350.206	159.76
350.588	175.35
350.971	188.46
351.354	211.73
351.737	211.51
352.119	212.41
352.502	274.33
352.884	250.15
353.267	277.04
353.65	272.75
354.032	284.05
354.414	288.57
354.797	295.57
355.179	298.96
355.562	318.4
355.944	307.32
356.326	336.02
356.709	316.59
357.091	325.18
357.473	320.66
357.855	343.03
358.238	333.31
358.62	305.29
359.002	326.08
359.384	338.28
359.766	339.64
360.148	332.86
360.53	319.75
360.912	310.03
361.294	315.46
361.676	331.5
362.057	305.51
362.439	316.14
362.821	317.27
363.203	311.84
363.584	323.37
363.966	312.97
364.348	322.46
364.729	308
365.111	303.03
365.493	295.12
365.874	298.06
366.256	324.5
366.637	305.29
367.019	299.86
367.4	286.98
367.781	299.86
368.163	291.73
368.544	284.95
368.925	288.57
369.306	285.18
369.688	286.53
370.069	300.77
370.45	295.8
370.831	288.79
371.212	318.17
371.593	308
371.974	310.26
372.355	285.18
372.736	307.32
373.117	308
373.498	301.22
373.879	296.93
374.26	303.03
374.641	286.98
375.021	309.13
375.402	303.93
375.783	322.92
376.163	318.4
376.544	308
376.925	295.12
377.305	310.26
377.686	312.75
378.066	307.77
378.447	303.48
378.827	310.49
379.208	312.07
379.588	297.38
379.968	301.22
380.349	341.67
380.729	319.75
381.109	328.56
381.489	312.52
381.87	319.07
382.25	301.22
382.63	318.4
383.01	315.01
383.39	328.34
383.77	325.63
384.15	313.2
384.53	324.05
384.91	327.89
385.29	321.33
385.67	314.33
386.049	351.16
386.429	350.49
386.809	335.12
387.189	326.08
387.568	336.25
387.948	324.5
388.328	329.02
388.707	324.5
389.087	341.22
389.466	353.42
389.846	338.96
390.225	326.3
390.605	350.26
390.984	350.49
391.363	363.14
391.743	346.42
392.122	345.51
392.501	345.97
392.881	383.7
393.26	357.72
393.639	359.98
394.018	343.93
394.397	349.36
394.776	393.2
395.155	364.5
395.534	366.53
395.913	376.02
396.292	346.64
396.671	354.33
397.05	355.91
397.429	382.57
397.808	365.4
398.186	378.51
398.565	390.26
398.944	392.97
399.323	375.12
399.701	390.48
400.08	378.28
400.458	391.16
400.837	388
401.215	392.74
401.594	409.69
401.972	398.85
402.351	406.08
402.729	407.21
403.107	382.8
403.486	397.26
403.864	386.64
404.242	426.42
404.62	388.22
404.999	419.18
405.377	407.66
405.755	400.43
406.133	415.34
406.511	422.35
406.889	430.03
407.267	429.58
407.645	428.45
408.023	421.22
408.401	422.12
408.779	429.35
409.156	446.08
409.534	439.97
409.912	444.49
410.29	455.79
410.667	441.1
411.045	459.18
411.422	450.6
411.8	475
412.178	481.78
412.555	463.25
412.933	472.97
413.31	487.88
413.687	479.97
414.065	491.95
414.442	475.91
414.819	480.88
415.197	508.9
415.574	499.86
415.951	495.34
416.328	486.75
416.705	524.27
417.082	492.85
417.46	491.5
417.837	503.02
418.214	508.9
418.591	499.86
418.967	512.51
419.344	508
419.721	519.29
420.098	526.75
420.475	541.21
420.852	516.81
421.228	518.84
421.605	536.92
421.982	543.47
422.358	530.82
422.735	563.13
423.111	543.93
423.488	544.15
423.864	538.5
424.241	551.61
424.617	573.3
424.994	560.2
425.37	561.33
425.746	555.9
426.123	598.61
426.499	578.95
426.875	578.95
427.251	587.32
427.627	608.56
428.003	580.54
428.379	592.96
428.756	601.1
429.132	624.15
429.507	624.6
429.883	607.88
430.259	627.99
430.635	641.78
431.011	627.99
431.387	656.92
431.763	637.71
432.138	667.99
432.514	666.41
432.89	662.57
433.265	667.31
433.641	698.72
434.016	685.17
434.392	679.06
434.767	684.49
435.143	694.43
435.518	716.13
435.894	684.26
436.269	730.36
436.644	708.22
437.02	722.23
437.395	743.92
437.77	718.84
438.145	768.55
438.52	742.57
438.895	762.23
439.271	753.41
439.646	773.52
440.021	772.17
440.395	741.66
440.77	764.94
441.145	779.85
441.52	812.62
441.895	787.31
442.27	797.48
442.645	777.14
443.019	803.13
443.394	799.06
443.769	815.11
444.143	813.07
444.518	818.5
444.892	809.91
445.267	835.44
445.641	836.8
446.016	817.59
446.39	840.64
446.764	826.86
447.139	838.16
447.513	875.44
447.887	838.38
448.262	838.16
448.636	853.52
449.01	854.43
449.384	877.93
449.758	881.54
450.132	880.41
450.506	892.39
450.88	897.14
451.254	900.98
451.628	893.52
452.002	916.8
452.376	928.1
452.75	929
453.123	907.08
453.497	939.17
453.871	965.84
454.244	956.57
454.618	987.53
454.992	970.58
455.365	973.07
455.739	985.04
456.112	975.33
456.486	1009.9
456.859	1003.8
457.232	1044.03
457.606	1034.31
457.979	1043.35
458.352	1092.39
458.725	1056.91
459.099	1075.66
459.472	1110.01
459.845	1082.44
460.218	1121.76
460.591	1110.24
460.964	1122.67
461.337	1143.01
461.71	1145.72
462.083	1163.8
462.456	1174.19
462.829	1209.67
463.201	1156.57
463.574	1183.68
463.947	1207.19
464.32	1227.98
464.692	1228.88
465.065	1261.87
465.438	1282.44
465.81	1284.7
466.183	1284.47
466.555	1301.42
466.928	1325.37
467.3	1325.6
467.672	1336.67
468.045	1350.01
468.417	1329.89
468.789	1351.36
469.161	1387.75
469.534	1402.66
469.906	1439.5
470.278	1420.74
470.65	1432.04
471.022	1460.74
471.394	1494.41
471.766	1511.58
472.138	1527.18
472.51	1518.82
472.882	1546.84
473.253	1591.13
473.625	1597.23
473.997	1622.99
474.369	1645.82
474.74	1626.84
475.112	1671.13
475.484	1726.72
475.855	1712.26
476.227	1741.86
476.598	1772.59
476.97	1780.28
477.341	1787.51
477.713	1865.93
478.084	1838.36
478.455	1891.69
478.827	1920.61
479.198	1949.54
479.569	1952.7
479.94	2011.01
480.311	2037.67
480.682	2055.75
481.053	2105.02
481.424	2107.05
481.795	2150.89
482.166	2221.85
482.537	2169.65
482.908	2231.79
483.279	2234.96
483.65	2296.2
484.021	2317.44
484.391	2368.29
484.762	2385.91
485.133	2435.18
485.503	2422.75
485.874	2443.31
486.244	2469.53
486.615	2531.44
486.985	2558.34
487.356	2618
487.726	2611.22
488.097	2665.9
488.467	2643.76
488.837	2716.52
489.207	2761.27
489.578	2785.45
489.948	2803.98
490.318	2818.89
490.688	2831.1
491.058	2889.18
491.428	2923.52
491.798	2957.42
492.168	2975.27
492.538	3013.01
492.908	3042.17
493.278	3027.25
493.648	3067.48
494.017	3119.68
494.387	3115.16
494.757	3166.91
495.126	3216.17
495.496	3222.5
495.866	3185.89
496.235	3274.7
496.605	3287.36
496.974	3284.65
497.344	3306.79
497.713	3350.41
498.082	3370.74
498.452	3403.29
498.821	3431.53
499.19	3418.65
499.559	3476.5
499.928	3507.69
500.298	3519.89
500.667	3529.61
501.036	3528.93
501.405	3591.08
501.774	3589.95
502.143	3615.71
502.512	3613.45
502.88	3659.78
503.249	3693.9
503.618	3689.38
503.987	3667.01
504.356	3730.51
504.724	3776.61
505.093	3739.1
505.462	3751.07
505.83	3790.62
506.199	3834.01
506.567	3857.51
506.936	3893.22
507.304	3918.3
507.672	3978.86
508.041	3970.5
508.409	3960.33
508.777	3978.64
509.145	4021.35
509.514	4051.4
509.882	4073.1
510.25	4078.3
510.618	4095.25
510.986	4112.42
511.354	4157.84
511.722	4212.53
512.09	4205.75
512.458	4196.26
512.826	4315.13
513.193	4275.13
513.561	4315.8
513.929	4360.78
514.297	4383.37
514.664	4432.86
515.032	4477.83
515.4	4432.41
515.767	4492.52
516.135	4504.05
516.502	4481.9
516.869	4564.84
517.237	4556.25
517.604	4530.04
517.972	4638.73
518.339	4633.76
518.706	4664.95
519.073	4671.28
519.44	4694.78
519.808	4781.33
520.175	4776.36
520.542	4795.57
520.909	4868.33
521.276	4823.36
521.643	4895.22
522.009	4907.2
522.376	4941.32
522.743	4979.52
523.11	5066.29
523.477	5103.13
523.843	5130.02
524.21	5178.38
524.577	5190.81
524.943	5184.26
525.31	5240.07
525.676	5254.54
526.043	5287.53
526.409	5293.86
526.776	5433.97
527.142	5428.32
527.508	5421.99
527.874	5458.83
528.241	5487.3
528.607	5540.41
528.973	5604.36
529.339	5544.02
529.705	5685.26
530.071	5655.66
530.437	5674.19
530.803	5728.65
531.169	5782.66
531.535	5770.91
531.901	5796.67
532.267	5802.55
532.632	5893.84
532.998	5857.23
533.364	5893.62
533.73	5936.78
534.095	6015.65
534.461	6012.71
534.826	6032.6
535.192	6069.88
535.557	6125.02
535.923	6109.88
536.288	6128.64
536.653	6128.86
537.019	6160.95
537.384	6197.79
537.749	6225.36
538.114	6275.53
538.479	6257.67
538.845	6319.14
539.21	6299.71
539.575	6366.15
539.94	6357.33
540.305	6436.65
540.67	6391.46
541.034	6457.9
541.399	6499.7
541.764	6519.81
542.129	6568.85
542.494	6528.18
542.858	6554.16
543.223	6560.04
543.587	6664.67
543.952	6644.1
544.316	6706.48
544.681	6683.2
545.045	6760.71
545.41	6754.84
545.774	6854.95
546.138	6784.44
546.503	6833.25
546.867	6912.35
547.231	6894.72
547.595	6853.82
547.959	6901.95
548.324	6913.93
548.688	6951.89
549.052	6999.58
549.416	7019.91
549.779	7075.73
550.143	7058.78
550.507	7128.61
550.871	7127.71
551.235	7106.24
551.599	7249.74
551.962	7205.9
552.326	7277.76
552.689	7300.36
553.053	7232.56
553.417	7303.52
553.78	7407.93
554.143	7303.3
554.507	7429.85
554.87	7422.84
555.234	7496.06
555.597	7425.33
555.96	7521.82
556.323	7510.75
556.686	7571.54
557.05	7657.86
557.413	7564.53
557.776	7654.7
558.139	7730.63
558.502	7718.2
558.865	7728.82
559.228	7807.46
559.59	7857.63
559.953	7837.29
560.316	7918.42
560.679	7884.3
561.041	7991.41
561.404	8005.43
561.767	8049.72
562.129	7988.93
562.492	8164.74
562.854	8117.96
563.217	8191.86
563.579	8139.66
563.941	8237.74
564.304	8246.55
564.666	8272.31
565.028	8383.72
565.39	8356.6
565.753	8418.97
566.115	8395.02
566.477	8410.84
566.839	8532.42
567.201	8536.94
567.563	8474.34
567.925	8611.06
568.287	8606.31
568.648	8639.53
569.01	8691.51
569.372	8731.51
569.734	8735.35
570.095	8721.11
570.457	8766.76
570.819	8834.78
571.18	8816.7
571.542	8876.14
571.903	8853.31
572.265	8925.63
572.626	8957.04
572.987	8928.79
573.349	8931.73
573.71	9104.83
574.071	9061.22
574.432	9095.11
574.794	9145.28
575.155	9176.47
575.516	9118.39
575.877	9199.07
576.238	9183.47
576.599	9261.21
576.96	9202.23
577.32	9288.1
577.681	9282.68
578.042	9269.8
578.403	9323.36
578.763	9261.89
579.124	9327.2
579.485	9374.88
579.845	9424.14
580.206	9340.08
580.566	9435.9
580.927	9357.25
581.287	9437.48
581.648	9299.85
582.008	9434.54
582.368	9464.14
582.728	9451.04
583.089	9425.05
583.449	9485.84
583.809	9536.23
584.169	9461.43
584.529	9484.71
584.889	9523.58
585.249	9467.76
585.609	9504.82
585.969	9554.54
586.329	9495.1
586.688	9553.41
587.048	9565.61
587.408	9516.35
587.768	9504.59
588.127	9543.24
588.487	9446.29
588.846	9584.59
589.206	9511.6
589.565	9494.2
589.925	9610.35
590.284	9515.44
590.643	9577.14
591.003	9549.79
591.362	9627.08
591.721	9616.46
592.08	9581.65
592.44	9616.46
592.799	9611.71
593.158	9531.26
593.517	9642.67
593.876	9654.42
594.235	9621.88
594.593	9584.82
594.952	9675.21
595.311	9637.92
595.67	9629.79
596.029	9725.83
596.387	9656
596.746	9630.69
597.104	9640.64
597.463	9670.01
597.822	9739.62
598.18	9580.3
598.538	9665.72
598.897	9673.18
599.255	9594.54
599.613	9772.16
599.972	9697.81
600.33	9738.49
600.688	9652.61
601.046	9753.4
601.404	9760.41
601.762	9717.24
602.12	9699.62
602.478	9723.35
602.836	9774.42
603.194	9747.07
603.552	9747.07
603.91	9727.87
604.268	9744.59
604.625	9787.98
604.983	9745.72
605.341	9764.47
605.698	9803.8
606.056	9779.62
606.413	9820.74
606.771	9830.91
607.128	9828.88
607.485	9811.71
607.843	9815.77
608.2	9787.75
608.557	9879.05
608.914	9820.07
609.272	9842.44
609.629	9912.27
609.986	9958.82
610.343	9854.42
610.7	9955.43
611.057	9884.7
611.414	9932.38
611.771	9968.76
612.127	9961.31
612.484	9903.45
612.841	9949.1
613.198	9938.03
613.554	9943
613.911	9999.95
614.267	10080.17
614.624	10029.33
614.98	10032.49
615.337	10038.37
615.693	10017.35
616.05	10013.96
616.406	10116.56
616.762	10000.63
617.118	10086.73
617.475	10110.45
617.831	10122.88
618.187	10043.11
618.543	10142.54
618.899	10228.64
619.255	10196.78
619.611	10134.41
619.967	10146.16
620.323	10178.48
620.678	10119.95
621.034	10146.16
621.39	10110
621.746	10108.65
622.101	10283.56
622.457	10204.24
622.812	10168.53
623.168	10158.81
623.523	10151.13
623.879	10293.73
624.234	10187.97
624.589	10219.15
624.945	10163.11
625.3	10213.5
625.655	10185.93
626.01	10209.43
626.365	10198.36
626.72	10185.25
627.075	10231.81
627.43	10249.89
627.785	10183.22
628.14	10148.42
628.495	10217.34
628.85	10158.59
629.205	10164.69
629.559	10163.11
629.914	10249.43
630.269	10240.17
630.623	10206.27
630.978	10104.35
631.332	10187.74
631.687	10254.86
632.041	10158.36
632.396	10201.3
632.75	10141.87
633.104	10166.5
633.459	10121.75
633.813	10108.19
634.167	10139.83
634.521	10138.02
634.875	10090.57
635.229	10071.81
635.583	10041.3
635.937	10057.12
636.291	10003.56
636.645	10037.24
636.999	10026.61
637.352	10082.21
637.706	9977.35
638.06	10053.73
638.413	9979.38
638.767	10028.87
639.121	10042.43
639.474	9917.47
639.828	9902.1
640.181	9955.2
640.534	9995.43
640.888	9920.85
641.241	9901.42
641.594	9984.81
641.947	9935.77
642.301	9884.25
642.654	9987.29
643.007	9902.1
643.36	9962.44
643.713	9916.34
644.066	10042.43
644.419	9970.12
644.771	9827.07
645.124	9782.1
645.477	9737.13
645.83	9672.27
646.182	9657.13
646.535	9565.16
646.888	9670.47
647.24	9586.4
647.593	9692.39
647.945	9599.06
648.298	9612.39
648.65	9536.01
649.002	9530.36
649.355	9612.39
649.707	9497.36
650.059	9658.71
650.411	9829.78
650.763	9772.84
651.115	9851.25
651.467	9806.51
651.819	9840.18
652.171	9834.98
652.523	9808.99
652.875	9848.09
653.227	9766.06
653.578	9835.66
653.93	9829.33
654.282	9784.14
654.633	9731.03
654.985	9728.54
655.337	9778.71
655.688	9823.23
656.039	9897.13
656.391	9750.92
656.742	9708.88
657.094	9765.83
657.445	9853.29
657.796	9782.55
658.147	9727.87
658.498	9764.25
658.849	9823.68
659.2	9768.77
659.551	9766.73
659.902	9750.92
660.253	9755.66
660.604	9781.42
660.955	9792.72
661.306	9772.16
661.656	9777.36
662.007	9800.63
662.358	9779.16
662.708	9784.81
663.059	9790.24
663.409	9694.42
663.76	9780.29
664.11	9822.1
664.461	9764.93
664.811	9792.72
665.161	9736.68
665.511	9766.73
665.862	9789.33
666.212	9840.86
666.562	9808.32
666.912	9774.19
667.262	9736.68
667.612	9746.85
667.962	9681.31
668.312	9686.51
668.662	9835.66
669.011	9756.11
669.361	9736.9
669.711	9662.1
670.06	9781.88
670.41	9675.21
670.76	9698.49
671.109	9723.12
671.459	9735.1
671.808	9658.49
672.157	9706.62
672.507	9703.23
672.856	9704.36
673.205	9664.14
673.554	9592.05
673.904	9663.01
674.253	9657.36
674.602	9644.03
674.951	9594.31
675.3	9439.96
675.649	9653.97
675.998	9646.51
676.346	9675.66
676.695	9618.72
677.044	9582.56
677.393	9568.32
677.741	9617.59
678.09	9538.27
678.438	9586.17
678.787	9495.1
679.135	9558.15
679.484	9492.62
679.832	9516.12
680.181	9509.79
680.529	9550.02
680.877	9474.76
681.225	9443.13
681.573	9467.76
681.922	9431.83
682.27	9429.57
682.618	9402.45
682.966	9464.37
683.314	9398.38
683.661	9420.3
684.009	9322.23
684.357	9300.31
684.705	9275.22
685.053	9258.05
685.4	9254.43
685.748	9224.83
686.095	9236.81
686.443	9155.23
686.79	9197.26
687.138	9208.56
687.485	9118.84
687.832	9113.64
688.18	9147.54
688.527	9123.81
688.874	9046.53
689.221	9089.24
689.568	9029.13
689.915	9030.03
690.262	8995
690.609	8967.21
690.956	8961.78
691.303	8904.16
691.65	8910.49
691.997	8902.12
692.344	8903.93
692.69	8867.78
693.037	8880.2
693.383	8779.42
693.73	8729.93
694.077	8728.8
694.423	8749.81
694.769	8678.63
695.116	8683.15
695.462	8659.42
695.808	8648.57
696.155	8626.88
696.501	8501.91
696.847	8571.29
697.193	8495.58
697.539	8523.6
697.885	8477.96
698.231	8438.41
698.577	8425.75
698.923	8458.29
699.269	8359.99
699.614	8314.12
699.96	8284.97
700.306	8341.46
700.651	8302.59
700.997	8237.96
701.342	8229.15
701.688	8197.51
702.033	8242.48
702.379	8214.91
702.724	8136.5
703.069	8144.63
703.415	8016.05
703.76	8030.06
704.105	8050.85
704.45	8028.93
704.795	8010.17
705.14	8010.85
705.485	7952.32
705.83	7890.4
706.175	7915.26
706.52	7873.23
706.865	7884.52
707.209	7871.64
707.554	7805.88
707.899	7851.76
708.243	7800.91
708.588	7811.98
708.932	7752.55
709.277	7743.96
709.621	7699.44
709.966	7692.44
710.31	7664.64
710.654	7595.72
710.998	7628.94
711.342	7666.22
711.687	7553.23
712.031	7533.8
712.375	7567.47
712.719	7582.61
713.063	7576.74
713.407	7556.17
713.75	7480.92
714.094	7497.87
714.438	7547.58
714.782	7551.88
715.125	7465.78
715.469	7482.28
715.812	7423.07
716.156	7430.3
716.499	7419
716.843	7399.34
717.186	7369.96
717.53	7458.09
717.873	7442.95
718.216	7440.69
718.559	7377.87
718.902	7366.12
719.246	7442.28
719.589	7341.26
719.932	7336.29
720.275	7277.76
720.617	7337.87
720.96	7335.61
721.303	7269.17
721.646	7289.29
721.989	7257.42
722.331	7224.43
722.674	7241.15
723.016	7254.48
723.359	7235.73
723.701	7276.18
724.044	7224.43
724.386	7207.93
724.729	7234.15
725.071	7221.94
725.413	7230.08
725.755	7211.55
726.097	7206.12
726.439	7163.41
726.782	7160.02
727.124	7167.03
727.465	7141.72
727.807	7195.95
728.149	7212.9
728.491	7192.11
728.833	7178.78
729.175	7155.05
729.516	7198.21
729.858	7147.14
730.199	7187.59
730.541	7161.83
730.882	7072.57
731.224	7142.4
731.565	7123.41
731.906	7164.09
732.248	7150.31
732.589	7115.73
732.93	7143.53
733.271	7105.56
733.612	7078.9
733.953	7130.19
734.294	7139.01
734.635	7131.1
734.976	7116.41
735.317	7129.29
735.658	7092.68
735.999	7084.55
736.339	7048.61
736.68	7087.48
737.021	7062.4
737.361	7058.11
737.702	7111.44
738.042	7097.2
738.383	7050.87
738.723	7107.37
739.063	7054.04
739.404	7102.62
739.744	7072.79
740.084	7046.81
740.424	7077.77
740.764	7072.57
741.104	7089.97
741.444	7023.53
741.784	7056.75
742.124	7092.23
742.464	7074.6
742.804	7036.64
743.143	7030.99
743.483	7065.11
743.823	7046.13
744.162	7009.52
744.502	7022.4
744.841	7035.51
745.181	7034.15
745.52	7025.11
745.86	7086.58
746.199	7028.28
746.538	6996.41
746.877	7016.75
747.216	7083.19
747.556	7056.75
747.895	7047.71
748.234	7012.68
748.573	7015.39
748.911	7033.25
749.25	7005.23
749.589	6953.7
749.928	6974.94
750.267	6987.82
750.605	7037.99
750.944	6940.59
751.283	6968.16
751.621	7027.15
751.96	6928.17
752.298	6916.41
752.636	6963.87
752.975	6923.42
753.313	6946.47
753.651	6948.73
753.989	6887.49
754.327	6851.78
754.666	6865.79
755.004	6885.68
755.342	6878
755.679	6828.51
756.017	6761.84
756.355	6825.8
756.693	6812.91
757.031	6808.85
757.368	6858.34
757.706	6850.88
758.044	6792.12
758.381	6775.17
758.719	6736.53
759.056	6784.67
759.394	6793.03
759.731	6670.54
760.068	6748.96
760.405	6649.75
760.743	6622.64
761.08	6673.26
761.417	6637.1
761.754	6606.82
762.091	6589.19
762.428	6587.61
762.765	6604.33
763.102	6576.08
763.438	6558.23
763.775	6538.12
764.112	6496.54
764.449	6529.76
764.785	6488.18
765.122	6469.19
765.458	6481.4
765.795	6448.86
766.131	6470.1
766.467	6338.35
766.804	6394.85
767.14	6331.34
767.476	6313.72
767.812	6339.03
768.148	6368.41
768.485	6234.85
768.821	6261.29
769.157	6254.51
769.492	6230.1
769.828	6191.01
