Data from mousepad_grey_FLMS001491_00069.txt Node
Date: Wed Feb 08 14:29:47 GMT 2017
User: dcchb
Spectrometer: FLMS00149
Trigger mode: 0
Integration Time (sec): 2.000000E-2
Scans to average: 10
Electric dark correction enabled: true
Nonlinearity correction enabled: false
Boxcar width: 0
XAxis mode: Wavelengths
Number of Pixels in Spectrum: 2048
>>>>>Begin Spectral Data<<<<<
341.393	-3.57
341.776	-3.57
342.16	-3.57
342.543	-59.62
342.927	-73.18
343.31	-67.3
343.693	-49.22
344.077	-70.46
344.46	-63.91
344.843	-33.18
345.226	-48.77
345.61	-49.9
345.993	-12.16
346.376	-4.25
346.759	7.95
347.142	51.57
347.525	39.82
347.908	58.57
348.291	64.9
348.674	71.23
349.057	105.12
349.44	120.49
349.823	139.02
350.206	155.07
350.588	167.95
350.971	181.28
351.354	217.44
351.737	224.22
352.119	237.78
352.502	249.53
352.884	235.74
353.267	262.41
353.65	288.4
354.032	291.11
354.414	292.24
354.797	279.13
355.179	305.12
355.562	317.32
355.944	309.41
356.326	315.97
356.709	313.93
357.091	307.15
357.473	347.15
357.855	303.76
358.238	296.53
358.62	333.82
359.002	333.59
359.384	326.14
359.766	325.91
360.148	327.04
360.53	322.29
360.912	306.93
361.294	329.3
361.676	307.6
362.057	318.68
362.439	304.89
362.821	324.55
363.203	305.35
363.584	308.73
363.966	305.35
364.348	312.8
364.729	306.93
365.111	322.52
365.493	313.25
365.874	302.86
366.256	288.62
366.637	299.47
367.019	300.37
367.4	294.27
367.781	289.07
368.163	294.95
368.544	277.78
368.925	308.96
369.306	302.86
369.688	296.53
370.069	298.57
370.45	286.59
370.831	321.39
371.212	297.66
371.593	286.36
371.974	294.5
372.355	281.84
372.736	279.13
373.117	303.76
373.498	300.6
373.879	301.5
374.26	312.8
374.641	299.24
375.021	280.49
375.402	303.54
375.783	323.42
376.163	308.28
376.544	312.35
376.925	310.77
377.305	310.09
377.686	302.18
378.066	326.59
378.447	293.37
378.827	323.65
379.208	309.64
379.588	307.83
379.968	316.19
380.349	320.26
380.729	326.81
381.109	315.06
381.489	320.71
381.87	324.33
382.25	328.4
382.63	319.58
383.01	317.77
383.39	310.32
383.77	324.33
384.15	306.25
384.53	342.41
384.91	332.91
385.29	321.39
385.67	320.03
386.049	346.02
386.429	313.25
386.809	334.04
387.189	324.33
387.568	344.67
387.948	323.65
388.328	335.63
388.707	344.67
389.087	337.66
389.466	327.04
389.846	367.04
390.225	345.57
390.605	359.13
390.984	358.23
391.363	355.97
391.743	367.94
392.122	363.2
392.501	366.36
392.881	363.42
393.26	345.34
393.639	361.84
394.018	381.73
394.397	348.96
394.776	372.46
395.155	365.68
395.534	374.72
395.913	349.64
396.292	361.16
396.671	372.46
397.05	375.63
397.429	400.03
397.808	369.75
398.186	355.06
398.565	375.4
398.944	365.23
399.323	389.86
399.701	393.25
400.08	383.08
400.458	382.41
400.837	389.18
401.215	392.35
401.594	395.29
401.972	396.87
402.351	388.05
402.729	395.96
403.107	414.27
403.486	399.35
403.864	391.44
404.242	412.46
404.62	419.92
404.999	412.69
405.377	424.66
405.755	421.73
406.133	420.82
406.511	428.73
406.889	402.52
407.267	406.36
407.645	438.45
408.023	431.44
408.401	401.61
408.779	448.17
409.156	446.58
409.534	446.81
409.912	443.19
410.29	444.32
410.667	443.65
411.045	452.23
411.422	448.62
411.8	469.63
412.178	471.89
412.555	493.59
412.933	480.71
413.31	477.32
413.687	496.3
414.065	488.17
414.442	482.74
414.819	465.11
415.197	482.97
415.574	501.72
415.951	515.96
416.328	504.89
416.705	507.83
417.082	513.25
417.46	497.88
417.837	514.83
418.214	507.6
418.591	507.15
418.967	522.97
419.344	519.35
419.721	521.38
420.098	532.23
420.475	551.21
420.852	517.77
421.228	517.77
421.605	537.43
421.982	556.41
422.358	554.38
422.735	553.25
423.111	560.03
423.488	576.52
423.864	549.18
424.241	579.69
424.617	580.14
424.994	555.73
425.37	565.45
425.746	590.08
426.123	594.15
426.499	591.89
426.875	603.64
427.251	612
427.627	627.82
428.003	592.8
428.379	621.72
428.756	609.97
429.132	594.38
429.507	606.58
429.883	651.55
430.259	647.93
430.635	642.74
431.011	640.93
431.387	643.64
431.763	677.09
432.138	681.61
432.514	671.89
432.89	666.69
433.265	695.84
433.641	679.12
434.016	697.88
434.392	683.87
434.767	720.25
435.143	728.61
435.518	734.71
435.894	725.22
436.269	742.62
436.644	756.41
437.02	763.64
437.395	757.76
437.77	761.38
438.145	762.06
438.52	752.79
438.895	762.51
439.271	787.14
439.646	797.54
440.021	802.28
440.395	810.42
440.77	797.08
441.145	807.7
441.52	820.59
441.895	809.51
442.27	840.25
442.645	815.61
443.019	832.11
443.394	811.32
443.769	862.17
444.143	803.19
444.518	836.63
444.892	863.3
445.267	855.16
445.641	850.87
446.016	833.47
446.39	877.53
446.764	870.53
447.139	885.22
447.513	879.34
447.887	886.8
448.262	895.39
448.636	919.57
449.01	895.84
449.384	910.3
449.758	934.48
450.132	922.73
450.506	952.79
450.88	923.86
451.254	925.67
451.628	947.81
452.002	970.86
452.376	950.53
452.75	967.25
453.123	972.45
453.497	973.58
453.871	950.75
454.244	997.08
454.618	1039.79
454.992	1018.55
455.365	1052.44
455.739	1040.47
456.112	1056.74
456.486	1061.48
456.859	1077.98
457.232	1086.57
457.606	1095.15
457.979	1088.38
458.352	1139.22
458.725	1127.24
459.099	1118.88
459.472	1159.11
459.845	1155.27
460.218	1181.93
460.591	1179.22
460.964	1164.76
461.337	1196.17
461.71	1202.27
462.083	1240.46
462.456	1230.97
462.829	1228.71
463.201	1266.45
463.574	1254.02
463.947	1281.14
464.32	1281.14
464.692	1299.44
465.065	1300.35
465.438	1322.95
465.81	1351.19
466.183	1351.42
466.555	1391.87
466.928	1365.43
467.3	1373.79
467.672	1389.84
468.045	1450.85
468.417	1435.26
468.789	1436.61
469.161	1436.39
469.534	1511.64
469.906	1502.83
470.278	1505.77
470.65	1546.67
471.022	1559.1
471.394	1589.83
471.766	1564.75
472.138	1595.93
472.51	1625.08
472.882	1633.67
473.253	1665.76
473.625	1711.86
473.997	1730.39
474.369	1718.87
474.74	1760.67
475.112	1780.11
475.484	1781.46
475.855	1838.86
476.227	1849.03
476.598	1872.08
476.97	1874.12
477.341	1915.02
477.713	1969.26
478.084	1979.88
478.455	2020.55
478.827	2038.18
479.198	2049.93
479.569	2096.71
479.94	2164.51
480.311	2154.34
480.682	2186.65
481.053	2254.22
481.424	2277.27
481.795	2301
482.166	2341.68
482.537	2339.64
482.908	2337.61
483.279	2401.79
483.65	2452.63
484.021	2483.14
484.391	2510.48
484.762	2507.77
485.133	2540.54
485.503	2560.43
485.874	2611.95
486.244	2647.2
486.615	2717.49
486.985	2736.47
487.356	2793.19
487.726	2824.6
488.097	2825.96
488.467	2868.22
488.837	2914.32
489.207	2942.11
489.578	2969
489.948	2999.74
490.318	3040.64
490.688	3062.56
491.058	3086.51
491.428	3099.17
491.798	3180.98
492.168	3201.31
492.538	3218.71
492.908	3259.17
493.278	3272.72
493.648	3311.37
494.017	3345.27
494.387	3369.9
494.757	3404.47
495.126	3446.51
495.496	3449.9
495.866	3489.67
496.235	3485.6
496.605	3525.83
496.974	3566.28
497.344	3626.16
497.713	3614.86
498.082	3618.48
498.452	3684.47
498.821	3698.02
499.19	3736.89
499.559	3757.01
499.928	3787.06
500.298	3793.84
500.667	3793.16
501.036	3799.26
501.405	3845.82
501.774	3886.95
502.143	3937.79
502.512	3900.5
502.88	3937.11
503.249	3989.09
503.618	4008.52
503.987	4004.23
504.356	4014.17
504.724	4044.68
505.093	4070.22
505.462	4112.48
505.83	4140.95
506.199	4169.2
506.567	4173.94
506.936	4239.93
507.304	4243.55
507.672	4242.87
508.041	4298.69
508.409	4348.4
508.777	4330.32
509.145	4361.51
509.514	4392.24
509.882	4453.03
510.25	4406.03
510.618	4456.42
510.986	4484.9
511.354	4518.57
511.722	4579.81
512.09	4590.88
512.458	4596.31
512.826	4665.23
513.193	4688.28
513.561	4698.9
513.929	4721.73
514.297	4746.58
514.664	4785.91
515.032	4794.04
515.4	4839.92
515.767	4898.67
516.135	4923.3
516.502	4917.43
516.869	4952
517.237	4982.51
517.604	5002.85
517.972	5037.88
518.339	5058.67
518.706	5083.75
519.073	5187.93
519.44	5164.2
519.808	5183.18
520.175	5176.18
520.542	5283.07
520.909	5288.94
521.276	5313.12
521.643	5351.77
522.009	5388.38
522.376	5450.75
522.743	5477.64
523.11	5502.72
523.477	5561.7
523.843	5592.44
524.21	5631.53
524.577	5647.58
524.943	5728.71
525.31	5813.67
525.676	5807.35
526.043	5845.31
526.409	5848.7
526.776	5869.72
527.142	5920.34
527.508	5969.38
527.874	6002.6
528.241	6039.66
528.607	6084.4
528.973	6097.51
529.339	6138.19
529.705	6234
530.071	6215.92
530.437	6263.61
530.803	6279.43
531.169	6358.29
531.535	6352.19
531.901	6356.94
532.267	6409.82
532.632	6491.62
532.998	6477.39
533.364	6513.77
533.73	6559.64
534.095	6618.63
534.461	6645.52
534.826	6694.1
535.192	6683.71
535.557	6702.69
535.923	6722.13
536.288	6750.15
536.653	6847.55
537.019	6779.53
537.384	6850.48
537.749	6863.59
538.114	6880.31
538.479	7019.74
538.845	6969.58
539.21	6950.82
539.575	6966.64
539.94	7020.2
540.305	7096.35
540.67	7036.02
541.034	7099.29
541.399	7146.52
541.764	7182.45
542.129	7260.19
542.494	7245.73
542.858	7236.69
543.223	7285.27
543.587	7347.42
543.952	7344.93
544.316	7392.84
544.681	7381.32
545.045	7423.12
545.41	7396.46
545.774	7506.51
546.138	7530.24
546.503	7527.3
546.867	7560.3
547.231	7614.76
547.595	7657.02
547.959	7714.19
548.324	7707.41
548.688	7697.24
549.052	7738.6
549.416	7772.95
549.779	7769.33
550.143	7829.89
550.507	7790.8
550.871	7941.08
551.235	7878.03
551.599	7916.22
551.962	7976.56
552.326	8051.81
552.689	8066.72
553.053	8052.26
553.417	8077.12
553.78	8189.21
554.143	8143.11
554.507	8106.72
554.87	8211.8
555.234	8316.66
555.597	8259.71
555.96	8250.45
556.323	8310.33
556.686	8364.12
557.05	8428.75
557.413	8403.44
557.776	8513.49
558.139	8526.37
558.502	8529.76
558.865	8498.8
559.228	8640.04
559.59	8626.48
559.953	8666.26
560.316	8682.07
560.679	8779.02
561.041	8814.05
561.404	8882.52
561.767	8916.42
562.129	8915.06
562.492	9006.59
562.854	8963.87
563.217	8995.96
563.579	9107.83
563.941	9078
564.304	9188.05
564.666	9175.39
565.028	9205.45
565.39	9291.1
565.753	9264.66
566.115	9336.75
566.477	9337.42
566.839	9340.59
567.201	9467.59
567.563	9458.32
567.925	9530.87
568.287	9560.02
568.648	9577.87
569.01	9595.72
569.372	9656.06
569.734	9618.32
570.095	9728.83
570.457	9724.76
570.819	9794.59
571.18	9826.68
571.542	9814.02
571.903	9880.23
572.265	9953.23
572.626	9957.52
572.987	9964.07
573.349	9958.2
573.71	10037.07
574.071	10075.03
574.432	10147.8
574.794	10141.24
575.155	10163.16
575.516	10070.06
575.877	10170.17
576.238	10253.56
576.599	10267.57
576.96	10206.55
577.32	10245.87
577.681	10329.04
578.042	10282.03
578.403	10364.52
578.763	10353.22
579.124	10345.76
579.485	10446.55
579.845	10376.94
580.206	10434.57
580.566	10410.84
580.927	10469.6
581.287	10519.09
581.648	10491.97
582.008	10508.01
582.368	10539.65
582.728	10525.19
583.089	10421.46
583.449	10504.62
583.809	10551.63
584.169	10519.09
584.529	10486.09
584.889	10634.11
585.249	10628.92
585.609	10557.5
585.969	10691.29
586.329	10568.58
586.688	10570.84
587.048	10549.82
587.408	10580.78
587.768	10658.52
588.127	10572.65
588.487	10604.96
588.846	10627.11
589.206	10603.15
589.565	10638.63
589.925	10753.21
590.284	10605.19
590.643	10630.05
591.003	10639.08
591.362	10703.72
591.721	10640.89
592.08	10665.98
592.44	10687.22
592.799	10667.56
593.158	10669.14
593.517	10680.89
593.876	10647.22
594.235	10722.25
594.593	10714.11
594.952	10697.61
595.311	10684.51
595.67	10679.99
596.029	10751.17
596.387	10728.12
596.746	10738.07
597.104	10719.08
597.463	10760.66
597.822	10750.04
598.18	10748.91
598.538	10709.37
598.897	10781.91
599.255	10718.86
599.613	10789.82
599.972	10766.54
600.33	10789.14
600.688	10750.49
601.046	10856.25
601.404	10862.58
601.762	10831.85
602.12	10890.38
602.478	10890.83
602.836	10875.46
603.194	10805.41
603.552	10867.78
603.91	10825.75
604.268	10844.73
604.625	10832.07
604.983	10923.14
605.341	10856.25
605.698	10912.52
606.056	10909.59
606.413	10941
606.771	10946.42
607.128	10954.56
607.485	10888.8
607.843	10951.62
608.2	11034.55
608.557	11052.86
608.914	11027.78
609.272	11102.35
609.629	11064.16
609.986	11147.55
610.343	11119.07
610.7	11109.58
611.057	11074.1
611.414	11177.15
611.771	11112.07
612.127	11141.9
612.484	11153.2
612.841	11193.19
613.198	11144.38
613.554	11162.23
613.911	11223.25
614.267	11153.42
614.624	11185.28
614.98	11166.08
615.337	11261.89
615.693	11264.6
616.05	11265.28
616.406	11288.79
616.762	11285.4
617.118	11206.08
617.475	11255.34
617.831	11293.3
618.187	11315.45
618.543	11335.11
618.899	11380.76
619.255	11331.04
619.611	11326.07
619.967	11322.68
620.323	11384.15
620.678	11392.96
621.034	11277.26
621.39	11330.82
621.746	11351.83
622.101	11512.96
622.457	11396.8
622.812	11370.82
623.168	11408.1
623.523	11402.45
623.879	11355.45
624.234	11321.55
624.589	11439.29
624.945	11473.64
625.3	11441.1
625.655	11472.96
626.01	11427.54
626.365	11424.15
626.72	11427.76
627.075	11372.62
627.43	11456.46
627.785	11450.81
628.14	11461.21
628.495	11435.22
628.85	11464.83
629.205	11376.92
629.559	11487.2
629.914	11412.4
630.269	11367.88
630.623	11361.55
630.978	11421.21
631.332	11426.86
631.687	11446.52
632.041	11383.02
632.396	11324.72
632.75	11309.35
633.104	11404.26
633.459	11345.51
633.813	11299.18
634.167	11285.4
634.521	11296.02
634.875	11300.76
635.229	11303.02
635.583	11224.61
635.937	11364.26
636.291	11285.62
636.645	11237.71
636.999	11201.33
637.352	11285.62
637.706	11220.99
638.06	11234.1
638.413	11235.45
638.767	11180.09
639.121	11260.99
639.474	11114.78
639.828	11113.2
640.181	11167.21
640.534	11204.49
640.888	11108.9
641.241	11058.28
641.594	11180.54
641.947	11125.17
642.301	11165.17
642.654	11162.01
643.007	11115.23
643.36	11154.1
643.713	11035.91
644.066	11095.12
644.419	11046.98
644.771	11078.85
645.124	10927.21
645.477	10909.59
645.83	10903.48
646.182	10779.87
646.535	10819.42
646.888	10776.93
647.24	10716.6
647.593	10826.88
647.945	10785.97
648.298	10728.12
648.65	10718.63
649.002	10665.07
649.355	10679.99
649.707	10730.16
650.059	10719.08
650.411	10872.98
650.763	10947.1
651.115	11030.94
651.467	10952.97
651.819	10988.45
652.171	11010.37
652.523	10891.96
652.875	10906.65
653.227	10896.93
653.578	10983.26
653.93	10920.43
654.282	10946.42
654.633	10966.99
654.985	10930.83
655.337	10928.79
655.688	10872.52
656.039	10949.58
656.391	10830.27
656.742	10884.05
657.094	10902.13
657.445	10912.07
657.796	10870.94
658.147	10872.98
658.498	10934.9
658.849	10915.46
659.2	10913.2
659.551	10943.26
659.902	10930.15
660.253	10928.12
660.604	10946.65
660.955	10902.81
661.306	10931.28
661.656	10865.52
662.007	10858.29
662.358	10870.72
662.708	10900.09
663.059	10868.01
663.409	10731.96
663.76	10880.43
664.11	10865.29
664.461	10841.11
664.811	10897.38
665.161	10876.59
665.511	10873.43
665.862	10903.48
666.212	10982.58
666.562	10921.11
666.912	10904.61
667.262	10938.74
667.612	10836.14
667.962	10926.76
668.312	10857.38
668.662	10897.16
669.011	10844.05
669.361	10884.95
669.711	10898.51
670.06	10814.22
670.41	10836.59
670.76	10709.14
671.109	10868.01
671.459	10837.5
671.808	10856.25
672.157	10831.17
672.507	10809.93
672.856	10698.07
673.205	10739.42
673.554	10798.63
673.904	10807.67
674.253	10843.37
674.602	10797.27
674.951	10599.99
675.3	10571.52
675.649	10714.79
675.998	10671.85
676.346	10755.47
676.695	10763.6
677.044	10678.18
677.393	10656.49
677.741	10672.3
678.09	10743.71
678.438	10623.04
678.787	10654.23
679.135	10670.04
679.484	10625.07
679.832	10629.59
680.181	10621.23
680.529	10651.51
680.877	10546.66
681.225	10569.71
681.573	10636.82
681.922	10527.22
682.27	10524.06
682.618	10487.68
682.966	10507.56
683.314	10534.68
683.661	10395.25
684.009	10441.8
684.357	10394.35
684.705	10337.85
685.053	10418.75
685.4	10337.85
685.748	10336.04
686.095	10267.79
686.443	10221.69
686.79	10230.73
687.138	10265.76
687.485	10258.53
687.832	10224.86
688.18	10297.85
688.527	10126.1
688.874	10200
689.221	10154.58
689.568	10128.59
689.915	10193.22
690.262	10070.29
690.609	10131.08
690.956	10091.75
691.303	9948.48
691.65	9906.9
691.997	10046.56
692.344	9942.83
692.69	9894.02
693.037	9908.48
693.383	9843.85
693.73	9871.87
694.077	9806.79
694.423	9731.31
694.769	9733.8
695.116	9680.47
695.462	9710.97
695.808	9673.91
696.155	9701.48
696.501	9654.03
696.847	9546.01
697.193	9495.61
697.539	9608.83
697.885	9454.94
698.231	9440.02
698.577	9421.04
698.923	9426.01
699.269	9428.04
699.614	9316.41
699.96	9420.13
700.306	9323.87
700.651	9288.61
700.997	9256.3
701.342	9185.34
701.688	9202.51
702.033	9200.25
702.379	9156.64
702.724	9110.54
703.069	9144.66
703.415	9067.15
703.76	9069.41
704.105	9061.5
704.45	8958.9
704.795	9019.24
705.14	8912.8
705.485	8898.57
705.83	8864.44
706.175	8861.05
706.52	8927.72
706.865	8827.61
707.209	8867.83
707.554	8791.22
707.899	8863.76
708.243	8780.6
708.588	8779.7
708.932	8668.52
709.277	8702.41
709.621	8650.21
709.966	8616.54
710.31	8709.64
710.654	8535.86
710.998	8566.14
711.342	8641.62
711.687	8567.05
712.031	8571.34
712.375	8497.45
712.719	8547.16
713.063	8526.6
713.407	8543.77
713.75	8508.52
714.094	8496.32
714.438	8454.74
714.782	8415.64
715.125	8397.56
715.469	8429.2
715.812	8386.26
716.156	8410.44
716.499	8401.63
716.843	8395.75
717.186	8359.37
717.53	8437.33
717.873	8392.59
718.216	8309.88
718.559	8352.14
718.902	8278.92
719.246	8309.88
719.589	8270.79
719.932	8233.5
720.275	8256.55
720.617	8303.1
720.96	8266.72
721.303	8286.15
721.646	8218.58
721.989	8118.7
722.331	8233.72
722.674	8187.62
723.016	8190.34
723.359	8154.86
723.701	8173.61
724.044	8121.86
724.386	8096.55
724.729	8109.21
725.071	8120.96
725.413	8183.78
725.755	8144.69
726.097	8109.43
726.439	8058.81
726.782	8132.26
727.124	8145.82
727.465	8103.11
727.807	8074.86
728.149	8081.41
728.491	8101.3
728.833	8120.28
729.175	8047.74
729.516	8031.7
729.858	8061.75
730.199	8077.8
730.541	8048.87
730.882	8009.55
731.224	8076.21
731.565	7995.09
731.906	8037.35
732.248	8004.58
732.589	8082.54
732.93	7978.59
733.271	7938.59
733.612	8016.78
733.953	8018.14
734.294	7908.31
734.635	7945.82
734.976	8012.94
735.317	7978.59
735.658	7941.3
735.999	7919.83
736.339	7958.48
736.68	7994.18
737.021	7923
737.361	7951.25
737.702	7977.46
738.042	7992.15
738.383	7948.53
738.723	7968.42
739.063	7885.94
739.404	7948.99
739.744	7920.51
740.084	7826.05
740.424	7921.64
740.764	7851.14
741.104	7973.84
741.444	7900.63
741.784	7857.46
742.124	7890
742.464	7923.68
742.804	7809.33
743.143	7889.1
743.483	7870.57
743.823	7844.58
744.162	7866.95
744.502	7849.78
744.841	7777.01
745.181	7823.57
745.52	7809.55
745.86	7876.45
746.199	7873.28
746.538	7832.15
746.877	7843.45
747.216	7831.25
747.556	7839.16
747.895	7849.55
748.234	7813.85
748.573	7781.08
748.911	7803.45
749.25	7796.45
749.589	7772.27
749.928	7711.03
750.267	7762.32
750.605	7754.41
750.944	7792.15
751.283	7793.74
751.621	7765.26
751.96	7692.5
752.298	7728.88
752.636	7744.02
752.975	7723.68
753.313	7644.14
753.651	7674.87
753.989	7688.43
754.327	7638.71
754.666	7570.92
755.004	7647.98
755.342	7616.79
755.679	7705.38
756.017	7544.93
756.355	7612.05
756.693	7610.92
757.031	7592.84
757.368	7541.76
757.706	7564.82
758.044	7521.88
758.381	7577.92
758.719	7492.95
759.056	7511.71
759.394	7469.9
759.731	7475.78
760.068	7405.5
760.405	7413.18
760.743	7352.84
761.08	7405.05
761.417	7374.76
761.754	7316.46
762.091	7345.84
762.428	7266.97
762.765	7282.79
763.102	7304.48
763.438	7301.09
763.775	7207.31
