Data from mousepad_grey_FLMS001491_00014.txt Node
Date: Wed Feb 08 14:29:03 GMT 2017
User: dcchb
Spectrometer: FLMS00149
Trigger mode: 0
Integration Time (sec): 2.000000E-2
Scans to average: 10
Electric dark correction enabled: true
Nonlinearity correction enabled: false
Boxcar width: 0
XAxis mode: Wavelengths
Number of Pixels in Spectrum: 2048
>>>>>Begin Spectral Data<<<<<
341.393	-29.26
341.776	-29.26
342.16	-29.26
342.543	-70.39
342.927	-66.1
343.31	-66.1
343.693	-89.15
344.077	-74.01
344.46	-62.71
344.843	-48.25
345.226	-33.33
345.61	-29.94
345.993	-21.13
346.376	-12.99
346.759	17.97
347.142	35.82
347.525	62.26
347.908	68.36
348.291	66.55
348.674	71.75
349.057	114.91
349.44	125.08
349.823	145.87
350.206	167.11
350.588	184.51
350.971	196.04
351.354	212.31
351.737	231.52
352.119	234.23
352.502	249.15
352.884	240.11
353.267	260.9
353.65	273.78
354.032	297.05
354.414	287.79
354.797	294.12
355.179	318.07
355.562	285.98
355.944	289.82
356.326	322.36
356.709	329.37
357.091	305.42
357.473	321.69
357.855	301.57
358.238	346.54
358.62	321.01
359.002	345.41
359.384	334.79
359.766	327.56
360.148	320.78
360.53	319.2
360.912	313.33
361.294	326.66
361.676	307.68
362.057	314.23
362.439	317.62
362.821	311.52
363.203	314
363.584	297.96
363.966	302.7
364.348	288.47
364.729	301.12
365.111	309.48
365.493	310.61
365.874	295.25
366.256	287.56
366.637	302.25
367.019	311.52
367.4	307.22
367.781	311.74
368.163	331.86
368.544	294.79
368.925	286.21
369.306	288.47
369.688	284.17
370.069	302.03
370.45	305.87
370.831	297.28
371.212	306.55
371.593	293.44
371.974	297.96
372.355	305.19
372.736	302.93
373.117	292.76
373.498	303.16
373.879	318.52
374.26	314
374.641	311.07
375.021	308.35
375.402	329.37
375.783	301.57
376.163	294.57
376.544	312.2
376.925	289.37
377.305	292.53
377.686	314.91
378.066	320.1
378.447	309.03
378.827	316.04
379.208	309.94
379.588	316.26
379.968	322.36
380.349	308.35
380.729	311.74
381.109	320.33
381.489	331.4
381.87	316.94
382.25	348.13
382.63	346.09
383.01	339.54
383.39	331.4
383.77	311.29
384.15	323.95
384.53	339.54
384.91	309.48
385.29	326.21
385.67	334.12
386.049	320.33
386.429	348.35
386.809	317.84
387.189	339.54
387.568	327.79
387.948	342.02
388.328	328.47
388.707	354
389.087	320.78
389.466	335.47
389.846	342.02
390.225	362.59
390.605	347.22
390.984	360.33
391.363	350.16
391.743	341.57
392.122	378.18
392.501	353.55
392.881	360.1
393.26	366.88
393.639	348.8
394.018	351.06
394.397	359.65
394.776	346.54
395.155	379.99
395.534	361.23
395.913	358.97
396.292	386.54
396.671	383.38
397.05	369.59
397.429	383.15
397.808	377.96
398.186	372.98
398.565	378.41
398.944	375.92
399.323	362.59
399.701	398.29
400.08	382.02
400.458	394.68
400.837	380.22
401.215	398.52
401.594	393.1
401.972	401.46
402.351	396.71
402.729	391.29
403.107	368.69
403.486	405.3
403.864	399.2
404.242	415.02
404.62	405.98
404.999	417.96
405.377	406.43
405.755	394.68
406.133	406.2
406.511	425.41
406.889	406.88
407.267	449.37
407.645	430.61
408.023	434.23
408.401	423.15
408.779	453.66
409.156	431.51
409.534	428.12
409.912	448.01
410.29	436.03
410.667	468.58
411.045	478.07
411.422	452.98
411.8	469.03
412.178	446.65
412.555	460.67
412.933	477.84
413.31	487.33
413.687	468.12
414.065	498.86
414.442	468.58
414.819	499.76
415.197	491.63
415.574	479.65
415.951	512.64
416.328	513.55
416.705	492.08
417.082	489.37
417.46	506.54
417.837	509.25
418.214	537.95
418.591	520.55
418.967	518.07
419.344	509.03
419.721	550.16
420.098	541.79
420.475	516.26
420.852	539.53
421.228	542.92
421.605	543.15
421.982	548.35
422.358	546.99
422.735	552.87
423.111	569.82
423.488	563.04
423.864	566.43
424.241	569.59
424.617	589.93
424.994	568.69
425.37	557.84
425.746	558.29
426.123	583.37
426.499	583.6
426.875	568.01
427.251	612.98
427.627	594.22
428.003	603.94
428.379	613.88
428.756	623.6
429.132	616.14
429.507	607.1
429.883	646.88
430.259	630.6
430.635	633.54
431.011	633.32
431.387	641.45
431.763	668.12
432.138	662.47
432.514	678.97
432.89	667.67
433.265	690.49
433.641	666.54
434.016	699.08
434.392	727.33
434.767	721.68
435.143	702.92
435.518	718.29
435.894	692.52
436.269	719.19
436.644	732.52
437.02	742.01
437.395	743.82
437.77	748.79
438.145	778.85
438.52	790.37
438.895	746.76
439.271	754.67
439.646	789.47
440.021	782.92
440.395	782.47
440.77	786.31
441.145	785.86
441.52	795.8
441.895	829.92
442.27	807.78
442.645	833.54
443.019	839.64
443.394	818.62
443.769	838.28
444.143	808.23
444.518	830.15
444.892	852.07
445.267	865.63
445.641	859.3
446.016	848.23
446.39	842.58
446.764	865.85
447.139	882.8
447.513	888.23
447.887	874.89
448.262	895.23
448.636	875.57
449.01	893.42
449.384	893.2
449.758	924.38
450.132	919.86
450.506	903.14
450.88	899.98
451.254	918.96
451.628	915.57
452.002	966.87
452.376	948.34
452.75	940.2
453.123	956.92
453.497	986.08
453.871	978.62
454.244	988.11
454.618	1000.99
454.992	1002.12
455.365	1007.09
455.739	1017.26
456.112	1038.96
456.486	1046.41
456.859	1061.1
457.232	1072.4
457.606	1075.79
457.979	1077.37
458.352	1087.99
458.725	1107.2
459.099	1098.62
459.472	1130.7
459.845	1148.11
460.218	1161.89
460.591	1173.19
460.964	1179.74
461.337	1199.86
461.71	1205.96
462.083	1200.76
462.456	1231.49
462.829	1216.58
463.201	1248.22
463.574	1235.11
463.947	1256.8
464.32	1280.53
464.692	1311.94
465.065	1294.32
465.438	1303.36
465.81	1320.08
466.183	1312.39
466.555	1339.29
466.928	1383.58
467.3	1382.45
467.672	1412.96
468.045	1417.02
468.417	1414.54
468.789	1433.52
469.161	1427.65
469.534	1479.17
469.906	1471.71
470.278	1508.32
470.65	1499.96
471.022	1489.79
471.394	1551.03
471.766	1570.02
472.138	1571.37
472.51	1584.7
472.882	1625.16
473.253	1614.76
473.625	1662.89
473.997	1714.64
474.369	1695.66
474.74	1727.98
475.112	1736.56
475.484	1774.3
475.855	1805.04
476.227	1827.64
476.598	1864.7
476.97	1873.96
477.341	1886.62
477.713	1963.68
478.084	1938.14
478.455	1989.21
478.827	2031.47
479.198	2069.44
479.569	2040.74
479.94	2112.83
480.311	2104.92
480.682	2174.52
481.053	2218.59
481.424	2223.56
481.795	2242.54
482.166	2267.85
482.537	2289.54
482.908	2343.78
483.279	2355.76
483.65	2428.3
484.021	2444.34
484.391	2497.67
484.762	2470.78
485.133	2506.71
485.503	2534.74
485.874	2578.35
486.244	2572.93
486.615	2663.77
486.985	2690.44
487.356	2738.12
487.726	2765.46
488.097	2811.56
488.467	2781.96
488.837	2863.99
489.207	2871.68
489.578	2926.59
489.948	2951.45
490.318	2983.76
490.688	2992.8
491.058	3061.5
491.428	3065.8
491.798	3159.13
492.168	3118.22
492.538	3181.27
492.908	3184.89
493.278	3234.6
493.648	3230.99
494.017	3282.51
494.387	3274.15
494.757	3350.99
495.126	3394.6
495.496	3418.33
495.866	3441.6
496.235	3451.1
496.605	3476.86
496.974	3505.78
497.344	3551.88
497.713	3544.2
498.082	3579.68
498.452	3550.08
498.821	3578.32
499.19	3623.97
499.559	3629.85
499.928	3669.4
500.298	3713.46
500.667	3739.22
501.036	3754.36
501.405	3763.18
501.774	3761.6
502.143	3783.29
502.512	3839.56
502.88	3877.98
503.249	3916.62
503.618	3894.47
503.987	3924.08
504.356	3960.91
504.724	3950.29
505.093	3960.01
505.462	3974.92
505.83	4058.54
506.199	4060.12
506.567	4124.98
506.936	4140.12
507.304	4185.99
507.672	4145.54
508.041	4231.41
508.409	4265.54
508.777	4248.81
509.145	4269.61
509.514	4316.61
509.882	4313.22
510.25	4357.29
510.618	4385.76
510.986	4407.68
511.354	4450.39
511.722	4462.82
512.09	4529.49
512.458	4548.02
512.826	4590.27
513.193	4543.72
513.561	4573.78
513.929	4626.88
514.297	4690.61
514.664	4704.4
515.032	4708.69
515.4	4750.27
515.767	4794.56
516.135	4794.34
516.502	4780.33
516.869	4858.74
517.237	4890.38
517.604	4863.04
517.972	4953.2
518.339	4950.27
518.706	4988.68
519.073	5013.99
519.44	5079.98
519.808	5067.55
520.175	5091.5
520.542	5164.05
520.909	5211.95
521.276	5184.61
521.643	5216.02
522.009	5282.46
522.376	5302.35
522.743	5338.5
523.11	5353.87
523.477	5443.36
523.843	5473.42
524.21	5518.61
524.577	5540.76
524.943	5584.82
525.31	5635.67
525.676	5659.4
526.043	5646.29
526.409	5684.48
526.776	5806.74
527.142	5750.47
527.508	5804.93
527.874	5889.22
528.241	5925.83
528.607	5913.86
528.973	5948.88
529.339	5976.68
529.705	5933.29
530.071	6023.23
530.437	6182.55
530.803	6119.5
531.169	6160.63
531.535	6203.11
531.901	6223.23
532.267	6263.45
532.632	6285.6
532.998	6314.98
533.364	6390.68
533.73	6387.74
534.095	6392.04
534.461	6415.99
534.826	6482.88
535.192	6512.48
535.557	6574.86
535.923	6560.39
536.288	6626.61
536.653	6652.82
537.019	6623.89
537.384	6663.89
537.749	6684.01
538.114	6691.91
538.479	6759.71
538.845	6776.21
539.21	6749.99
539.575	6858.24
539.94	6860.95
540.305	6879.93
540.67	6916.99
541.034	6939.37
541.399	6973.04
541.764	7085.8
542.129	7053.94
542.494	7032.02
542.858	7046.71
543.223	7119.93
543.587	7149.76
543.952	7125.8
544.316	7218
544.681	7154.28
545.045	7233.82
545.41	7269.53
545.774	7330.32
546.138	7307.49
546.503	7317.21
546.867	7349.3
547.231	7435.85
547.595	7434.72
547.959	7474.27
548.324	7502.74
548.688	7472.23
549.052	7529.86
549.416	7493.02
549.779	7640.59
550.143	7631.1
550.507	7659.12
550.871	7673.13
551.235	7726.24
551.599	7761.72
551.962	7773.69
552.326	7799
552.689	7865.89
553.053	7813.92
553.417	7864.99
553.78	7959.68
554.143	7914.71
554.507	7976.85
554.87	7956.29
555.234	8067.02
555.597	8020.02
555.96	8103.4
556.323	8154.7
556.686	8097.75
557.05	8199.9
557.413	8212.78
557.776	8241.25
558.139	8286.67
558.502	8362.83
558.865	8309.27
559.228	8349.72
559.59	8469.72
559.953	8425.2
560.316	8544.75
560.679	8488.03
561.041	8593.56
561.404	8664.52
561.767	8675.59
562.129	8651.41
562.492	8738.87
562.854	8719.43
563.217	8747.68
563.579	8823.38
563.941	8820.22
564.304	8805.98
564.666	8890.95
565.028	8960.78
565.39	8987
565.753	9022.7
566.115	9103.38
566.477	9077.61
566.839	9196.26
567.201	9234.67
567.563	9207.1
567.925	9259.53
568.287	9255.46
568.648	9318.29
569.01	9275.35
569.372	9377.72
569.734	9388.11
570.095	9435.57
570.457	9500.43
570.819	9472.63
571.18	9523.25
571.542	9567.55
571.903	9586.08
572.265	9626.3
572.626	9603.02
572.987	9659.75
573.349	9708.33
573.71	9719.18
574.071	9729.57
574.432	9834.43
574.794	9884.82
575.155	9851.15
575.516	9871.49
575.877	9860.87
576.238	9962.11
576.599	9887.54
576.96	9991.94
577.32	9916.24
577.681	10004.37
578.042	9981.77
578.403	9995.78
578.763	10033.07
579.124	10051.15
579.485	10120.98
579.845	10109.9
580.206	10128.89
580.566	10054.54
580.927	10144.25
581.287	10141.77
581.648	10114.42
582.008	10198.26
582.368	10179.51
582.728	10219.05
583.089	10193.52
583.449	10177.25
583.809	10231.48
584.169	10238.49
584.529	10281.42
584.889	10330.01
585.249	10300.86
585.609	10199.62
585.969	10337.02
586.329	10283.46
586.688	10291.37
587.048	10202.33
587.408	10248.66
587.768	10330.01
588.127	10283.91
588.487	10221.09
588.846	10391.93
589.206	10253.4
589.565	10320.75
589.925	10318.94
590.284	10322.55
590.643	10380.41
591.003	10343.34
591.362	10459.27
591.721	10341.08
592.08	10330.69
592.44	10408.43
592.799	10394.19
593.158	10355.32
593.517	10314.64
593.876	10409.33
594.235	10352.84
594.593	10379.73
594.952	10403.23
595.311	10405.94
595.67	10403.91
596.029	10392.16
596.387	10454.75
596.746	10399.61
597.104	10431.93
597.463	10406.62
597.822	10462.21
598.18	10424.47
598.538	10443
598.897	10491.36
599.255	10481.19
599.613	10579.04
599.972	10493.17
600.33	10446.84
600.688	10445.49
601.046	10474.41
601.404	10488.88
601.762	10541.76
602.12	10502.89
602.478	10591.25
602.836	10548.54
603.194	10505.15
603.552	10495.66
603.91	10560.29
604.268	10549.21
604.625	10516.9
604.983	10571.36
605.341	10440.52
605.698	10580.63
606.056	10602.32
606.413	10537.69
606.771	10563
607.128	10635.31
607.485	10589.44
607.843	10606.61
608.2	10676.22
608.557	10694.97
608.914	10615.88
609.272	10739.49
609.629	10751.24
609.986	10742.2
610.343	10782.2
610.7	10758.93
611.057	10753.5
611.414	10797.57
611.771	10807.29
612.127	10858.13
612.484	10831.24
612.841	10836.44
613.198	10835.08
613.554	10849.32
613.911	10876.21
614.267	10905.81
614.624	10915.76
614.98	10876.44
615.337	10959.37
615.693	10879.37
616.05	10913.72
616.406	10927.28
616.762	10853.61
617.118	10892.71
617.475	10934.97
617.831	10925.02
618.187	10986.49
618.543	11029.2
618.899	11082.99
619.255	11046.38
619.611	10976.77
619.967	11066.04
620.323	11049.77
620.678	11014.06
621.034	11025.13
621.39	11048.18
621.746	11026.49
622.101	11082.76
622.457	11020.16
622.812	11022.65
623.168	11118.46
623.523	11127.5
623.879	11043.44
624.234	11054.06
624.589	11080.27
624.945	11110.78
625.3	11066.26
625.655	11059.48
626.01	11099.03
626.365	11109.43
626.72	11024.46
627.075	11135.19
627.43	11125.92
627.785	11030.78
628.14	11023.55
628.495	11097.22
628.85	11115.3
629.205	11034.4
629.559	11059.26
629.914	11066.04
630.269	11041.86
630.623	11060.61
630.978	11028.3
631.332	11054.29
631.687	11074.85
632.041	10955.31
632.396	11057.45
632.75	10984
633.104	11027.39
633.459	11016.09
633.813	10968.64
634.167	11013.61
634.521	10957.11
634.875	10972.25
635.229	10945.36
635.583	10913.05
635.937	10959.6
636.291	10941.29
636.645	10890.45
636.999	10878.7
637.352	11008.86
637.706	10889.54
638.06	10920.5
638.413	10858.36
638.767	10879.83
639.121	10868.53
639.474	10915.98
639.828	10870.34
640.181	10868.75
640.534	10871.47
640.888	10848.19
641.241	10740.17
641.594	10832.6
641.947	10806.61
642.301	10732.03
642.654	10786.04
643.007	10772.49
643.36	10779.04
643.713	10697.91
644.066	10843.9
644.419	10732.71
644.771	10685.26
645.124	10669.66
645.477	10549.21
645.83	10492.49
646.182	10552.38
646.535	10450.91
646.888	10474.19
647.24	10435.54
647.593	10510.35
647.945	10487.52
648.298	10409.78
648.65	10348.99
649.002	10411.14
649.355	10405.49
649.707	10419.5
650.059	10466.5
650.411	10567.74
650.763	10609.1
651.115	10724.12
651.467	10681.64
651.819	10688.87
652.171	10690.91
652.523	10617.91
652.875	10641.19
653.227	10600.74
653.578	10755.08
653.93	10715.31
654.282	10613.17
654.633	10664.69
654.985	10560.74
655.337	10644.8
655.688	10627.18
656.039	10677.12
656.391	10587.63
656.742	10633.73
657.094	10621.3
657.445	10701.53
657.796	10564.81
658.147	10591.25
658.498	10568.87
658.849	10651.36
659.2	10584.92
659.551	10665.14
659.902	10691.36
660.253	10632.83
660.604	10625.82
660.955	10576.56
661.306	10643
661.656	10599.38
662.007	10645.26
662.358	10642.32
662.708	10656.33
663.059	10593.05
663.409	10538.82
663.76	10650.23
664.11	10566.61
664.461	10615.88
664.811	10672.37
665.161	10636.44
665.511	10610.46
665.862	10652.49
666.212	10669.66
666.562	10653.84
666.912	10615.2
667.262	10632.83
667.612	10625.82
667.962	10679.38
668.312	10602.09
668.662	10671.7
669.011	10581.98
669.361	10559.84
669.711	10549.21
670.06	10559.84
670.41	10626.05
670.76	10564.35
671.109	10634.18
671.459	10566.61
671.808	10495.66
672.157	10559.84
672.507	10485.94
672.856	10482.1
673.205	10487.75
673.554	10560.97
673.904	10493.4
674.253	10536.11
674.602	10482.55
674.951	10345.6
675.3	10355.32
675.649	10496.79
675.998	10449.33
676.346	10503.34
676.695	10516.45
677.044	10438.71
677.393	10391.48
677.741	10476
678.09	10501.98
678.438	10433.74
678.787	10468.99
679.135	10391.7
679.484	10329.11
679.832	10389.44
680.181	10317.58
680.529	10348.09
680.877	10370.46
681.225	10314.64
681.573	10372.95
681.922	10226.51
682.27	10248.88
682.618	10228.32
682.966	10305.6
683.314	10248.88
683.661	10219.96
684.009	10127.76
684.357	10173.4
684.705	10210.47
685.053	10186.06
685.4	10114.65
685.748	10094.08
686.095	10057.7
686.443	10087.08
686.79	10005.05
687.138	10032.84
687.485	10063.8
687.832	9961.21
688.18	10006.86
688.527	9921.43
688.874	9891.83
689.221	9908.78
689.568	9824.49
689.915	9855.22
690.262	9872.62
690.609	9837.37
690.956	9775
691.303	9768.9
691.65	9784.71
691.997	9714.43
692.344	9663.36
692.69	9640.31
693.037	9676.02
693.383	9594.44
693.73	9657.03
694.077	9556.7
694.423	9546.75
694.769	9498.39
695.116	9459.3
695.462	9420.2
695.808	9503.14
696.155	9409.81
696.501	9364.84
696.847	9352.41
697.193	9281.68
697.539	9349.7
697.885	9227.22
698.231	9292.52
698.577	9206.65
698.923	9221.11
699.269	9097.73
699.614	9056.82
699.96	9105.86
700.306	9152.41
700.651	9072.64
700.997	9052.98
701.342	8991.29
701.688	8969.14
702.033	8937.73
702.379	8887.34
702.724	8918.75
703.069	8931.18
703.415	8816.6
703.76	8849.15
704.105	8790.39
704.45	8823.84
704.795	8786.77
705.14	8707.23
705.485	8724.63
705.83	8692.09
706.175	8645.76
706.52	8632.2
706.865	8621.58
707.209	8657.06
707.554	8582.26
707.899	8643.28
708.243	8597.18
708.588	8503.17
708.932	8480.34
709.277	8453.9
709.621	8464.3
709.966	8410.97
710.31	8429.72
710.654	8403.51
710.998	8392.66
711.342	8440.34
711.687	8427.46
712.031	8367.58
712.375	8311.08
712.719	8327.8
713.063	8294.13
713.407	8351.53
713.75	8278.09
714.094	8256.17
714.438	8259.56
714.782	8261.36
715.125	8198.32
715.469	8221.14
715.812	8132.33
716.156	8147.47
716.499	8152.22
716.843	8157.41
717.186	8118.54
717.53	8222.27
717.873	8166.68
718.216	8135.94
718.559	8095.27
718.902	8091.65
719.246	8064.76
719.589	8031.54
719.932	8021.82
720.275	8048.26
720.617	8050.97
720.96	8076.28
721.303	8002.39
721.646	8048.04
721.989	7985.89
722.331	8010.52
722.674	7928.72
723.016	7998.77
723.359	7958.32
723.701	7980.92
724.044	7961.94
724.386	7969.17
724.729	7949.96
725.071	7923.29
725.413	7989.51
725.755	7895.05
726.097	7898.44
726.439	7841.94
726.782	7881.04
727.124	7937.31
727.465	7917.19
727.807	7859.79
728.149	7813.92
728.491	7880.58
728.833	7881.49
729.175	7884.65
729.516	7847.82
729.858	7836.97
730.199	7832.9
730.541	7813.69
730.882	7794.26
731.224	7884.65
731.565	7836.74
731.906	7843.75
732.248	7838.55
732.589	7761.72
732.93	7780.93
733.271	7778.89
733.612	7829.74
733.953	7792.45
734.294	7752.9
734.635	7789.51
734.976	7832.22
735.317	7787.25
735.658	7815.27
735.999	7830.19
736.339	7760.59
736.68	7717.88
737.021	7817.31
737.361	7693.02
737.702	7761.26
738.042	7821.83
738.383	7768.04
738.723	7777.54
739.063	7766.46
739.404	7749.06
739.744	7748.84
740.084	7719.46
740.424	7707.25
740.764	7789.96
741.104	7717.88
741.444	7676.75
741.784	7747.25
742.124	7747.48
742.464	7729.4
742.804	7686.01
743.143	7769.63
743.483	7677.2
743.823	7663.87
744.162	7689.85
744.502	7688.95
744.841	7714.26
745.181	7735.73
745.52	7612.79
745.86	7701.83
746.199	7657.54
746.538	7719.23
746.877	7690.98
747.216	7734.15
747.556	7701.38
747.895	7638.78
748.234	7616.86
748.573	7639.23
748.911	7613.92
749.25	7582.29
749.589	7623.42
749.928	7685.79
750.267	7686.69
750.605	7649.86
750.944	7592.23
751.283	7625
751.621	7604.88
751.96	7584.77
752.298	7583.19
752.636	7584.09
752.975	7563.76
753.313	7584.55
753.651	7578.44
753.989	7542.06
754.327	7501.16
754.666	7470.2
755.004	7462.52
755.342	7514.94
755.679	7442.63
756.017	7415.06
756.355	7473.14
756.693	7465.68
757.031	7469.07
757.368	7350.2
757.706	7491.67
758.044	7386.13
758.381	7364.21
758.719	7386.13
759.056	7385.68
759.394	7330.99
759.731	7350.43
760.068	7263.88
760.405	7234.73
760.743	7274.72
761.08	7283.09
761.417	7203.77
761.754	7210.32
762.091	7230.66
762.428	7146.37
762.765	7151.11
763.102	7166.25
763.438	7079.02
763.775	7103.2
764.112	7019.82
764.449	7093.71
764.785	7068.63
