Data from mousepad_grey_FLMS001491_00031.txt Node
Date: Wed Feb 08 14:29:20 GMT 2017
User: dcchb
Spectrometer: FLMS00149
Trigger mode: 0
Integration Time (sec): 2.000000E-2
Scans to average: 10
Electric dark correction enabled: true
Nonlinearity correction enabled: false
Boxcar width: 0
XAxis mode: Wavelengths
Number of Pixels in Spectrum: 2048
>>>>>Begin Spectral Data<<<<<
341.393	-17.91
341.776	-17.91
342.16	-17.91
342.543	-59.72
342.927	-57.23
343.31	-79.6
343.693	-72.6
344.077	-60.85
344.46	-47.96
344.843	-47.74
345.226	-28.3
345.61	-21.52
345.993	-13.84
346.376	-17.91
346.759	9.89
347.142	30.23
347.525	37.68
347.908	51.92
348.291	83.56
348.674	72.26
349.057	104.8
349.44	125.14
349.823	131.47
350.206	161.3
350.588	159.04
350.971	199.03
351.354	207.17
351.737	196.77
352.119	239.71
352.502	224.12
352.884	265.7
353.267	255.3
353.65	271.57
354.032	274.06
354.414	285.59
354.797	308.64
355.179	305.25
355.562	302.53
355.944	307.28
356.326	294.63
356.709	328.97
357.091	289.88
357.473	325.81
357.855	333.95
358.238	303.21
358.62	308.18
359.002	310.44
359.384	320.16
359.766	310.67
360.148	309.77
360.53	331.23
360.912	321.52
361.294	292.14
361.676	317.45
362.057	302.31
362.439	320.16
362.821	306.38
363.203	311.8
363.584	328.97
363.966	317.45
364.348	311.8
364.729	301.63
365.111	325.13
365.493	312.93
365.874	300.95
366.256	311.35
366.637	286.72
367.019	286.04
367.4	302.31
367.781	292.59
368.163	302.08
368.544	277.22
368.925	292.59
369.306	324
369.688	309.54
370.069	305.7
370.45	297.56
370.831	310.9
371.212	290.78
371.593	300.95
371.974	302.08
372.355	287.17
372.736	268.86
373.117	297.56
373.498	279.26
373.879	325.58
374.26	309.31
374.641	288.98
375.021	296.88
375.402	308.18
375.783	298.69
376.163	305.92
376.544	289.88
376.925	287.17
377.305	302.76
377.686	293.5
378.066	304.79
378.447	298.24
378.827	316.55
379.208	313.16
379.588	300.5
379.968	294.85
380.349	312.03
380.729	303.21
381.109	310.9
381.489	319.03
381.87	317.45
382.25	294.4
382.63	311.8
383.01	297.56
383.39	318.35
383.77	317
384.15	323.32
384.53	309.99
384.91	323.32
385.29	309.77
385.67	314.96
386.049	326.26
386.429	324
386.809	344.79
387.189	310.9
387.568	321.07
387.948	327.17
388.328	336.21
388.707	352.7
389.087	329.88
389.466	343.21
389.846	315.64
390.225	340.05
390.605	358.58
390.984	346.6
391.363	326.26
391.743	337.11
392.122	349.09
392.501	344.34
392.881	339.14
393.26	335.3
393.639	345.25
394.018	338.92
394.397	332.36
394.776	341.86
395.155	350.22
395.534	376.43
395.913	361.29
396.292	382.31
396.671	348.86
397.05	356.09
397.429	336.66
397.808	351.8
398.186	364.23
398.565	370.33
398.944	377.79
399.323	359.48
399.701	366.71
400.08	364.45
400.458	369.43
400.837	370.1
401.215	377.56
401.594	386.6
401.972	383.66
402.351	375.75
402.729	375.3
403.107	383.44
403.486	400.38
403.864	396.09
404.242	378.69
404.62	386.37
404.999	382.76
405.377	405.13
405.755	401.74
406.133	403.32
406.511	404.45
406.889	398.35
407.267	404.68
407.645	418.24
408.023	407.62
408.401	405.58
408.779	401.29
409.156	426.37
409.534	442.87
409.912	427.05
410.29	418.01
410.667	428.86
411.045	425.7
411.422	431.34
411.8	442.64
412.178	446.49
412.555	466.6
412.933	440.16
413.31	448.52
413.687	445.36
414.065	438.35
414.442	452.59
414.819	468.86
415.197	484.68
415.574	479.48
415.951	469.76
416.328	501.85
416.705	465.02
417.082	500.04
417.46	500.5
417.837	477.9
418.214	480.83
418.591	494.62
418.967	494.39
419.344	506.6
419.721	479.7
420.098	516.31
420.475	529.65
420.852	518.8
421.228	495.07
421.605	504.56
421.982	528.29
422.358	512.02
422.735	533.71
423.111	533.71
423.488	511.79
423.864	547.95
424.241	537.33
424.617	547.73
424.994	564.45
425.37	545.47
425.746	548.18
426.123	528.52
426.499	561.51
426.875	553.15
427.251	566.48
427.627	558.12
428.003	581.62
428.379	558.35
428.756	588.4
429.132	585.01
429.507	598.35
429.883	589.08
430.259	608.74
430.635	614.84
431.011	636.08
431.387	615.97
431.763	622.98
432.138	641.51
432.514	624.56
432.89	624.79
433.265	649.19
433.641	653.94
434.016	640.38
434.392	663.2
434.767	676.76
435.143	679.7
435.518	666.59
435.894	668.17
436.269	708.17
436.644	705.46
437.02	699.13
437.395	682.64
437.77	716.08
438.145	705.24
438.52	715.18
438.895	710.66
439.271	702.75
439.646	743.43
440.021	730.32
440.395	715.86
440.77	733.94
441.145	733.48
441.52	734.84
441.895	748.85
442.27	745.01
442.645	732.58
443.019	776.65
443.394	764.67
443.769	760.83
444.143	772.35
444.518	775.06
444.892	776.87
445.267	771.67
445.641	805.57
446.016	773.93
446.39	787.49
446.764	818.45
447.139	802.18
447.513	796.08
447.887	805.12
448.262	821.39
448.636	792.69
449.01	825.68
449.384	855.06
449.758	839.24
450.132	847.83
450.506	839.92
450.88	846.47
451.254	868.4
451.628	873.82
452.002	878.34
452.376	871.56
452.75	870.88
453.123	880.6
453.497	900.48
453.871	908.62
454.244	914.04
454.618	924.66
454.992	930.77
455.365	946.59
455.739	949.07
456.112	952.91
456.486	959.24
456.859	959.24
457.232	993.59
457.606	978.22
457.979	1001.5
458.352	1021.84
458.725	1004.44
459.099	1030.42
459.472	1067.71
459.845	1058.9
460.218	1053.7
460.591	1084.66
460.964	1086.24
461.337	1100.93
461.71	1076.98
462.083	1120.59
462.456	1095.06
462.829	1133.25
463.201	1136.18
463.574	1155.62
463.947	1159.24
464.32	1150.2
464.692	1183.19
465.065	1173.02
465.438	1195.84
465.81	1209.86
466.183	1251.66
466.555	1247.59
466.928	1263.64
467.3	1244.66
467.672	1285.56
468.045	1295.05
468.417	1302.28
468.789	1305.45
469.161	1327.14
469.534	1344.31
469.906	1366.69
470.278	1374.37
470.65	1374.82
471.022	1421.6
471.394	1425.67
471.766	1440.81
472.138	1437.87
472.51	1482.39
472.882	1497.76
473.253	1515.16
473.625	1509.51
473.997	1568.72
474.369	1551.99
474.74	1581.6
475.112	1622.95
475.484	1638.54
475.855	1643.74
476.227	1667.02
476.598	1704.98
476.97	1706.57
477.341	1751.76
477.713	1791.53
478.084	1809.39
478.455	1812.55
478.827	1836.96
479.198	1860.01
479.569	1890.29
479.94	1900.01
480.311	1952.43
480.682	2015.94
481.053	1979.55
481.424	2063.62
481.795	2082.6
482.166	2096.16
482.537	2084.18
482.908	2146.55
483.279	2141.36
483.65	2186.33
484.021	2234.24
484.391	2252.77
484.762	2298.19
485.133	2286.89
485.503	2308.81
485.874	2358.98
486.244	2365.76
486.615	2440.33
486.985	2483.27
487.356	2485.3
487.726	2519.2
488.097	2554.68
488.467	2590.84
488.837	2606.88
489.207	2601.46
489.578	2705.41
489.948	2666.77
490.318	2697.27
490.688	2711.06
491.058	2742.7
491.428	2812.52
491.798	2858.17
492.168	2880.32
492.538	2884.61
492.908	2896.36
493.278	2969.58
493.648	2983.37
494.017	2994.89
494.387	3025.17
494.757	3075.12
495.126	3091.39
495.496	3116.92
495.866	3096.59
496.235	3137.49
496.605	3156.24
496.974	3178.17
497.344	3198.73
497.713	3212.29
498.082	3230.37
498.452	3279.41
498.821	3312.17
499.19	3292.06
499.559	3336.35
499.928	3370.02
500.298	3374.54
500.667	3413.41
501.036	3378.61
501.405	3448.21
501.774	3447.31
502.143	3489.12
502.512	3478.27
502.88	3535.67
503.249	3538.61
503.618	3532.96
503.987	3557.59
504.356	3570.92
504.724	3625.61
505.093	3679.62
505.462	3629.45
505.83	3660.86
506.199	3723.01
506.567	3789
506.936	3751.26
507.304	3793.52
507.672	3768.43
508.041	3806.4
508.409	3835.1
508.777	3863.12
509.145	3944.25
509.514	3871.48
509.882	3964.59
510.25	4010.91
510.618	3986.05
510.986	4000.06
511.354	4049.33
511.722	4068.54
512.09	4120.29
512.458	4090.01
512.826	4130
513.193	4106.5
513.561	4165.48
513.929	4204.13
514.297	4251.58
514.664	4281.41
515.032	4259.27
515.4	4322.54
515.767	4320.96
516.135	4370
516.502	4299.94
516.869	4427.62
517.237	4429.66
517.604	4366.16
517.972	4479.6
518.339	4463.78
518.706	4523.44
519.073	4518.92
519.44	4563.44
519.808	4640.05
520.175	4638.92
520.542	4698.58
520.909	4703.1
521.276	4707.39
521.643	4755.07
522.009	4788.52
522.376	4834.62
522.743	4867.84
523.11	4891.57
523.477	4934.05
523.843	4951.9
524.21	5036.65
524.577	5014.95
524.943	5083.2
525.31	5120.26
525.676	5168.85
526.043	5162.75
526.409	5205.91
526.776	5216.08
527.142	5271.67
527.508	5297.66
527.874	5337.2
528.241	5344.21
528.607	5362.51
528.973	5364.55
529.339	5393.47
529.705	5481.38
530.071	5529.29
530.437	5536.3
530.803	5568.38
531.169	5561.83
531.535	5597.08
531.901	5608.38
532.267	5634.6
532.632	5721.37
532.998	5727.48
533.364	5732.22
533.73	5752.33
534.095	5752.56
534.461	5820.13
534.826	5808.83
535.192	5912.1
535.557	5890.41
535.923	5884.53
536.288	5959.79
536.653	5976.96
537.019	5966.11
537.384	6002.5
537.749	5996.17
538.114	6106.22
538.479	6140.35
538.845	6119.33
539.21	6142.15
539.575	6174.02
539.94	6166.34
540.305	6154.36
540.67	6237.07
541.034	6268.03
541.399	6261.02
541.764	6328.59
542.129	6370.17
542.494	6366.1
542.858	6354.13
543.223	6377.18
543.587	6422.6
543.952	6394.58
544.316	6468.25
544.681	6465.08
545.045	6569.94
545.41	6557.74
545.774	6598.87
546.138	6599.09
546.503	6703.5
546.867	6643.16
547.231	6687
547.595	6770.16
547.959	6779.88
548.324	6750.5
548.688	6800.89
549.052	6833.21
549.416	6806.09
549.779	6831.63
550.143	6874.79
550.507	6922.47
550.871	6933.77
551.235	6954.56
551.599	7035.69
551.962	7035.46
552.326	7042.24
552.689	7076.82
553.053	7046.09
553.417	7124.28
553.78	7177.61
554.143	7132.64
554.507	7151.62
554.87	7212.86
555.234	7310.71
555.597	7280.88
555.96	7305.29
556.323	7278.17
556.686	7391.84
557.05	7419.41
557.413	7465.96
557.776	7449.69
558.139	7479.52
558.502	7529.46
558.865	7537.82
559.228	7583.7
559.59	7592.29
559.953	7657.6
560.316	7684.71
560.679	7777.82
561.041	7774.88
561.404	7796.12
561.767	7908.44
562.129	7767.2
562.492	7944.37
562.854	7890.36
563.217	7921.09
563.579	7990.69
563.941	8004.93
564.304	8016.91
564.666	8087.64
565.028	8128.77
565.39	8194.76
565.753	8168.32
566.115	8233.4
566.477	8180.29
566.839	8263.23
567.201	8284.25
567.563	8310.69
567.925	8420.97
568.287	8410.8
568.648	8382.77
569.01	8446.95
569.372	8515.65
569.734	8504.58
570.095	8557.01
570.457	8557.91
570.819	8620.28
571.18	8618.25
571.542	8656.67
571.903	8676.1
572.265	8682.2
572.626	8678.36
572.987	8752.26
573.349	8776.44
573.71	8818.47
574.071	8808.98
574.432	8864.34
574.794	8882.42
575.155	8923.78
575.516	8910.67
575.877	8984.11
576.238	8977.79
576.599	9038.58
576.96	9034.51
577.32	9013.04
577.681	9068.86
578.042	9175.52
578.403	9039.93
578.763	9135.52
579.124	9092.81
579.485	9136.65
579.845	9178.23
580.206	9147.95
580.566	9159.02
580.927	9180.95
581.287	9236.54
581.648	9193.37
582.008	9223.88
582.368	9183.2
582.728	9254.16
583.089	9310.89
583.449	9266.37
583.809	9280.6
584.169	9322.86
584.529	9286.48
584.889	9276.76
585.249	9337.55
585.609	9243.99
585.969	9331.22
586.329	9275.86
586.688	9281.73
587.048	9337.55
587.408	9312.69
587.768	9305.69
588.127	9303.65
588.487	9321.05
588.846	9413.93
589.206	9314.95
589.565	9368.74
589.925	9360.15
590.284	9363.77
590.643	9318.79
591.003	9376.65
591.362	9416.65
591.721	9377.55
592.08	9408.28
592.44	9327.38
592.799	9446.25
593.158	9437.21
593.517	9394.05
593.876	9434.05
594.235	9381.62
594.593	9423.2
594.952	9413.03
595.311	9361.73
595.67	9434.72
596.029	9455.97
596.387	9491.9
596.746	9457.55
597.104	9442.41
597.463	9410.54
597.822	9451.9
598.18	9446.47
598.538	9400.15
598.897	9472.01
599.255	9469.07
599.613	9615.96
599.972	9513.37
600.33	9535.29
600.688	9457.77
601.046	9536.42
601.404	9501.84
601.762	9558.56
602.12	9562.18
602.478	9559.69
602.836	9611.22
603.194	9553.14
603.552	9548.84
603.91	9453.25
604.268	9648.05
604.625	9570.99
604.983	9550.88
605.341	9557.21
605.698	9664.1
606.056	9549.07
606.413	9559.47
606.771	9621.16
607.128	9641.27
607.485	9607.6
607.843	9627.94
608.2	9646.47
608.557	9736.18
608.914	9679.24
609.272	9708.16
609.629	9747.48
609.986	9740.25
610.343	9716.75
610.7	9775.73
611.057	9826.13
611.414	9817.09
611.771	9797.43
612.127	9774.15
612.484	9814.83
612.841	9799.46
613.198	9874.49
613.554	9799.01
613.911	9823.87
614.267	9815.28
614.624	9794.49
614.98	9894.37
615.337	9880.14
615.693	9900.7
616.05	9871.55
616.406	9920.36
616.762	9903.64
617.118	9911.77
617.475	9907.48
617.831	9917.42
618.187	9943.18
618.543	9940.7
618.899	10002.84
619.255	9980.25
619.611	9951.77
619.967	9949.51
620.323	10024.54
620.678	9926.24
621.034	9954.94
621.39	9929.17
621.746	9965.33
622.101	10086.01
622.457	10013.69
622.812	10034.48
623.168	10030.19
623.523	10001.49
623.879	10076.74
624.234	10006.91
624.589	10045.56
624.945	10026.8
625.3	10056.4
625.655	10087.14
626.01	10125.55
626.365	10032.45
626.72	10056.18
627.075	10057.98
627.43	10021.15
627.785	10048.49
628.14	10126.23
628.495	10038.32
628.85	10053.46
629.205	10025.44
629.559	10107.93
629.914	9992.9
630.269	9998.78
630.623	9986.12
630.978	10092.56
631.332	10062.5
631.687	10050.98
632.041	9969.62
632.396	10020.7
632.75	10002.62
633.104	9984.09
633.459	9969.85
633.813	9946.12
634.167	9953.58
634.521	10000.36
634.875	9953.35
635.229	9901.6
635.583	9966.24
635.937	9897.99
636.291	9914.26
636.645	9978.44
636.999	9906.58
637.352	9963.07
637.706	9865.45
638.06	9889.85
638.413	9851.21
638.767	9934.82
639.121	9871.32
639.474	9890.08
639.828	9847.37
640.181	9844.88
640.534	9822.51
640.888	9832
641.241	9757.65
641.594	9807.14
641.947	9851.66
642.301	9813.7
642.654	9835.62
643.007	9815.28
643.36	9751.33
643.713	9778.9
644.066	9812.11
644.419	9755.17
644.771	9749.74
645.124	9598.34
645.477	9592.46
645.83	9596.98
646.182	9540.26
646.535	9518.56
646.888	9589.3
647.24	9530.54
647.593	9521.73
647.945	9538
648.298	9533.93
648.65	9440.15
649.002	9451.45
649.355	9535.51
649.707	9467.49
650.059	9487.6
650.411	9637.66
650.763	9641.5
651.115	9705
651.467	9643.31
651.819	9619.58
652.171	9691.21
652.523	9678.56
652.875	9700.93
653.227	9656.19
653.578	9769.63
653.93	9694.83
654.282	9646.47
654.633	9587.94
654.985	9668.16
655.337	9645.79
655.688	9640.59
656.039	9693.02
656.391	9609.41
656.742	9614.83
657.094	9675.85
657.445	9621.16
657.796	9727.6
658.147	9698.22
658.498	9611.89
658.849	9717.2
659.2	9681.27
659.551	9665
659.902	9665.45
660.253	9653.93
660.604	9645.34
660.955	9602.18
661.306	9613.93
661.656	9699.35
662.007	9692.57
662.358	9663.42
662.708	9661.61
663.059	9644.66
663.409	9644.21
663.76	9671.1
664.11	9607.6
664.461	9622.74
664.811	9676.07
665.161	9642.18
665.511	9601.72
665.862	9636.07
666.212	9710.2
666.562	9685.56
666.912	9669.07
667.262	9676.75
667.612	9607.15
667.962	9683.08
668.312	9650.99
668.662	9684.21
669.011	9648.28
669.361	9672.68
669.711	9613.7
670.06	9611.67
670.41	9614.83
670.76	9582.06
671.109	9599.92
671.459	9646.7
671.808	9593.36
672.157	9618.45
672.507	9555.85
672.856	9505.91
673.205	9595.85
673.554	9615.28
673.904	9526.7
674.253	9699.35
674.602	9570.77
674.951	9430.66
675.3	9376.65
675.649	9499.81
675.998	9531.44
676.346	9511.33
676.695	9595.17
677.044	9409.41
677.393	9495.74
677.741	9490.32
678.09	9510.2
678.438	9423.42
678.787	9525.12
679.135	9508.62
679.484	9368.28
679.832	9466.81
680.181	9373.71
680.529	9388.4
680.877	9397.66
681.225	9308.4
681.573	9413.48
681.922	9350.66
682.27	9339.58
682.618	9334.61
682.966	9248.51
683.314	9340.71
683.661	9260.26
684.009	9209.64
684.357	9220.49
684.705	9226.37
685.053	9235.18
685.4	9215.07
685.748	9206.93
686.095	9177.1
686.443	9141.4
686.79	9131.68
687.138	9081.29
687.485	9162.19
687.832	9048.97
688.18	9131.68
688.527	9050.55
688.874	9039.93
689.221	8993.38
689.568	8983.66
689.915	8968.75
690.262	8960.39
690.609	8897.79
690.956	8897.56
691.303	8876.32
691.65	8888.3
691.997	8781.18
692.344	8790.67
692.69	8714.52
693.037	8800.16
693.383	8749.54
693.73	8765.14
694.077	8647.85
694.423	8658.47
694.769	8687.17
695.116	8592.26
695.462	8673.16
695.808	8557.23
696.155	8586.84
696.501	8520.4
696.847	8519.95
697.193	8485.6
697.539	8473.62
697.885	8426.39
698.231	8355.43
698.577	8345.71
698.923	8344.58
699.269	8366.73
699.614	8271.59
699.96	8280.63
700.306	8296.45
700.651	8261.42
700.997	8199.5
701.342	8145.27
701.688	8249.22
702.033	8098.04
702.379	8145.94
702.724	8105.49
703.069	8132.39
703.415	7993.63
703.76	8049.45
704.105	8040.86
704.45	7979.17
704.795	7939.62
705.14	7901.88
705.485	8004.7
705.83	7921.54
706.175	7924.71
706.52	7908.44
706.865	7852.39
707.209	7771.94
707.554	7797.03
707.899	7785.73
708.243	7816.01
708.588	7789.34
708.932	7725.62
709.277	7805.39
709.621	7765.39
709.966	7585.51
710.31	7682
710.654	7619.63
710.998	7602.91
711.342	7627.77
711.687	7588.67
712.031	7582.12
712.375	7529.24
712.719	7601.33
713.063	7543.47
713.407	7598.39
713.75	7526.75
714.094	7468.22
714.438	7430.26
714.782	7496.7
715.125	7497.37
715.469	7472.06
715.812	7445.4
716.156	7391.84
716.499	7438.84
716.843	7439.07
717.186	7432.52
717.53	7435.68
717.873	7408.11
718.216	7416.47
718.559	7357.26
718.902	7331.73
719.246	7343.25
719.589	7370.6
719.932	7317.72
720.275	7330.82
720.617	7305.29
720.96	7282.01
721.303	7359.3
721.646	7338.28
721.989	7302.8
722.331	7267.32
722.674	7274.1
723.016	7337.38
723.359	7248.79
723.701	7308
724.044	7276.81
724.386	7185.29
724.729	7229.13
725.071	7259.41
725.413	7209.47
725.755	7203.6
726.097	7208.57
726.439	7164.95
726.782	7221.9
727.124	7172.41
727.465	7127.89
727.807	7169.7
728.149	7135.35
728.491	7116.14
728.833	7163.6
729.175	7165.4
729.516	7197.95
729.858	7160.66
730.199	7178.06
730.541	7148.91
730.882	7106.2
731.224	7152.75
731.565	7148.23
731.906	7100.55
732.248	7110.94
732.589	7104.16
732.93	7084.28
733.271	7055.35
733.612	7109.59
733.953	7095.12
734.294	7072.98
734.635	7049.25
734.976	7089.47
735.317	7018.74
735.658	7108.91
735.999	7079.53
736.339	7066.65
736.68	7102.81
737.021	7081.79
737.361	7096.48
737.702	7099.42
738.042	7096.03
738.383	7056.71
738.723	7085.41
739.063	7100.55
739.404	7066.2
739.744	7102.81
740.084	7058.97
740.424	7004.96
740.764	7041.57
741.104	7049.7
741.444	7023.49
741.784	6999.53
742.124	7084.73
742.464	7017.84
742.804	7019.87
743.143	7015.8
743.483	7076.82
743.823	7018.97
744.162	6996.14
744.502	7010.38
744.841	6974.68
745.181	7033.2
745.52	6950.04
745.86	7044.73
746.199	7008.57
746.538	7009.93
746.877	7049.7
747.216	7008.8
747.556	7038.4
747.895	6992.08
748.234	6974.45
748.573	6944.17
748.911	7002.7
749.25	6942.13
749.589	6992.08
749.928	7025.97
750.267	6964.28
750.605	6984.84
750.944	6932.42
751.283	6943.04
751.621	7002.47
751.96	6967.44
752.298	6944.39
752.636	6934.9
752.975	6957.73
753.313	6864.85
753.651	6909.37
753.989	6912.98
754.327	6864.85
754.666	6836.15
755.004	6872.53
755.342	6857.84
755.679	6823.27
756.017	6835.24
756.355	6848.8
756.693	6832.98
757.031	6870.27
757.368	6792.76
757.706	6813.78
758.044	6743.72
758.381	6744.62
758.719	6753.66
759.056	6764.96
759.394	6774.68
759.731	6703.95
760.068	6641.35
760.405	6722.25
760.743	6651.52
761.08	6675.25
761.417	6592.76
761.754	6624.4
762.091	6647.45
762.428	6556.38
762.765	6556.83
763.102	6615.59
763.438	6442.03
763.775	6529.04
764.112	6591.63
764.449	6578.98
764.785	6496.04
765.122	6404.07
765.458	6438.64
765.795	6456.95
766.131	6431.86
766.467	6378.08
766.804	6396.84
767.14	6365.88
767.476	6330.4
767.812	6291.76
768.148	6344.64
768.485	6303.51
768.821	6259.89
769.157	6213.57
769.492	6206.56
769.828	6225.99
770.164	6143.28
770.5	6197.52
770.836	6172.44
