Data from mousepad_grey_FLMS001491_00015.txt Node
Date: Wed Feb 08 14:29:03 GMT 2017
User: dcchb
Spectrometer: FLMS00149
Trigger mode: 0
Integration Time (sec): 2.000000E-2
Scans to average: 10
Electric dark correction enabled: true
Nonlinearity correction enabled: false
Boxcar width: 0
XAxis mode: Wavelengths
Number of Pixels in Spectrum: 2048
>>>>>Begin Spectral Data<<<<<
341.393	-16.77
341.776	-16.77
342.16	-16.77
342.543	-71.23
342.927	-61.96
343.31	-59.25
343.693	-68.97
344.077	-78.91
344.46	-47.27
344.843	-47.27
345.226	-42.53
345.61	-33.71
345.993	-6.37
346.376	-2.75
346.759	17.81
347.142	17.13
347.525	44.25
347.908	42.89
348.291	77.02
348.674	86.96
349.057	100.97
349.44	106.4
349.823	125.6
350.206	153.85
350.588	186.39
350.971	192.04
351.354	219.16
351.737	204.25
352.119	222.1
352.502	220.97
352.884	254.87
353.267	259.16
353.65	297.8
354.032	271.36
354.414	294.64
354.797	288.09
355.179	287.63
355.562	300.29
355.944	286.73
356.326	317.24
356.709	318.14
357.091	315.88
357.473	308.2
357.855	322.89
358.238	315.88
358.62	322.44
359.002	345.03
359.384	324.69
359.766	334.41
360.148	310.46
360.53	305.03
360.912	324.69
361.294	302.1
361.676	298.48
362.057	317.01
362.439	309.1
362.821	328.99
363.203	314.07
363.584	311.59
363.966	283.79
364.348	314.3
364.729	300.06
365.111	299.61
365.493	286.96
365.874	297.12
366.256	308.65
366.637	294.41
367.019	303.68
367.4	286.28
367.781	286.5
368.163	309.1
368.544	296
368.925	295.09
369.306	299.16
369.688	301.87
370.069	301.42
370.45	299.84
370.831	306.84
371.212	294.19
371.593	287.86
371.974	314.07
372.355	291.7
372.736	293.74
373.117	299.16
373.498	298.48
373.879	311.81
374.26	301.42
374.641	307.52
375.021	290.57
375.402	309.55
375.783	310.46
376.163	286.5
376.544	314.3
376.925	292.83
377.305	308.42
377.686	324.69
378.066	318.82
378.447	330.57
378.827	309.1
379.208	304.81
379.588	311.59
379.968	310.91
380.349	321.53
380.729	334.41
381.109	317.46
381.489	340.97
381.87	314.75
382.25	310.68
382.63	321.98
383.01	330.12
383.39	316.56
383.77	345.94
384.15	336.67
384.53	330.57
384.91	320.85
385.29	329.67
385.67	337.12
386.049	329.67
386.429	329.44
386.809	346.84
387.189	331.25
387.568	350
387.948	327.41
388.328	334.64
388.707	335.99
389.087	338.03
389.466	330.34
389.846	340.97
390.225	356.56
390.605	353.17
390.984	347.29
391.363	371.25
391.743	318.82
392.122	340.97
392.501	369.67
392.881	363.56
393.26	358.37
393.639	336.67
394.018	347.97
394.397	357.46
394.776	352.94
395.155	361.08
395.534	348.42
395.913	369.21
396.292	362.21
396.671	364.24
397.05	378.48
397.429	373.73
397.808	362.89
398.186	382.55
398.565	390.68
398.944	376.9
399.323	356.33
399.701	374.64
400.08	389.33
400.458	388.42
400.837	380.06
401.215	370.8
401.594	397.24
401.972	390.68
402.351	408.53
402.729	400.17
403.107	406.05
403.486	392.94
403.864	388.42
404.242	397.01
404.62	426.61
404.999	430
405.377	408.53
405.755	420.29
406.133	422.32
406.511	431.81
406.889	424.35
407.267	431.81
407.645	421.87
408.023	434.3
408.401	422.55
408.779	420.51
409.156	444.92
409.534	434.52
409.912	446.5
410.29	461.41
410.667	444.69
411.045	449.66
411.422	452.6
411.8	451.92
412.178	468.87
412.555	462.09
412.933	470
413.31	467.06
413.687	462.32
414.065	474.3
414.442	492.83
414.819	458.25
415.197	485.14
415.574	502.32
415.951	483.79
416.328	512.26
416.705	487.18
417.082	505.03
417.46	495.76
417.837	494.86
418.214	505.26
418.591	512.03
418.967	478.59
419.344	509.1
419.721	528.31
420.098	516.33
420.475	523.33
420.852	517.23
421.228	542.99
421.605	540.73
421.982	544.12
422.358	550.9
422.735	553.39
423.111	533.95
423.488	556.1
423.864	572.37
424.241	564.01
424.617	557.01
424.994	569.43
425.37	577.34
425.746	556.33
426.123	558.36
426.499	589.32
426.875	576.44
427.251	582.32
427.627	608.3
428.003	592.26
428.379	601.52
428.756	610.56
429.132	590.68
429.507	634.29
429.883	635.42
430.259	627.74
430.635	620.05
431.011	611.24
431.387	653.5
431.763	653.05
432.138	638.36
432.514	667.96
432.89	630.22
433.265	686.04
433.641	698.24
434.016	692.82
434.392	712.26
434.767	708.64
435.143	684.69
435.518	683.56
435.894	717.9
436.269	737.79
436.644	730.33
437.02	730.11
437.395	728.53
437.77	745.7
438.145	738.7
438.52	750.45
438.895	766.04
439.271	768.75
439.646	758.13
440.021	773.95
440.395	791.12
440.77	801.52
441.145	784.57
441.52	801.29
441.895	809.65
442.27	797.22
442.645	792.48
443.019	806.49
443.394	833.61
443.769	808.98
444.143	841.52
444.518	837
444.892	830.22
445.267	842.65
445.641	854.62
446.016	824.57
446.39	839.94
446.764	855.08
447.139	874.28
447.513	865.02
447.887	848.97
448.262	869.54
448.636	876.32
449.01	875.19
449.384	898.01
449.758	921.97
450.132	895.08
450.506	906.37
450.88	906.15
451.254	926.71
451.628	935.53
452.002	934.62
452.376	952.25
452.75	942.31
453.123	956.54
453.497	956.32
453.871	960.61
454.244	978.46
454.618	984.11
454.992	993.6
455.365	1009.42
455.739	1034.51
456.112	1053.94
456.486	1048.52
456.859	1077.22
457.232	1046.03
457.606	1046.94
457.979	1051.46
458.352	1109.76
458.725	1116.76
459.099	1122.87
459.472	1141.85
459.845	1150.21
460.218	1134.62
460.591	1161.96
460.964	1163.09
461.337	1193.15
461.71	1210.1
462.083	1191.34
462.456	1210.32
462.829	1229.3
463.201	1209.19
463.574	1241.05
463.947	1251.45
464.32	1266.82
464.692	1297.55
465.065	1276.31
465.438	1328.28
465.81	1336.42
466.183	1336.19
466.555	1330.77
466.928	1373.48
467.3	1351.11
467.672	1394.05
468.045	1441.05
468.417	1404.44
468.789	1405.12
469.161	1460.71
469.534	1453.48
469.906	1491.9
470.278	1464.78
470.65	1506.58
471.022	1509.52
471.394	1549.3
471.766	1577.54
472.138	1600.59
472.51	1620.71
472.882	1637.2
473.253	1652.12
473.625	1680.14
473.997	1687.82
474.369	1735.96
474.74	1708.84
475.112	1734.83
475.484	1778.22
475.855	1781.38
476.227	1774.83
476.598	1833.36
476.97	1858.44
477.341	1905.9
477.713	1923.07
478.084	1963.52
478.455	1963.97
478.827	2006.68
479.198	2058.43
479.569	2062.05
479.94	2093.24
480.311	2111.09
480.682	2164.65
481.053	2181.82
481.424	2231.99
481.795	2235.83
482.166	2269.05
482.537	2298.2
482.908	2357.86
483.279	2344.98
483.65	2394.92
484.021	2435.6
484.391	2431.53
484.762	2495.03
485.133	2529.16
485.503	2551.98
485.874	2542.72
486.244	2620
486.615	2663.39
486.985	2690.73
487.356	2768.02
487.726	2747.68
488.097	2782.71
488.467	2819.77
488.837	2884.63
489.207	2919.88
489.578	2928.24
489.948	2963.5
490.318	2997.62
490.688	3015.02
491.058	3041.01
491.428	3059.99
491.798	3079.42
492.168	3166.65
492.538	3192.19
492.908	3198.52
493.278	3234.45
493.648	3271.74
494.017	3323.71
494.387	3301.79
494.757	3324.16
495.126	3363.49
495.496	3382.92
495.866	3437.61
496.235	3428.12
496.605	3480.09
496.974	3480.32
497.344	3525.74
497.713	3564.38
498.082	3564.61
498.452	3571.16
498.821	3596.93
499.19	3609.81
499.559	3653.87
499.928	3708.33
500.298	3748.79
500.667	3737.26
501.036	3749.92
501.405	3768.67
501.774	3766.86
502.143	3810.25
502.512	3847.31
502.88	3861.33
503.249	3879.4
503.618	3942
503.987	3949.91
504.356	4003.69
504.724	3950.81
505.093	3998.95
505.462	3969.8
505.83	4016.12
506.199	4059.51
506.567	4116.91
506.936	4175.89
507.304	4132.5
507.672	4209.79
508.041	4216.8
508.409	4230.35
508.777	4312.61
509.145	4293.86
509.514	4364.81
509.882	4332.95
510.25	4364.59
510.618	4381.09
510.986	4381.54
511.354	4438.03
511.722	4478.94
512.09	4477.35
512.458	4491.82
512.826	4558.03
513.193	4590.57
513.561	4580.85
513.929	4614.07
514.297	4623.34
514.664	4704.92
515.032	4707.18
515.4	4729.32
515.767	4762.32
516.135	4812.94
516.502	4803.9
516.869	4845.93
517.237	4858.59
517.604	4869.43
517.972	4927.96
518.339	4985.14
518.706	4995.76
519.073	4982.88
519.44	5024.91
519.808	5069.2
520.175	5070.78
520.542	5158.47
520.909	5143.1
521.276	5165.92
521.643	5223.1
522.009	5276.43
522.376	5276.2
522.743	5303.32
523.11	5408.85
523.477	5423.54
523.843	5421.51
524.21	5519.13
524.577	5552.13
524.943	5568.4
525.31	5594.16
525.676	5647.49
526.043	5687.94
526.409	5738.34
526.776	5767.49
527.142	5746.25
527.508	5763.2
527.874	5907.6
528.241	5903.53
528.607	5937.88
528.973	5968.16
529.339	6002.06
529.705	5983.3
530.071	6072.79
530.437	6095.84
530.803	6134.49
531.169	6188.04
531.535	6205.22
531.901	6229.85
532.267	6260.81
532.632	6284.54
532.998	6313.24
533.364	6412.22
533.73	6388.26
534.095	6393.91
534.461	6446.12
534.826	6477.08
535.192	6517.07
535.557	6572.67
535.923	6557.75
536.288	6579.9
536.653	6666.45
537.019	6581.25
537.384	6687.47
537.749	6724.3
538.114	6763.17
538.479	6718.88
538.845	6739.22
539.21	6782.38
539.575	6841.59
539.94	6859.21
540.305	6870.06
540.67	6844.98
541.034	6981.02
541.399	6994.35
541.764	6999.1
542.129	6982.82
542.494	7066.66
542.858	7069.6
543.223	7058.76
543.587	7148.47
543.952	7097.17
544.316	7184.18
544.681	7163.16
545.045	7158.87
545.41	7247.9
545.774	7262.37
546.138	7257.17
546.503	7327.22
546.867	7347.34
547.231	7410.84
547.595	7457.39
547.959	7489.93
548.324	7525.41
548.688	7549.14
549.052	7506.2
549.416	7471.17
549.779	7546.65
550.143	7625.29
550.507	7694.9
550.871	7725.18
551.235	7668.23
551.599	7793.43
551.962	7797.94
552.326	7800.43
552.689	7779.19
553.053	7912.07
553.417	7897.83
553.78	7954.55
554.143	7932.86
554.507	7931.5
554.87	7996.36
555.234	8098.95
555.597	8029.35
555.96	8145.28
556.323	8137.14
556.686	8079.52
557.05	8171.72
557.413	8231.83
557.776	8264.6
558.139	8278.16
558.502	8272.06
558.865	8331.72
559.228	8325.84
559.59	8402.22
559.953	8488.55
560.316	8573.29
560.679	8510.02
561.041	8566.96
561.404	8630.69
561.767	8616.91
562.129	8644.02
562.492	8742.78
562.854	8724.25
563.217	8750.01
563.579	8772.16
563.941	8848.09
564.304	8834.53
564.666	8969.44
565.028	8986.84
565.39	8980.06
565.753	9026.61
566.115	9045.6
566.477	9134.86
566.839	9178.47
567.201	9159.94
567.563	9177.8
567.925	9239.71
568.287	9256.66
568.648	9291.01
569.01	9285.14
569.372	9398.81
569.734	9361.52
570.095	9482.65
570.457	9453.49
570.819	9440.61
571.18	9513.83
571.542	9594.51
571.903	9561.51
572.265	9628.86
572.626	9579.37
572.987	9652.36
573.349	9661.85
573.71	9727.16
574.071	9740.04
574.432	9787.72
574.794	9847.61
575.155	9879.7
575.516	9843.54
575.877	9903.88
576.238	9946.14
576.599	9981.62
576.96	9914.73
577.32	9980.71
577.681	9964.67
578.042	10018.45
578.403	9994.05
578.763	10004.89
579.124	10099.35
579.485	10126.47
579.845	10135.28
580.206	10086.92
580.566	10062.52
580.927	10174.38
581.287	10184.77
581.648	10150.43
582.008	10191.55
582.368	10174.15
582.728	10237.43
583.089	10211.89
583.449	10162.4
583.809	10217.54
584.169	10205.56
584.529	10223.87
584.889	10272.91
585.249	10232.91
585.609	10234.72
585.969	10285.34
586.329	10293.92
586.688	10290.99
587.048	10290.53
587.408	10248.05
587.768	10289.86
588.127	10284.43
588.487	10220.71
588.846	10387.93
589.206	10235.62
589.565	10265
589.925	10379.57
590.284	10303.87
590.643	10357.2
591.003	10372.79
591.362	10412.57
591.721	10388.16
592.08	10332.12
592.44	10415.28
592.799	10312
593.158	10338.67
593.517	10355.17
593.876	10368.95
594.235	10375.05
594.593	10391.55
594.952	10427.71
595.311	10288.5
595.67	10422.73
596.029	10482.39
596.387	10490.98
596.746	10468.61
597.104	10482.17
597.463	10317.65
597.822	10439.46
598.18	10432
598.538	10406.24
598.897	10494.82
599.255	10387.93
599.613	10489.63
599.972	10485.78
600.33	10531.43
600.688	10447.59
601.046	10460.7
601.404	10543.64
601.762	10568.95
602.12	10550.19
602.478	10630.64
602.836	10530.98
603.194	10519.91
603.552	10560.36
603.91	10536.86
604.268	10600.13
604.625	10561.94
604.983	10530.75
605.341	10535.27
605.698	10610.75
606.056	10586.12
606.413	10653.01
606.771	10626.57
607.128	10576.85
607.485	10618.44
607.843	10591.54
608.2	10697.98
608.557	10780.92
608.914	10662.73
609.272	10726.23
609.629	10749.05
609.986	10751.54
610.343	10744.53
610.7	10801.26
611.057	10778.66
611.414	10734.59
611.771	10864.08
612.127	10848.03
612.484	10790.18
612.841	10871.54
613.198	10785.66
613.554	10838.32
613.911	10851.2
614.267	10817.3
614.624	10871.76
614.98	10895.04
615.337	10909.95
615.693	10913.57
616.05	10885.32
616.406	10964.19
616.762	10875.6
617.118	10904.53
617.475	10896.85
617.831	10986.34
618.187	11039.22
618.543	11024.75
618.899	11031.76
619.255	11072.43
619.611	11006.45
619.967	10976.39
620.323	11045.77
620.678	11016.62
621.034	11052.55
621.39	11024.75
621.746	10964.87
622.101	11074.69
622.457	11024.98
622.812	11072.89
623.168	11143.39
623.523	11038.31
623.879	11098.87
624.234	11021.36
624.589	11081.47
624.945	11110.63
625.3	11139.78
625.655	11073.79
626.01	11072.43
626.365	11046.67
626.72	11120.57
627.075	11070.85
627.43	11167.57
627.785	11121.02
628.14	11076.5
628.495	11118.76
628.85	11072.66
629.205	11130.96
629.559	11106.11
629.914	11043.06
630.269	11066.79
630.623	11034.02
630.978	11057.52
631.332	11046.45
631.687	11037.41
632.041	11058.88
632.396	11102.94
632.75	10929.16
633.104	11046.22
633.459	10936.39
633.813	11028.37
634.167	10946.34
634.521	11004.87
634.875	10928.48
635.229	10957.41
635.583	10908.37
635.937	10896.39
636.291	10959.44
636.645	10864.53
636.999	10879.67
637.352	10859.56
637.706	10842.61
638.06	10887.13
638.413	10913.12
638.767	10859.11
639.121	10820.24
639.474	10829.5
639.828	10807.58
640.181	10934.59
640.534	10838.54
640.888	10857.3
641.241	10766.68
641.594	10833.57
641.947	10765.1
642.301	10784.76
642.654	10850.97
643.007	10801.03
643.36	10840.35
643.713	10721.26
644.066	10810.97
644.419	10808.94
644.771	10795.38
645.124	10560.36
645.477	10574.14
645.83	10591.77
646.182	10521.71
646.535	10451.66
646.888	10489.4
647.24	10429.74
647.593	10533.24
647.945	10463.64
648.298	10438.33
648.65	10393.13
649.002	10351.32
649.355	10458.67
649.707	10433.36
650.059	10542.28
650.411	10590.87
650.763	10585.89
651.115	10620.47
651.467	10679.22
651.819	10697.76
652.171	10643.29
652.523	10681.48
652.875	10632.45
653.227	10659.11
653.578	10619.34
653.93	10729.62
654.282	10631.77
654.633	10646.91
654.985	10576.85
655.337	10589.51
655.688	10653.01
656.039	10619.11
656.391	10606.01
656.742	10677.64
657.094	10664.76
657.445	10633.12
657.796	10685.33
658.147	10614.37
658.498	10634.71
658.849	10679.22
659.2	10641.49
659.551	10612.56
659.902	10631.09
660.253	10679.22
660.604	10591.77
660.955	10558.55
661.306	10667.25
661.656	10640.81
662.007	10632.45
662.358	10594.26
662.708	10669.28
663.059	10623.86
663.409	10558.32
663.76	10666.34
664.11	10626.57
664.461	10623.86
664.811	10603.75
665.161	10648.49
665.511	10544.09
665.862	10586.35
666.212	10608.94
666.562	10657.3
666.912	10665.21
667.262	10564.43
667.612	10610.3
667.962	10611.66
668.312	10580.7
668.662	10637.87
669.011	10645.1
669.361	10543.86
669.711	10538.44
670.06	10565.1
670.41	10547.25
670.76	10497.99
671.109	10534.82
671.459	10587.25
671.808	10572.11
672.157	10560.81
672.507	10459.8
672.856	10502.28
673.205	10611.66
673.554	10523.52
673.904	10522.17
674.253	10552.9
674.602	10514.03
674.951	10390.64
675.3	10310.87
675.649	10519.46
675.998	10433.81
676.346	10445.56
676.695	10396.75
677.044	10397.88
677.393	10486.24
677.741	10445.56
678.09	10499.57
678.438	10421.83
678.787	10423.41
679.135	10438.55
679.484	10366.46
679.832	10406.92
680.181	10328.05
680.529	10346.35
680.877	10311.1
681.225	10287.37
681.573	10403.98
681.922	10253.93
682.27	10257.99
682.618	10251.21
682.966	10241.5
683.314	10189.75
683.661	10175.51
684.009	10192.01
684.357	10117.66
684.705	10186.81
685.053	10121.05
685.4	10107.49
685.748	10094.83
686.095	10060.26
686.443	10067.26
686.79	9994.95
687.138	10031.33
687.485	10031.78
687.832	9999.69
688.18	10000.15
688.527	9950.2
688.874	9849.87
689.221	9871.79
689.568	9887.16
689.915	9830.43
690.262	9909.53
690.609	9813.94
690.956	9801.51
691.303	9740.27
691.65	9692.36
691.997	9679.25
692.344	9745.01
692.69	9659.59
693.037	9686.03
693.383	9505.24
693.73	9578.01
694.077	9566.49
694.423	9533.94
694.769	9494.62
695.116	9516.54
695.462	9478.13
695.808	9409.2
696.155	9515.19
696.501	9389.09
696.847	9366.72
697.193	9289.2
697.539	9329.66
697.885	9303.22
698.231	9241.97
698.577	9253.73
698.923	9237.23
699.269	9165.14
699.614	9131.02
699.96	9038.82
700.306	9117.46
700.651	9065.71
700.997	9085.82
701.342	8962.43
701.688	8985.94
702.033	8920.4
702.379	8963.79
702.724	8881.08
703.069	8951.13
703.415	8851.02
703.76	8817.58
704.105	8786.39
704.45	8810.8
704.795	8784.13
705.14	8709.79
705.485	8800.18
705.83	8662.33
706.175	8664.81
706.52	8676.57
706.865	8631.37
707.209	8580.97
707.554	8629.11
707.899	8612.61
708.243	8569.68
708.588	8540.98
708.932	8476.8
709.277	8458.49
709.621	8474.54
709.966	8366.07
710.31	8420.75
710.654	8393.64
710.998	8406.06
711.342	8321.55
711.687	8319.29
712.031	8312.73
712.375	8266.63
712.719	8296.69
713.063	8253.75
713.407	8273.64
713.75	8242.45
714.094	8278.61
714.438	8196.35
714.782	8280.42
715.125	8222.79
715.469	8204.49
715.812	8229.12
716.156	8189.8
716.499	8183.7
716.843	8213.3
717.186	8191.61
717.53	8166.75
717.873	8146.18
718.216	8165.39
718.559	8124.94
718.902	8091.04
719.246	8106.86
719.589	8011.95
719.932	7968.11
720.275	8065.51
720.617	8021.44
720.96	7992.97
721.303	7971.5
721.646	8005.85
721.989	7980.54
722.331	7965.62
722.674	7962.23
723.016	7966.08
723.359	8011.95
723.701	7941.67
724.044	7983.25
724.386	7896.47
724.729	7930.82
725.071	7982.57
725.413	7899.41
725.755	7899.64
726.097	7901.67
726.439	7861.22
726.782	7846.53
727.124	7934.44
727.465	7876.59
727.807	7933.76
728.149	7888.34
728.491	7843.59
728.833	7855.34
729.175	7884.04
729.516	7863.71
729.858	7809.24
730.199	7847.43
730.541	7877.49
730.882	7884.5
731.224	7873.65
731.565	7797.04
731.906	7784.61
732.248	7857.6
732.589	7806.76
732.93	7781.45
733.271	7799.3
733.612	7779.41
733.953	7828.9
734.294	7757.95
734.635	7795.91
734.976	7758.17
735.317	7743.71
735.658	7767.66
735.999	7775.8
736.339	7800.43
736.68	7799.53
737.021	7782.8
737.361	7726.08
737.702	7756.36
738.042	7686.54
738.383	7736.25
738.723	7771.73
739.063	7739.64
739.404	7764.95
739.744	7742.58
740.084	7735.35
740.424	7737.38
740.764	7783.48
741.104	7793.65
741.444	7688.57
741.784	7679.3
742.124	7695.57
742.464	7705.07
742.804	7731.28
743.143	7720.43
743.483	7737.38
743.823	7614.67
744.162	7597.5
744.502	7701.9
744.841	7690.6
745.181	7712.75
745.52	7708.91
745.86	7725.4
746.199	7712.07
746.538	7677.95
746.877	7703.71
747.216	7710.94
747.556	7650.83
747.895	7642.92
748.234	7655.35
748.573	7593.66
748.911	7676.37
749.25	7648.57
749.589	7583.26
749.928	7560.44
750.267	7685.41
750.605	7582.36
750.944	7585.29
751.283	7604.5
751.621	7609.02
751.96	7573.54
752.298	7562.02
752.636	7602.7
752.975	7549.59
753.313	7516.37
753.651	7556.82
753.989	7526.09
754.327	7520.89
754.666	7432.53
755.004	7522.7
755.342	7486.31
755.679	7443.15
756.017	7466.43
756.355	7435.02
756.693	7437.73
757.031	7460.78
757.368	7421.23
757.706	7423.94
758.044	7362.7
758.381	7386.2
758.719	7346.88
759.056	7318.86
759.394	7286.77
759.731	7291.29
760.068	7286.77
760.405	7263.72
760.743	7197.28
761.08	7240.9
761.417	7233.89
761.754	7190.05
762.091	7133.56
762.428	7156.83
762.765	7159.09
763.102	7158.64
763.438	7154.57
763.775	7100.34
764.112	7089.71
764.449	7112.09
764.785	7038.87
