Data from mousepad_grey_FLMS001491_00082.txt Node
Date: Wed Feb 08 14:30:02 GMT 2017
User: dcchb
Spectrometer: FLMS00149
Trigger mode: 0
Integration Time (sec): 2.000000E-2
Scans to average: 10
Electric dark correction enabled: true
Nonlinearity correction enabled: false
Boxcar width: 0
XAxis mode: Wavelengths
Number of Pixels in Spectrum: 2048
>>>>>Begin Spectral Data<<<<<
341.393	-1.72
341.776	-1.72
342.16	-1.72
342.543	-58.67
342.927	-48.28
343.31	-73.81
343.693	-62.06
344.077	-76.07
344.46	-58.22
344.843	-56.41
345.226	-43.76
345.61	-46.69
345.993	0.99
346.376	-12.8
346.759	19.29
347.142	9.8
347.525	55.68
347.908	57.26
348.291	92.06
348.674	104.94
349.057	89.8
349.44	132.51
349.823	145.84
350.206	161.89
350.588	192.62
350.971	180.87
351.354	193.3
351.737	233.07
352.119	245.73
352.502	262.9
352.884	250.25
353.267	261.09
353.65	299.06
354.032	294.54
354.414	293.86
354.797	303.13
355.179	324.6
355.562	307.65
355.944	310.81
356.326	319.62
356.709	339.96
357.091	339.06
357.473	318.72
357.855	337.03
358.238	345.16
358.62	332.05
359.002	332.73
359.384	324.82
359.766	332.51
360.148	308.55
360.53	307.2
360.912	317.36
361.294	340.41
361.676	336.8
362.057	302
362.439	334.09
362.821	335.22
363.203	352.17
363.584	305.84
363.966	296.8
364.348	308.33
364.729	319.17
365.111	309.91
365.493	313.97
365.874	307.42
366.256	337.48
366.637	296.8
367.019	308.1
367.4	285.05
367.781	304.71
368.163	305.61
368.544	313.07
368.925	311.04
369.306	307.2
369.688	290.92
370.069	285.95
370.45	310.59
370.831	305.16
371.212	292.73
371.593	295.67
371.974	305.39
372.355	320.53
372.736	296.57
373.117	303.13
373.498	316.91
373.879	319.4
374.26	289.34
374.641	313.3
375.021	300.64
375.402	315.78
375.783	291.15
376.163	330.7
376.544	296.8
376.925	301.09
377.305	314.65
377.686	342
378.066	338.61
378.447	316.23
378.827	307.2
379.208	325.27
379.588	297.03
379.968	303.35
380.349	312.62
380.729	327.53
381.109	333.18
381.489	320.53
381.87	325.05
382.25	316.69
382.63	329.34
383.01	318.27
383.39	328.89
383.77	330.7
384.15	322.34
384.53	334.77
384.91	332.73
385.29	331.83
385.67	346.52
386.049	330.47
386.429	351.26
386.809	344.71
387.189	345.84
387.568	345.16
387.948	341.09
388.328	342.9
388.707	351.26
389.087	353.75
389.466	348.1
389.846	344.26
390.225	345.61
390.605	347.87
390.984	346.52
391.363	362.56
391.743	358.95
392.122	365.27
392.501	367.98
392.881	346.74
393.26	385.39
393.639	376.57
394.018	353.52
394.397	368.44
394.776	359.85
395.155	361.21
395.534	386.97
395.913	380.87
396.292	377.93
396.671	374.99
397.05	382.22
397.429	370.7
397.808	381.32
398.186	376.35
398.565	382.9
398.944	393.52
399.323	405.05
399.701	369.57
400.08	392.62
400.458	385.39
400.837	391.03
401.215	405.05
401.594	403.01
401.972	423.12
402.351	389.68
402.729	419.28
403.107	391.94
403.486	409.57
403.864	394.65
404.242	408.44
404.62	417.7
404.999	415.22
405.377	422.22
405.755	400.53
406.133	427.19
406.511	452.05
406.889	419.06
407.267	426.29
407.645	439.62
408.023	430.58
408.401	441.2
408.779	445.95
409.156	441.88
409.534	461.32
409.912	437.59
410.29	453.41
410.667	472.39
411.045	454.31
411.422	437.14
411.8	463.35
412.178	463.12
412.555	481.2
412.933	478.26
413.31	461.77
413.687	512.84
414.065	480.98
414.442	469.9
414.819	495.89
415.197	490.47
415.574	508.09
415.951	512.84
416.328	496.57
416.705	494.99
417.082	522.56
417.46	526.62
417.837	503.8
418.214	527.3
418.591	525.95
418.967	536.34
419.344	546.96
419.721	513.97
420.098	548.32
420.475	530.01
420.852	539.51
421.228	539.28
421.605	555.55
421.982	558.26
422.358	574.53
422.735	550.13
423.111	550.35
423.488	573.63
423.864	561.65
424.241	585.61
424.617	568.43
424.994	574.98
425.37	573.85
425.746	583.35
426.123	590.58
426.499	584.7
426.875	579.73
427.251	601.2
427.627	612.27
428.003	619.05
428.379	612.72
428.756	615.44
429.132	635.32
429.507	632.84
429.883	632.61
430.259	646.17
430.635	653.17
431.011	649.11
431.387	663.34
431.763	666.28
432.138	655.21
432.514	668.99
432.89	701.31
433.265	661.08
433.641	701.54
434.016	690.69
434.392	697.24
434.767	709.67
435.143	696.11
435.518	705.83
435.894	707.86
436.269	732.72
436.644	744.7
437.02	741.31
437.395	744.02
437.77	769.56
438.145	765.71
438.52	759.39
438.895	753.51
439.271	784.92
439.646	780.18
440.021	772.04
440.395	793.51
440.77	789.89
441.145	789.44
441.52	788.31
441.895	820.85
442.27	774.53
442.645	825.83
443.019	813.17
443.394	820.4
443.769	847.52
444.143	828.99
444.518	839.38
444.892	834.87
445.267	847.97
445.641	850.68
446.016	867.86
446.39	870.57
446.764	848.88
447.139	860.85
447.513	871.25
447.887	835.32
448.262	893.17
448.636	869.21
449.01	895.2
449.384	903.79
449.758	911.93
450.132	898.37
450.506	907.18
450.88	927.07
451.254	913.06
451.628	915.09
452.002	896.33
452.376	959.61
452.75	925.71
453.123	963.68
453.497	956.9
453.871	965.94
454.244	1000.28
454.618	979.04
454.992	978.14
455.365	1000.51
455.739	1006.39
456.112	1047.29
456.486	1008.65
456.859	1055.2
457.232	1041.19
457.606	1059.27
457.979	1077.8
458.352	1087.06
458.725	1078.25
459.099	1085.93
459.472	1099.49
459.845	1116.21
460.218	1134.07
460.591	1134.52
460.964	1150.11
461.337	1168.87
461.71	1198.25
462.083	1188.75
462.456	1203.67
462.829	1195.53
463.201	1242.54
463.574	1216.1
463.947	1235.53
464.32	1235.31
464.692	1257.9
465.065	1254.74
465.438	1272.59
465.81	1297.68
466.183	1322.99
466.555	1311.01
466.928	1376.77
467.3	1337.9
467.672	1321.86
468.045	1403.44
468.417	1395.53
468.789	1409.54
469.161	1416.09
469.534	1434.17
469.906	1446.37
470.278	1465.13
470.65	1468.52
471.022	1506.94
471.394	1534.51
471.766	1553.72
472.138	1541.06
472.51	1599.59
472.882	1597.56
473.253	1625.13
473.625	1634.62
473.997	1662.87
474.369	1667.39
474.74	1652.92
475.112	1713.94
475.484	1733.37
475.855	1772.24
476.227	1787.16
476.598	1814.05
476.97	1795.74
477.341	1859.02
477.713	1889.98
478.084	1887.72
478.455	1935.18
478.827	1957.55
479.198	1983.76
479.569	1987.15
479.94	2059.47
480.311	2053.59
480.682	2086.81
481.053	2129.29
481.424	2141.05
481.795	2179.69
482.166	2226.69
482.537	2244.32
482.908	2275.51
483.279	2274.83
483.65	2347.59
484.021	2374.71
484.391	2376.52
484.762	2418.33
485.133	2438.44
485.503	2443.41
485.874	2508.95
486.244	2556.18
486.615	2596.4
486.985	2575.16
487.356	2641.6
487.726	2650.41
488.097	2731.54
488.467	2732.89
488.837	2725.21
489.207	2796.17
489.578	2826.45
489.948	2863.06
490.318	2863.51
490.688	2879.78
491.058	2959.55
491.428	2966.56
491.798	2991.42
492.168	3060.57
492.538	3079.33
492.908	3074.13
493.278	3076.16
493.648	3122.26
494.017	3131.98
494.387	3191.64
494.757	3211.53
495.126	3258.98
495.496	3240.68
495.866	3293.33
496.235	3303.5
496.605	3355.93
496.974	3343.05
497.344	3412.88
497.713	3409.26
498.082	3425.08
498.452	3480.22
498.821	3530.39
499.19	3531.97
499.559	3514.57
499.928	3548.47
500.298	3558.64
500.667	3577.62
501.036	3582.36
501.405	3639.54
501.774	3609.93
502.143	3668.24
502.512	3677.05
502.88	3713.21
503.249	3698.52
503.618	3736.71
503.987	3746.88
504.356	3772.87
504.724	3832.3
505.093	3807.44
505.462	3821.45
505.83	3869.81
506.199	3914.78
506.567	3929.02
506.936	3937.16
507.304	3997.49
507.672	3947.55
508.041	3998.62
508.409	4023.03
508.777	4072.07
509.145	4065.06
509.514	4130.15
509.882	4129.47
510.25	4140.99
510.618	4163.14
510.986	4230.26
511.354	4235.45
511.722	4252.63
512.09	4271.84
512.458	4266.41
512.826	4314.77
513.193	4327.2
513.561	4349.57
513.929	4407.2
514.297	4396.13
514.664	4465.96
515.032	4478.61
515.4	4496.24
515.767	4558.61
516.135	4557.71
516.502	4548.89
516.869	4637.02
517.237	4640.87
517.604	4617.82
517.972	4701.88
518.339	4730.36
518.706	4745.27
519.073	4747.98
519.44	4756.57
519.808	4795.44
520.175	4816.68
520.542	4935.77
520.909	4922.67
521.276	4892.39
521.643	4984.36
522.009	4953.85
522.376	5001.76
522.743	5064.13
523.11	5105.04
523.477	5142.32
523.843	5153.4
524.21	5228.87
524.577	5233.62
524.943	5267.52
525.31	5292.15
525.676	5402.65
526.043	5358.36
526.409	5421.86
526.776	5422.77
527.142	5509.09
527.508	5465.25
527.874	5564.68
528.241	5545.7
528.607	5571.24
528.973	5612.37
529.339	5601.52
529.705	5639.94
530.071	5717.9
530.437	5772.59
530.803	5794.06
531.169	5842.87
531.535	5846.26
531.901	5865.92
532.267	5834.06
532.632	5875.64
532.998	5977.1
533.364	6010.77
533.73	5994.96
534.095	6023.43
534.461	6022.53
534.826	6077.44
535.192	6136.19
535.557	6168.06
535.923	6194.27
536.288	6260.26
536.653	6246.02
537.019	6222.07
537.384	6293.48
537.749	6295.06
538.114	6326.02
538.479	6337.32
538.845	6357.88
539.21	6357.21
539.575	6436.98
539.94	6439.24
540.305	6505
540.67	6497.54
541.034	6569.86
541.399	6536.41
541.764	6537.77
542.129	6616.18
542.494	6601.95
542.858	6654.15
543.223	6638.33
543.587	6792.22
543.952	6731.43
544.316	6726.91
544.681	6733.69
545.045	6777.53
545.41	6818.66
545.774	6782.51
546.138	6853.24
546.503	6918.32
546.867	6959.9
547.231	6963.07
547.595	6986.34
547.959	7006
548.324	7083.74
548.688	7080.12
549.052	7090.97
549.416	7074.93
549.779	7131.65
550.143	7155.38
550.507	7239.22
550.871	7230.86
551.235	7228.82
551.599	7400.57
551.962	7283.96
552.326	7368.48
552.689	7383.17
553.053	7307.01
553.417	7396.05
553.78	7477.4
554.143	7445.99
554.507	7552.65
554.87	7483.05
555.234	7605.76
555.597	7604.18
555.96	7552.43
556.323	7607.12
556.686	7612.31
557.05	7666.32
557.413	7698.19
557.776	7757.62
558.139	7777.28
558.502	7769.6
558.865	7824.29
559.228	7895.7
559.59	7925.3
559.953	7909.26
560.316	8017.5
560.679	8033.09
561.041	8041.46
561.404	8136.82
561.767	8133.88
562.129	8069.25
562.492	8250.49
562.854	8170.04
563.217	8206.2
563.579	8223.6
563.941	8295.69
564.304	8384.95
564.666	8414.33
565.028	8451.84
565.39	8369.81
565.753	8461.56
566.115	8549.24
566.477	8483.48
566.839	8675.34
567.201	8604.6
567.563	8585.85
567.925	8701.78
568.287	8706.97
568.648	8725.05
569.01	8793.75
569.372	8868.55
569.734	8775.9
570.095	8916.23
570.457	8885.05
570.819	8919.17
571.18	8972.5
571.542	8946.97
571.903	8972.05
572.265	9019.28
572.626	9065.16
572.987	9068.55
573.349	9139.51
573.71	9131.82
574.071	9212.72
574.432	9186.96
574.794	9311.03
575.155	9239.39
575.516	9251.59
575.877	9266.96
576.238	9280.07
576.599	9348.54
576.96	9376.79
577.32	9344.25
577.681	9412.04
578.042	9411.36
578.403	9420.63
578.763	9481.42
579.124	9418.37
579.485	9513.05
579.845	9510.34
580.206	9489.78
580.566	9520.96
580.927	9547.63
581.287	9542.43
581.648	9507.41
582.008	9580.4
582.368	9528.87
582.728	9662.43
583.089	9508.99
583.449	9583.11
583.809	9613.62
584.169	9598.02
584.529	9602.77
584.889	9663.11
585.249	9646.84
585.609	9651.58
585.969	9726.16
586.329	9582.21
586.688	9617.23
587.048	9681.41
587.408	9644.35
587.768	9570
588.127	9617.46
588.487	9658.81
588.846	9632.6
589.206	9629.89
589.565	9661.75
589.925	9665.14
590.284	9694.75
590.643	9641.41
591.003	9712.82
591.362	9659.04
591.721	9671.24
592.08	9723.22
592.44	9708.08
592.799	9696.78
593.158	9691.58
593.517	9693.39
593.876	9749.66
594.235	9697.91
594.593	9717.34
594.952	9716.44
595.311	9694.97
595.67	9687.74
596.029	9732.94
596.387	9804.57
596.746	9833.72
597.104	9788.53
597.463	9760.05
597.822	9762.99
598.18	9749.66
598.538	9775.19
598.897	9794.86
599.255	9726.83
599.613	9847.51
599.972	9775.19
600.33	9829.66
600.688	9794.86
601.046	9799.15
601.404	9854.51
601.762	9744.46
602.12	9825.36
602.478	9825.82
602.836	9878.47
603.194	9787.62
603.552	9814.29
603.91	9773.16
604.268	9810.22
604.625	9847.96
604.983	9843.44
605.341	9809.32
605.698	9854.97
606.056	9937.45
606.413	9874.4
606.771	9953.5
607.128	9955.76
607.485	9853.38
607.843	9974.74
608.2	9972.03
608.557	9975.19
608.914	9944.23
609.272	9982.2
609.629	10028.07
609.986	10075.3
610.343	9955.76
610.7	10036.21
611.057	10037.11
611.414	10014.96
611.771	10005.25
612.127	10082.08
612.484	9987.84
612.841	10079.14
613.198	10078.01
613.554	10043.44
613.911	10214.05
614.267	10130.89
614.624	10107.39
614.98	10108.97
615.337	10198.01
615.693	10126.82
616.05	10122.76
616.406	10196.65
616.762	10146.94
617.118	10174.05
617.475	10182.87
617.831	10201.85
618.187	10222.41
618.543	10200.49
618.899	10292.02
619.255	10294.5
619.611	10190.33
619.967	10272.13
620.323	10309.42
620.678	10215.18
621.034	10207.73
621.39	10210.89
621.746	10267.61
622.101	10336.99
622.457	10308.29
622.812	10273.94
623.168	10334.95
623.523	10342.41
623.879	10320.04
624.234	10280.49
624.589	10346.71
624.945	10324.56
625.3	10274.39
625.655	10249.53
626.01	10320.72
626.365	10293.6
626.72	10334.05
627.075	10287.05
627.43	10307.84
627.785	10262.41
628.14	10269.19
628.495	10312.58
628.85	10296.09
629.205	10237.1
629.559	10299.02
629.914	10224
630.269	10241.4
630.623	10304.9
630.978	10221.96
631.332	10307.38
631.687	10338.34
632.041	10258.12
632.396	10247.27
632.75	10224.45
633.104	10264
633.459	10203.21
633.813	10178.12
634.167	10185.35
634.521	10217.67
634.875	10206.14
635.229	10148.74
635.583	10132.47
635.937	10151.46
636.291	10113.94
636.645	10161.4
636.999	10077.56
637.352	10149.87
637.706	10135.64
638.06	10127.05
638.413	10111.91
638.767	10055.19
639.121	10135.41
639.474	9978.13
639.828	10040.05
640.181	10022.42
640.534	10069.42
640.888	10033.72
641.241	9974.74
641.594	10035.75
641.947	9975.42
642.301	10013.83
642.654	9978.13
643.007	10020.16
643.36	10005.02
643.713	10030.56
644.066	10017.45
644.419	9929.77
644.771	9955.3
645.124	9861.29
645.477	9819.49
645.83	9726.16
646.182	9709.66
646.535	9665.37
646.888	9720.28
647.24	9665.37
647.593	9713.95
647.945	9686.16
648.298	9693.39
648.65	9678.47
649.002	9619.49
649.355	9706.27
649.707	9680.28
650.059	9695.42
650.411	9834.63
650.763	9860.16
651.115	9887.06
651.467	9921.18
651.819	9908.07
652.171	9835.53
652.523	9906.49
652.875	9890.22
653.227	9799.6
653.578	9992.59
653.93	9872.14
654.282	9828.53
654.633	9833.05
654.985	9892.25
655.337	9873.5
655.688	9820.17
656.039	9906.26
656.391	9830.56
656.742	9848.19
657.094	9825.59
657.445	9854.74
657.796	9898.58
658.147	9811.35
658.498	9778.81
658.849	9856.1
659.2	9891.12
659.551	9775.65
659.902	9885.47
660.253	9864.91
660.604	9786.72
660.955	9849.54
661.306	9829.66
661.656	9827.17
662.007	9762.99
662.358	9852.03
662.708	9854.97
663.059	9838.24
663.409	9734.29
663.76	9824.01
664.11	9884.57
664.461	9828.98
664.811	9837.34
665.161	9847.28
665.511	9843.67
665.862	9821.07
666.212	9878.7
666.562	9869.66
666.912	9832.82
667.262	9857.45
667.612	9825.82
667.962	9736.78
668.312	9792.6
668.662	9825.14
669.011	9833.05
669.361	9768.19
669.711	9810.22
670.06	9775.87
670.41	9769.55
670.76	9755.53
671.109	9760.96
671.459	9728.42
671.808	9685.48
672.157	9850
672.507	9688.19
672.856	9680.96
673.205	9719.38
673.554	9689.77
673.904	9716.21
674.253	9736.1
674.602	9740.85
674.951	9651.36
675.3	9499.5
675.649	9656.1
675.998	9602.32
676.346	9647.06
676.695	9689.32
677.044	9674.86
677.393	9655.42
677.741	9688.19
678.09	9644.12
678.438	9607.06
678.787	9608.42
679.135	9595.76
679.484	9554.18
679.832	9637.35
680.181	9543.34
680.529	9520.74
680.877	9529.78
681.225	9487.07
681.573	9488.2
681.922	9494.52
682.27	9498.14
682.618	9473.06
682.966	9492.04
683.314	9440.97
683.661	9403
684.009	9375.43
684.357	9447.29
684.705	9335.66
685.053	9367.3
685.4	9401.19
685.748	9304.25
686.095	9266.73
686.443	9233.06
686.79	9229.22
687.138	9264.47
687.485	9300.63
687.832	9188.54
688.18	9248.2
688.527	9163.69
688.874	9167.53
689.221	9127.53
689.568	9035.78
689.915	9051.82
690.262	9104.25
690.609	9010.24
690.956	8976.35
691.303	9024.03
691.65	8957.59
691.997	8942.67
692.344	8861.77
692.69	8838.72
693.037	8848.21
693.383	8775.67
693.73	8893.64
694.077	8789.46
694.423	8792.17
694.769	8767.31
695.116	8676.24
695.462	8715.34
695.808	8673.75
696.155	8705.39
696.501	8610.25
696.847	8533.65
697.193	8537.26
697.539	8521.89
697.885	8539.75
698.231	8422.69
698.577	8434.21
698.923	8432.18
699.269	8418.17
699.614	8348.11
699.96	8320.32
700.306	8384.95
700.651	8380.88
700.997	8228.34
701.342	8282.13
701.688	8261.56
702.033	8263.14
702.379	8180.43
702.724	8172.75
703.069	8196.03
703.415	8084.39
703.76	8099.98
704.105	8113.54
704.45	8050.95
704.795	8006.65
705.14	7974.79
705.485	7972.53
705.83	7899.31
706.175	7956.03
706.52	7938.41
706.865	7960.55
707.209	7923.72
707.554	7820.22
707.899	7869.03
708.243	7866.77
708.588	7751.52
708.932	7795.81
709.277	7756.26
709.621	7804.63
709.966	7733.67
710.31	7678.75
710.654	7638.98
710.998	7694.12
711.342	7673.1
711.687	7603.27
712.031	7620.68
712.375	7586.1
712.719	7601.69
713.063	7587
713.407	7629.04
713.75	7584.29
714.094	7558.08
714.438	7571.64
714.782	7557.17
715.125	7572.09
715.469	7559.43
715.812	7490.51
716.156	7405.54
716.499	7448.93
716.843	7522.37
717.186	7446.89
717.53	7464.52
717.873	7439.21
718.216	7400.34
718.559	7374.58
718.902	7345.2
719.246	7368.03
719.589	7368.25
719.932	7313.11
720.275	7368.25
720.617	7369.16
720.96	7367.57
721.303	7354.69
721.646	7354.02
721.989	7285.77
722.331	7260.01
722.674	7284.41
723.016	7276.73
723.359	7317.63
723.701	7282.83
724.044	7239.89
724.386	7259.33
724.729	7272.89
725.071	7279.22
725.413	7309.72
725.755	7217.97
726.097	7295.71
726.439	7205.77
726.782	7182.95
727.124	7311.08
727.465	7247.8
727.807	7235.83
728.149	7220.69
728.491	7240.8
728.833	7233.34
729.175	7184.3
729.516	7168.71
729.858	7147.69
730.199	7198.09
730.541	7184.53
730.882	7141.37
731.224	7237.63
731.565	7086.68
731.906	7219.78
732.248	7222.49
732.589	7149.28
732.93	7142.72
733.271	7168.48
733.612	7144.98
733.953	7167.35
734.294	7175.26
734.635	7101.82
734.976	7142.04
735.317	7142.5
735.658	7130.74
735.999	7074.48
736.339	7162.16
736.68	7170.29
737.021	7171.2
737.361	7128.26
737.702	7129.61
738.042	7156.51
738.383	7150.63
738.723	7148.15
739.063	7142.72
739.404	7118.32
739.744	7133.23
740.084	7155.83
740.424	7086.68
740.764	7161.7
741.104	7130.97
741.444	7153.12
741.784	7131.2
742.124	7107.02
742.464	7144.76
742.804	7145.89
743.143	7083.74
743.483	7124.64
743.823	7056.85
744.162	7075.83
744.502	7095.04
744.841	7066.57
745.181	7141.14
745.52	7081.25
745.86	7053.23
746.199	7080.58
746.538	7042.39
746.877	7096.17
747.216	7120.8
747.556	7081.48
747.895	7059.33
748.234	7039.45
748.573	7024.98
748.911	7058.43
749.25	7072.67
749.589	7001.03
749.928	7082.61
750.267	7072.67
750.605	7065.44
750.944	7028.83
751.283	7017.75
751.621	7036.51
751.96	7029.73
752.298	7009.39
752.636	7026.11
752.975	6963.74
753.313	6971.43
753.651	7004.19
753.989	6990.18
754.327	6974.36
754.666	6963.97
755.004	6957.87
755.342	6954.25
755.679	6978.88
756.017	6933.69
756.355	6929.17
756.693	6876.51
757.031	6862.28
757.368	6863.86
757.706	6883.52
758.044	6844.88
758.381	6894.37
758.719	6782.96
759.056	6819.34
759.394	6835.16
759.731	6724.65
760.068	6734.37
760.405	6721.72
760.743	6746.57
761.08	6718.78
761.417	6683.07
761.754	6640.14
762.091	6652.57
762.428	6646.01
762.765	6605.33
763.102	6633.58
763.438	6653.24
763.775	6608.5
764.112	6608.95
764.449	6575.73
764.785	6561.49
765.122	6536.18
765.458	6497.77
765.795	6572.79
766.131	6464.32
766.467	6434.49
766.804	6405.79
767.14	6412.57
767.476	6379.13
767.812	6352.46
768.148	6378.45
768.485	6310.65
768.821	6285.8
