Data from mousepad_grey_FLMS001491_00008.txt Node
Date: Wed Feb 08 14:28:54 GMT 2017
User: dcchb
Spectrometer: FLMS00149
Trigger mode: 0
Integration Time (sec): 2.000000E-2
Scans to average: 10
Electric dark correction enabled: true
Nonlinearity correction enabled: false
Boxcar width: 0
XAxis mode: Wavelengths
Number of Pixels in Spectrum: 2048
>>>>>Begin Spectral Data<<<<<
341.393	-7.8
341.776	-7.8
342.16	-7.8
342.543	-55.7
342.927	-72.2
343.31	-65.65
343.693	-60.9
344.077	-62.03
344.46	-66.55
344.843	-44.86
345.226	-43.95
345.61	-26.78
345.993	-30.62
346.376	-4.86
346.759	-10.28
347.142	30.39
347.525	43.5
347.908	68.13
348.291	73.11
348.674	92.77
349.057	108.58
349.44	110.62
349.823	165.53
350.206	190.62
350.588	175.7
350.971	200.79
351.354	199.88
351.737	242.37
352.119	226.77
352.502	271.07
352.884	248.69
353.267	276.04
353.65	288.47
354.032	287.11
354.414	257.06
354.797	291.86
355.179	302.25
355.562	301.57
355.944	330.95
356.326	312.2
356.709	318.97
357.091	330.5
357.473	342.48
357.855	321.01
358.238	307.45
358.62	317.17
359.002	311.52
359.384	329.14
359.766	334.34
360.148	304.51
360.53	330.27
360.912	309.48
361.294	309.26
361.676	309.71
362.057	316.26
362.439	325.98
362.821	308.81
363.203	320.78
363.584	291.4
363.966	304.06
364.348	303.61
364.729	304.74
365.111	299.54
365.493	286.21
365.874	290.27
366.256	289.14
366.637	294.79
367.019	314.68
367.4	304.29
367.781	319.2
368.163	303.83
368.544	295.92
368.925	306.77
369.306	281.24
369.688	295.47
370.069	307.68
370.45	291.63
370.831	318.75
371.212	295.25
371.593	288.92
371.974	293.66
372.355	298.64
372.736	272.2
373.117	288.24
373.498	292.99
373.879	300.44
374.26	296.6
374.641	309.26
375.021	287.56
375.402	313.78
375.783	305.87
376.163	317.39
376.544	308.81
376.925	305.87
377.305	302.7
377.686	286.21
378.066	305.64
378.447	316.94
378.827	313.78
379.208	307.22
379.588	315.36
379.968	310.61
380.349	299.09
380.729	319.43
381.109	302.03
381.489	325.53
381.87	314
382.25	332.99
382.63	325.75
383.01	324.62
383.39	315.81
383.77	327.34
384.15	353.32
384.53	307.9
384.91	317.39
385.29	314.68
385.67	322.14
386.049	327.34
386.429	319.43
386.809	324.4
387.189	323.27
387.568	323.49
387.948	329.37
388.328	332.31
388.707	335.47
389.087	326.88
389.466	319.2
389.846	342.48
390.225	335.02
390.605	348.8
390.984	335.25
391.363	339.77
391.743	333.66
392.122	351.97
392.501	337.51
392.881	338.41
393.26	356.71
393.639	335.7
394.018	358.75
394.397	352.19
394.776	373.66
395.155	351.74
395.534	341.8
395.913	363.04
396.292	368.92
396.671	372.53
397.05	347.9
397.429	355.58
397.808	355.36
398.186	356.94
398.565	363.95
398.944	361.01
399.323	341.8
399.701	358.3
400.08	371.4
400.458	358.07
400.837	387
401.215	379.09
401.594	375.47
401.972	383.38
402.351	368.92
402.729	370.72
403.107	387.9
403.486	374.57
403.864	394.68
404.242	398.52
404.62	384.74
404.999	405.53
405.377	398.97
405.755	375.47
406.133	390.61
406.511	419.09
406.889	412.53
407.267	402.59
407.645	412.53
408.023	395.81
408.401	420.89
408.779	425.86
409.156	412.08
409.534	421.34
409.912	434.68
410.29	434
410.667	424.73
411.045	423.83
411.422	420.89
411.8	422.47
412.178	441.68
412.555	444.17
412.933	420.21
413.31	453.89
413.687	448.46
414.065	422.02
414.442	455.24
414.819	476.71
415.197	458.86
415.574	465.86
415.951	454.11
416.328	452.53
416.705	488.91
417.082	465.86
417.46	462.93
417.837	491.4
418.214	478.07
418.591	495.69
418.967	484.39
419.344	490.04
419.721	499.99
420.098	498.63
420.475	502.92
420.852	512.42
421.228	481.46
421.605	521.68
421.982	495.69
422.358	525.3
422.735	516.26
423.111	506.99
423.488	527.33
423.864	504.73
424.241	525.75
424.617	511.74
424.994	523.04
425.37	517.16
425.746	535.69
426.123	535.47
426.499	543.83
426.875	562.13
427.251	558.52
427.627	567.56
428.003	548.57
428.379	561.68
428.756	581.11
429.132	579.76
429.507	579.98
429.883	583.83
430.259	608.91
430.635	601.68
431.011	605.75
431.387	606.2
431.763	599.65
432.138	589.25
432.514	606.88
432.89	638.06
433.265	629.02
433.641	624.28
434.016	631.51
434.392	632.64
434.767	628.8
435.143	649.36
435.518	648.23
435.894	630.38
436.269	672.19
436.644	690.26
437.02	667.21
437.395	662.24
437.77	659.76
438.145	701.11
438.52	687.78
438.895	701.56
439.271	697.72
439.646	695.69
440.021	700.43
440.395	730.72
440.77	704.95
441.145	706.99
441.52	712.86
441.895	735.69
442.27	730.72
442.645	750.83
443.019	706.99
443.394	737.04
443.769	750.15
444.143	747.44
444.518	758.29
444.892	755.35
445.267	774.1
445.641	765.29
446.016	755.12
446.39	778.4
446.764	788.57
447.139	780.88
447.513	764.16
447.887	780.88
448.262	804.39
448.636	777.49
449.01	830.15
449.384	816.59
449.758	833.76
450.132	821.79
450.506	803.48
450.88	832.18
451.254	842.35
451.628	830.83
452.002	839.19
452.376	843.25
452.75	868.79
453.123	861.79
453.497	884.16
453.871	879.86
454.244	888
454.618	919.18
454.992	902.91
455.365	915.8
455.739	904.72
456.112	909.92
456.486	925.74
456.859	915.57
457.232	965.96
457.606	961.9
457.979	963.03
458.352	950.82
458.725	978.62
459.099	1002.35
459.472	1001.44
459.845	1012.74
460.218	1015
460.591	1048.67
460.964	1038.28
461.337	1050.93
461.71	1059.29
462.083	1078.28
462.456	1053.64
462.829	1079.63
463.201	1090.71
463.574	1113.08
463.947	1127.77
464.32	1124.83
464.692	1154.43
465.065	1151.72
465.438	1145.85
465.81	1210.93
466.183	1159.4
466.555	1171.38
466.928	1202.34
467.3	1194.21
467.672	1211.83
468.045	1267.65
468.417	1269.23
468.789	1255
469.161	1252.28
469.534	1302.9
469.906	1310.14
470.278	1334.54
470.65	1348.78
471.022	1366.4
471.394	1379.74
471.766	1382.45
472.138	1399.62
472.51	1425.84
472.882	1432.17
473.253	1446.4
473.625	1456.57
473.997	1473.52
474.369	1500.19
474.74	1519.85
475.112	1549
475.484	1550.81
475.855	1561.88
476.227	1605.27
476.598	1644.82
476.97	1637.36
477.341	1662.44
477.713	1669
478.084	1671.03
478.455	1685.94
478.827	1734.98
479.198	1773.85
479.569	1800.29
479.94	1828.99
480.311	1837.13
480.682	1876.22
481.053	1916.45
481.424	1922.1
481.795	1957.58
482.166	1926.62
482.537	1995.09
482.908	2051.13
483.279	2027.18
483.65	2110.34
484.021	2141.98
484.391	2091.58
484.762	2165.48
485.133	2139.72
485.503	2198.25
485.874	2236.21
486.244	2247.06
486.615	2308.75
486.985	2307.85
487.356	2355.08
487.726	2380.62
488.097	2409.54
488.467	2420.84
488.837	2493.15
489.207	2519.59
489.578	2537.9
489.948	2531.57
490.318	2556.66
490.688	2575.19
491.058	2641.85
491.428	2658.35
491.798	2654.51
492.168	2706.48
492.538	2716.65
492.908	2774.73
493.278	2785.58
493.648	2801.85
494.017	2838.68
494.387	2830.55
494.757	2899.7
495.126	2881.62
495.496	2923.88
495.866	2939.24
496.235	2972.69
496.605	2972.92
496.974	3061.28
497.344	3010.43
497.713	3044.55
498.082	3095.17
498.452	3077.55
498.821	3092.69
499.19	3113.25
499.559	3121.39
499.928	3175.4
500.298	3160.26
500.667	3230.76
501.036	3200.03
501.405	3218.11
501.774	3236.86
502.143	3247.71
502.512	3269.41
502.88	3342.62
503.249	3305.34
503.618	3356.63
503.987	3367.93
504.356	3372.91
504.724	3417.65
505.093	3438.67
505.462	3452
505.83	3442.51
506.199	3468.04
506.567	3533.35
506.936	3517.53
507.304	3607.7
507.672	3566.12
508.041	3612.67
508.409	3669.17
508.777	3652.9
509.145	3740.35
509.514	3661.94
509.882	3731.77
510.25	3725.44
510.618	3742.16
510.986	3770.86
511.354	3835.72
511.722	3821.48
512.09	3891.99
512.458	3906.22
512.826	3925.43
513.193	3941.03
513.561	3931.31
513.929	3965.66
514.297	3949.39
514.664	4018.54
515.032	3996.39
515.4	4024.87
515.767	4105.09
516.135	4124.98
516.502	4114.36
516.869	4161.36
517.237	4202.26
517.604	4128.82
517.972	4217.18
518.339	4252.2
518.706	4233.9
519.073	4279.55
519.44	4284.29
519.808	4369.04
520.175	4347.12
520.542	4402.71
520.909	4370.17
521.276	4450.84
521.643	4463.05
522.009	4522.03
522.376	4510.05
522.743	4541.46
523.11	4594.34
523.477	4635.02
523.843	4679.54
524.21	4701.23
524.577	4733.55
524.943	4793.43
525.31	4784.17
525.676	4845.18
526.043	4860.78
526.409	4855.8
526.776	4910.94
527.142	4893.54
527.508	4961.79
527.874	4997.04
528.241	5005.41
528.607	5001.56
528.973	5108
529.339	5032.98
529.705	5157.27
530.071	5158.4
530.437	5180.54
530.803	5261.67
531.169	5276.36
531.535	5220.09
531.901	5271.16
532.267	5287.88
532.632	5379.41
532.998	5370.82
533.364	5379.63
533.73	5439.07
534.095	5476.13
534.461	5418.5
534.826	5485.84
535.192	5514.77
535.557	5536.46
535.923	5578.5
536.288	5616.91
536.653	5629.34
537.019	5629.12
537.384	5664.6
537.749	5695.56
538.114	5727.19
538.479	5711.38
538.845	5784.82
539.21	5728.78
539.575	5837.93
539.94	5825.5
540.305	5880.86
540.67	5874.53
541.034	5847.87
541.399	5910.92
541.764	5961.09
542.129	5948.43
542.494	5913.18
542.858	6054.42
543.223	6005.6
543.587	6084.47
543.952	6019.39
544.316	6111.59
544.681	6119.95
545.045	6188.88
545.41	6194.53
545.774	6160.18
546.138	6186.17
546.503	6241.08
546.867	6272.72
547.231	6285.82
547.595	6262.1
547.959	6334.41
548.324	6331.47
548.688	6374.18
549.052	6443.11
549.416	6443.56
549.779	6409.21
550.143	6475.65
550.507	6505.7
550.871	6542.09
551.235	6480.17
551.599	6604.69
551.962	6557
552.326	6607.62
552.689	6637.9
553.053	6583.44
553.417	6633.38
553.78	6763.32
554.143	6761.97
554.507	6799.03
554.87	6769.2
555.234	6818.69
555.597	6871.57
555.96	6839.93
556.323	6883.1
556.686	6930.1
557.05	6967.84
557.413	6971.68
557.776	6945.69
558.139	6987.05
558.502	7059.59
558.865	7038.57
559.228	7083.77
559.59	7146.59
559.953	7125.8
560.316	7201.28
560.679	7218.68
561.041	7305.46
561.404	7315.17
561.767	7309.98
562.129	7274.95
562.492	7355.63
562.854	7388.85
563.217	7445.57
563.579	7491.22
563.941	7488.96
564.304	7509.29
564.666	7634.49
565.028	7592.68
565.39	7594.49
565.753	7699.12
566.115	7679.69
566.477	7750.64
566.839	7761.04
567.201	7803.75
567.563	7796.29
567.925	7863.41
568.287	7848.95
568.648	7867.25
569.01	7911.09
569.372	7966.91
569.734	7947.93
570.095	8024.53
570.457	8054.82
570.819	8070.64
571.18	8116.28
571.542	8116.06
571.903	8090.52
572.265	8165.77
572.626	8159.45
572.987	8236.51
573.349	8286.67
573.71	8276.51
574.071	8273.12
574.432	8309.73
574.794	8384.53
575.155	8377.07
575.516	8330.74
575.877	8378.88
576.238	8408.93
576.599	8441.47
576.96	8476.05
577.32	8382.27
577.681	8469.27
578.042	8505.2
578.403	8467.91
578.763	8563.28
579.124	8518.31
579.485	8565.99
579.845	8597.85
580.206	8528.02
580.566	8662.94
580.927	8605.54
581.287	8676.72
581.648	8595.14
582.008	8648.93
582.368	8662.03
582.728	8657.06
583.089	8604.18
583.449	8697.51
583.809	8656.83
584.169	8691.18
584.529	8656.61
584.889	8721.69
585.249	8697.74
585.609	8674.46
585.969	8712.43
586.329	8702.48
586.688	8744.29
587.048	8708.13
587.408	8652.99
587.768	8711.97
588.127	8732.31
588.487	8726.89
588.846	8749.71
589.206	8788.58
589.565	8743.39
589.925	8765.98
590.284	8755.36
590.643	8797.17
591.003	8766.89
591.362	8852.99
591.721	8702.48
592.08	8781.58
592.44	8799.66
592.799	8839.88
593.158	8760.33
593.517	8753.1
593.876	8853.44
594.235	8810.95
594.593	8778.41
594.952	8869.71
595.311	8827.23
595.67	8815.47
596.029	8812.76
596.387	8907.22
596.746	8873.78
597.104	8792.42
597.463	8850.73
597.822	8901.57
598.18	8864.29
598.538	8910.61
598.897	8883.95
599.255	8855.93
599.613	8937.51
599.972	8934.34
600.33	8888.01
600.688	8842.37
601.046	8992.87
601.404	8918.3
601.762	8921.01
602.12	8959.88
602.478	8965.3
602.836	8978.86
603.194	8890.73
603.552	8937.73
603.91	8891.63
604.268	9005.53
604.625	8985.19
604.983	8964.4
605.341	8926.43
605.698	8923.95
606.056	9002.36
606.413	8982.25
606.771	9096.82
607.128	9056.82
607.485	8983.15
607.843	9008.01
608.2	9073.32
608.557	9129.14
608.914	9038.75
609.272	9096.82
609.629	9106.77
609.986	9169.14
610.343	9105.86
610.7	9203.94
611.057	9158.29
611.414	9056.6
611.771	9103.15
612.127	9170.49
612.484	9120.33
612.841	9241.45
613.198	9177.72
613.554	9103.38
613.911	9173.66
614.267	9248.91
614.624	9192.87
614.98	9253.88
615.337	9274.9
615.693	9252.07
616.05	9275.12
616.406	9351.28
616.762	9241.9
617.118	9292.07
617.475	9273.77
617.831	9309.92
618.187	9361.67
618.543	9242.81
618.899	9415.01
619.255	9321.45
619.611	9292.07
619.967	9367.55
620.323	9450.71
620.678	9260.43
621.034	9325.07
621.39	9356.48
621.746	9338.62
622.101	9460.43
622.457	9367.1
622.812	9404.39
623.168	9402.13
623.523	9429.02
623.879	9406.87
624.234	9372.52
624.589	9433.31
624.945	9383.6
625.3	9474.44
625.655	9403.93
626.01	9429.02
626.365	9402.58
626.72	9395.35
627.075	9375.69
627.43	9468.34
627.785	9391.96
628.14	9396.02
628.495	9415.46
628.85	9316.93
629.205	9399.41
629.559	9417.27
629.914	9330.72
630.269	9411.16
630.623	9343.37
630.978	9325.97
631.332	9372.52
631.687	9410.26
632.041	9369.58
632.396	9402.13
632.75	9298.17
633.104	9374.56
633.459	9327.78
633.813	9321.68
634.167	9350.83
634.521	9290.72
634.875	9325.07
635.229	9357.38
635.583	9314.9
635.937	9357.61
636.291	9281.68
636.645	9286.2
636.999	9240.77
637.352	9263.6
637.706	9260.21
638.06	9265.86
638.413	9302.24
638.767	9220.89
639.121	9254.78
639.474	9179.98
639.828	9213.2
640.181	9228.12
640.534	9262.24
640.888	9234.67
641.241	9210.04
641.594	9180.89
641.947	9175.69
642.301	9136.14
642.654	9194.22
643.007	9217.72
643.36	9206.42
643.713	9189.48
644.066	9180.66
644.419	9167.1
644.771	9100.21
645.124	8982.48
645.477	9031.97
645.83	9020.21
646.182	8929.37
646.535	8848.69
646.888	8944.74
647.24	8942.48
647.593	8990.61
647.945	8874
648.298	8854.57
648.65	8842.59
649.002	8784.51
649.355	8858.19
649.707	8881.91
650.059	8948.8
650.411	8953.32
650.763	9024.51
651.115	9144.51
651.467	9130.95
651.819	9100.89
652.171	9058.86
652.523	9050.04
652.875	9079.42
653.227	9052.08
653.578	9132.98
653.93	9083.49
654.282	9015.24
654.633	9054.34
654.985	9078.29
655.337	9096.82
655.688	9102.92
656.039	9069.03
656.391	8981.35
656.742	9015.02
657.094	9056.15
657.445	9043.04
657.796	9043.72
658.147	8984.06
658.498	8990.39
658.849	9105.41
659.2	9074.22
659.551	9022.7
659.902	9112.87
660.253	8998.75
660.604	9044.17
660.955	8976.15
661.306	9072.19
661.656	9052.08
662.007	9106.09
662.358	9048.01
662.708	9019.31
663.059	9026.09
663.409	9005.75
663.76	9089.37
664.11	9079.42
664.461	9063.6
664.811	9017.05
665.161	9020.67
665.511	9025.64
665.862	9049.59
666.212	9061.8
666.562	9058.63
666.912	9039.2
667.262	9048.69
667.612	8959.65
667.962	9060.67
668.312	9037.39
668.662	9070.38
669.011	9078.97
669.361	8989.03
669.711	9013.44
670.06	9017.5
670.41	9013.89
670.76	9029.48
671.109	9000.33
671.459	8925.53
671.808	8940.89
672.157	8983.38
672.507	8935.47
672.856	8954.45
673.205	8954
673.554	9048.91
673.904	8956.71
674.253	9001.01
674.602	8992.42
674.951	8858.64
675.3	8816.15
675.649	8921.69
675.998	9013.66
676.346	8940.89
676.695	8931.63
677.044	8859.99
677.393	8892.53
677.741	8909.71
678.09	8897.05
678.438	8855.25
678.787	8841.01
679.135	8871.07
679.484	8780
679.832	8866.09
680.181	8845.08
680.529	8724.4
680.877	8775.02
681.225	8827
681.573	8802.14
681.922	8778.64
682.27	8700.45
682.618	8738.87
682.966	8709.94
683.314	8687.12
683.661	8715.82
684.009	8682.37
684.357	8748.81
684.705	8631.75
685.053	8663.39
685.4	8624.74
685.748	8605.54
686.095	8592.66
686.443	8532.32
686.79	8588.14
687.138	8563.28
687.485	8618.42
687.832	8518.08
688.18	8481.7
688.527	8452.09
688.874	8411.19
689.221	8439.21
689.568	8427.46
689.915	8367.35
690.262	8365.09
690.609	8387.69
690.956	8350.85
691.303	8353.34
691.65	8292.32
691.997	8312.44
692.344	8270.18
692.69	8271.53
693.037	8290.29
693.383	8147.7
693.73	8201.25
694.077	8078.32
694.423	8121.71
694.769	8101.59
695.116	8039.9
695.462	8096.62
695.808	8023.63
696.155	8087.58
696.501	7950.86
696.847	8022.5
697.193	7947.7
697.539	7948.83
697.885	7838.1
698.231	7867.48
698.577	7822.96
698.923	7857.53
699.269	7781.15
699.614	7827.25
699.96	7766.69
700.306	7780.7
700.651	7707.03
700.997	7702.06
701.342	7681.94
701.688	7674.04
702.033	7658.89
702.379	7618.22
702.724	7531.21
703.069	7609.18
703.415	7530.99
703.76	7494.83
704.105	7570.31
704.45	7497.99
704.795	7467.71
705.14	7408.05
705.485	7378.45
705.83	7396.3
706.175	7403.08
706.52	7330.09
706.865	7368.96
707.209	7395.85
707.554	7313.82
707.899	7282.18
708.243	7280.83
708.588	7228.85
708.932	7257.1
709.277	7220.71
709.621	7203.31
709.966	7186.82
710.31	7223.43
710.654	7114.05
710.998	7158.79
711.342	7137.78
711.687	7081.96
712.031	7150.66
712.375	7097.33
712.719	7127.61
713.063	7112.47
713.407	7058.46
713.75	7041.28
714.094	7008.29
714.438	7046.48
714.782	7047.61
715.125	6994.28
715.469	7006.48
715.812	6961.51
716.156	6971.68
716.499	6943.43
716.843	6935.52
717.186	6909.08
717.53	6935.75
717.873	6954.51
718.216	6920.83
718.559	6926.48
718.902	6895.07
719.246	6862.76
719.589	6921.51
719.932	6849.88
720.275	6865.47
720.617	6924.9
720.96	6851.46
721.303	6886.26
721.646	6812.36
721.989	6786.15
722.331	6867.73
722.674	6822.98
723.016	6803.78
723.359	6779.82
723.701	6820.72
724.044	6787.05
724.386	6755.87
724.729	6826.83
725.071	6753.83
725.413	6831.57
725.755	6749.77
726.097	6789.31
726.439	6712.93
726.782	6654.18
727.124	6804
727.465	6688.75
727.807	6699.6
728.149	6691.24
728.491	6714.29
728.833	6764.68
729.175	6703.21
729.516	6701.18
729.858	6704.12
730.199	6701.63
730.541	6709.09
730.882	6690.78
731.224	6749.77
731.565	6649.43
731.906	6712.7
732.248	6697.56
732.589	6689.88
732.93	6638.81
733.271	6659.6
733.612	6725.59
733.953	6730.11
734.294	6695.3
734.635	6682.2
734.976	6669.09
735.317	6673.16
735.658	6726.04
735.999	6634.74
736.339	6632.25
736.68	6661.41
737.021	6651.69
737.361	6691.46
737.702	6700.73
738.042	6666.38
738.383	6654.63
738.723	6662.31
739.063	6647.17
739.404	6656.89
739.744	6627.06
740.084	6618.92
740.424	6651.92
740.764	6652.14
741.104	6657.57
741.444	6627.74
741.784	6625.02
742.124	6618.7
742.464	6588.41
742.804	6648.53
743.143	6560.84
743.483	6625.93
743.823	6598.58
744.162	6588.41
744.502	6628.41
744.841	6607.4
745.181	6623.67
745.52	6587.74
745.86	6591.8
746.199	6659.82
746.538	6607.17
746.877	6627.28
747.216	6604.23
747.556	6602.2
747.895	6604.69
748.234	6532.14
748.573	6562.88
748.911	6632.03
749.25	6598.36
749.589	6552.71
749.928	6537.34
750.267	6610.56
750.605	6543.22
750.944	6584.8
751.283	6562.43
751.621	6603.33
751.96	6585.93
752.298	6492.37
752.636	6533.73
752.975	6493.5
753.313	6461.64
753.651	6539.6
753.989	6500.73
754.327	6488.76
754.666	6446.5
755.004	6538.7
755.342	6517
755.679	6503.22
756.017	6387.29
756.355	6456.21
756.693	6475.2
757.031	6460.73
757.368	6419.61
757.706	6400.4
758.044	6352.94
758.381	6425.25
758.719	6381.19
759.056	6410.79
759.394	6349.1
759.731	6307.74
760.068	6350.23
760.405	6269.1
760.743	6290.57
761.08	6277.91
761.417	6248.54
761.754	6225.94
762.091	6239.04
762.428	6191.14
762.765	6180.97
763.102	6190.46
763.438	6154.08
763.775	6211.25
764.112	6184.36
764.449	6140.29
764.785	6133.29
765.122	6117.24
765.458	6096.45
765.795	6053.97
766.131	6038.6
766.467	6029.33
766.804	6008.77
767.14	6010.58
767.476	6014.42
767.812	5998.6
768.148	5951.59
768.485	5943.01
768.821	5946.4
769.157	5881.99
769.492	5886.51
769.828	5843.58
770.164	5836.57
770.5	5799.96
770.836	5803.8
771.171	5801.09
771.507	5819.4
