Data from mousepad_grey_FLMS001491_00045.txt Node
Date: Wed Feb 08 14:29:29 GMT 2017
User: dcchb
Spectrometer: FLMS00149
Trigger mode: 0
Integration Time (sec): 2.000000E-2
Scans to average: 10
Electric dark correction enabled: true
Nonlinearity correction enabled: false
Boxcar width: 0
XAxis mode: Wavelengths
Number of Pixels in Spectrum: 2048
>>>>>Begin Spectral Data<<<<<
341.393	-17.27
341.776	-17.27
342.16	-17.27
342.543	-61.11
342.927	-60.21
343.31	-65.41
343.693	-76.03
344.077	-53.43
344.46	-57.05
344.843	-50.27
345.226	-35.58
345.61	-33.32
345.993	-37.84
346.376	-6.43
346.759	11.88
347.142	35.61
347.525	44.19
347.908	66.11
348.291	47.58
348.674	98.2
349.057	111.76
349.44	120.35
349.823	151.08
350.206	160.35
350.588	177.07
350.971	191.31
351.354	199.9
351.737	222.95
352.119	230.18
352.502	244.64
352.884	256.62
353.267	269.5
353.65	281.93
354.032	278.31
354.414	281.48
354.797	280.57
355.179	314.24
355.562	278.31
355.944	336.39
356.326	296.16
356.709	302.27
357.091	317.63
357.473	322.83
357.855	317.41
358.238	306.11
358.62	299.55
359.002	324.41
359.384	302.04
359.766	314.92
360.148	321.25
360.53	312.89
360.912	324.19
361.294	308.14
361.676	315.6
362.057	320.8
362.439	327.8
362.821	304.53
363.203	296.62
363.584	295.03
363.966	303.4
364.348	303.17
364.729	319.21
365.111	302.04
365.493	290.06
365.874	310.63
366.256	296.84
366.637	284.64
367.019	290.51
367.4	298.2
367.781	302.04
368.163	287.13
368.544	286.22
368.925	286.22
369.306	315.37
369.688	299.78
370.069	293.9
370.45	292.77
370.831	301.36
371.212	302.27
371.593	285.54
371.974	305.43
372.355	294.58
372.736	287.35
373.117	307.69
373.498	297.52
373.879	273.11
374.26	296.16
374.641	292.32
375.021	293
375.402	309.05
375.783	302.04
376.163	293.68
376.544	306.33
376.925	303.62
377.305	287.58
377.686	279.22
378.066	302.04
378.447	304.75
378.827	305.66
379.208	311.76
379.588	298.65
379.968	315.6
380.349	300.68
380.729	300.23
381.109	326.9
381.489	305.66
381.87	319.89
382.25	316.28
382.63	314.02
383.01	323.96
383.39	342.72
383.77	332.1
384.15	320.8
384.53	324.86
384.91	327.35
385.29	337.97
385.67	337.07
386.049	354.02
386.429	336.62
386.809	327.35
387.189	328.93
387.568	307.69
387.948	328.93
388.328	321.47
388.707	348.37
389.087	336.62
389.466	328.71
389.846	337.75
390.225	343.39
390.605	361.47
390.984	328.03
391.363	342.72
391.743	344.3
392.122	346.78
392.501	354.92
392.881	370.06
393.26	335.71
393.639	363.06
394.018	363.06
394.397	363.96
394.776	355.82
395.155	358.31
395.534	369.16
395.913	358.08
396.292	364.19
396.671	364.64
397.05	359.44
397.429	368.93
397.808	373.9
398.186	364.19
398.565	387.46
398.944	383.62
399.323	387.69
399.701	358.76
400.08	386.11
400.458	370.96
400.837	369.38
401.215	373
401.594	378.65
401.972	373
402.351	369.61
402.729	388.14
403.107	389.72
403.486	408.03
403.864	394.92
404.242	412.32
404.62	400.12
404.999	407.35
405.377	394.69
405.755	406.67
406.133	403.96
406.511	422.04
406.889	433.11
407.267	423.39
407.645	408.7
408.023	421.58
408.401	410.29
408.779	411.42
409.156	424.3
409.534	438.53
409.912	425.88
410.29	445.77
410.667	436.95
411.045	443.96
411.422	455.26
411.8	454.35
412.178	443.05
412.555	471.08
412.933	463.17
413.31	488.02
413.687	456.61
414.065	484.41
414.442	481.24
414.819	455.48
415.197	498.87
415.574	495.03
415.951	478.53
416.328	494.8
416.705	498.19
417.082	495.48
417.46	495.93
417.837	479.44
418.214	487.35
418.591	521.02
418.967	509.72
419.344	509.94
419.721	515.37
420.098	527.8
420.475	520.34
420.852	517.18
421.228	540
421.605	513.33
421.982	533.9
422.358	548.81
422.735	557.4
423.111	554.46
423.488	562.82
423.864	544.52
424.241	565.99
424.617	570.51
424.994	564.63
425.37	546.78
425.746	550.85
426.123	578.87
426.499	557.85
426.875	585.2
427.251	558.76
427.627	582.26
428.003	585.65
428.379	589.04
428.756	592.2
429.132	602.15
429.507	611.18
429.883	647.57
430.259	616.16
430.635	620.9
431.011	627.68
431.387	623.61
431.763	646.89
432.138	653.44
432.514	638.53
432.89	635.59
433.265	675.14
433.641	685.08
434.016	677.85
434.392	678.75
434.767	681.01
435.143	688.02
435.518	693.67
435.894	711.97
436.269	703.84
436.644	733.67
437.02	717.4
437.395	715.81
437.77	725.53
438.145	756.04
438.52	737.73
438.895	740.22
439.271	761.69
439.646	762.82
440.021	747.9
440.395	787
440.77	747.23
441.145	753.1
441.52	801.91
441.895	786.1
442.27	791.29
442.645	799.2
443.019	780.22
443.394	793.55
443.769	808.24
444.143	808.02
444.518	821.35
444.892	808.02
445.267	817.73
445.641	799.88
446.016	810.95
446.39	826.09
446.764	827.9
447.139	825.64
447.513	842.36
447.887	845.53
448.262	835.36
448.636	855.25
449.01	874
449.384	858.18
449.758	862.48
450.132	869.71
450.506	894.79
450.88	888.24
451.254	922.59
451.628	893.66
452.002	919.42
452.376	928.69
452.75	916.94
453.123	924.17
453.497	921.01
453.871	946.77
454.244	968.01
454.618	960.78
454.992	994.45
455.365	968.92
455.739	1003.49
456.112	1008.46
456.486	1012.3
456.859	1009.59
457.232	1044.17
457.606	1023.6
457.979	1045.98
458.352	1042.59
458.725	1035.58
459.099	1074.45
459.472	1078.97
459.845	1101.34
460.218	1088.91
460.591	1125.75
460.964	1123.94
461.337	1131.17
461.71	1138.18
462.083	1176.14
462.456	1197.84
462.829	1163.49
463.201	1176.82
463.574	1198.74
463.947	1198.97
464.32	1205.97
464.692	1219.08
465.065	1243.26
465.438	1240.77
465.81	1273.31
466.183	1290.71
466.555	1277.61
466.928	1321.9
467.3	1319.41
467.672	1322.8
468.045	1365.74
468.417	1359.64
468.789	1371.62
469.161	1385.4
469.534	1387.44
469.906	1436.25
470.278	1426.3
470.65	1478.28
471.022	1454.55
471.394	1485.51
471.766	1504.27
472.138	1512.63
472.51	1530.71
472.882	1574.77
473.253	1566.19
473.625	1578.39
473.997	1625.4
474.369	1630.82
474.74	1653.64
475.112	1664.49
475.484	1693.42
475.855	1740.65
476.227	1714.43
476.598	1788.1
476.97	1791.27
477.341	1809.12
477.713	1851.15
478.084	1845.95
478.455	1880.08
478.827	1882.11
479.198	1956.46
479.569	1959.85
479.94	1954.65
480.311	2020.19
480.682	2039.4
481.053	2085.04
481.424	2092.95
481.795	2119.62
482.166	2179.5
482.537	2172.73
482.908	2264.25
483.279	2246.62
483.65	2292.72
484.021	2330.69
484.391	2382.21
484.762	2357.81
485.133	2352.16
485.503	2428.31
485.874	2484.36
486.244	2468.31
486.615	2520.74
486.985	2542.21
487.356	2614.07
487.726	2583.34
488.097	2641.19
488.467	2643.67
488.837	2707.4
489.207	2709.89
489.578	2751.24
489.948	2792.14
490.318	2828.53
490.688	2822.88
491.058	2883.22
491.428	2891.58
491.798	2902.42
492.168	2999.82
492.538	3022.42
492.908	3021.06
493.278	3043.89
493.648	3148.52
494.017	3106.94
494.387	3115.53
494.757	3171.34
495.126	3181.06
495.496	3210.66
495.866	3205.69
496.235	3241.17
496.605	3296.54
496.974	3311.45
497.344	3309.87
497.713	3330.66
498.082	3365.24
498.452	3416.31
498.821	3438
499.19	3426.7
499.559	3464.67
499.928	3494.27
500.298	3514.16
500.667	3508.06
501.036	3474.61
501.405	3554.61
501.774	3554.84
502.143	3632.12
502.512	3626.92
502.88	3634.16
503.249	3665.57
503.618	3715.96
503.987	3675.51
504.356	3708.5
504.724	3758.67
505.093	3758.67
505.462	3772.68
505.83	3805.45
506.199	3822.4
506.567	3880.03
506.936	3898.1
507.304	3915.05
507.672	3914.6
508.041	3941.49
508.409	3968.61
508.777	4005.9
509.145	4035.05
509.514	4064.88
509.882	4047.25
510.25	4056.29
510.618	4084.54
510.986	4150.75
511.354	4176.74
511.722	4188.49
512.09	4266
512.458	4244.54
512.826	4221.71
513.193	4278.43
513.561	4276.17
513.929	4320.69
514.297	4393.23
514.664	4395.72
515.032	4427.13
515.4	4444.3
515.767	4469.84
516.135	4503.96
516.502	4484.75
516.869	4575.83
517.237	4592.1
517.604	4573.57
517.972	4596.39
518.339	4681.59
518.706	4674.13
519.073	4705.09
519.44	4721.58
519.808	4772.43
520.175	4753.45
520.542	4808.59
520.909	4861.24
521.276	4886.55
521.643	4891.3
522.009	4964.06
522.376	4951.41
522.743	4999.09
523.11	5015.81
523.477	5102.37
523.843	5074.8
524.21	5137.62
524.577	5174.45
524.943	5214.23
525.31	5260.55
525.676	5277.5
526.043	5318.63
526.409	5345.07
526.776	5344.39
527.142	5410.38
527.508	5460.1
527.874	5419.42
528.241	5508.68
528.607	5531.96
528.973	5560.43
529.339	5536.03
529.705	5619.41
530.071	5653.99
530.437	5680.66
530.803	5697.83
531.169	5743.93
531.535	5757.26
531.901	5767.43
532.267	5784.61
532.632	5860.54
532.998	5865.96
533.364	5941.67
533.73	5938.95
534.095	5965.62
534.461	5972.4
534.826	6032.51
535.192	6081.32
535.557	6103.7
535.923	6092.62
536.288	6153.86
536.653	6140.08
537.019	6171.72
537.384	6210.36
537.749	6285.39
538.114	6237.25
538.479	6291.04
538.845	6300.3
539.21	6303.24
539.575	6269.57
539.94	6371.94
540.305	6380.52
540.67	6428.66
541.034	6407.64
541.399	6470.69
541.764	6502.78
542.129	6499.17
542.494	6573.06
542.858	6619.16
543.223	6596.11
543.587	6593.63
543.952	6623.68
544.316	6622.1
544.681	6668.65
545.045	6712.72
545.41	6749.33
545.774	6845.82
546.138	6784.13
546.503	6837.69
546.867	6820.29
547.231	6859.61
547.595	6867.52
547.959	6944.35
548.324	6920.62
548.688	6939.61
549.052	6998.81
549.416	7024.35
549.779	7055.31
550.143	7063.22
550.507	7114.29
550.871	7099.38
551.235	7103.44
551.599	7141.86
551.962	7255.08
552.326	7225.93
552.689	7269.09
553.053	7183.22
553.417	7233.16
553.78	7353.61
554.143	7379.37
554.507	7393.61
554.87	7422.53
555.234	7465.24
555.597	7426.82
555.96	7522.87
556.323	7567.84
556.686	7549.99
557.05	7612.36
557.413	7649.42
557.776	7636.54
558.139	7719.47
558.502	7710.66
558.865	7725.35
559.228	7763.99
559.59	7811
559.953	7829.75
560.316	7906.36
560.679	7935.51
561.041	7935.74
561.404	7956.53
561.767	8038.33
562.129	8034.27
562.492	8139.12
562.854	8111.78
563.217	8052.8
563.579	8156.07
563.941	8231.32
564.304	8234.49
564.666	8316.07
565.028	8286.01
565.39	8337.76
565.753	8359
566.115	8474.03
566.477	8423.18
566.839	8440.81
567.201	8494.14
567.563	8509.28
567.925	8621.82
568.287	8680.58
568.648	8618.88
569.01	8710.63
569.372	8641.71
569.734	8676.28
570.095	8808.94
570.457	8804.87
570.819	8810.52
571.18	8818.88
571.542	8843.96
571.903	8921.7
572.265	8873.57
572.626	8937.29
572.987	8934.58
573.349	9066.78
573.71	9032.21
574.071	9095.93
574.432	9133.45
574.794	9160.11
575.155	9118.76
575.516	9160.34
575.877	9181.13
576.238	9150.85
576.599	9219.09
576.96	9231.3
577.32	9208.92
577.681	9277.17
578.042	9305.42
578.403	9278.08
578.763	9313.33
579.124	9340.9
579.485	9380.45
579.845	9377.51
580.206	9421.8
580.566	9362.82
580.927	9350.16
581.287	9396.72
581.648	9433.1
582.008	9464.29
582.368	9439.65
582.728	9426.77
583.089	9449.6
583.449	9436.49
583.809	9438.3
584.169	9545.19
584.529	9526.66
584.889	9485.53
585.249	9516.49
585.609	9402.59
585.969	9524.85
586.329	9522.14
586.688	9504.51
587.048	9553.55
587.408	9487.56
587.768	9526.66
588.127	9484.62
588.487	9502.7
588.846	9614.56
589.206	9473.1
589.565	9521.01
589.925	9575.69
590.284	9570.04
590.643	9554.23
591.003	9628.57
591.362	9544.73
591.721	9549.03
592.08	9560.33
592.44	9618.63
592.799	9569.82
593.158	9613.66
593.517	9611.85
593.876	9621.57
594.235	9634.45
594.593	9551.29
594.952	9632.19
595.311	9606.88
595.67	9642.81
596.029	9673.77
596.387	9730.72
596.746	9678.74
597.104	9616.37
597.463	9574.79
597.822	9715.58
598.18	9687.78
598.538	9617.28
598.897	9717.84
599.255	9615.69
599.613	9724.39
599.972	9688.46
600.33	9710.38
600.688	9668.57
601.046	9657.73
601.404	9750.83
601.762	9647.56
602.12	9744.05
602.478	9736.82
602.836	9775.92
603.194	9688.01
603.552	9699.08
603.91	9763.49
604.268	9771.62
604.625	9717.16
604.983	9823.15
605.341	9769.36
605.698	9791.28
606.056	9833.99
606.413	9709.7
606.771	9745.41
607.128	9789.93
607.485	9754.9
607.843	9795.58
608.2	9828.8
608.557	9859.98
608.914	9813.65
609.272	9916.02
609.629	9947.21
609.986	9949.7
610.343	9815.46
610.7	9973.2
611.057	9853.43
611.414	9927.32
611.771	9929.58
612.127	9955.57
612.484	9937.04
612.841	9992.18
613.198	9975.46
613.554	9899.53
613.911	10045.51
614.267	10025.63
614.624	10023.59
614.98	9948.11
615.337	10018.85
615.693	10021.56
616.05	9983.59
616.406	10098.62
616.762	10120.99
617.118	9977.72
617.475	10042.8
617.831	10061.33
618.187	10102.23
618.543	10127.09
618.899	10156.24
619.255	10198.95
619.611	10122.57
619.967	10234.43
620.323	10179.07
620.678	10145.62
621.034	10147.66
621.39	10107.43
621.746	10064.95
622.101	10236.69
622.457	10162.35
622.812	10159.63
623.168	10184.27
623.523	10214.77
623.879	10249.12
624.234	10156.02
624.589	10225.39
624.945	10192.4
625.3	10179.07
625.655	10204.6
626.01	10201.67
626.365	10188.11
626.72	10172.52
627.075	10191.05
627.43	10171.16
627.785	10203.7
628.14	10190.14
628.495	10199.18
628.85	10134.55
629.205	10135.68
629.559	10225.62
629.914	10183.81
630.269	10155.11
630.623	10207.99
630.978	10129.58
631.332	10112.86
631.687	10216.36
632.041	10157.83
632.396	10189.01
632.75	10110.82
633.104	10194.66
633.459	10070.37
633.813	10146.53
634.167	10118.28
634.521	10059.07
634.875	10080.54
635.229	10079.18
635.583	10108.34
635.937	10039.19
636.291	10040.99
636.645	10013.88
636.999	10060.65
637.352	10020.43
637.706	10071.73
638.06	10036.93
638.413	10008
638.767	9947.44
639.121	10046.64
639.474	9931.39
639.828	9963.03
640.181	9979.75
640.534	9961.22
640.888	9909.25
641.241	9891.62
641.594	9928
641.947	9968.23
642.301	9898.17
642.654	10008.9
643.007	9955.35
643.36	9977.27
643.713	9892.97
644.066	9939.07
644.419	9787.44
644.771	9824.73
645.124	9753.77
645.477	9719.65
645.83	9671.96
646.182	9621.34
646.535	9625.18
646.888	9688.23
647.24	9615.47
647.593	9702.7
647.945	9699.76
648.298	9623.38
648.65	9602.13
649.002	9521.23
649.355	9617.73
649.707	9540.44
650.059	9596.94
650.411	9712.87
650.763	9795.8
651.115	9863.37
651.467	9859.98
651.819	9808.68
652.171	9784.73
652.523	9805.97
652.875	9801.45
653.227	9758.51
653.578	9785.63
653.93	9789.7
654.282	9763.94
654.633	9798.74
654.985	9702.47
655.337	9756.93
655.688	9786.31
656.039	9780.89
656.391	9691.85
656.742	9760.32
657.094	9789.93
657.445	9831.96
657.796	9764.16
658.147	9724.84
658.498	9824.05
658.849	9764.16
659.2	9803.94
659.551	9695.92
659.902	9859.75
660.253	9748.8
660.604	9733.2
660.955	9800.55
661.306	9761.68
661.656	9772.98
662.007	9712.87
662.358	9715.13
662.708	9834.9
663.059	9762.36
663.409	9645.3
663.76	9722.58
664.11	9782.02
664.461	9726.2
664.811	9754.45
665.161	9714.22
665.511	9752.41
665.862	9739.98
666.212	9772.3
666.562	9783.37
666.912	9728.23
667.262	9699.53
667.612	9744.73
667.962	9741.79
668.312	9756.48
668.662	9792.41
669.011	9792.64
669.361	9689.36
669.711	9771.62
670.06	9648.24
670.41	9755.35
670.76	9643.94
671.109	9695.92
671.459	9716.71
671.808	9729.81
672.157	9672.19
672.507	9667.9
672.856	9692.08
673.205	9659.99
673.554	9692.08
673.904	9742.92
674.253	9661.12
674.602	9634.68
674.951	9504.96
675.3	9458.18
675.649	9627.9
675.998	9594.45
676.346	9627.67
676.695	9588.35
677.044	9600.55
677.393	9589.48
677.741	9573.89
678.09	9528.92
678.438	9542.25
678.787	9506.54
679.135	9518.75
679.484	9486.88
679.832	9467.67
680.181	9486.88
680.529	9511.52
680.877	9451.18
681.225	9474.45
681.573	9466.77
681.922	9378.64
682.27	9370.73
682.618	9378.64
682.966	9376.15
683.314	9437.62
683.661	9345.87
684.009	9354.46
684.357	9279.21
684.705	9300.9
685.053	9262.48
685.4	9232.88
685.748	9210.51
686.095	9252.54
686.443	9190.39
686.79	9186.55
687.138	9191.98
687.485	9132.54
687.832	9138.19
688.18	9108.81
688.527	9132.32
688.874	9068.14
689.221	9048.48
689.568	9104.29
689.915	9015.71
690.262	8954.92
690.609	8927.58
690.956	8968.03
691.303	8914.47
691.65	8836.5
691.997	8884.19
692.344	8844.41
692.69	8819.56
693.037	8787.47
693.383	8744.76
693.73	8821.59
694.077	8736.17
694.423	8718.99
694.769	8728.94
695.116	8646.68
695.462	8675.15
695.808	8596.06
696.155	8655.94
696.501	8556.74
696.847	8540.24
697.193	8493.92
697.539	8558.55
697.885	8403.07
698.231	8453.69
698.577	8413.69
698.923	8354.48
699.269	8406.91
699.614	8323.75
699.96	8292.79
700.306	8368.49
700.651	8293.24
700.997	8272.23
701.342	8279.91
701.688	8237.42
702.033	8170.76
702.379	8139.12
702.724	8089.86
703.069	8209.18
703.415	8019.8
703.76	8048.05
704.105	8046.02
704.45	8060.71
704.795	7945
705.14	7970.54
705.485	7935.96
705.83	7920.37
706.175	7911.11
706.52	7885.34
706.865	7879.47
707.209	7875.63
707.554	7792.69
707.899	7877.89
708.243	7772.8
708.588	7795.4
708.932	7730.55
709.277	7693.71
709.621	7753.82
709.966	7635.86
710.31	7729.87
710.654	7605.35
710.998	7647.38
711.342	7648.51
711.687	7641.96
712.031	7568.52
712.375	7586.37
712.719	7560.15
713.063	7546.6
713.407	7542.75
713.75	7559.48
714.094	7563.77
714.438	7476.31
714.782	7512.47
715.125	7506.37
715.469	7452.36
715.812	7418.01
716.156	7429.99
716.499	7445.81
716.843	7438.12
717.186	7399.71
717.53	7393.15
717.873	7453.49
718.216	7439.71
718.559	7352.48
718.902	7365.81
719.246	7335.98
719.589	7310.9
719.932	7289.2
720.275	7305.25
720.617	7294.17
720.96	7325.81
721.303	7316.77
721.646	7307.05
721.989	7292.59
722.331	7287.17
722.674	7217.11
723.016	7269.99
723.359	7252.82
723.701	7241.07
724.044	7201.52
724.386	7153.16
724.729	7226.6
725.071	7226.38
725.413	7239.71
725.755	7233.16
726.097	7229.77
726.439	7161.52
726.782	7197
727.124	7208.98
727.465	7151.8
727.807	7191.35
728.149	7250.11
728.491	7128.08
728.833	7180.73
729.175	7129.66
729.516	7127.4
729.858	7149.09
730.199	7192.25
730.541	7149.32
730.882	7136.66
731.224	7170.56
731.565	7177.57
731.906	7182.54
732.248	7121.75
732.589	7155.65
732.93	7110.67
733.271	7089.43
733.612	7142.31
733.953	7077
734.294	7097.34
734.635	7080.17
734.976	7151.35
735.317	7109.77
735.658	7095.08
735.999	7133.27
736.339	7023.9
736.68	7129.21
737.021	7124.23
737.361	7102.31
737.702	7107.51
738.042	7073.16
738.383	7077.23
738.723	7094.18
739.063	7123.78
739.404	7068.64
739.744	7095.99
740.084	7030.68
740.424	7055.76
740.764	7043.33
741.104	7079.49
741.444	7088.08
741.784	7006.27
742.124	7038.81
742.464	7070.9
742.804	7045.59
743.143	7048.08
743.483	7048.53
743.823	7002.43
744.162	6984.58
744.502	7026.38
744.841	7037.46
745.181	7015.99
745.52	7008.3
745.86	7041.07
746.199	7047.85
746.538	7072.94
746.877	7050.79
747.216	6981.64
747.556	6978.93
747.895	7013.05
748.234	7015.31
748.573	6998.36
748.911	6980.96
749.25	7050.79
749.589	6955.88
749.928	6963.11
750.267	7001.98
750.605	7014.41
750.944	6992.26
751.283	6986.84
751.621	7001.75
751.96	6923.33
752.298	6982.77
752.636	6926.72
752.975	6863.22
753.313	6945.93
753.651	6895.09
753.989	6856.44
754.327	6891.02
754.666	6848.53
755.004	6908.42
755.342	6907.29
755.679	6823.22
756.017	6797.69
756.355	6863.22
756.693	6891.92
757.031	6834.75
757.368	6848.53
757.706	6813.06
758.044	6796.11
758.381	6807.86
758.719	6763.57
759.056	6749.33
759.394	6745.49
759.731	6741.19
760.068	6703.23
760.405	6625.04
760.743	6646.51
761.08	6675.66
761.417	6610.57
761.754	6580.07
762.091	6633.17
762.428	6570.35
762.765	6584.81
763.102	6611.03
763.438	6515.66
763.775	6479.28
764.112	6526.51
764.449	6516.11
764.785	6480.18
765.122	6484.25
765.458	6417.36
765.795	6423.01
766.131	6436.34
766.467	6385.27
766.804	6357.47
767.14	6373.52
767.476	6334.88
767.812	6331.03
768.148	6297.14
768.485	6326.29
768.821	6238.61
769.157	6218.27
769.492	6246.29
