Data from mousepad_grey_FLMS001491_00071.txt Node
Date: Wed Feb 08 14:29:54 GMT 2017
User: dcchb
Spectrometer: FLMS00149
Trigger mode: 0
Integration Time (sec): 2.000000E-2
Scans to average: 10
Electric dark correction enabled: true
Nonlinearity correction enabled: false
Boxcar width: 0
XAxis mode: Wavelengths
Number of Pixels in Spectrum: 2048
>>>>>Begin Spectral Data<<<<<
341.393	-6.88
341.776	-6.88
342.16	-6.88
342.543	-60.44
342.927	-66.31
343.31	-90.27
343.693	-58.85
344.077	-70.38
344.46	-69.02
344.843	-54.79
345.226	-27.89
345.61	-38.06
345.993	-4.84
346.376	-15.47
346.759	8.94
347.142	25.21
347.525	37.19
347.908	82.38
348.291	89.16
348.674	85.1
349.057	101.59
349.44	137.52
349.823	135.49
350.206	142.72
350.588	203.96
350.971	198.77
351.354	208.03
351.737	236.51
352.119	243.96
352.502	233.79
352.884	280.35
353.267	263.17
353.65	275.83
354.032	290.97
354.414	305.88
354.797	280.12
355.179	304.75
355.562	288.26
355.944	307.24
356.326	313.57
356.709	322.15
357.091	313.34
357.473	342.49
357.855	333.68
358.238	337.07
358.62	343.17
359.002	314.24
359.384	333.23
359.766	340.23
360.148	320.57
360.53	335.94
360.912	297.52
361.294	311.98
361.676	314.92
362.057	342.27
362.439	317.18
362.821	306.79
363.203	333.9
363.584	321.7
363.966	331.42
364.348	311.08
364.729	296.39
365.111	322.83
365.493	269.72
365.874	303.4
366.256	312.66
366.637	277.86
367.019	307.24
367.4	298.88
367.781	281.93
368.163	279.22
368.544	319.21
368.925	302.04
369.306	300.91
369.688	310.18
370.069	295.94
370.45	295.26
370.831	297.75
371.212	301.14
371.593	307.24
371.974	298.88
372.355	309.95
372.736	298.65
373.117	290.29
373.498	295.26
373.879	315.83
374.26	299.1
374.641	313.57
375.021	294.81
375.402	314.47
375.783	305.43
376.163	321.93
376.544	311.98
376.925	340.91
377.305	306.79
377.686	315.6
378.066	291.64
378.447	280.12
378.827	323.96
379.208	331.19
379.588	314.47
379.968	309.5
380.349	307.69
380.729	311.31
381.109	319.67
381.489	325.54
381.87	329.38
382.25	298.42
382.63	318.54
383.01	304.07
383.39	306.79
383.77	341.36
384.15	310.18
384.53	326.45
384.91	341.14
385.29	325.32
385.67	331.19
386.049	334.13
386.429	317.41
386.809	343.17
387.189	324.41
387.568	337.97
387.948	339.1
388.328	315.15
388.707	338.65
389.087	329.61
389.466	339.78
389.846	335.26
390.225	347.69
390.605	353.56
390.984	366.9
391.363	341.81
391.743	356.05
392.122	365.54
392.501	357.41
392.881	346.11
393.26	364.64
393.639	359.21
394.018	388.14
394.397	359.67
394.776	354.24
395.155	385.43
395.534	366.9
395.913	361.02
396.292	361.25
396.671	374.58
397.05	353.79
397.429	374.35
397.808	362.83
398.186	375.03
398.565	373.9
398.944	388.14
399.323	386.11
399.701	380.68
400.08	395.37
400.458	373.9
400.837	385.43
401.215	392.89
401.594	402.83
401.972	380.68
402.351	414.13
402.729	373.45
403.107	400.57
403.486	394.24
403.864	409.16
404.242	407.8
404.62	428.82
404.999	413.68
405.377	395.14
405.755	440.79
406.133	425.43
406.511	418.2
406.889	429.04
407.267	421.36
407.645	450.51
408.023	447.57
408.401	448.02
408.779	450.28
409.156	440.57
409.534	447.35
409.912	462.94
410.29	453.67
410.667	438.53
411.045	454.35
411.422	467.01
411.8	471.98
412.178	435.37
412.555	468.36
412.933	488.93
413.31	461.58
413.687	485.54
414.065	483.96
414.442	475.59
414.819	495.03
415.197	512.66
415.574	493.67
415.951	482.15
416.328	507.23
416.705	500
417.082	503.84
417.46	513.33
417.837	506.55
418.214	511.75
418.591	495.93
418.967	502.94
419.344	529.83
419.721	511.53
420.098	542.49
420.475	527.12
420.852	556.04
421.228	548.14
421.605	522.6
421.982	550.17
422.358	543.84
422.735	560.11
423.111	539.77
423.488	556.72
423.864	535.25
424.241	550.4
424.617	562.82
424.994	569.15
425.37	574.12
425.746	564.41
426.123	595.14
426.499	579.77
426.875	584.29
427.251	605.31
427.627	591.75
428.003	610.96
428.379	609.6
428.756	611.64
429.132	642.14
429.507	632.2
429.883	642.37
430.259	640.56
430.635	646.66
431.011	678.98
431.387	666.78
431.763	664.74
432.138	664.06
432.514	666.55
432.89	674.23
433.265	678.08
433.641	680.11
434.016	687.34
434.392	722.59
434.767	698.64
435.143	706.1
435.518	723.05
435.894	716.27
436.269	739.09
436.644	747.9
437.02	744.97
437.395	734.12
437.77	759.43
438.145	741.8
438.52	768.69
438.895	761.24
439.271	767.56
439.646	774.34
440.021	804.63
440.395	782.48
440.77	777.73
441.145	787.9
441.52	803.27
441.895	805.53
442.27	805.08
442.645	815.25
443.019	834.46
443.394	817.96
443.769	829.03
444.143	817.28
444.518	846.21
444.892	855.25
445.267	869.93
445.641	848.47
446.016	837.39
446.39	857.51
446.764	868.58
447.139	856.6
447.513	858.41
447.887	869.03
448.262	871.06
448.636	896.83
449.01	887.56
449.384	895.92
449.758	886.43
450.132	921.46
450.506	899.99
450.88	929.14
451.254	909.03
451.628	945.86
452.002	917.39
452.376	931.63
452.75	974.34
453.123	942.93
453.497	988.8
453.871	978.18
454.244	1011.4
454.618	990.16
454.992	1001.46
455.365	1038.07
455.739	1026.99
456.112	1016.6
456.486	1042.36
456.859	1078.97
457.232	1075.81
457.606	1065.41
457.979	1094.79
458.352	1096.14
458.725	1110.15
459.099	1121.68
459.472	1126.2
459.845	1138.4
460.218	1151.74
460.591	1140.89
460.964	1170.27
461.337	1178.63
461.71	1211.17
462.083	1201.23
462.456	1183.6
462.829	1229.93
463.201	1240.09
463.574	1219.53
463.947	1233.77
464.32	1283.03
464.692	1283.94
465.065	1289.13
465.438	1297.72
465.81	1332.07
466.183	1336.14
466.555	1358.28
466.928	1388.57
467.3	1368.9
467.672	1379.75
468.045	1425.4
468.417	1437.6
468.789	1422.24
469.161	1456.13
469.534	1443.48
469.906	1475.12
470.278	1499.07
470.65	1520.09
471.022	1536.58
471.394	1568
471.766	1559.63
472.138	1615.68
472.51	1601.44
472.882	1640.54
473.253	1644.6
473.625	1634.66
473.997	1710.14
474.369	1706.75
474.74	1732.96
475.112	1762.79
475.484	1767.09
475.855	1802.34
476.227	1805.05
476.598	1881.66
476.97	1877.14
477.341	1895.22
477.713	1896.12
478.084	1919.17
478.455	1990.58
478.827	1990.36
479.198	2020.86
479.569	2057.25
479.94	2093.86
480.311	2124.37
480.682	2169.56
481.053	2184.48
481.424	2190.8
481.795	2223.57
482.166	2274.87
482.537	2331.14
482.908	2365.94
483.279	2354.64
483.65	2364.58
484.021	2471.7
484.391	2445.94
484.762	2469.44
485.133	2503.34
485.503	2541.3
485.874	2583.11
486.244	2606.16
486.615	2637.8
486.985	2695.88
487.356	2687.06
487.726	2706.72
488.097	2777.46
488.467	2780.17
488.837	2839.15
489.207	2882.54
489.578	2911.24
489.948	2906.94
490.318	2981.29
490.688	2981.52
491.058	3024.23
491.428	3054.74
491.798	3064.91
492.168	3154.39
492.538	3135.41
492.908	3170.21
493.278	3225.35
493.648	3220.38
494.017	3249.99
494.387	3267.16
494.757	3335.41
495.126	3329.53
495.496	3388.51
495.866	3389.64
496.235	3406.37
496.605	3461.28
496.974	3442.3
497.344	3478.23
497.713	3515.97
498.082	3538.11
498.452	3586.7
498.821	3585.34
499.19	3595.29
499.559	3629.18
499.928	3642.29
500.298	3673.25
500.667	3681.16
501.036	3688.62
501.405	3764.55
501.774	3736.53
502.143	3791.89
502.512	3809.52
502.88	3854.26
503.249	3815.62
503.618	3914.83
503.987	3887.93
504.356	3919.57
504.724	3952.11
505.093	3983.98
505.462	3969.29
505.83	4001.38
506.199	4016.29
506.567	4049.74
506.936	4080.7
507.304	4092.45
507.672	4113.47
508.041	4192.11
508.409	4217.64
508.777	4226.91
509.145	4283.63
509.514	4265.78
509.882	4268.72
510.25	4304.87
510.618	4306.68
510.986	4345.1
511.354	4387.58
511.722	4423.97
512.09	4474.81
512.458	4451.54
512.826	4513.23
513.193	4508.26
513.561	4515.71
513.929	4577.18
514.297	4605.43
514.664	4609.27
515.032	4620.8
515.4	4665.99
515.767	4659.89
516.135	4710.74
516.502	4753
516.869	4856.5
517.237	4814.24
517.604	4826.44
517.972	4856.27
518.339	4904.4
518.706	4897.85
519.073	4972.65
519.44	4947.34
519.808	4991.41
520.175	4983.5
520.542	5087.22
520.909	5131.07
521.276	5123.16
521.643	5206.77
522.009	5141.01
522.376	5218.07
522.743	5246.09
523.11	5322.7
523.477	5359.53
523.843	5370.83
524.21	5425.97
524.577	5455.58
524.943	5522.69
525.31	5487.89
525.676	5592.07
526.043	5654.89
526.409	5612.86
526.776	5673.2
527.142	5707.77
527.508	5732.41
527.874	5792.97
528.241	5777.6
528.607	5785.06
528.973	5899.63
529.339	5874.77
529.705	5951.84
530.071	5978.73
530.437	6012.62
530.803	5984.15
531.169	6074.09
531.535	6067.76
531.901	6077.26
532.267	6127.2
532.632	6152.06
532.998	6164.48
533.364	6275.22
533.73	6251.26
534.095	6290.36
534.461	6337.81
534.826	6375.78
535.192	6380.98
535.557	6429.11
535.923	6438.83
536.288	6445.38
536.653	6522.67
537.019	6482.67
537.384	6603.34
537.749	6559.05
538.114	6594.3
538.479	6626.85
538.845	6658.26
539.21	6665.71
539.575	6653.96
539.94	6716.33
540.305	6762.21
540.67	6776.22
541.034	6774.64
541.399	6827.29
541.764	6854.41
542.129	6866.61
542.494	6872.49
542.858	6889.66
543.223	6970.11
543.587	7059.83
543.952	6976.89
544.316	7074.97
544.681	7043.56
545.045	7061.64
545.41	7097.12
545.774	7081.3
546.138	7140.73
546.503	7199.94
546.867	7162.2
547.231	7327.84
547.595	7295.75
547.959	7299.6
548.324	7345.7
548.688	7347.96
549.052	7390.67
549.416	7427.28
549.779	7401.51
550.143	7411.23
550.507	7496.88
550.871	7540.27
551.235	7552.92
551.599	7568.06
551.962	7598.57
552.326	7674.05
552.689	7689.87
553.053	7643.99
553.417	7735.06
553.78	7842.41
554.143	7781.17
554.507	7854.61
554.87	7832.24
555.234	7903.2
555.597	7906.81
555.96	7940.71
556.323	7994.27
556.686	7954.04
557.05	8063.42
557.413	8052.12
557.776	8053.93
558.139	8102.29
558.502	8147.71
558.865	8129.63
559.228	8240.14
559.59	8218.89
559.953	8289.17
560.316	8355.61
560.679	8373.01
561.041	8465.22
561.404	8454.59
561.767	8464.31
562.129	8468.83
562.492	8523.97
562.854	8600.35
563.217	8581.14
563.579	8603.06
563.941	8691.88
564.304	8688.03
564.666	8744.08
565.028	8768.03
565.39	8786.79
565.753	8832.44
566.115	8846.45
566.477	8933
566.839	8933.9
567.201	8920.12
567.563	8965.54
567.925	9001.92
568.287	9073.56
568.648	9039.89
569.01	9121.92
569.372	9177.29
569.734	9177.29
570.095	9316.94
570.457	9236.72
570.819	9305.19
571.18	9283.72
571.542	9393.78
571.903	9318.53
572.265	9398.52
572.626	9381.58
572.987	9487.56
573.349	9483.04
573.71	9492.98
574.071	9538.63
574.432	9563.04
574.794	9685.97
575.155	9594
575.516	9619.31
575.877	9688.23
576.238	9690.49
576.599	9735.24
576.96	9744.28
577.32	9732.07
577.681	9787.89
578.042	9859.53
578.403	9843.26
578.763	9776.59
579.124	9841.9
579.485	9903.37
579.845	9842.35
580.206	9876.93
580.566	9889.58
580.927	9894.56
581.287	9936.59
581.648	9925.52
582.008	9946.98
582.368	9989.47
582.728	9918.51
583.089	9951.28
583.449	9955.35
583.809	9949.24
584.169	9953.54
584.529	9992.86
584.889	10054.1
585.249	10008.9
585.609	9956.7
585.969	10014.33
586.329	9989.47
586.688	9982.69
587.048	10016.13
587.408	10001.67
587.768	10025.85
588.127	10034.89
588.487	10092.74
588.846	10119.86
589.206	10006.19
589.565	10145.17
589.925	10067.66
590.284	10032.86
590.643	10038.06
591.003	10089.58
591.362	10093.2
591.721	10087.09
592.08	10089.81
592.44	10071.27
592.799	10148.56
593.158	10124.83
593.517	10089.81
593.876	10117.38
594.235	10109.24
594.593	10175.9
594.952	10171.16
595.311	10128.67
595.67	10233.76
596.029	10147.43
596.387	10202.12
596.746	10100.65
597.104	10165.96
597.463	10167.54
597.822	10198.95
598.18	10148.56
598.538	10222.68
598.897	10228.78
599.255	10142.01
599.613	10296.58
599.972	10254.55
600.33	10263.59
600.688	10141.33
601.046	10198.95
601.404	10281.44
601.762	10239.41
602.12	10277.15
602.478	10236.47
602.836	10360.08
603.194	10231.72
603.552	10258.84
603.91	10190.82
604.268	10276.24
604.625	10236.02
604.983	10255.68
605.341	10244.15
605.698	10349.46
606.056	10369.8
606.413	10270.14
606.771	10335.67
607.128	10356.24
607.485	10307.88
607.843	10324.83
608.2	10441.89
608.557	10413.64
608.914	10358.27
609.272	10513.52
609.629	10396.69
609.986	10533.18
610.343	10370.7
610.7	10492.51
611.057	10480.98
611.414	10418.61
611.771	10467.87
612.127	10472.85
612.484	10495.44
612.841	10566.85
613.198	10505.16
613.554	10536.35
613.911	10608.44
614.267	10483.24
614.624	10514.88
614.98	10570.24
615.337	10577.25
615.693	10577.93
616.05	10552.84
616.406	10631.26
616.762	10620.86
617.118	10616.12
617.475	10620.64
617.831	10662.9
618.187	10662.45
618.543	10719.85
618.899	10726.4
619.255	10704.93
619.611	10650.92
619.967	10741.09
620.323	10686.4
620.678	10702.67
621.034	10620.19
621.39	10676.23
621.746	10690.47
622.101	10772.95
622.457	10635.55
622.812	10709.68
623.168	10704.93
623.523	10672.61
623.879	10780.18
624.234	10631.49
624.589	10734.31
624.945	10746.96
625.3	10784.7
625.655	10683.69
626.01	10757.58
626.365	10762.1
626.72	10699.73
627.075	10758.71
627.43	10730.47
627.785	10756.68
628.14	10723.46
628.495	10806.4
628.85	10757.58
629.205	10734.08
629.559	10765.95
629.914	10685.04
630.269	10758.26
630.623	10683.46
630.978	10726.85
631.332	10703.57
631.687	10764.59
632.041	10696.57
632.396	10698.38
632.75	10653.63
633.104	10659.28
633.459	10572.96
633.813	10668.55
634.167	10614.54
634.521	10584.03
634.875	10619.28
635.229	10646.17
635.583	10526.86
635.937	10562.56
636.291	10557.59
636.645	10564.82
636.999	10576.35
637.352	10590.36
637.706	10467.42
638.06	10546.97
638.413	10559.17
638.767	10525.73
639.121	10520.08
639.474	10424.94
639.828	10501.55
640.181	10506.74
640.534	10510.81
640.888	10462
641.241	10436.24
641.594	10389.46
641.947	10511.49
642.301	10447.99
642.654	10405.73
643.007	10465.39
643.36	10400.08
643.713	10424.03
644.066	10439.17
644.419	10440.08
644.771	10331.38
645.124	10226.98
645.477	10215.68
645.83	10177.03
646.182	10197.83
646.535	10104.27
646.888	10175
647.24	10115.12
647.593	10103.14
647.945	10183.59
648.298	10081.67
648.65	10029.92
649.002	10046.87
649.355	10031.73
649.707	10044.83
650.059	10122.35
650.411	10221.78
650.763	10277.37
651.115	10393.53
651.467	10360.31
651.819	10295.9
652.171	10308.78
652.523	10281.89
652.875	10299.29
653.227	10287.99
653.578	10234.21
653.93	10314.21
654.282	10278.5
654.633	10211.16
654.985	10290.48
655.337	10286.64
655.688	10294.09
656.039	10285.96
656.391	10283.25
656.742	10230.59
657.094	10241.89
657.445	10236.69
657.796	10261.1
658.147	10234.21
658.498	10274.43
658.849	10243.47
659.2	10236.02
659.551	10220.88
659.902	10320.08
660.253	10280.76
660.604	10248.22
660.955	10217.71
661.306	10299.29
661.656	10271.04
662.007	10232.63
662.358	10228.11
662.708	10284.38
663.059	10247.09
663.409	10193.53
663.76	10299.97
664.11	10222.01
664.461	10179.07
664.811	10216.58
665.161	10268.33
665.511	10210.25
665.862	10248.45
666.212	10271.27
666.562	10211.38
666.912	10266.98
667.262	10256.35
667.612	10240.08
667.962	10304.49
668.312	10183.59
668.662	10312.4
669.011	10279.63
669.361	10236.92
669.711	10132.29
670.06	10232.4
670.41	10207.09
670.76	10155.79
671.109	10234.66
671.459	10189.46
671.808	10171.84
672.157	10150.82
672.507	10113.53
672.856	10149.24
673.205	10092.97
673.554	10092.29
673.904	10113.99
674.253	10202.57
674.602	10206.86
674.951	9983.14
675.3	10012.29
675.649	10119.64
675.998	10065.4
676.346	10051.39
676.695	10117.83
677.044	10059.98
677.393	10084.16
677.741	10130.71
678.09	10045.06
678.438	10078.96
678.787	10035.57
679.135	10033.31
679.484	9969.81
679.832	9931.39
680.181	9930.26
680.529	10000.77
680.877	9920.77
681.225	9937.04
681.573	9981.79
681.922	9919.19
682.27	9823.37
682.618	9937.72
682.966	9887.32
683.314	9823.15
683.661	9826.76
684.009	9733.88
684.357	9792.86
684.705	9774.33
685.053	9752.87
685.4	9716.71
685.748	9727.78
686.095	9708.12
686.443	9710.83
686.79	9585.86
687.138	9665.64
687.485	9569.82
687.832	9611.63
688.18	9582.93
688.527	9558.97
688.874	9567.79
689.221	9470.16
689.568	9525.53
689.915	9508.8
690.262	9455.47
690.609	9428.35
690.956	9398.07
691.303	9366.43
691.65	9312.65
691.997	9390.61
692.344	9254.12
692.69	9310.16
693.037	9272.88
693.383	9195.37
693.73	9271.3
694.077	9152.88
694.423	9201.24
694.769	9089.61
695.116	9147.91
695.462	9062.94
695.808	9089.15
696.155	9037.63
696.501	8986.11
696.847	9034.69
697.193	8920.57
697.539	8930.74
697.885	8837.18
698.231	8819.78
698.577	8831.53
698.923	8776.85
699.269	8768.71
699.614	8750.41
699.96	8754.47
700.306	8755.38
700.651	8658.66
700.997	8583.86
701.342	8595.16
701.688	8614.36
702.033	8603.74
702.379	8569.39
702.724	8543.63
703.069	8561.26
703.415	8434.71
703.76	8500.24
704.105	8355.61
704.45	8476.06
704.795	8355.61
705.14	8350.42
705.485	8344.77
705.83	8315.84
706.175	8327.82
706.52	8310.19
706.865	8241.72
707.209	8269.97
707.554	8222.06
707.899	8268.16
708.243	8211.44
708.588	8151.55
708.932	8153.36
709.277	8092.57
709.621	8154.49
709.966	8071.33
710.31	8025.9
710.654	8071.78
710.998	8024.32
711.342	7999.46
711.687	7988.62
712.031	7989.3
712.375	7970.99
712.719	7936.42
713.063	7968.96
713.407	7963.76
713.75	7921.73
714.094	7954.04
714.438	7881.5
714.782	7920.82
715.125	7861.16
715.469	7856.87
715.812	7850.99
716.156	7820.49
716.499	7818.68
716.843	7876.98
717.186	7731.22
717.53	7790.43
717.873	7830.66
718.216	7775.29
718.559	7779.81
718.902	7718.57
719.246	7673.15
719.589	7701.39
719.932	7645.12
720.275	7751.56
720.617	7715.18
720.96	7652.36
721.303	7664.78
721.646	7657.33
721.989	7611.23
722.331	7620.27
722.674	7560.83
723.016	7680.6
723.359	7644.9
723.701	7627.5
724.044	7629.53
724.386	7531.91
724.729	7587.5
725.071	7564.45
725.413	7550.89
725.755	7576.2
726.097	7532.36
726.439	7555.18
726.782	7535.3
727.124	7601.96
727.465	7522.87
727.807	7504.34
728.149	7492.59
728.491	7442.64
728.833	7506.82
729.175	7580.49
729.516	7526.71
729.858	7488.97
730.199	7519.7
730.541	7535.07
730.882	7496.2
731.224	7498.46
731.565	7488.29
731.906	7457.56
732.248	7503.88
732.589	7402.42
732.93	7446.71
733.271	7445.81
733.612	7509.99
733.953	7495.3
734.294	7488.97
734.635	7401.51
734.976	7390.44
735.317	7412.14
735.658	7374.4
735.999	7458.24
736.339	7448.74
736.68	7435.19
737.021	7359.93
737.361	7408.07
737.702	7453.72
738.042	7436.54
738.383	7449.87
738.723	7402.42
739.063	7383.66
739.404	7440.61
739.744	7452.59
740.084	7376.66
740.424	7369.42
740.764	7384.57
741.104	7485.13
741.444	7350.67
741.784	7371.91
742.124	7413.72
742.464	7421.4
742.804	7377.56
743.143	7406.03
743.483	7351.8
743.823	7312.03
744.162	7383.66
744.502	7384.11
744.841	7308.41
745.181	7410.55
745.52	7338.92
745.86	7384.11
746.199	7358.35
746.538	7396.09
746.877	7338.01
747.216	7372.59
747.556	7301.4
747.895	7316.77
748.234	7295.98
748.573	7349.99
748.911	7316.32
749.25	7246.04
749.589	7287.62
749.928	7309.54
750.267	7251.24
750.605	7227.06
750.944	7260.5
751.283	7188.64
751.621	7250.33
751.96	7240.39
752.298	7249.2
752.636	7276.55
752.975	7265.92
753.313	7208.3
753.651	7238.58
753.989	7254.4
754.327	7202.2
754.666	7133.27
755.004	7177.11
755.342	7186.83
755.679	7127.4
756.017	7148.64
756.355	7176.89
756.693	7114.29
757.031	7108.64
757.368	7087.4
757.706	7128.75
758.044	7065.7
758.381	7159.49
758.719	7059.6
759.056	7070.9
759.394	7023.9
759.731	6978.47
760.068	7008.76
760.405	6984.12
760.743	6941.64
761.08	6954.07
761.417	6918.59
761.754	6864.35
762.091	6932.83
762.428	6864.13
762.765	6879.95
763.102	6841.53
763.438	6810.8
763.775	6768.31
764.112	6794.52
764.449	6825.48
764.785	6739.84
765.122	6775.54
765.458	6685.6
