Data from mousepad_grey_FLMS001491_00076.txt Node
Date: Wed Feb 08 14:29:55 GMT 2017
User: dcchb
Spectrometer: FLMS00149
Trigger mode: 0
Integration Time (sec): 2.000000E-2
Scans to average: 10
Electric dark correction enabled: true
Nonlinearity correction enabled: false
Boxcar width: 0
XAxis mode: Wavelengths
Number of Pixels in Spectrum: 2048
>>>>>Begin Spectral Data<<<<<
341.393	-16.89
341.776	-16.89
342.16	-16.89
342.543	-44.46
342.927	-62.31
343.31	-50.56
343.693	-70.68
344.077	-65.48
344.46	-44.01
344.843	-68.42
345.226	-36.78
345.61	-43.33
345.993	-4.69
346.376	-7.63
346.759	22.65
347.142	24.91
347.525	43.45
347.908	48.64
348.291	85.48
348.674	71.24
349.057	95.2
349.44	118.92
349.823	145.59
350.206	170.22
350.588	179.49
350.971	184.46
351.354	206.38
351.737	225.59
352.119	232.37
352.502	242.76
352.884	251.12
353.267	266.26
353.65	270.11
354.032	297.22
354.414	303.33
354.797	284.57
355.179	288.86
355.562	291.8
355.944	306.94
356.326	334.74
356.709	322.76
357.091	318.92
357.473	321.4
357.855	320.05
358.238	310.78
358.62	320.95
359.002	315.98
359.384	339.03
359.766	316.43
360.148	313.72
360.53	313.72
360.912	326.15
361.294	325.7
361.676	307.39
362.057	317.56
362.439	326.38
362.821	314.62
363.203	320.05
363.584	299.48
363.966	305.81
364.348	318.47
364.729	316.66
365.111	310.78
365.493	346.49
365.874	293.61
366.256	300.16
366.637	297.9
367.019	301.07
367.4	315.53
367.781	304
368.163	306.94
368.544	323.21
368.925	317.34
369.306	322.53
369.688	290.44
370.069	298.35
370.45	301.97
370.831	302.65
371.212	316.88
371.593	297.68
371.974	294.51
372.355	306.72
372.736	313.95
373.117	290.67
373.498	306.94
373.879	301.97
374.26	310.56
374.641	301.74
375.021	300.84
375.402	315.3
375.783	306.04
376.163	330.22
376.544	319.14
376.925	327.73
377.305	304.46
377.686	309.88
378.066	322.99
378.447	331.35
378.827	323.89
379.208	306.49
379.588	301.07
379.968	329.77
380.349	316.43
380.729	321.63
381.109	342.65
381.489	330.67
381.87	329.77
382.25	346.04
382.63	325.92
383.01	333.83
383.39	337
383.77	325.7
384.15	307.17
384.53	348.07
384.91	354.17
385.29	350.33
385.67	339.03
386.049	347.39
386.429	350.1
386.809	351.46
387.189	336.77
387.568	350.56
387.948	342.19
388.328	341.74
388.707	349.43
389.087	347.84
389.466	349.2
389.846	349.65
390.225	357.56
390.605	355.08
390.984	340.16
391.363	355.3
391.743	361.63
392.122	349.2
392.501	348.07
392.881	372.7
393.26	377
393.639	371.8
394.018	375.64
394.397	355.75
394.776	365.47
395.155	374.51
395.534	382.65
395.913	391.01
396.292	405.24
396.671	356.66
397.05	384.91
397.429	384.91
397.808	392.14
398.186	389.88
398.565	401.63
398.944	378.35
399.323	393.72
399.701	349.43
400.08	382.65
400.458	400.05
400.837	383.78
401.215	407.05
401.594	388.97
401.972	412.48
402.351	404.79
402.729	396.43
403.107	409.99
403.486	414.28
403.864	406.15
404.242	426.94
404.62	397.79
404.999	413.38
405.377	424.68
405.755	400.5
406.133	442.76
406.511	424.9
406.889	413.15
407.267	432.81
407.645	400.27
408.023	425.13
408.401	432.81
408.779	440.72
409.156	460.16
409.534	457.9
409.912	445.47
410.29	446.82
410.667	453.38
411.045	488.41
411.422	468.07
411.8	462.87
412.178	469.42
412.555	473.04
412.933	466.71
413.31	466.48
413.687	477.33
414.065	474.62
414.442	494.05
414.819	489.31
415.197	477.78
415.574	492.25
415.951	508.74
416.328	518.69
416.705	495.86
417.082	511
417.46	515.98
417.837	525.01
418.214	522.75
418.591	521.4
418.967	528.86
419.344	526.14
419.721	529.31
420.098	524.79
420.475	518.46
420.852	546.93
421.228	530.44
421.605	539.03
421.982	555.75
422.358	556.2
422.735	542.42
423.111	558.01
423.488	548.29
423.864	579.02
424.241	560.95
424.617	586.93
424.994	570.89
425.37	594.39
425.746	593.49
426.123	575.18
426.499	586.26
426.875	599.81
427.251	607.27
427.627	619.93
428.003	618.12
428.379	637.33
428.756	631
429.132	615.63
429.507	618.57
429.883	628.97
430.259	645.24
430.635	645.92
431.011	663.77
431.387	640.94
431.763	678.68
432.138	666.25
432.514	683.65
432.89	678.68
433.265	692.47
433.641	684.78
434.016	720.26
434.392	703.99
434.767	720.49
435.143	726.37
435.518	730.88
435.894	732.47
436.269	728.85
436.644	730.66
437.02	757.78
437.395	751
437.77	772.24
438.145	755.06
438.52	759.58
438.895	771.79
439.271	771.56
439.646	804.33
440.021	772.24
440.395	805.69
440.77	797.55
441.145	800.04
441.52	832.58
441.895	800.71
442.27	821.73
442.645	826.93
443.019	819.47
443.394	843.2
443.769	824.22
444.143	827.83
444.518	855.85
444.892	809.3
445.267	836.19
445.641	862.41
446.016	891.33
446.39	866.47
446.764	877.32
447.139	866.02
447.513	868.06
447.887	859.24
448.262	913.93
448.636	888.85
449.01	899.02
449.384	905.12
449.758	929.07
450.132	931.56
450.506	899.47
450.88	949.41
451.254	933.14
451.628	936.3
452.002	940.14
452.376	966.58
452.75	956.87
453.123	971.78
453.497	973.36
453.871	1001.84
454.244	1014.95
454.618	1008.84
454.992	1020.14
455.365	1009.3
455.739	1042.06
456.112	1057.2
456.486	1076.64
456.859	1066.24
457.232	1083.42
457.606	1077.77
457.979	1075.73
458.352	1101.5
458.725	1118.9
459.099	1150.31
459.472	1110.76
459.845	1157.77
460.218	1174.04
460.591	1129.52
460.964	1157.77
461.337	1196.41
461.71	1220.82
462.083	1236.86
462.456	1214.26
462.829	1220.14
463.201	1239.12
463.574	1261.27
463.947	1252.23
464.32	1269.63
464.692	1318.44
465.065	1285.67
465.438	1336.07
465.81	1376.07
466.183	1373.13
466.555	1350.08
466.928	1387.14
467.3	1369.06
467.672	1404.09
468.045	1402.96
468.417	1435.27
468.789	1474.14
469.161	1476.63
469.534	1469.17
469.906	1513.69
470.278	1521.82
470.65	1529.28
471.022	1560.92
471.394	1582.84
471.766	1589.62
472.138	1585.55
472.51	1630.07
472.882	1636.85
473.253	1666.45
473.625	1694.02
473.997	1703.74
474.369	1699.67
474.74	1737.86
475.112	1773.34
475.484	1767.24
475.855	1816.28
476.227	1813.34
476.598	1865.09
476.97	1882.04
477.341	1898.31
477.713	1897.86
478.084	1937.41
478.455	1986.9
478.827	2055.14
479.198	2077.06
479.569	2062.38
479.94	2128.14
480.311	2106.89
480.682	2153.9
481.053	2214.46
481.424	2244.52
481.795	2251.07
482.166	2275.7
482.537	2301.69
482.908	2350.28
483.279	2357.51
483.65	2400.67
484.021	2432.31
484.391	2472.53
484.762	2495.13
485.133	2535.36
485.503	2551.85
485.874	2599.08
486.244	2635.24
486.615	2666.65
486.985	2686.09
487.356	2715.01
487.726	2716.82
488.097	2820.1
488.467	2761.11
488.837	2842.69
489.207	2900.77
489.578	2929.47
489.948	2959.53
490.318	2999.53
490.688	2990.49
491.058	3047.43
491.428	3078.39
491.798	3087.88
492.168	3191.16
492.538	3171.72
492.908	3185.96
493.278	3260.54
493.648	3252.63
494.017	3286.75
494.387	3298.5
494.757	3331.95
495.126	3380.98
495.496	3388.67
495.866	3392.96
496.235	3443.36
496.605	3489.68
496.974	3487.2
497.344	3515.22
497.713	3524.26
498.082	3550.92
498.452	3586.63
498.821	3591.37
499.19	3618.72
499.559	3634.09
499.928	3649.9
500.298	3693.97
500.667	3776.45
501.036	3756.79
501.405	3752.5
501.774	3783.01
502.143	3791.6
502.512	3856.23
502.88	3869.11
503.249	3897.58
503.618	3915.21
503.987	3875.66
504.356	3966.05
504.724	3978.03
505.093	3975.77
505.462	4014.41
505.83	4021.42
506.199	4069.55
506.567	4111.59
506.936	4099.61
507.304	4131.02
507.672	4207.86
508.041	4193.17
508.409	4238.82
508.777	4223.22
509.145	4265.03
509.514	4289.44
509.882	4318.36
510.25	4299.6
510.618	4351.81
510.986	4362.2
511.354	4450.33
511.722	4449.43
512.09	4478.81
512.458	4486.49
512.826	4471.8
513.193	4524.01
513.561	4584.79
513.929	4551.35
514.297	4641.06
514.664	4696.88
515.032	4675.64
515.4	4762.42
515.767	4757.45
516.135	4776.88
516.502	4770.78
516.869	4808.97
517.237	4828.4
517.604	4827.5
517.972	4920.38
518.339	4949.3
518.706	4926.03
519.073	4959.47
519.44	4999.47
519.808	5019.13
520.175	5025.46
520.542	5129.41
520.909	5143.2
521.276	5161.5
521.643	5194.72
522.009	5262.29
522.376	5233.82
522.743	5340.03
523.11	5330.09
523.477	5379.58
523.843	5409.18
524.21	5506.8
524.577	5483.53
524.943	5557.88
525.31	5561.94
525.676	5612.34
526.043	5617.31
526.409	5676.52
526.776	5730.53
527.142	5723.07
527.508	5715.61
527.874	5866.57
528.241	5853.91
528.607	5866.34
528.973	5891.65
529.339	5961.48
529.705	5983.85
530.071	6068.37
530.437	6077.18
530.803	6034.93
531.169	6137.75
531.535	6138.43
531.901	6153.12
532.267	6196.96
532.632	6209.61
532.998	6241.7
533.364	6301.81
533.73	6293.22
534.095	6373
534.461	6379.32
534.826	6417.74
535.192	6460.9
535.557	6515.82
535.923	6556.72
536.288	6532.99
536.653	6550.17
537.019	6536.61
537.384	6571.18
537.749	6626.32
538.114	6653.44
538.479	6667.45
538.845	6690.5
539.21	6719.2
539.575	6771.18
539.94	6763.49
540.305	6834.68
540.67	6844.85
541.034	6831.97
541.399	6881.23
541.764	6905.19
542.129	6960.1
542.494	6976.37
542.858	6929.37
543.223	7028.35
543.587	7040.78
543.952	7062.24
544.316	7132.3
544.681	7072.41
545.045	7113.77
545.41	7205.06
545.774	7210.94
546.138	7186.53
546.503	7242.8
546.867	7264.5
547.231	7378.62
547.595	7339.3
547.959	7338.85
548.324	7412.97
548.688	7421.78
549.052	7430.6
549.416	7493.19
549.779	7596.01
550.143	7482.12
550.507	7564.38
550.871	7605.51
551.235	7609.8
551.599	7674.66
551.962	7645.05
552.326	7767.08
552.689	7793.75
553.053	7773.41
553.417	7758.95
553.78	7860.41
554.143	7853.41
554.507	7930.92
554.87	7862.22
555.234	7993.52
555.597	7949.9
555.96	7995.1
556.323	8009.34
556.686	8001.88
557.05	8092.5
557.413	8062.44
557.776	8193.06
558.139	8180.18
558.502	8212.95
558.865	8214.98
559.228	8300.63
559.59	8404.36
559.953	8336.33
560.316	8384.47
560.679	8373.4
561.041	8460.4
561.404	8482.55
561.767	8495.43
562.129	8509.66
562.492	8595.76
562.854	8610.9
563.217	8603.22
563.579	8636.21
563.941	8741.52
564.304	8756.89
564.666	8796.21
565.028	8843.89
565.39	8808.19
565.753	8919.14
566.115	8980.61
566.477	8979.71
566.839	8997.11
567.201	9065.81
567.563	9062.19
567.925	9127.27
568.287	9124.11
568.648	9113.26
569.01	9228.97
569.372	9277.1
569.734	9200.27
570.095	9311
570.457	9386.7
570.819	9347.38
571.18	9384.22
571.542	9486.13
571.903	9421.28
572.265	9513.48
572.626	9508.51
572.987	9484.33
573.349	9558.45
573.71	9568.17
574.071	9655.62
574.432	9683.19
574.794	9702.17
575.155	9709.86
575.516	9683.19
575.877	9733.59
576.238	9760.25
576.599	9828.05
576.96	9728.16
577.32	9887.93
577.681	9903.3
578.042	9894.71
578.403	9832.79
578.763	9927.25
579.124	9914.37
579.485	9938.33
579.845	10037.08
580.206	9959.57
580.566	9990.98
580.927	9984.65
581.287	10082.73
581.648	10016.06
582.008	10056.74
582.368	10021.49
582.728	10051.09
583.089	10055.84
583.449	10059.45
583.809	10071.88
584.169	10100.81
584.529	10071.43
584.889	10166.12
585.249	10064.2
585.609	10008.15
585.969	10076.85
586.329	10106.91
586.688	10155.72
587.048	10094.48
587.408	10194.82
587.768	10145.78
588.127	10110.07
588.487	10077.76
588.846	10189.62
589.206	10107.14
589.565	10144.65
589.925	10214.7
590.284	10113.01
590.643	10205.21
591.003	10223.97
591.362	10220.35
591.721	10157.08
592.08	10143.29
592.44	10198.43
592.799	10266.23
593.158	10160.69
593.517	10162.95
593.876	10263.52
594.235	10230.07
594.593	10235.04
594.952	10293.57
595.311	10196.17
595.67	10241.14
596.029	10278.88
596.387	10256.96
596.746	10232.56
597.104	10298.32
597.463	10250.63
597.822	10351.65
598.18	10287.7
598.538	10257.87
598.897	10298.32
599.255	10205.66
599.613	10290.18
599.972	10273.01
600.33	10252.22
600.688	10291.09
601.046	10305.55
601.404	10373.34
601.762	10288.15
602.12	10364.3
602.478	10380.57
602.836	10438.43
603.194	10308.03
603.552	10295.15
603.91	10337.19
604.268	10362.95
604.625	10315.72
604.983	10441.36
605.341	10301.25
605.698	10368.82
606.056	10461.02
606.413	10407.47
606.771	10431.87
607.128	10470.06
607.485	10381.93
607.843	10386.22
608.2	10454.02
608.557	10487.92
608.914	10476.62
609.272	10489.72
609.629	10527.01
609.986	10595.03
610.343	10491.53
610.7	10611.08
611.057	10576.73
611.414	10497.41
611.771	10553
612.127	10558.65
612.484	10621.02
612.841	10573.11
613.198	10560.91
613.554	10565.43
613.911	10653.56
614.267	10696.27
614.624	10652.21
614.98	10595.48
615.337	10695.59
615.693	10653.79
616.05	10682.04
616.406	10678.42
616.762	10700.34
617.118	10739.66
617.475	10664.41
617.831	10707.57
618.187	10788.02
618.543	10774.01
618.899	10784.63
619.255	10730.62
619.611	10809.49
619.967	10713
620.323	10747.12
620.678	10734.92
621.034	10788.47
621.39	10811.07
621.746	10754.12
622.101	10890.84
622.457	10758.64
622.812	10867.34
623.168	10776.95
623.523	10796.38
623.879	10802.26
624.234	10834.12
624.589	10844.97
624.945	10870.96
625.3	10835.93
625.655	10866.21
626.01	10852.2
626.365	10788.7
626.72	10853.33
627.075	10884.74
627.43	10776.95
627.785	10753.9
628.14	10827.12
628.495	10891.97
628.85	10804.74
629.205	10734.46
629.559	10861.47
629.914	10786.89
630.269	10793.9
630.623	10748.47
630.978	10789.38
631.332	10807.23
631.687	10814.69
632.041	10761.58
632.396	10755.25
632.75	10780.34
633.104	10799.32
633.459	10714.35
633.813	10681.13
634.167	10715.48
634.521	10672.09
634.875	10736.05
635.229	10751.86
635.583	10666.44
635.937	10664.86
636.291	10665.31
636.645	10638.65
636.999	10570.17
637.352	10682.49
637.706	10653.11
638.06	10692.88
638.413	10618.53
638.767	10603.85
639.121	10606.56
639.474	10547.8
639.828	10552.77
640.181	10612.21
640.534	10522.27
640.888	10524.3
641.241	10536.05
641.594	10535.15
641.947	10519.78
642.301	10581.7
642.654	10517.07
643.007	10577.18
643.36	10575.82
643.713	10487.69
644.066	10551.42
644.419	10455.15
644.771	10446.11
645.124	10317.53
645.477	10272.78
645.83	10259
646.182	10230.07
646.535	10173.35
646.888	10267.81
647.24	10138.32
647.593	10253.35
647.945	10201.6
648.298	10155.04
648.65	10171.54
649.002	10161.82
649.355	10164.08
649.707	10173.35
650.059	10244.31
650.411	10337.86
650.763	10336.51
651.115	10384.87
651.467	10386.22
651.819	10420.57
652.171	10355.94
652.523	10287.7
652.875	10423.51
653.227	10371.99
653.578	10420.57
653.93	10368.82
654.282	10349.16
654.633	10377.86
654.985	10341.93
655.337	10361.37
655.688	10387.81
656.039	10419.67
656.391	10291.31
656.742	10328.82
657.094	10360.01
657.445	10353.23
657.796	10357.52
658.147	10270.29
658.498	10319.33
658.849	10338.32
659.2	10317.53
659.551	10293.12
659.902	10348.26
660.253	10297.19
660.604	10362.04
660.955	10344.87
661.306	10289.96
661.656	10324.76
662.007	10370.18
662.358	10377.86
662.708	10373.8
663.059	10314.36
663.409	10307.13
663.76	10356.39
664.11	10378.99
664.461	10349.84
664.811	10358.2
665.161	10373.57
665.511	10372.44
665.862	10385.09
666.212	10370.41
666.562	10395.49
666.912	10357.07
667.262	10266
667.612	10307.58
667.962	10271.88
668.312	10301.93
668.662	10339.45
669.011	10367.24
669.361	10219.67
669.711	10302.61
670.06	10326.34
670.41	10234.59
670.76	10214.25
671.109	10291.99
671.459	10294.7
671.808	10223.97
672.157	10296.96
672.507	10275.04
672.856	10255.61
673.205	10207.25
673.554	10264.42
673.904	10240.24
674.253	10308.03
674.602	10247.92
674.951	10083.41
675.3	10032.11
675.649	10204.31
675.998	10193.01
676.346	10099
676.695	10149.39
677.044	10116.85
677.393	10150.07
677.741	10178.09
678.09	10197.75
678.438	10150.07
678.787	10141.71
679.135	10074.37
679.484	10030.75
679.832	10040.02
680.181	10006.8
680.529	10045.44
680.877	9969.29
681.225	9983.75
681.573	10083.41
681.922	9973.13
682.27	9975.61
682.618	9988.49
682.966	9914.15
683.314	9986.46
683.661	9927.25
684.009	9887.25
684.357	9789.4
684.705	9776.75
685.053	9835.73
685.4	9770.42
685.748	9779.23
686.095	9805
686.443	9770.87
686.79	9774.71
687.138	9684.32
687.485	9705.11
687.832	9623.53
688.18	9628.05
688.527	9654.72
688.874	9610.2
689.221	9569.52
689.568	9605.91
689.915	9560.03
690.262	9568.17
690.609	9460.37
690.956	9468.28
691.303	9441.39
691.65	9409.75
691.997	9450.66
692.344	9372.01
692.69	9343.09
693.037	9365.23
693.383	9331.11
693.73	9321.39
694.077	9208.85
694.423	9241.85
694.769	9188.06
695.116	9184.22
695.462	9194.62
695.808	9070.78
696.155	9122.3
696.501	9045.92
696.847	9064.45
697.193	9000.95
697.539	8998.24
697.885	8954.4
698.231	8875.3
698.577	8928.18
698.923	8850.22
699.269	8840.05
699.614	8765.93
699.96	8854.74
700.306	8772.03
700.651	8722.99
700.997	8685.25
701.342	8674.18
701.688	8689.55
702.033	8658.59
702.379	8654.29
702.724	8594.86
703.069	8613.39
703.415	8508.08
703.76	8509.21
704.105	8519.15
704.45	8450
704.795	8459.27
705.14	8459.27
705.485	8492.71
705.83	8341.53
706.175	8365.03
706.52	8344.92
706.865	8332.04
707.209	8299.95
707.554	8273.29
707.899	8339.05
708.243	8242.1
708.588	8191.93
708.932	8152.84
709.277	8197.81
709.621	8169.79
709.966	8078.49
710.31	8140.18
710.654	8089.79
710.998	8135.21
711.342	8049.79
711.687	8047.08
712.031	8097.24
712.375	8010.02
712.719	8035.78
713.063	7958.04
713.407	8031.26
713.75	7992.39
714.094	8000.3
714.438	7931.15
714.782	7930.7
715.125	7950.81
715.469	7923.24
715.812	7828.1
716.156	7860.19
716.499	7913.07
716.843	7837.59
717.186	7805.5
717.53	7808.44
717.873	7843.69
718.216	7832.17
718.559	7774.99
718.902	7722.34
719.246	7742.45
719.589	7784.71
719.932	7720.08
720.275	7722.79
720.617	7749.91
720.96	7731.38
721.303	7717.82
721.646	7742.9
721.989	7764.15
722.331	7784.03
722.674	7734.77
723.016	7676.46
723.359	7737.25
723.701	7739.29
724.044	7691.38
724.386	7641.44
724.729	7689.35
725.071	7673.3
725.413	7689.12
725.755	7601.66
726.097	7725.96
726.439	7621.33
726.782	7582.91
727.124	7636.69
727.465	7564.15
727.807	7566.19
728.149	7557.37
728.491	7566.41
728.833	7627.43
729.175	7567.99
729.516	7589.24
729.858	7568.45
730.199	7539.29
730.541	7558.28
730.882	7529.12
731.224	7566.86
731.565	7550.59
731.906	7574.09
732.248	7574.32
732.589	7528.45
732.93	7519.63
733.271	7509.01
733.612	7553.08
733.953	7471.05
734.294	7559.41
734.635	7511.95
734.976	7565.28
735.317	7480.09
735.658	7517.37
735.999	7471.05
736.339	7562.57
736.68	7505.62
737.021	7469.46
737.361	7446.41
737.702	7530.48
738.042	7401.67
738.383	7501.78
738.723	7502.68
739.063	7508.11
739.404	7459.52
739.744	7440.09
740.084	7434.44
740.424	7446.41
740.764	7436.92
741.104	7495.23
741.444	7445.51
741.784	7418.39
742.124	7410.94
742.464	7408
742.804	7487.09
743.143	7466.53
743.483	7408.9
743.823	7368.68
744.162	7428.11
744.502	7403.48
744.841	7395.12
745.181	7481.89
745.52	7380.65
745.86	7459.52
746.199	7428.34
746.538	7340.2
746.877	7407.09
747.216	7437.83
747.556	7391.5
747.895	7386.08
748.234	7359.86
748.573	7359.19
748.911	7366.19
749.25	7321.9
749.589	7356.02
749.928	7320.54
750.267	7352.18
750.605	7325.51
750.944	7321.45
751.283	7316.02
751.621	7303.37
751.96	7315.57
752.298	7316.7
752.636	7300.2
752.975	7254.78
753.313	7255.23
753.651	7284.61
753.989	7207.78
754.327	7299.3
754.666	7292.07
755.004	7211.39
755.342	7214.1
755.679	7215.91
756.017	7193.31
756.355	7227.89
756.693	7195.8
757.031	7196.25
757.368	7157.83
757.706	7177.72
758.044	7153.99
758.381	7180.43
758.719	7090.04
759.056	7165.52
759.394	7115.35
759.731	7015.69
760.068	7107.67
760.405	7021.57
760.743	6958.52
761.08	7043.71
761.417	6961.68
761.754	7013.88
762.091	6974.11
762.428	6928.69
762.765	6927.56
763.102	6911.29
763.438	6835.58
763.775	6868.8
764.112	6839.88
764.449	6828.58
764.785	6846.43
765.122	6786.77
