Data from mousepad_grey_FLMS001491_00013.txt Node
Date: Wed Feb 08 14:29:02 GMT 2017
User: dcchb
Spectrometer: FLMS00149
Trigger mode: 0
Integration Time (sec): 2.000000E-2
Scans to average: 10
Electric dark correction enabled: true
Nonlinearity correction enabled: false
Boxcar width: 0
XAxis mode: Wavelengths
Number of Pixels in Spectrum: 2048
>>>>>Begin Spectral Data<<<<<
341.393	-10.52
341.776	-10.52
342.16	-10.52
342.543	-47.36
342.927	-66.11
343.31	-69.28
343.693	-67.24
344.077	-61.37
344.46	-59.11
344.843	-43.97
345.226	-35.38
345.61	-24.99
345.993	-31.09
346.376	-5.78
346.759	18.4
347.142	32.19
347.525	32.19
347.908	37.61
348.291	92.3
348.674	88.23
349.057	97.27
349.44	122.13
349.823	142.47
350.206	153.77
350.588	187.66
350.971	178.4
351.354	212.52
351.737	233.09
352.119	228.79
352.502	230.83
352.884	275.57
353.267	281
353.65	278.28
354.032	285.06
354.414	294.1
354.797	310.83
355.179	300.66
355.562	321.45
355.944	300.2
356.326	320.77
356.709	300.2
357.091	301.11
357.473	312.41
357.855	331.84
358.238	332.29
358.62	315.57
359.002	327.77
359.384	313.99
359.766	322.8
360.148	339.75
360.53	305.4
360.912	333.42
361.294	311.5
361.676	303.14
362.057	314.21
362.439	304.72
362.821	311.5
363.203	301.56
363.584	299.98
363.966	312.18
364.348	312.63
364.729	284.61
365.111	320.09
365.493	305.63
365.874	301.79
366.256	306.53
366.637	298.4
367.019	303.82
367.4	311.5
367.781	291.39
368.163	282.58
368.544	288.68
368.925	276.7
369.306	311.73
369.688	298.17
370.069	299.75
370.45	286.87
370.831	264.5
371.212	299.07
371.593	294.33
371.974	314.44
372.355	293.2
372.736	302.24
373.117	302.46
373.498	312.18
373.879	318.06
374.26	307.44
374.641	302.92
375.021	297.04
375.402	303.14
375.783	289.81
376.163	303.59
376.544	307.44
376.925	320.32
377.305	313.99
377.686	309.92
378.066	300.2
378.447	293.88
378.827	291.62
379.208	301.79
379.588	316.25
379.968	306.31
380.349	337.04
380.729	325.51
381.109	306.76
381.489	309.47
381.87	316.93
382.25	340.43
382.63	293.88
383.01	330.71
383.39	319.41
383.77	319.86
384.15	331.84
384.53	322.12
384.91	334.33
385.29	328
385.67	330.49
386.049	348.79
386.429	340.2
386.809	339.3
387.189	345.17
387.568	332.97
387.948	324.84
388.328	324.84
388.707	345.4
389.087	344.72
389.466	349.02
389.846	318.73
390.225	365.74
390.605	338.4
390.984	348.79
391.363	350.15
391.743	339.75
392.122	380.43
392.501	351.95
392.881	359.41
393.26	351.73
393.639	362.35
394.018	347.89
394.397	387.89
394.776	364.84
395.155	381.78
395.534	355.34
395.913	358.96
396.292	362.58
396.671	375.68
397.05	370.94
397.429	384.72
397.808	363.25
398.186	359.86
398.565	379.52
398.944	374.55
399.323	398.05
399.701	386.3
400.08	386.53
400.458	396.47
400.837	394.21
401.215	368.22
401.594	402.12
401.972	387.89
402.351	382.24
402.729	382.01
403.107	397.15
403.486	406.87
403.864	409.58
404.242	415
404.62	398.51
404.999	416.36
405.377	417.49
405.755	404.61
406.133	406.64
406.511	420.65
406.889	427.88
407.267	420.88
407.645	427.43
408.023	405.06
408.401	410.26
408.779	429.24
409.156	440.09
409.534	454.55
409.912	449.58
410.29	448.9
410.667	454.78
411.045	446.87
411.422	436.02
411.8	470.82
412.178	457.49
412.555	453.65
412.933	458.17
413.31	465.62
413.687	466.75
414.065	469.92
414.442	493.87
414.819	505.4
415.197	481.22
415.574	476.24
415.951	491.39
416.328	486.64
416.705	484.83
417.082	499.52
417.46	494.78
417.837	500.42
418.214	519.41
418.591	506.53
418.967	508.33
419.344	533.42
419.721	515.11
420.098	530.93
420.475	542.68
420.852	537.03
421.228	540.2
421.605	549.69
421.982	536.13
422.358	538.84
422.735	555.79
423.111	528.22
423.488	565.51
423.864	570.93
424.241	581.78
424.617	572.29
424.994	546.07
425.37	578.16
425.746	590.37
426.123	578.39
426.499	585.85
426.875	591.27
427.251	613.64
427.627	597.15
428.003	605.28
428.379	641.44
428.756	606.41
429.132	618.16
429.507	616.35
429.883	637.14
430.259	645.51
430.635	658.16
431.011	656.13
431.387	647.09
431.763	664.49
432.138	647.99
432.514	666.97
432.89	678.95
433.265	703.36
433.641	707.42
434.016	699.74
434.392	691.83
434.767	716.01
435.143	711.49
435.518	710.59
435.894	674.43
436.269	725.05
436.644	722.11
437.02	761.89
437.395	737.93
437.77	752.85
438.145	764.82
438.52	779.06
438.895	779.51
439.271	762.56
439.646	802.11
440.021	796.01
440.395	790.59
440.77	772.96
441.145	802.34
441.52	792.17
441.895	816.12
442.27	795.56
442.645	820.19
443.019	808.21
443.394	814.09
443.769	829.68
444.143	815.9
444.518	835.78
444.892	846.86
445.267	843.69
445.641	842.34
446.016	840.75
446.39	853.64
446.764	878.27
447.139	851.6
447.513	881.43
447.887	872.84
448.262	878.49
448.636	895.44
449.01	871.71
449.384	885.05
449.758	870.36
450.132	913.75
450.506	920.75
450.88	932.96
451.254	928.66
451.628	935.67
452.002	943.8
452.376	938.83
452.75	944.25
453.123	961.43
453.497	986.51
453.871	965.72
454.244	984.71
454.618	1017.47
454.992	1032.61
455.365	1010.69
455.739	1037.13
456.112	1070.81
456.486	1053.4
456.859	1051.82
457.232	1056.57
457.606	1055.66
457.979	1101.31
458.352	1120.97
458.725	1131.82
459.099	1123.91
459.472	1128.66
459.845	1119.17
460.218	1123.69
460.591	1138.83
460.964	1127.3
461.337	1189.22
461.71	1164.59
462.083	1183.12
462.456	1211.14
462.829	1207.98
463.201	1243.91
463.574	1212.5
463.947	1258.14
464.32	1265.83
464.692	1304.7
465.065	1301.08
465.438	1290.69
465.81	1308.54
466.183	1342.21
466.555	1361.64
466.928	1325.94
467.3	1376.79
467.672	1391.7
468.045	1401.64
468.417	1395.09
468.789	1433.96
469.161	1428.76
469.534	1454.52
469.906	1471.7
470.278	1499.95
470.65	1546.95
471.022	1511.92
471.394	1562.32
471.766	1538.59
472.138	1573.39
472.51	1592.15
472.882	1618.59
473.253	1642.54
473.625	1652.94
473.997	1699.26
474.369	1707.62
474.74	1724.8
475.112	1745.82
475.484	1755.31
475.855	1824.01
476.227	1800.05
476.598	1859.71
476.97	1841.63
477.341	1884.8
477.713	1942.42
478.084	1934.29
478.455	1969.99
478.827	1978.13
479.198	2051.12
479.569	2065.13
479.94	2092.93
480.311	2128.86
480.682	2143.77
481.053	2206.59
481.424	2228.74
481.795	2242.98
482.166	2266.93
482.537	2306.03
482.908	2339.02
483.279	2386.02
483.65	2394.84
484.021	2436.42
484.391	2443.42
484.762	2504.44
485.133	2506.7
485.503	2547.15
485.874	2601.61
486.244	2604.32
486.615	2673.7
486.985	2695.17
487.356	2713.93
487.726	2725.68
488.097	2809.06
488.467	2824.43
488.837	2858.78
489.207	2872.11
489.578	2910.76
489.948	2953.92
490.318	2962.05
490.688	3012.9
491.058	3000.47
491.428	3079.11
491.798	3119.79
492.168	3153.24
492.538	3166.12
492.908	3211.09
493.278	3251.31
493.648	3223.74
494.017	3285.44
494.387	3286.79
494.757	3348.71
495.126	3385.32
495.496	3383.29
495.866	3430.07
496.235	3453.12
496.605	3484.08
496.974	3508.93
497.344	3548.25
497.713	3519.1
498.082	3549.16
498.452	3623.96
498.821	3618.53
499.19	3623.51
499.559	3699.89
499.928	3718.65
500.298	3683.17
500.667	3731.3
501.036	3741.92
501.405	3773.56
501.774	3742.6
502.143	3842.94
502.512	3797.74
502.88	3847.46
503.249	3858.53
503.618	3892.2
503.987	3922.26
504.356	3905.08
504.724	3973.33
505.093	3984.4
505.462	4005.64
505.83	4027.34
506.199	4033.89
506.567	4118.18
506.936	4127.9
507.304	4158.41
507.672	4209.25
508.041	4217.16
508.409	4272.98
508.777	4256.03
509.145	4313.88
509.514	4324.96
509.882	4315.47
510.25	4349.59
510.618	4340.1
510.986	4403.6
511.354	4443.6
511.722	4499.42
512.09	4526.31
512.458	4498.96
512.826	4524.05
513.193	4596.81
513.561	4598.17
513.929	4714.78
514.297	4669.13
514.664	4689.69
515.032	4701.22
515.4	4741.9
515.767	4766.3
516.135	4828.22
516.502	4773.53
516.869	4849.01
517.237	4848.78
517.604	4843.81
517.972	4931.27
518.339	4966.75
518.706	5012.62
519.073	4991.15
519.44	5075.22
519.808	5088.1
520.175	5114.31
520.542	5149.12
520.909	5193.41
521.276	5135.33
521.643	5224.59
522.009	5264.14
522.376	5347.75
522.743	5329
523.11	5377.58
523.477	5403.8
523.843	5447.41
524.21	5538.48
524.577	5553.4
524.943	5540.29
525.31	5587.97
525.676	5674.75
526.043	5683.57
526.409	5714.3
526.776	5794.52
527.142	5747.97
527.508	5828.19
527.874	5858.02
528.241	5929.66
528.607	5910.68
528.973	5972.82
529.339	5932.37
529.705	6011.69
530.071	6069.77
530.437	6109.77
530.803	6121.52
531.169	6187.96
531.535	6150.45
531.901	6214.62
532.267	6245.81
532.632	6299.59
532.998	6331.91
533.364	6319.71
533.73	6412.81
534.095	6426.14
534.461	6410.1
534.826	6467.27
535.192	6532.58
535.557	6496.2
535.923	6500.49
536.288	6578.91
536.653	6584.56
537.019	6602.41
537.384	6690.54
537.749	6688.51
538.114	6707.49
538.479	6745.91
538.845	6804.89
539.21	6754.95
539.575	6772.8
539.94	6879.01
540.305	6868.62
540.67	6893.02
541.034	6989.52
541.399	6971.89
541.764	6956.07
542.129	7017.99
542.494	6995.17
542.858	7062.74
543.223	7079.46
543.587	7187.48
543.952	7177.54
544.316	7205.11
544.681	7165.33
545.045	7213.24
545.41	7242.39
545.774	7306.12
546.138	7267.03
546.503	7309.51
546.867	7311.77
547.231	7436.74
547.595	7405.33
547.959	7427.7
548.324	7485.78
548.688	7509.05
549.052	7504.31
549.416	7508.83
549.779	7549.05
550.143	7602.16
550.507	7652.55
550.871	7707.92
551.235	7689.39
551.599	7768.26
551.962	7818.2
552.326	7766.67
552.689	7830.85
553.053	7837.63
553.417	7892.55
553.78	7973
554.143	7961.02
554.507	7954.47
554.87	7918.76
555.234	8065.65
555.597	8006.67
555.96	8120.79
556.323	8117.63
556.686	8126.66
557.05	8167.34
557.413	8207.79
557.776	8219.77
558.139	8307.9
558.502	8336.15
558.865	8339.54
559.228	8341.12
559.59	8403.04
559.953	8433.78
560.316	8499.31
560.679	8494.56
561.041	8581.57
561.404	8572.3
561.767	8652.3
562.129	8649.36
562.492	8712.64
562.854	8720.77
563.217	8690.27
563.579	8829.02
563.941	8847.32
564.304	8867.21
564.666	8869.7
565.028	8953.54
565.39	8975
565.753	8945.4
566.115	9022.23
566.477	9099.52
566.839	9107.66
567.201	9135.9
567.563	9193.53
567.925	9229.91
568.287	9245.05
568.648	9290.02
569.01	9320.98
569.372	9432.85
569.734	9392.85
570.095	9466.97
570.457	9472.17
570.819	9487.53
571.18	9430.59
571.542	9578.83
571.903	9641.43
572.265	9589.23
572.626	9621.09
572.987	9700.18
573.349	9708.54
573.71	9770.46
574.071	9689.79
574.432	9787.64
574.794	9829.44
575.155	9849.56
575.516	9843.46
575.877	9920.97
576.238	9852.72
576.599	9930.91
576.96	9942.66
577.32	9984.7
577.681	9937.24
578.042	10058.14
578.403	9993.96
578.763	10141.08
579.124	10047.07
579.485	10167.52
579.845	10154.63
580.206	10131.81
580.566	10066.05
580.927	10101.98
581.287	10145.82
581.648	10076.44
582.008	10216.78
582.368	10210.9
582.728	10203.45
583.089	10233.28
583.449	10220.17
583.809	10200.73
584.169	10195.54
584.529	10191.7
584.889	10270.56
585.249	10303.56
585.609	10152.15
585.969	10332.71
586.329	10274.86
586.688	10267.4
587.048	10247.29
587.408	10244.35
587.768	10225.82
588.127	10273.05
588.487	10221.53
588.846	10260.39
589.206	10220.85
589.565	10308.53
589.925	10314.86
590.284	10291.81
590.643	10287.29
591.003	10306.04
591.362	10357.11
591.721	10319.38
592.08	10381.52
592.44	10372.26
592.799	10369.32
593.158	10306.27
593.517	10290.68
593.876	10355.76
594.235	10321.41
594.593	10394.4
594.952	10380.84
595.311	10375.19
595.67	10356.44
596.029	10457.23
596.387	10480.05
596.746	10509.43
597.104	10430.33
597.463	10404.57
597.822	10442.54
598.18	10454.97
598.538	10374.52
598.897	10480.95
599.255	10423.55
599.613	10544.45
599.972	10483.44
600.33	10500.39
600.688	10438.47
601.046	10476.89
601.404	10497.22
601.762	10492.03
602.12	10504.91
602.478	10572.25
602.836	10525.7
603.194	10470.78
603.552	10492.93
603.91	10495.19
604.268	10559.82
604.625	10517.56
604.983	10514.4
605.341	10558.01
605.698	10618.12
606.056	10605.24
606.413	10586.71
606.771	10699.48
607.128	10641.4
607.485	10589.2
607.843	10585.36
608.2	10632.14
608.557	10708.74
608.914	10594.4
609.272	10688.18
609.629	10747.61
609.986	10758.69
610.343	10713.04
610.7	10769.31
611.057	10741.74
611.414	10744.9
611.771	10738.57
612.127	10760.95
612.484	10788.74
612.841	10787.84
613.198	10813.37
613.554	10776.09
613.911	10887.04
614.267	10846.59
614.624	10872.58
614.98	10799.36
615.337	10919.36
615.693	10853.37
616.05	10916.65
616.406	11032.8
616.762	10913.71
617.118	10879.81
617.475	10955.74
617.831	11016.98
618.187	10993.71
618.543	10960.26
618.899	11018.79
619.255	11117.32
619.611	11038.9
619.967	11049.07
620.323	11074.61
620.678	11041.62
621.034	10939.92
621.39	10956.65
621.746	10993.48
622.101	11140.82
622.457	11056.76
622.812	11081.39
623.168	11046.59
623.523	11112.8
623.879	11129.07
624.234	11052.46
624.589	11080.26
624.945	11017.44
625.3	11093.37
625.655	11101.5
626.01	11115.74
626.365	11119.81
626.72	11118.9
627.075	11110.54
627.43	11139.69
627.785	11127.04
628.14	11068.06
628.495	11101.73
628.85	11016.53
629.205	11030.77
629.559	11149.86
629.914	11044.1
630.269	11067.15
630.623	10985.35
630.978	11078.45
631.332	11057.44
631.687	11071.22
632.041	11040.26
632.396	11124.78
632.75	11039.36
633.104	11014.72
633.459	11039.36
633.813	10993.48
634.167	10953.26
634.521	10920.26
634.875	10940.15
635.229	10991.9
635.583	10910.55
635.937	10925.46
636.291	10975.18
636.645	10858.8
636.999	10944.67
637.352	10897.21
637.706	10823.32
638.06	10926.14
638.413	10935.86
638.767	10878.91
639.121	10876.88
639.474	10810.21
639.828	10861.96
640.181	10751.91
640.534	10858.34
640.888	10781.51
641.241	10674.62
641.594	10773.83
641.947	10820.15
642.301	10804.56
642.654	10757.33
643.007	10816.31
643.36	10813.15
643.713	10713.72
644.066	10845.01
644.419	10788.29
644.771	10726.82
645.124	10597.11
645.477	10560.95
645.83	10581.52
646.182	10451.12
646.535	10446.38
646.888	10461.74
647.24	10360.05
647.593	10497.68
647.945	10461.97
648.298	10395.08
648.65	10438.24
649.002	10371.8
649.355	10413.38
649.707	10411.35
650.059	10448.86
650.411	10584
650.763	10605.7
651.115	10717.56
651.467	10685.24
651.819	10709.65
652.171	10646.6
652.523	10639.82
652.875	10675.3
653.227	10611.8
653.578	10651.34
653.93	10649.31
654.282	10600.27
654.633	10572.48
654.985	10631.01
655.337	10682.53
655.688	10673.94
656.039	10676.2
656.391	10551.91
656.742	10687.5
657.094	10591.68
657.445	10616.99
657.796	10632.36
658.147	10616.54
658.498	10614.51
658.849	10592.14
659.2	10595.53
659.551	10639.82
659.902	10667.39
660.253	10611.12
660.604	10671
660.955	10617.22
661.306	10583.1
661.656	10622.87
662.007	10596.2
662.358	10624.68
662.708	10673.04
663.059	10667.39
663.409	10632.81
663.76	10608.63
664.11	10590.55
664.461	10639.82
664.811	10607.28
665.161	10567.05
665.511	10627.16
665.862	10694.51
666.212	10682.08
666.562	10614.96
666.912	10593.49
667.262	10632.14
667.612	10594.85
667.962	10617.9
668.312	10574.28
668.662	10638.92
669.011	10591.01
669.361	10563.66
669.711	10593.94
670.06	10575.19
670.41	10559.82
670.76	10569.54
671.109	10562.08
671.459	10577.22
671.808	10548.07
672.157	10593.94
672.507	10541.74
672.856	10504.68
673.205	10544
673.554	10532.25
673.904	10598.46
674.253	10642.08
674.602	10520.73
674.951	10307.4
675.3	10281.64
675.649	10407.96
675.998	10417
676.346	10433.04
676.695	10486.83
677.044	10444.8
677.393	10427.17
677.741	10465.36
678.09	10478.24
678.438	10403.89
678.787	10437.79
679.135	10408.64
679.484	10320.51
679.832	10409.99
680.181	10282.99
680.529	10398.47
680.877	10297.46
681.225	10288.19
681.573	10345.82
681.922	10334.74
682.27	10236.89
682.618	10233.05
682.966	10233.28
683.314	10275.76
683.661	10211.58
684.009	10198.25
684.357	10200.73
684.705	10188.08
685.053	10183.33
685.4	10057.91
685.748	10060.4
686.095	10068.31
686.443	10050
686.79	10030.12
687.138	10026.73
687.485	9973.4
687.832	9958.71
688.18	9982.89
688.527	9932.49
688.874	9977.01
689.221	9893.4
689.568	9863.12
689.915	9853.63
690.262	9826.06
690.609	9832.38
690.956	9743.57
691.303	9766.85
691.65	9686.4
691.997	9667.64
692.344	9661.31
692.69	9659.05
693.037	9652.27
693.383	9499.74
693.73	9597.36
694.077	9510.58
694.423	9578.6
694.769	9472.39
695.116	9446.86
695.462	9494.99
695.808	9405.95
696.155	9481.66
696.501	9389.46
696.847	9407.31
697.193	9300.42
697.539	9330.93
697.885	9256.35
698.231	9282.57
698.577	9271.49
698.923	9191.72
699.269	9205.28
699.614	9189.91
699.96	9172.51
700.306	9131.84
700.651	9065.17
700.997	9045.51
701.342	9054.1
701.688	9036.92
702.033	8946.98
702.379	8967.77
702.724	8942.69
703.069	8924.16
703.415	8802.58
703.76	8816.59
704.105	8834.44
704.45	8738.4
704.795	8710.38
705.14	8745.86
705.485	8754.67
705.83	8665.86
706.175	8661.79
706.52	8689.14
706.865	8670.15
707.209	8542.47
707.554	8545.18
707.899	8543.83
708.243	8583.38
708.588	8509.25
708.932	8487.56
709.277	8470.61
709.621	8469.93
709.966	8433.78
710.31	8448.01
710.654	8339.54
710.998	8395.13
711.342	8385.42
711.687	8395.13
712.031	8340.67
712.375	8361.01
712.719	8335.25
713.063	8308.13
713.407	8309.71
713.75	8256.6
714.094	8256.6
714.438	8261.8
714.782	8217.28
715.125	8213.44
715.469	8232.42
715.812	8183.61
716.156	8148.81
716.499	8133.9
716.843	8158.75
717.186	8097.06
717.53	8193.78
717.873	8213.67
718.216	8131.18
718.559	8163.73
718.902	8123.5
719.246	8110.62
719.589	8039.89
719.932	8017.06
720.275	8059.77
720.617	8052.77
720.96	8035.37
721.303	7939.33
721.646	8125.53
721.989	8019.78
722.331	8002.6
722.674	8015.93
723.016	7979.55
723.359	8057.51
723.701	8027.01
724.044	7966.9
724.386	7955.6
724.729	7919.66
725.071	7921.47
725.413	7946.33
725.755	7922.38
726.097	7914.24
726.439	7842.38
726.782	7959.89
727.124	7900.46
727.465	7818.42
727.807	7892.09
728.149	7894.35
728.491	7883.51
728.833	7921.92
729.175	7845.77
729.516	7877.18
729.858	7883.73
730.199	7878.99
730.541	7836.28
730.882	7823.4
731.224	7884.41
731.565	7852.1
731.906	7821.59
732.248	7780.91
732.589	7777.75
732.93	7796.73
733.271	7833.11
733.612	7797.86
733.953	7786.56
734.294	7777.97
734.635	7774.58
734.976	7825.88
735.317	7805.09
735.658	7775.49
735.999	7759.44
736.339	7764.41
736.68	7806.67
737.021	7769.39
737.361	7740.23
737.702	7775.94
738.042	7768.71
738.383	7695.49
738.723	7815.49
739.063	7718.31
739.404	7763.51
739.744	7733.68
740.084	7736.62
740.424	7697.98
740.764	7721.25
741.104	7748.37
741.444	7694.13
741.784	7729.16
742.124	7803.96
742.464	7777.97
742.804	7719.67
743.143	7693.91
743.483	7699.78
743.823	7678.09
744.162	7653.23
744.502	7688.48
744.841	7709.05
745.181	7736.84
745.52	7723.96
745.86	7696.62
746.199	7660.24
746.538	7703.63
746.877	7714.92
747.216	7670.41
747.556	7625.89
747.895	7635.6
748.234	7678.32
748.573	7678.54
748.911	7667.47
749.25	7648.03
749.589	7622.05
749.928	7650.75
750.267	7630.18
750.605	7601.93
750.944	7601.71
751.283	7647.81
751.621	7595.38
751.96	7566
752.298	7565.32
752.636	7561.03
752.975	7536.4
753.313	7542.27
753.651	7589.28
753.989	7518.09
754.327	7541.82
754.666	7504.76
755.004	7519.45
755.342	7520.58
755.679	7447.81
756.017	7365.55
756.355	7475.83
756.693	7448.04
757.031	7430.41
757.368	7320.13
757.706	7406.23
758.044	7346.57
758.381	7398.1
758.719	7315.16
759.056	7348.38
759.394	7321.49
759.731	7318.1
760.068	7330.98
760.405	7273.81
760.743	7214.37
761.08	7191.1
761.417	7230.87
761.754	7230.64
762.091	7133.02
762.428	7180.02
762.765	7132.11
763.102	7175.96
763.438	7064.09
763.775	7112.68
764.112	7083.53
764.449	7089.4
764.785	7078.1
