Data from mousepad_grey_FLMS001491_00054.txt Node
Date: Wed Feb 08 14:29:37 GMT 2017
User: dcchb
Spectrometer: FLMS00149
Trigger mode: 0
Integration Time (sec): 2.000000E-2
Scans to average: 10
Electric dark correction enabled: true
Nonlinearity correction enabled: false
Boxcar width: 0
XAxis mode: Wavelengths
Number of Pixels in Spectrum: 2048
>>>>>Begin Spectral Data<<<<<
341.393	-5.47
341.776	-5.47
342.16	-5.47
342.543	-42.75
342.927	-70.55
343.31	-65.35
343.693	-75.75
344.077	-59.48
344.46	-68.74
344.843	-61.28
345.226	-45.24
345.61	-36.2
345.993	-24.67
346.376	1.99
346.759	22.56
347.142	29.34
347.525	55.78
347.908	53.29
348.291	87.86
348.674	88.09
349.057	97.81
349.44	121.99
349.823	129.67
350.206	143.91
350.588	183.91
350.971	184.59
351.354	216.9
351.737	233.85
352.119	243.57
352.502	240.18
352.884	255.54
353.267	263.91
353.65	288.54
354.032	277.92
354.414	267.52
354.797	281.76
355.179	300.06
355.562	321.98
355.944	306.84
356.326	324.02
356.709	326.05
357.091	312.04
357.473	326.95
357.855	321.53
358.238	326.73
358.62	294.64
359.002	326.73
359.384	312.49
359.766	302.1
360.148	314.3
360.53	329.67
360.912	325.6
361.294	312.72
361.676	307.29
362.057	296.45
362.439	302.55
362.821	305.49
363.203	313.62
363.584	305.94
363.966	308.88
364.348	306.62
364.729	310.91
365.111	295.54
365.493	306.16
365.874	289.44
366.256	306.84
366.637	286.73
367.019	287.18
367.4	284.02
367.781	287.63
368.163	305.26
368.544	302.55
368.925	267.07
369.306	288.76
369.688	300.29
370.069	277.24
370.45	293.96
370.831	288.09
371.212	298.71
371.593	288.76
371.974	288.99
372.355	293.51
372.736	302.1
373.117	298.25
373.498	273.62
373.879	287.86
374.26	279.5
374.641	279.72
375.021	298.25
375.402	291.93
375.783	291.25
376.163	297.8
376.544	298.71
376.925	317.24
377.305	300.74
377.686	294.41
378.066	310.46
378.447	290.8
378.827	309.78
379.208	287.86
379.588	310.68
379.968	310.23
380.349	310.46
380.729	320.63
381.109	303.45
381.489	310.23
381.87	296
382.25	317.92
382.63	318.82
383.01	304.36
383.39	320.85
383.77	299.84
384.15	307.07
384.53	306.84
384.91	324.47
385.29	313.4
385.67	295.77
386.049	320.18
386.429	316.33
386.809	339.84
387.189	327.18
387.568	328.54
387.948	311.81
388.328	308.2
388.707	333.06
389.087	324.02
389.466	336.22
389.846	312.49
390.225	352.26
390.605	322.66
390.984	328.99
391.363	336.9
391.743	331.02
392.122	343.9
392.501	339.84
392.881	353.39
393.26	334.19
393.639	336.22
394.018	346.84
394.397	352.26
394.776	318.82
395.155	354.52
395.534	349.1
395.913	319.95
396.292	367.86
396.671	333.06
397.05	351.59
397.429	356.11
397.808	361.98
398.186	343.68
398.565	356.33
398.944	361.98
399.323	338.25
399.701	363.34
400.08	340.06
400.458	367.86
400.837	376.67
401.215	361.76
401.594	364.02
401.972	361.08
402.351	348.2
402.729	375.54
403.107	370.8
403.486	392.26
403.864	381.42
404.242	393.85
404.62	365.82
404.999	388.42
405.377	371.93
405.755	375.54
406.133	392.72
406.511	382.55
406.889	373.06
407.267	412.15
407.645	394.07
408.023	392.04
408.401	406.95
408.779	400.63
409.156	399.27
409.534	414.41
409.912	397.01
410.29	420.51
410.667	430.68
411.045	420.96
411.422	429.1
411.8	431.36
412.178	437.46
412.555	427.97
412.933	423.22
413.31	429.55
413.687	428.65
414.065	435.88
414.442	443.11
414.819	445.37
415.197	455.76
415.574	441.08
415.951	444.47
416.328	476.78
416.705	434.07
417.082	438.14
417.46	446.95
417.837	474.75
418.214	467.74
418.591	492.15
418.967	475.88
419.344	489.44
419.721	475.43
420.098	491.92
420.475	460.74
420.852	520.4
421.228	483.11
421.605	493.73
421.982	500.06
422.358	480.4
422.735	470.45
423.111	514.29
423.488	507.97
423.864	486.05
424.241	532.37
424.617	513.16
424.994	528.08
425.37	524.69
425.746	501.19
426.123	527.4
426.499	506.84
426.875	515.2
427.251	539.38
427.627	545.03
428.003	521.07
428.379	545.25
428.756	546.16
429.132	564.24
429.507	547.06
429.883	578.93
430.259	559.49
430.635	561.3
431.011	555.2
431.387	574.63
431.763	589.32
432.138	578.25
432.514	578.93
432.89	584.58
433.265	602.43
433.641	598.36
434.016	611.24
434.392	607.17
434.767	615.76
435.143	610.56
435.518	639.71
435.894	624.8
436.269	636.33
436.644	623.67
437.02	627.06
437.395	642.88
437.77	663.89
438.145	641.07
438.52	641.97
438.895	651.01
439.271	691.24
439.646	670.9
440.021	672.93
440.395	663.89
440.77	693.5
441.145	680.84
441.52	702.09
441.895	668.87
442.27	700.5
442.645	714.29
443.019	690.33
443.394	689.43
443.769	718.58
444.143	722.2
444.518	725.36
444.892	726.94
445.267	721.75
445.641	723.33
446.016	728.98
446.39	726.72
446.764	757
447.139	753.16
447.513	726.72
447.887	733.95
448.262	752.25
448.636	756.77
449.01	760.16
449.384	760.39
449.758	755.87
450.132	768.98
450.506	795.19
450.88	780.05
451.254	778.92
451.628	780.28
452.002	829.09
452.376	829.99
452.75	810.11
453.123	809.65
453.497	810.78
453.871	828.18
454.244	842.65
454.618	827.05
454.992	838.58
455.365	854.85
455.739	848.3
456.112	884.91
456.486	893.04
456.859	875.19
457.232	866.83
457.606	895.3
457.979	921.52
458.352	905.47
458.725	935.53
459.099	916.32
459.472	949.54
459.845	929.65
460.218	957.45
460.591	966.71
460.964	978.91
461.337	1006.48
461.71	1003.1
462.083	1011.46
462.456	988.86
462.829	1015.98
463.201	1046.71
463.574	1030.44
463.947	1042.19
464.32	1070.89
464.692	1069.08
465.065	1083.54
465.438	1064.34
465.81	1078.8
466.183	1102.08
466.555	1144.11
466.928	1133.49
467.3	1119.25
467.672	1134.17
468.045	1162.41
468.417	1160.61
468.789	1173.71
469.161	1172.81
469.534	1201.06
469.906	1242.18
470.278	1220.72
470.65	1255.07
471.022	1265.69
471.394	1274.05
471.766	1301.62
472.138	1297.55
472.51	1310.88
472.882	1361.96
473.253	1372.35
473.625	1356.98
473.997	1385.91
474.369	1404.21
474.74	1375.51
475.112	1432.69
475.484	1453.93
475.855	1456.64
476.227	1481.05
476.598	1491.67
476.97	1482.63
477.341	1547.04
477.713	1546.36
478.084	1549.97
478.455	1603.53
478.827	1623.19
479.198	1667.26
479.569	1664.55
479.94	1706.13
480.311	1733.92
480.682	1749.29
481.053	1771.44
481.424	1792.68
481.795	1827.71
482.166	1832.23
482.537	1870.42
482.908	1882.85
483.279	1898.44
483.65	1918.1
484.021	1957.65
484.391	1987.7
484.762	2002.84
485.133	2017.31
485.503	2016.18
485.874	2084.87
486.244	2089.39
486.615	2113.8
486.985	2147.7
487.356	2140.69
487.726	2203.29
488.097	2252.33
488.467	2257.3
488.837	2270.41
489.207	2283.97
489.578	2342.49
489.948	2349.95
490.318	2361.25
490.688	2366.9
491.058	2434.7
491.428	2424.53
491.798	2500
492.168	2471.53
492.538	2523.96
492.908	2530.29
493.278	2525.09
493.648	2537.29
494.017	2606.67
494.387	2643.73
494.757	2657.97
495.126	2648.93
495.496	2688.02
495.866	2706.33
496.235	2734.12
496.605	2737.06
496.974	2745.87
497.344	2780.45
497.713	2766.66
498.082	2800.34
498.452	2841.01
498.821	2840.56
499.19	2868.81
499.559	2880.33
499.928	2937.51
500.298	2918.07
500.667	2962.14
501.036	2967.56
501.405	2986.32
501.774	3022.48
502.143	3002.82
502.512	3022.03
502.88	3033.55
503.249	3022.48
503.618	3066.09
503.987	3114.9
504.356	3118.75
504.724	3136.37
505.093	3092.53
505.462	3145.86
505.83	3137.28
506.199	3215.92
506.567	3203.04
506.936	3258.4
507.304	3266.99
507.672	3267.22
508.041	3284.17
508.409	3307.44
508.777	3357.61
509.145	3399.42
509.514	3380.21
509.882	3365.97
510.25	3405.52
510.618	3434.9
510.986	3442.35
511.354	3479.41
511.722	3539.98
512.09	3540.66
512.458	3546.98
512.826	3596.47
513.193	3577.49
513.561	3544.72
513.929	3623.82
514.297	3674.89
514.664	3678.28
515.032	3651.84
515.4	3730.93
515.767	3731.84
516.135	3719.18
516.502	3695.45
516.869	3800.99
517.237	3809.57
517.604	3791.04
517.972	3873.98
518.339	3829.69
518.706	3848.9
519.073	3892.28
519.44	3926.41
519.808	3955.33
520.175	3981.55
520.542	4024.94
520.909	4050.02
521.276	4007.31
521.643	4083.01
522.009	4087.76
522.376	4133.41
522.743	4158.27
523.11	4149
523.477	4224.48
523.843	4261.77
524.21	4323.91
524.577	4329.11
524.943	4256.12
525.31	4354.65
525.676	4386.96
526.043	4420.41
526.409	4452.04
526.776	4493.4
527.142	4447.52
527.508	4558.03
527.874	4511.25
528.241	4528.88
528.607	4600.97
528.973	4617.92
529.339	4627.63
529.705	4666.28
530.071	4691.13
530.437	4732.49
530.803	4772.04
531.169	4784.69
531.535	4781.98
531.901	4807.51
532.267	4770.45
532.632	4875.08
532.998	4874.18
533.364	4879.83
533.73	4919.15
534.095	4974.52
534.461	5052.71
534.826	5001.18
535.192	4999.6
535.557	5082.99
535.923	5032.82
536.288	5086.38
536.653	5085.93
537.019	5056.1
537.384	5137.68
537.749	5191.91
538.114	5193.49
538.479	5200.27
538.845	5249.09
539.21	5249.09
539.575	5261.97
539.94	5262.42
540.305	5325.24
540.67	5267.16
541.034	5379.93
541.399	5380.16
541.764	5380.38
542.129	5421.28
542.494	5435.52
542.858	5510.1
543.223	5439.59
543.587	5497.21
543.952	5483.2
544.316	5540.6
544.681	5556.65
545.045	5561.62
545.41	5566.59
545.774	5630.32
546.138	5664.44
546.503	5669.19
546.867	5602.75
547.231	5694.72
547.595	5710.32
547.959	5762.29
548.324	5800.71
548.688	5721.16
549.052	5849.3
549.416	5856.3
549.779	5851.33
550.143	5851.78
550.507	5882.51
550.871	5913.93
551.235	5896.07
551.599	5995.51
551.962	5985.56
552.326	6008.61
552.689	6030.31
553.053	6027.14
553.417	6000.48
553.78	6078.44
554.143	6079.57
554.507	6135.84
554.87	6179.68
555.234	6225.33
555.597	6150.3
555.96	6209.96
556.323	6188.5
556.686	6203.18
557.05	6276.18
557.413	6351.43
557.776	6284.99
558.139	6358.43
558.502	6417.87
558.865	6384.2
559.228	6499.22
559.59	6466.23
559.953	6477.75
560.316	6506.45
560.679	6589.61
561.041	6563.4
561.404	6602.27
561.767	6662.61
562.129	6647.47
562.492	6691.99
562.854	6730.18
563.217	6655.83
563.579	6756.84
563.941	6757.75
564.304	6779.67
564.666	6846.78
565.028	6898.08
565.39	6875.48
565.753	6915.03
566.115	6967.01
566.477	7017.63
566.839	7014.69
567.201	6994.8
567.563	7033.45
567.925	7102.14
568.287	7020.79
568.648	7112.09
569.01	7155.7
569.372	7226.43
569.734	7205.42
570.095	7235.02
570.457	7241.58
570.819	7244.29
571.18	7294.46
571.542	7335.58
571.903	7330.84
572.265	7362.02
572.626	7365.19
572.987	7377.62
573.349	7420.78
573.71	7446.99
574.071	7467.56
574.432	7515.92
574.794	7537.16
575.155	7574.67
575.516	7559.98
575.877	7534
576.238	7545.75
576.599	7612.86
576.96	7585.07
577.32	7650.38
577.681	7698.96
578.042	7701.68
578.403	7675.46
578.763	7677.5
579.124	7738.29
579.485	7678.4
579.845	7756.82
580.206	7792.52
580.566	7762.69
580.927	7733.31
581.287	7839.75
581.648	7792.75
582.008	7819.41
582.368	7769.92
582.728	7770.83
583.089	7819.41
583.449	7800.66
583.809	7809.47
584.169	7847.43
584.529	7793.2
584.889	7884.5
585.249	7885.63
585.609	7826.87
585.969	7899.86
586.329	7886.53
586.688	7907.32
587.048	7849.69
587.408	7875.23
587.768	7899.18
588.127	7857.38
588.487	7867.1
588.846	7917.94
589.206	7895.57
589.565	7877.04
589.925	7865.29
590.284	7932.63
590.643	7941.67
591.003	7892.18
591.362	7884.5
591.721	7924.5
592.08	7933.31
592.44	7972.86
592.799	7937.83
593.158	7950.71
593.517	7941.67
593.876	7986.19
594.235	7963.14
594.593	7903.93
594.952	7997.04
595.311	7951.84
595.67	7961.78
596.029	8034.1
596.387	8023.25
596.746	7994.55
597.104	7953.42
597.463	8022.8
597.822	7984.15
598.18	8015.57
598.538	8037.71
598.897	7993.19
599.255	7922.69
599.613	8017.37
599.972	8006.53
600.33	8020.31
600.688	7989.58
601.046	7954.78
601.404	8114.55
601.762	8070.71
602.12	8148.67
602.478	8056.47
602.836	8103.25
603.194	7976.7
603.552	8032.74
603.91	8038.16
604.268	8064.38
604.625	8079.52
604.983	8051.95
605.341	8070.71
605.698	8098.28
606.056	8135.11
606.413	8151.16
606.771	8136.24
607.128	8152.29
607.485	8124.49
607.843	8071.38
608.2	8189.12
608.557	8150.48
608.914	8102.57
609.272	8178.05
609.629	8209.23
609.986	8226.18
610.343	8164.04
610.7	8254.66
611.057	8235.45
611.414	8198.84
611.771	8198.16
612.127	8280.42
612.484	8263.92
612.841	8265.28
613.198	8214.43
613.554	8231.83
613.911	8269.12
614.267	8329.68
614.624	8246.07
614.98	8307.08
615.337	8342.79
615.693	8329.46
616.05	8326.74
616.406	8328.1
616.762	8349.12
617.118	8326.74
617.475	8345.95
617.831	8385.5
618.187	8377.14
618.543	8468.66
618.899	8400.41
619.255	8424.59
619.611	8342.34
619.967	8422.56
620.323	8454.88
620.678	8437.02
621.034	8402
621.39	8374.43
621.746	8389.57
622.101	8495.1
622.457	8441.09
622.812	8390.7
623.168	8410.58
623.523	8383.24
623.879	8435.67
624.234	8406.29
624.589	8536.46
624.945	8449
625.3	8474.09
625.655	8422.11
626.01	8491.26
626.365	8469.11
626.72	8473.86
627.075	8445.39
627.43	8479.51
627.785	8416.01
628.14	8538.94
628.495	8485.38
628.85	8455.1
629.205	8486.97
629.559	8486.51
629.914	8437.25
630.269	8491.26
630.623	8383.24
630.978	8458.94
631.332	8519.51
631.687	8418.95
632.041	8423.46
632.396	8497.36
632.75	8462.33
633.104	8303.92
633.459	8356.35
633.813	8406.29
634.167	8427.31
634.521	8380.08
634.875	8370.13
635.229	8407.87
635.583	8346.86
635.937	8317.48
636.291	8376.23
636.645	8353.86
636.999	8315.22
637.352	8357.48
637.706	8315.9
638.06	8395.44
638.413	8317.25
638.767	8332.85
639.121	8310.02
639.474	8297.59
639.828	8283.36
640.181	8265.5
640.534	8267.76
640.888	8263.92
641.241	8286.29
641.594	8200.42
641.947	8299.85
642.301	8354.77
642.654	8305.73
643.007	8252.4
643.36	8256.24
643.713	8217.82
644.066	8280.87
644.419	8161.32
644.771	8226.18
645.124	8123.36
645.477	8123.13
645.83	8122
646.182	8010.14
646.535	8018.5
646.888	8018.73
647.24	7992.29
647.593	7976.47
647.945	8039.75
648.298	7994.32
648.65	8033.19
649.002	7926.08
649.355	7963.14
649.707	8016.24
650.059	8070.93
650.411	8163.36
650.763	8107.77
651.115	8226.63
651.467	8188.44
651.819	8194.54
652.171	8223.02
652.523	8123.36
652.875	8141.44
653.227	8125.62
653.578	8147.31
653.93	8111.61
654.282	8145.05
654.633	8077.26
654.985	8155
655.337	8125.39
655.688	8152.29
656.039	8187.54
656.391	8112.51
656.742	8110.7
657.094	8124.04
657.445	8158.61
657.796	8131.04
658.147	8189.12
658.498	8213.3
658.849	8244.49
659.2	8186.18
659.551	8151.16
659.902	8196.8
660.253	8217.59
660.604	8235.9
660.955	8150.93
661.306	8163.81
661.656	8147.54
662.007	8151.61
662.358	8136.69
662.708	8143.02
663.059	8142.79
663.409	8142.12
663.76	8207.65
664.11	8171.27
664.461	8183.25
664.811	8190.7
665.161	8144.38
665.511	8171.49
665.862	8145.28
666.212	8149.8
666.562	8245.62
666.912	8147.77
667.262	8157.71
667.612	8193.87
667.962	8124.26
668.312	8130.14
668.662	8176.69
669.011	8137.6
669.361	8087.65
669.711	8111.16
670.06	8136.24
670.41	8157.48
670.76	8159.97
671.109	8137.14
671.459	8174.21
671.808	8121.33
672.157	8141.66
672.507	8118.84
672.856	8144.15
673.205	8096.92
673.554	8150.03
673.904	8077.49
674.253	8125.39
674.602	8069.12
674.951	7961.56
675.3	7943.48
675.649	8044.94
675.998	7997.49
676.346	8024.61
676.695	8124.72
677.044	8025.06
677.393	8020.09
677.741	8042.23
678.09	8023.48
678.438	8002.46
678.787	8019.63
679.135	8034.1
679.484	7999.97
679.832	7976.25
680.181	7939.86
680.529	8001.78
680.877	7917.49
681.225	7972.18
681.573	7984.61
681.922	7914.33
682.27	7898.51
682.618	7859.41
682.966	7873.42
683.314	7908.68
683.661	7863.93
684.009	7764.5
684.357	7777.61
684.705	7797.72
685.053	7789.58
685.4	7852.18
685.748	7736.48
686.095	7774.67
686.443	7727.66
686.79	7730.15
687.138	7725.63
687.485	7741.67
687.832	7685.41
688.18	7711.39
688.527	7608.8
688.874	7585.52
689.221	7644.05
689.568	7537.39
689.915	7513.43
690.262	7512.98
690.609	7583.71
690.956	7453.55
691.303	7508.46
691.65	7464.62
691.997	7459.65
692.344	7415.13
692.69	7466.65
693.037	7410.38
693.383	7369.93
693.73	7485.41
694.077	7316.15
694.423	7343.04
694.769	7324.74
695.116	7268.92
695.462	7273.89
695.808	7240.22
696.155	7244.51
696.501	7155.48
696.847	7183.5
697.193	7150.05
697.539	7141.24
697.885	7115.25
698.231	7052.2
698.577	7113.67
698.923	6992.77
699.269	7049.49
699.614	6975.37
699.96	6932.88
700.306	6974.92
700.651	6978.31
700.997	6874.35
701.342	6921.58
701.688	6874.58
702.033	6844.3
702.379	6884.97
702.724	6839.33
703.069	6816.5
703.415	6739.67
703.76	6757.29
704.105	6794.81
704.45	6822.15
704.795	6683.17
705.14	6669.39
705.485	6714.81
705.83	6659.44
706.175	6611.76
706.52	6641.14
706.865	6571.99
707.209	6663.74
707.554	6578.54
707.899	6567.02
708.243	6565.43
708.588	6516.17
708.932	6514.14
709.277	6486.34
709.621	6450.18
709.966	6456.74
710.31	6466.68
710.654	6355.27
710.998	6389.17
711.342	6401.37
711.687	6406.12
712.031	6387.81
712.375	6356.4
712.719	6343.52
713.063	6371.99
713.407	6370.64
713.75	6265.33
714.094	6338.32
714.438	6301.49
714.782	6279.57
715.125	6312.79
715.469	6280.47
715.812	6244.99
716.156	6298.55
716.499	6289.51
716.843	6233.47
717.186	6139.01
717.53	6238.44
717.873	6230.08
718.216	6205.9
718.559	6197.99
718.902	6153.69
719.246	6216.97
719.589	6173.35
719.932	6108.95
720.275	6138.78
720.617	6168.38
720.96	6155.95
721.303	6195.05
721.646	6183.98
721.989	6098.78
722.331	6093.58
722.674	6088.61
723.016	6082.28
723.359	6129.74
723.701	6112.57
724.044	6119.57
724.386	6075.96
724.729	6101.49
725.071	6092.9
725.413	6085.9
725.755	6068.05
726.097	6059.23
726.439	6020.59
726.782	6067.82
727.124	6024.88
727.465	6118.21
727.807	6078.89
728.149	6054.04
728.491	6036.41
728.833	6108.05
729.175	6012.68
729.516	6073.7
729.858	6044.32
730.199	6114.6
730.541	6048.39
730.882	6023.75
731.224	6041.38
731.565	6033.02
731.906	6061.72
732.248	6068.27
732.589	6022.4
732.93	5993.92
733.271	6020.59
733.612	6013.58
733.953	6048.84
734.294	6054.26
734.635	6078.89
734.976	6020.59
735.317	5968.39
735.658	6022.17
735.999	5994.38
736.339	5989.63
736.68	5999.57
737.021	6003.64
737.361	5995.28
737.702	6029.4
738.042	5999.35
738.383	5981.95
738.723	6039.12
739.063	5985.79
739.404	6002.96
739.744	6031.66
740.084	5957.54
740.424	5981.72
740.764	6071.44
741.104	6008.16
741.444	5942.63
741.784	5978.33
742.124	5981.04
742.464	6012.23
742.804	5962.29
743.143	6000.48
743.483	5950.54
743.823	5983.08
744.162	5979.91
744.502	5971.1
744.841	6003.64
745.181	5981.27
745.52	5990.99
745.86	5959.35
746.199	5975.62
746.538	5971.33
746.877	5985.11
747.216	5992.34
747.556	5967.03
747.895	5983.98
748.234	5987.14
748.573	5986.69
748.911	5972.91
749.25	5928.39
749.589	5946.02
749.928	5931.55
750.267	5912.34
750.605	5937.88
750.944	5952.12
751.283	5931.1
751.621	5923.19
751.96	5891.55
752.298	5921.38
752.636	5912.12
752.975	5929.29
753.313	5896.3
753.651	5937.2
753.989	5910.08
754.327	5931.1
754.666	5854.72
755.004	5859.92
755.342	5854.94
755.679	5847.26
756.017	5867.6
756.355	5847.71
756.693	5831.22
757.031	5852.91
757.368	5787.15
757.706	5793.48
758.044	5788.73
758.381	5764.1
758.719	5763.65
759.056	5760.03
759.394	5754.83
759.731	5689.98
760.068	5760.48
760.405	5688.62
760.743	5661.96
761.08	5663.76
761.417	5686.81
761.754	5646.81
762.091	5692.69
762.428	5629.19
762.765	5642.07
763.102	5597.32
763.438	5567.72
763.775	5599.81
764.112	5608.17
764.449	5575.63
764.785	5529.3
765.122	5483.43
765.458	5461.06
765.795	5494.5
766.131	5494.05
766.467	5470.77
766.804	5463.99
767.14	5385.58
767.476	5422.19
767.812	5422.41
768.148	5369.76
768.485	5382.41
768.821	5312.81
769.157	5338.35
769.492	5372.47
769.828	5336.09
770.164	5305.81
770.5	5253.6
770.836	5292.02
771.171	5232.14
