Data from mousepad_grey_FLMS001491_00028.txt Node
Date: Wed Feb 08 14:29:13 GMT 2017
User: dcchb
Spectrometer: FLMS00149
Trigger mode: 0
Integration Time (sec): 2.000000E-2
Scans to average: 10
Electric dark correction enabled: true
Nonlinearity correction enabled: false
Boxcar width: 0
XAxis mode: Wavelengths
Number of Pixels in Spectrum: 2048
>>>>>Begin Spectral Data<<<<<
341.393	-32.98
341.776	-32.98
342.16	-32.98
342.543	-68.68
342.927	-78.4
343.31	-84.05
343.693	-69.81
344.077	-46.31
344.46	-56.93
344.843	-61
345.226	-51.28
345.61	-34.34
345.993	4.99
346.376	8.38
346.759	34.59
347.142	20.13
347.525	10.86
347.908	49.73
348.291	73.91
348.674	101.03
349.057	100.12
349.44	112.33
349.823	139.67
350.206	140.12
350.588	160.46
350.971	177.86
351.354	192.1
351.737	215.6
352.119	226
352.502	243.4
352.884	250.63
353.267	264.87
353.65	291.76
354.032	273.23
354.414	273.68
354.797	302.15
355.179	302.83
355.562	307.8
355.944	329.5
356.326	311.42
356.709	302.15
357.091	302.83
357.473	309.16
357.855	320.23
358.238	320.46
358.62	329.5
359.002	296.96
359.384	307.35
359.766	317.07
360.148	307.58
360.53	307.35
360.912	334.02
361.294	329.5
361.676	300.8
362.057	310.29
362.439	302.15
362.821	329.95
363.203	311.19
363.584	312.77
363.966	334.47
364.348	304.64
364.729	312.1
365.111	284.75
365.493	287.24
365.874	301.7
366.256	295.37
366.637	294.47
367.019	303.06
367.4	300.57
367.781	300.8
368.163	299.22
368.544	298.76
368.925	296.28
369.306	325.43
369.688	303.28
370.069	284.75
370.45	281.14
370.831	312.77
371.212	289.72
371.593	303.96
371.974	315.49
372.355	287.24
372.736	302.83
373.117	296.05
373.498	296.28
373.879	287.01
374.26	291.31
374.641	303.73
375.021	279.55
375.402	304.41
375.783	294.7
376.163	318.88
376.544	293.79
376.925	313.9
377.305	311.64
377.686	310.29
378.066	305.77
378.447	300.57
378.827	311.64
379.208	299.89
379.588	293.11
379.968	310.51
380.349	308.93
380.729	324.53
381.109	333.56
381.489	304.86
381.87	303.96
382.25	320.23
382.63	325.43
383.01	335.82
383.39	323.62
383.77	314.36
384.15	319.78
384.53	333.34
384.91	331.3
385.29	334.02
385.67	307.58
386.049	324.07
386.429	319.33
386.809	306.9
387.189	337.86
387.568	336.05
387.948	340.8
388.328	328.59
388.707	334.24
389.087	339.44
389.466	356.84
389.846	357.29
390.225	353.45
390.605	324.98
390.984	336.28
391.363	324.07
391.743	333.56
392.122	343.06
392.501	360.68
392.881	344.41
393.26	355.26
393.639	338.08
394.018	333.79
394.397	350.06
394.776	333.11
395.155	348.48
395.534	357.52
395.913	365.88
396.292	373.56
396.671	347.12
397.05	375.82
397.429	388.03
397.808	358.42
398.186	381.25
398.565	357.29
398.944	362.04
399.323	367.01
399.701	382.6
400.08	359.1
400.458	383.05
400.837	358.65
401.215	369.04
401.594	376.73
401.972	384.86
402.351	391.42
402.729	381.02
403.107	390.29
403.486	374.69
403.864	394.13
404.242	390.51
404.62	409.04
404.999	381.25
405.377	396.16
405.755	401.13
406.133	388.93
406.511	418.31
406.889	399.78
407.267	407.46
407.645	401.81
408.023	431.42
408.401	401.36
408.779	411.75
409.156	421.47
409.534	430.51
409.912	409.27
410.29	431.42
410.667	439.32
411.045	421.7
411.422	424.18
411.8	439.1
412.178	447.23
412.555	455.14
412.933	458.99
413.31	446.1
413.687	447.01
414.065	453.34
414.442	456.27
414.819	469.83
415.197	481.58
415.574	473
415.951	476.84
416.328	454.01
416.705	476.84
417.082	471.19
417.46	479.32
417.837	484.97
418.214	499.89
418.591	482.94
418.967	500.34
419.344	498.08
419.721	490.17
420.098	493.11
420.475	474.58
420.852	496.72
421.228	503.28
421.605	519.77
421.982	516.38
422.358	535.59
422.735	506.22
423.111	541.02
423.488	520.68
423.864	501.47
424.241	531.07
424.617	520.9
424.994	525.65
425.37	534.24
425.746	522.71
426.123	568.81
426.499	541.92
426.875	555.71
427.251	573.78
427.627	581.02
428.003	556.61
428.379	586.89
428.756	577.85
429.132	590.73
429.507	586.67
429.883	566.1
430.259	602.03
430.635	597.51
431.011	604.07
431.387	583.05
431.763	609.49
432.138	630.05
432.514	607.23
432.89	617.4
433.265	607.46
433.641	632.09
434.016	657.4
434.392	645.87
434.767	628.02
435.143	645.65
435.518	656.49
435.894	649.94
436.269	693.56
436.644	677.28
437.02	673.67
437.395	662.14
437.77	704.18
438.145	660.11
438.52	701.69
438.895	709.83
439.271	693.1
439.646	732.88
440.021	719.09
440.395	733.55
440.77	720
441.145	707.79
441.52	739.66
441.895	735.14
442.27	754.8
442.645	748.24
443.019	749.15
443.394	744.18
443.769	731.75
444.143	756.15
444.518	751.86
444.892	764.51
445.267	786.43
445.641	782.37
446.016	781.01
446.39	788.47
446.764	771.07
447.139	786.89
447.513	802.03
447.887	772.2
448.262	795.47
448.636	823.5
449.01	818.52
449.384	816.49
449.758	825.3
450.132	841.57
450.506	823.72
450.88	838.64
451.254	840.9
451.628	824.85
452.002	856.04
452.376	889.93
452.75	859.88
453.123	873.66
453.497	882.48
453.871	888.58
454.244	890.84
454.618	895.36
454.992	924.51
455.365	914.57
455.739	909.14
456.112	927.45
456.486	947.56
456.859	936.94
457.232	957.28
457.606	952.76
457.979	998.63
458.352	1009.03
458.725	986.43
459.099	996.15
459.472	1013.77
459.845	1041.34
460.218	1045.41
460.591	1053.55
460.964	1054.45
461.337	1058.29
461.71	1094.67
462.083	1087.9
462.456	1082.25
462.829	1086.09
463.201	1117.72
463.574	1127.67
463.947	1108.69
464.32	1143.94
464.692	1151.4
465.065	1138.97
465.438	1164.96
465.81	1195.91
466.183	1191.85
466.555	1203.6
466.928	1198.17
467.3	1204.05
467.672	1246.99
468.045	1233.43
468.417	1263.48
468.789	1244.95
469.161	1288.79
469.534	1304.84
469.906	1304.61
470.278	1290.15
470.65	1341.67
471.022	1358.4
471.394	1361.11
471.766	1395.23
472.138	1422.58
472.51	1421.22
472.882	1439.98
473.253	1448.34
473.625	1456.7
473.997	1491.05
474.369	1506.19
474.74	1504.16
475.112	1516.13
475.484	1520.2
475.855	1567.66
476.227	1608.79
476.598	1623.47
476.97	1665.96
477.341	1665.06
477.713	1670.93
478.084	1712.29
478.455	1735.79
478.827	1722
479.198	1798.16
479.569	1798.61
479.94	1860.3
480.311	1847.42
480.682	1913.41
481.053	1911.15
481.424	1940.53
481.795	1957.02
482.166	1964.93
482.537	1998.38
482.908	2052.62
483.279	2065.95
483.65	2083.35
484.021	2125.16
484.391	2138.49
484.762	2147.75
485.133	2152.27
485.503	2225.49
485.874	2232.05
486.244	2246.73
486.615	2303.68
486.985	2320.18
487.356	2382.1
487.726	2397.47
488.097	2421.87
488.467	2422.78
488.837	2439.05
489.207	2516.56
489.578	2519.95
489.948	2554.07
490.318	2604.01
490.688	2602.66
491.058	2659.83
491.428	2653.5
491.798	2730.56
492.168	2746.16
492.538	2733.05
492.908	2762.88
493.278	2754.52
493.648	2797.23
494.017	2830.67
494.387	2858.47
494.757	2888.3
495.126	2880.16
495.496	2934.63
495.866	2947.73
496.235	2949.77
496.605	2989.99
496.974	3009.43
497.344	3048.52
497.713	3052.36
498.082	3043.1
498.452	3122.19
498.821	3100.72
499.19	3139.14
499.559	3164.22
499.928	3149.99
500.298	3201.96
500.667	3275.63
501.036	3227.05
501.405	3254.62
501.774	3256.65
502.143	3304.56
502.512	3305.01
502.88	3313.83
503.249	3312.47
503.618	3356.76
503.987	3373.03
504.356	3386.37
504.724	3358.12
505.093	3420.04
505.462	3453.03
505.83	3450.54
506.199	3506.81
506.567	3520.6
506.936	3538.68
507.304	3544.78
507.672	3596.98
508.041	3604.67
508.409	3604.67
508.777	3643.31
509.145	3679.47
509.514	3694.38
509.882	3695.06
510.25	3708.84
510.618	3733.25
510.986	3771.21
511.354	3775.28
511.722	3814.15
512.09	3807.15
512.458	3806.47
512.826	3871.32
513.193	3888.05
513.561	3914.04
513.929	3951.1
514.297	3959.91
514.664	4025.22
515.032	4034.48
515.4	4057.99
515.767	4058.44
516.135	4118.55
516.502	4096.63
516.869	4108.83
517.237	4140.47
517.604	4161.26
517.972	4173.92
518.339	4234.25
518.706	4215.72
519.073	4262.95
519.44	4274.93
519.808	4327.36
520.175	4310.41
520.542	4354.93
520.909	4402.16
521.276	4371.65
521.643	4444.87
522.009	4455.49
522.376	4528.48
522.743	4494.59
523.11	4593.79
523.477	4616.16
523.843	4613.23
524.21	4649.16
524.577	4667.01
524.943	4708.59
525.31	4731.19
525.676	4781.13
526.043	4841.24
526.409	4815.25
526.776	4860.9
527.142	4890.96
527.508	4944.29
527.874	4952.43
528.241	4958.3
528.607	4949.71
528.973	5022.71
529.339	5015.93
529.705	5098.41
530.071	5134.12
530.437	5169.37
530.803	5205.98
531.169	5187.9
531.535	5212.76
531.901	5238.75
532.267	5217.5
532.632	5338.63
532.998	5306.32
533.364	5375.24
533.73	5365.75
534.095	5362.58
534.461	5393.09
534.826	5490.94
535.192	5466.31
535.557	5511.73
535.923	5508.57
536.288	5498.4
536.653	5520.55
537.019	5568.23
537.384	5625.63
537.749	5683.71
538.114	5664.5
538.479	5671.28
538.845	5736.13
539.21	5724.84
539.575	5728.9
539.94	5770.71
540.305	5772.52
540.67	5821.33
541.034	5860.2
541.399	5875.34
541.764	5917.37
542.129	5940.2
542.494	5917.6
542.858	5983.81
543.223	5973.64
543.587	6034.21
543.952	6015
544.316	6028.1
544.681	6016.58
545.045	6051.15
545.41	6106.52
545.774	6173.19
546.138	6140.19
546.503	6146.07
546.867	6161.89
547.231	6209.57
547.595	6252.96
547.959	6229.91
548.324	6307.19
548.688	6280.07
549.052	6323.24
549.416	6305.39
549.779	6351.03
550.143	6381.54
550.507	6479.39
550.871	6479.62
551.235	6421.31
551.599	6504.48
551.962	6483.69
552.326	6561.2
552.689	6590.8
553.053	6583.12
553.417	6556.23
553.78	6638.03
554.143	6633.29
554.507	6680.52
554.87	6719.61
555.234	6756.45
555.597	6731.14
555.96	6755.99
556.323	6827.18
556.686	6818.59
557.05	6844.58
557.413	6884.58
557.776	6863.34
558.139	6945.59
558.502	6988.98
558.865	6943.11
559.228	7027.85
559.59	7047.06
559.953	7077.12
560.316	7167.28
560.679	7145.36
561.041	7238.02
561.404	7225.36
561.767	7230.11
562.129	7239.37
562.492	7283.66
562.854	7318.69
563.217	7276.66
563.579	7366.37
563.941	7363.89
564.304	7401.4
564.666	7447.95
565.028	7476.2
565.39	7571.57
565.753	7603.66
566.115	7540.15
566.477	7593.71
566.839	7580.83
567.201	7653.37
567.563	7698.79
567.925	7743.09
568.287	7741.73
568.648	7791.9
569.01	7794.84
569.372	7932.46
569.734	7846.59
570.095	7903.31
570.457	7952.12
570.819	7981.5
571.18	7964.1
571.542	8013.14
571.903	7994.15
572.265	8047.94
572.626	8020.59
572.987	8102.85
573.349	8129.07
573.71	8182.4
574.071	8167.03
574.432	8264.43
574.794	8244.77
575.155	8264.66
575.516	8219.46
575.877	8287.48
576.238	8292.23
576.599	8323.19
576.96	8317.54
577.32	8343.52
577.681	8322.28
578.042	8346.69
578.403	8385.78
578.763	8444.09
579.124	8420.13
579.485	8440.7
579.845	8408.15
580.206	8419.23
580.566	8435.95
580.927	8459.9
581.287	8572.9
581.648	8537.42
582.008	8541.94
582.368	8515.95
582.728	8541.94
583.089	8521.15
583.449	8513.69
583.809	8546.23
584.169	8539.68
584.529	8547.59
584.889	8593.69
585.249	8534.03
585.609	8571.31
585.969	8586
586.329	8594.59
586.688	8615.38
587.048	8632.1
587.408	8642.5
587.768	8638.88
588.127	8611.99
588.487	8562.95
588.846	8624.42
589.206	8544.65
589.565	8547.13
589.925	8619.9
590.284	8624.19
590.643	8632.33
591.003	8602.05
591.362	8638.66
591.721	8644.76
592.08	8640.92
592.44	8680.24
592.799	8666.23
593.158	8678.66
593.517	8662.39
593.876	8641.82
594.235	8661.71
594.593	8690.41
594.952	8673.91
595.311	8648.6
595.67	8624.19
596.029	8759.11
596.387	8715.04
596.746	8733.57
597.104	8638.66
597.463	8669.84
597.822	8757.07
598.18	8678.88
598.538	8728.37
598.897	8709.84
599.255	8676.17
599.613	8783.06
599.972	8725.43
600.33	8781.93
600.688	8714.36
601.046	8674.59
601.404	8792.55
601.762	8763.85
602.12	8781.7
602.478	8737.19
602.836	8823.96
603.194	8773.79
603.552	8741.48
603.91	8806.56
604.268	8785.55
604.625	8736.28
604.983	8769.5
605.341	8735.83
605.698	8812.21
606.056	8880.91
606.413	8774.47
606.771	8833.68
607.128	8858.76
607.485	8793.23
607.843	8783.96
608.2	8886.79
608.557	8980.79
608.914	8822.83
609.272	8905.99
609.629	8908.71
609.986	8956.84
610.343	8909.61
610.7	8946.9
611.057	8954.35
611.414	8920.91
611.771	8920.91
612.127	8976.73
612.484	8994.13
612.841	9028.7
613.198	8996.16
613.554	8973.11
613.911	9058.31
614.267	9043.84
614.624	8979.67
614.98	9045.88
615.337	9076.39
615.693	9054.01
616.05	9015.14
616.406	9040.45
616.762	9062.15
617.118	9009.95
617.475	9083.17
617.831	9089.94
618.187	9058.98
618.543	9117.51
618.899	9163.16
619.255	9171.98
619.611	9157.74
619.967	9195.25
620.323	9208.59
620.678	9073.22
621.034	9110.06
621.39	9155.93
621.746	9148.25
622.101	9253.1
622.457	9172.65
622.812	9210.62
623.168	9191.41
623.523	9162.26
623.879	9207.23
624.234	9216.49
624.589	9171.07
624.945	9189.38
625.3	9257.17
625.655	9248.13
626.01	9235.48
626.365	9215.82
626.72	9238.42
627.075	9224.4
627.43	9208.59
627.785	9158.42
628.14	9219.43
628.495	9193.67
628.85	9207.46
629.205	9156.84
629.559	9173.78
629.914	9204.74
630.269	9142.6
630.623	9089.72
630.978	9157.29
631.332	9125.42
631.687	9158.64
632.041	9216.04
632.396	9213.33
632.75	9124.29
633.104	9120.45
633.459	9074.13
633.813	9143.95
634.167	9112.99
634.521	9093.56
634.875	9093.11
635.229	9089.27
635.583	9071.64
635.937	9077.52
636.291	9051.75
636.645	9053.79
636.999	9016.27
637.352	9073.45
637.706	8993
638.06	9092.2
638.413	8991.19
638.767	9081.13
639.121	9038.65
639.474	8982.38
639.828	8986.67
640.181	9032.09
640.534	8930.17
640.888	8958.42
641.241	8869.61
641.594	8972.43
641.947	8955.26
642.301	8976.28
642.654	8931.76
643.007	9015.37
643.36	8980.57
643.713	8953.9
644.066	8966.78
644.419	8912.77
644.771	8910.97
645.124	8729.5
645.477	8811.99
645.83	8711.42
646.182	8711.88
646.535	8724.08
646.888	8744.64
647.24	8716.17
647.593	8683.85
647.945	8699.45
648.298	8670.07
648.65	8590.52
649.002	8633.46
649.355	8721.59
649.707	8660.35
650.059	8672.1
650.411	8819.44
650.763	8795.94
651.115	8942.6
651.467	8852.44
651.819	8836.39
652.171	8890.4
652.523	8857.86
652.875	8850.63
653.227	8822.16
653.578	8813.34
653.93	8875.49
654.282	8769.5
654.633	8816.05
654.985	8781.7
655.337	8793.68
655.688	8804.98
656.039	8880.46
656.391	8796.17
656.742	8809.95
657.094	8851.98
657.445	8840.01
657.796	8862.61
658.147	8791.2
658.498	8848.37
658.849	8882.04
659.2	8823.06
659.551	8852.66
659.902	8854.92
660.253	8795.94
660.604	8776.73
660.955	8808.6
661.306	8854.47
661.656	8847.47
662.007	8892.89
662.358	8782.83
662.708	8762.72
663.059	8787.58
663.409	8762.27
663.76	8879.33
664.11	8840.46
664.461	8834.81
664.811	8806.79
665.161	8830.29
665.511	8839.1
665.862	8849.95
666.212	8867.13
666.562	8909.84
666.912	8815.6
667.262	8788.94
667.612	8866
667.962	8818.99
668.312	8855.15
668.662	8822.38
669.011	8840.01
669.361	8853.11
669.711	8802.95
670.06	8813.34
670.41	8807.01
670.76	8778.77
671.109	8776.73
671.459	8775.15
671.808	8784.64
672.157	8722.04
672.507	8722.95
672.856	8727.02
673.205	8741.03
673.554	8689.05
673.904	8678.2
674.253	8807.92
674.602	8751.65
674.951	8663.97
675.3	8599.79
675.649	8683.63
675.998	8694.47
676.346	8722.95
676.695	8759.11
677.044	8684.53
677.393	8697.41
677.741	8716.4
678.09	8659.9
678.438	8653.8
678.787	8707.36
679.135	8712.55
679.484	8595.72
679.832	8628.71
680.181	8611.31
680.529	8573.8
680.877	8563.18
681.225	8559.56
681.573	8571.77
681.922	8524.76
682.27	8574.7
682.618	8530.41
682.966	8566.12
683.314	8558.43
683.661	8507.36
684.009	8475.27
684.357	8443.86
684.705	8370.19
685.053	8463.07
685.4	8393.92
685.748	8329.29
686.095	8384.43
686.443	8306.46
686.79	8280.02
687.138	8387.14
687.485	8333.58
687.832	8253.58
688.18	8300.81
688.527	8254.94
688.874	8186.47
689.221	8222.17
689.568	8183.08
689.915	8186.01
690.262	8164.32
690.609	8119.57
690.956	8091.78
691.303	8104.43
691.65	8087.26
691.997	8070.31
692.344	8052.23
692.69	8070.54
693.037	8005.23
693.383	7914.83
693.73	8000.48
694.077	7921.61
694.423	7940.82
694.769	7933.59
695.116	7851.79
695.462	7825.8
695.808	7803.88
696.155	7823.31
696.501	7757.1
696.847	7724.78
697.193	7752.8
697.539	7731.11
697.885	7728.4
698.231	7614.73
698.577	7630.1
698.923	7589.87
699.269	7569.53
699.614	7540.61
699.96	7560.04
700.306	7513.26
700.651	7500.61
700.997	7446.37
701.342	7445.47
701.688	7440.95
702.033	7404.11
702.379	7403.89
702.724	7365.7
703.069	7399.59
703.415	7269.65
703.76	7304.91
704.105	7295.87
704.45	7233.5
704.795	7241.18
705.14	7214.29
705.485	7176.1
705.83	7165.48
706.175	7166.38
706.52	7141.07
706.865	7136.78
707.209	7086.16
707.554	7049.09
707.899	7063.33
708.243	7074.18
708.588	6994.63
708.932	7000.28
709.277	6960.96
709.621	6993.28
709.966	6933.84
710.31	6973.84
710.654	6932.94
710.998	6942.88
711.342	6911.02
711.687	6864.01
712.031	6887.29
712.375	6822.66
712.719	6844.13
713.063	6857.01
713.407	6811.59
713.75	6848.42
714.094	6813.39
714.438	6803.9
714.782	6812.49
715.125	6756.45
715.469	6752.38
715.812	6744.24
716.156	6694.53
716.499	6771.36
716.843	6669.22
717.186	6716.45
717.53	6730.91
717.873	6744.7
718.216	6729.33
718.559	6673.06
718.902	6666.73
719.246	6678.71
719.589	6648.2
719.932	6572.04
720.275	6650.46
720.617	6680.29
720.96	6676.45
721.303	6615.89
721.646	6648.88
721.989	6593.97
722.331	6596
722.674	6646.39
723.016	6602.55
723.359	6638.71
723.701	6607.98
724.044	6537.02
724.386	6522.1
724.729	6574.3
725.071	6566.17
725.413	6535.66
725.755	6617.24
726.097	6529.79
726.439	6533.63
726.782	6483.23
727.124	6537.92
727.465	6506.51
727.807	6571.59
728.149	6503.12
728.491	6508.09
728.833	6536.34
729.175	6525.94
729.516	6534.98
729.858	6535.66
730.199	6511.48
730.541	6509.9
730.882	6534.08
731.224	6548.32
731.565	6540.18
731.906	6482.33
732.248	6503.8
732.589	6476.23
732.93	6432.61
733.271	6463.35
733.612	6515.55
733.953	6500.18
734.294	6475.32
734.635	6436.23
734.976	6493.18
735.317	6445.95
735.658	6457.47
735.999	6484.36
736.339	6459.28
736.68	6483.01
737.021	6455.44
737.361	6511.48
737.702	6481.43
738.042	6485.27
738.383	6474.42
738.723	6522.78
739.063	6429
739.404	6443.69
739.744	6509.67
740.084	6442.78
740.424	6484.59
740.764	6450.47
741.104	6485.49
741.444	6451.37
741.784	6451.82
742.124	6465.83
742.464	6469
742.804	6457.47
743.143	6432.61
743.483	6478.49
743.823	6417.92
744.162	6457.25
744.502	6442.56
744.841	6403.91
745.181	6449.11
745.52	6397.81
745.86	6402.33
746.199	6440.07
746.538	6473.97
746.877	6420.41
747.216	6439.84
747.556	6419.28
747.895	6457.25
748.234	6387.42
748.573	6388.55
748.911	6394.87
749.25	6401.43
749.589	6371.82
749.928	6426.29
750.267	6399.85
750.605	6399.39
750.944	6409.56
751.283	6391.26
751.621	6441.88
751.96	6409.34
752.298	6355.33
752.636	6374.76
752.975	6336.34
753.313	6318.04
753.651	6357.14
753.989	6353.29
754.327	6349.45
754.666	6332.95
755.004	6319.62
755.342	6379.51
755.679	6303.35
756.017	6250.02
756.355	6265.84
756.693	6271.26
757.031	6292.05
757.368	6226.74
757.706	6243.92
758.044	6163.24
758.381	6265.84
758.719	6220.19
759.056	6247.31
759.394	6177.48
759.731	6179.74
760.068	6131.38
760.405	6196.01
760.743	6101.1
761.08	6110.36
761.417	6109.68
761.754	6054.09
762.091	6043.7
762.428	6073.98
762.765	6049.12
763.102	6043.7
763.438	6079.63
763.775	5990.37
764.112	5990.59
764.449	6008.67
764.785	5951.5
765.122	5957.37
765.458	5916.47
765.795	5918.5
766.131	5924.38
766.467	5865.4
766.804	5843.93
767.14	5793.76
767.476	5815.91
767.812	5835.57
768.148	5787.21
768.485	5761.22
768.821	5734.78
769.157	5769.13
769.492	5772.52
769.828	5723.03
770.164	5690.03
770.5	5664.72
770.836	5665.4
771.171	5666.98
