Data from mousepad_grey_FLMS001491_00049.txt Node
Date: Wed Feb 08 14:29:30 GMT 2017
User: dcchb
Spectrometer: FLMS00149
Trigger mode: 0
Integration Time (sec): 2.000000E-2
Scans to average: 10
Electric dark correction enabled: true
Nonlinearity correction enabled: false
Boxcar width: 0
XAxis mode: Wavelengths
Number of Pixels in Spectrum: 2048
>>>>>Begin Spectral Data<<<<<
341.393	-27.17
341.776	-27.17
342.16	-27.17
342.543	-62.43
342.927	-70.56
343.31	-71.02
343.693	-70.34
344.077	-59.26
344.46	-64.69
344.843	-62.43
345.226	-35.99
345.61	-22.2
345.993	-25.59
346.376	-5.93
346.759	6.72
347.142	27.29
347.525	39.49
347.908	59.6
348.291	77.23
348.674	92.37
349.057	114.74
349.44	135.08
349.823	139.15
350.206	168.98
350.588	182.31
350.971	179.83
351.354	204.01
351.737	215.08
352.119	239.26
352.502	230.45
352.884	273.38
353.267	281.74
353.65	276.32
354.032	284.23
354.414	293.5
354.797	313.38
355.179	291.01
355.562	295.08
355.944	312.03
356.326	299.6
356.709	298.01
357.091	321.74
357.473	309.99
357.855	314.06
358.238	330.1
358.62	334.85
359.002	316.55
359.384	316.77
359.766	332.82
360.148	316.09
360.53	307.05
360.912	304.34
361.294	316.77
361.676	328.97
362.057	302.08
362.439	300.5
362.821	310.44
363.203	304.57
363.584	320.39
363.966	289.43
364.348	299.14
364.729	294.17
365.111	296.21
365.493	303.89
365.874	313.16
366.256	307.51
366.637	295.3
367.019	305.92
367.4	287.17
367.781	299.82
368.163	288.52
368.544	294.63
368.925	299.82
369.306	304.57
369.688	293.04
370.069	282.65
370.45	331.69
370.831	300.95
371.212	288.75
371.593	270.44
371.974	288.75
372.355	317.9
372.736	303.66
373.117	294.17
373.498	293.27
373.879	310.67
374.26	315.87
374.641	289.65
375.021	298.24
375.402	303.21
375.783	321.29
376.163	305.02
376.544	331.46
376.925	319.26
377.305	322.19
377.686	305.7
378.066	322.87
378.447	307.28
378.827	317.68
379.208	309.77
379.588	302.99
379.968	308.41
380.349	314.51
380.729	317.9
381.109	298.01
381.489	319.94
381.87	323.32
382.25	324.68
382.63	312.7
383.01	308.18
383.39	314.29
383.77	316.77
384.15	324
384.53	320.39
384.91	325.13
385.29	325.13
385.67	329.43
386.049	331.69
386.429	328.52
386.809	334.85
387.189	314.29
387.568	353.83
387.948	344.57
388.328	348.18
388.707	341.86
389.087	332.14
389.466	338.47
389.846	319.94
390.225	353.83
390.605	344.79
390.984	347.05
391.363	350.89
391.743	329.88
392.122	317.22
392.501	342.08
392.881	345.92
393.26	348.63
393.639	349.54
394.018	351.57
394.397	344.12
394.776	332.36
395.155	346.6
395.534	374.85
395.913	373.72
396.292	352.25
396.671	382.76
397.05	363.1
397.429	345.92
397.808	382.53
398.186	389.31
398.565	383.66
398.944	387.28
399.323	378.69
399.701	374.4
400.08	393.61
400.458	371.91
400.837	389.76
401.215	391.57
401.594	373.94
401.972	385.24
402.351	373.49
402.729	386.83
403.107	390.44
403.486	403.1
403.864	397.22
404.242	402.87
404.62	411.01
404.999	400.16
405.377	420.05
405.755	410.78
406.133	414.62
406.511	407.16
406.889	423.66
407.267	442.19
407.645	417.33
408.023	409.2
408.401	427.95
408.779	422.53
409.156	426.6
409.534	440.84
409.912	448.52
410.29	426.15
410.667	458.69
411.045	437.22
411.422	438.12
411.8	427.28
412.178	455.07
412.555	453.94
412.933	453.94
413.31	451.68
413.687	482.64
414.065	473.83
414.442	475.41
414.819	469.31
415.197	485.58
415.574	468.18
415.951	484.22
416.328	490.33
416.705	480.16
417.082	497.33
417.46	484.22
417.837	510.89
418.214	519.93
418.591	510.21
418.967	493.26
419.344	507.5
419.721	497.33
420.098	519.93
420.475	519.48
420.852	543.21
421.228	546.82
421.605	532.13
421.982	536.2
422.358	530.1
422.735	533.94
423.111	524.45
423.488	540.04
423.864	571.68
424.241	541.4
424.617	542.98
424.994	543.88
425.37	565.35
425.746	551.57
426.123	553.6
426.499	576.2
426.875	588.63
427.251	593.37
427.627	594.96
428.003	594.96
428.379	609.19
428.756	607.16
429.132	587.72
429.507	600.38
429.883	593.37
430.259	619.36
430.635	635.41
431.011	626.82
431.387	631.79
431.763	621.4
432.138	635.18
432.514	649.19
432.89	648.29
433.265	648.29
433.641	656.2
434.016	674.73
434.392	692.13
434.767	680.6
435.143	682.41
435.518	715.4
435.894	703.43
436.269	709.53
436.644	694.61
437.02	710.89
437.395	707.27
437.77	721.96
438.145	741.84
438.52	712.69
438.895	763.09
439.271	727.61
439.646	747.27
440.021	767.38
440.395	749.53
440.77	760.83
441.145	751.34
441.52	803.09
441.895	747.72
442.27	777.55
442.645	775.06
443.019	785.91
443.394	791.79
443.769	806.02
444.143	797.44
444.518	822.97
444.892	799.47
445.267	830.88
445.641	803.54
446.016	827.27
446.39	837.21
446.764	801.73
447.139	833.82
447.513	820.94
447.887	852.58
448.262	855.74
448.636	826.81
449.01	869.53
449.384	879.69
449.758	877.89
450.132	896.64
450.506	889.86
450.88	893.93
451.254	876.53
451.628	875.17
452.002	935.29
452.376	905.91
452.75	931.44
453.123	900.94
453.497	944.1
453.871	940.94
454.244	948.85
454.618	978.9
454.992	978.45
455.365	986.36
455.739	997.88
456.112	1017.54
456.486	1002.18
456.859	1031.78
457.232	1016.64
457.606	1046.24
457.979	1026.81
458.352	1063.87
458.725	1071.78
459.099	1083.08
459.472	1069.07
459.845	1090.31
460.218	1104.77
460.591	1099.12
460.964	1122.4
461.337	1107.71
461.71	1137.77
462.083	1165.56
462.456	1177.77
462.829	1183.19
463.201	1156.52
463.574	1188.61
463.947	1202.17
464.32	1202.4
464.692	1217.99
465.065	1261.83
465.438	1272.68
465.81	1275.16
466.183	1289.4
466.555	1309.97
466.928	1306.8
467.3	1313.13
467.672	1315.84
468.045	1352.68
468.417	1341.83
468.789	1364.65
469.161	1370.3
469.534	1434.26
469.906	1440.58
470.278	1405.78
470.65	1430.87
471.022	1468.61
471.394	1476.51
471.766	1516.29
472.138	1527.13
472.51	1555.83
472.882	1569.17
473.253	1600.81
473.625	1610.07
473.997	1633.57
474.369	1612.1
474.74	1635.38
475.112	1695.72
475.484	1684.64
475.855	1708.37
476.227	1733.91
476.598	1792.21
476.97	1780.69
477.341	1813.68
477.713	1803.51
478.084	1815.04
478.455	1902.49
478.827	1892.1
479.198	1961.47
479.569	1932.32
479.94	1997.63
480.311	2025.43
480.682	2062.04
481.053	2069.04
481.424	2121.92
481.795	2106.55
482.166	2150.17
482.537	2204.18
482.908	2240.34
483.279	2265.42
483.65	2283.95
484.021	2321.92
484.391	2350.39
484.762	2338.41
485.133	2400.78
485.503	2415.93
485.874	2468.58
486.244	2493.44
486.615	2522.14
486.985	2522.82
487.356	2588.35
487.726	2586.09
488.097	2656.82
488.467	2683.49
488.837	2708.57
489.207	2776.37
489.578	2789.7
489.948	2810.04
490.318	2850.26
490.688	2814.33
491.058	2857.27
491.428	2908.79
491.798	2956.93
492.168	2970.49
492.538	3020.88
492.908	3025.17
493.278	3065.85
493.648	3095.91
494.017	3095.46
494.387	3115.79
494.757	3129.8
495.126	3174.55
495.496	3229.24
495.866	3209.12
496.235	3258.84
496.605	3258.39
496.974	3286.64
497.344	3346.52
497.713	3385.17
498.082	3362.79
498.452	3392.62
498.821	3414.77
499.19	3412.06
499.559	3435.11
499.928	3492.51
500.298	3519.17
500.667	3538.83
501.036	3524.82
501.405	3593.97
501.774	3526.63
502.143	3636.68
502.512	3594.65
502.88	3664.48
503.249	3659.51
503.618	3690.24
503.987	3734.31
504.356	3737.92
504.724	3790.35
505.093	3753.74
505.462	3781.54
505.83	3767.3
506.199	3833.29
506.567	3856.11
506.936	3888.88
507.304	3935.21
507.672	3962.78
508.041	3950.57
508.409	3952.83
508.777	3988.31
509.145	4053.85
509.514	4017.24
509.882	4068.99
510.25	4099.5
510.618	4116.67
510.986	4126.39
511.354	4158.25
511.722	4202.54
512.09	4250
512.458	4253.62
512.826	4240.06
513.193	4315.31
513.561	4320.51
513.929	4372.26
514.297	4399.83
514.664	4366.38
515.032	4421.52
515.4	4455.19
515.767	4467.17
516.135	4495.42
516.502	4465.36
516.869	4551.46
517.237	4595.75
517.604	4602.08
517.972	4615.19
518.339	4689.54
518.706	4655.19
519.073	4681.85
519.44	4696.77
519.808	4785.35
520.175	4689.31
520.542	4778.12
520.909	4871.68
521.276	4858.35
521.643	4906.03
522.009	4919.81
522.376	4995.07
522.743	5030.09
523.11	5044.78
523.477	5060.83
523.843	5083.2
524.21	5160.71
524.577	5176.53
524.943	5178.34
525.31	5197.55
525.676	5250.65
526.043	5331.33
526.409	5364.1
526.776	5387.15
527.142	5465.79
527.508	5447.48
527.874	5431.21
528.241	5526.35
528.607	5502.62
528.973	5605.22
529.339	5552.34
529.705	5640.93
530.071	5655.16
530.437	5661.94
530.803	5709.85
531.169	5793.01
531.535	5794.37
531.901	5757.31
532.267	5805.21
532.632	5868.72
532.998	5920.01
533.364	5900.13
533.73	5925.66
534.095	6010.86
534.461	5994.59
534.826	6003.4
535.192	6011.31
535.557	6114.36
535.923	6058.32
536.288	6114.58
536.653	6182.38
537.019	6123.62
537.384	6244.98
537.749	6252.89
538.114	6294.24
538.479	6283.39
538.845	6311.87
539.21	6308.48
539.575	6356.84
539.94	6370.4
540.305	6449.94
540.67	6345.31
541.034	6468.02
541.399	6507.34
541.764	6526.33
542.129	6491.52
542.494	6516.38
542.858	6575.14
543.223	6567
543.587	6664.63
543.952	6632.76
544.316	6677.51
544.681	6617.4
545.045	6775.58
545.41	6750.73
545.774	6822.81
546.138	6813.1
546.503	6817.84
546.867	6837.96
547.231	6909.37
547.595	6904.85
547.959	6961.34
548.324	6972.42
548.688	6999.76
549.052	6995.01
549.416	7016.71
549.779	7013.32
550.143	7072.3
550.507	7118.4
550.871	7110.27
551.235	7121.11
551.599	7125.63
551.962	7216.7
552.326	7237.04
552.689	7296.7
553.053	7270.26
553.417	7283.82
553.78	7342.35
554.143	7352.52
554.507	7398.85
554.87	7415.57
555.234	7489.46
555.597	7501.89
555.96	7437.94
556.323	7582.34
556.686	7572.63
557.05	7623.92
557.413	7665.73
557.776	7622.34
558.139	7706.86
558.502	7698.27
558.865	7719.74
559.228	7792.28
559.59	7876.35
559.953	7800.64
560.316	7900.53
560.679	7857.59
561.041	7995.44
561.404	7951.6
561.767	8053.52
562.129	8010.58
562.492	8075.89
562.854	8162.89
563.217	8095.1
563.579	8206.73
563.941	8162.67
564.304	8218.26
564.666	8336.67
565.028	8337.58
565.39	8296
565.753	8363.57
566.115	8401.76
566.477	8434.07
566.839	8476.78
567.201	8467.07
567.563	8527.63
567.925	8533.5
568.287	8561.75
568.648	8574.86
569.01	8685.36
569.372	8669.55
569.734	8711.35
570.095	8707.29
570.457	8821.41
570.819	8764.91
571.18	8783.44
571.542	8837
571.903	8914.29
572.265	8935.08
572.626	8915.64
572.987	8949.76
573.349	8957.9
573.71	9004.68
574.071	9024.79
574.432	9097.33
574.794	9092.36
575.155	9129.42
575.516	9107.05
575.877	9152.02
576.238	9158.8
576.599	9287.16
576.96	9242.64
577.32	9222.07
577.681	9274.28
578.042	9303.88
578.403	9292.35
578.763	9274.95
579.124	9335.97
579.485	9338.23
579.845	9414.16
580.206	9401.5
580.566	9371.45
580.927	9423.65
581.287	9420.49
581.648	9427.49
582.008	9423.88
582.368	9452.12
582.728	9418.9
583.089	9414.61
583.449	9481.05
583.809	9476.3
584.169	9526.47
584.529	9437.66
584.889	9573.7
585.249	9475.4
585.609	9480.15
585.969	9473.82
586.329	9498.68
586.688	9514.04
587.048	9498.45
587.408	9483.31
587.768	9479.02
588.127	9536.42
588.487	9494.16
588.846	9546.81
589.206	9535.96
589.565	9451.45
589.925	9562.86
590.284	9528.28
590.643	9582.06
591.003	9599.92
591.362	9629.52
591.721	9597.43
592.08	9595.4
592.44	9639.46
592.799	9599.92
593.158	9638.11
593.517	9637.2
593.876	9582.97
594.235	9590.43
594.593	9581.16
594.952	9594.95
595.311	9602.85
595.67	9646.92
596.029	9657.99
596.387	9677.43
596.746	9698.67
597.104	9611.89
597.463	9632.46
597.822	9729.18
598.18	9632.68
598.538	9712.23
598.897	9752.91
599.255	9555.4
599.613	9700.48
599.972	9635.4
600.33	9753.36
600.688	9682.17
601.046	9726.92
601.404	9806.24
601.762	9745
602.12	9798.78
602.478	9732.57
602.836	9725.56
603.194	9654.6
603.552	9707.03
603.91	9657.77
604.268	9734.83
604.625	9737.77
604.983	9726.24
605.341	9710.2
605.698	9712.46
606.056	9782.74
606.413	9771.21
606.771	9758.56
607.128	9862.28
607.485	9770.53
607.843	9804.43
608.2	9755.17
608.557	9840.36
608.914	9801.49
609.272	9864.09
609.629	9943.18
609.986	9883.53
610.343	9909.29
610.7	9879.91
611.057	9913.81
611.414	9933.92
611.771	9929.17
612.127	9902.73
612.484	9926.01
612.841	9955.16
613.198	9923.07
613.554	9926.91
613.911	10025.89
614.267	9975.27
614.624	10030.87
614.98	10092.79
615.337	10042.84
615.693	9999
616.05	10015.05
616.406	9999
616.762	10089.85
617.118	10056.63
617.475	10035.61
617.831	10122.84
618.187	10080.58
618.543	10122.62
618.899	10161.48
619.255	10121.03
619.611	10055.72
619.967	10160.35
620.323	10152.67
620.678	10102.05
621.034	10108.15
621.39	10167.36
621.746	10083.52
622.101	10169.85
622.457	10161.48
622.812	10160.13
623.168	10147.25
623.523	10157.19
623.879	10196.29
624.234	10222.05
624.589	10134.37
624.945	10155.16
625.3	10222.5
625.655	10168.26
626.01	10176.85
626.365	10218.21
626.72	10165.78
627.075	10155.38
627.43	10225.21
627.785	10094.82
628.14	10197.19
628.495	10186.12
628.85	10203.74
629.205	10161.26
629.559	10213.46
629.914	10196.51
630.269	10150.64
630.623	10218.21
630.978	10138.43
631.332	10195.16
631.687	10250.07
632.041	10211.88
632.396	10140.02
632.75	10135.27
633.104	10137.08
633.459	10072.9
633.813	10099.11
634.167	10110.19
634.521	10072.22
634.875	10121.94
635.229	10102.95
635.583	10071.09
635.937	10053.24
636.291	9992.68
636.645	10061.6
636.999	10005.78
637.352	10094.37
637.706	9982.96
638.06	10002.62
638.413	10003.07
638.767	9906.35
639.121	9979.57
639.474	9977.31
639.828	9948.38
640.181	9938.67
640.534	9992.45
640.888	9960.59
641.241	9911.77
641.594	9929.17
641.947	10003.07
642.301	9925.33
642.654	9927.59
643.007	10019.57
643.36	9931.21
643.713	9901.15
644.066	9893.92
644.419	9922.85
644.771	9851.44
645.124	9716.3
645.477	9730.31
645.83	9674.27
646.182	9707.71
646.535	9577.32
646.888	9645.79
647.24	9596.98
647.593	9639.01
647.945	9650.99
648.298	9626.58
648.65	9561.73
649.002	9561.95
649.355	9652.57
649.707	9592.46
650.059	9627.71
650.411	9710.65
650.763	9728.73
651.115	9858.67
651.467	9842.17
651.819	9803.08
652.171	9824.54
652.523	9846.92
652.875	9783.64
653.227	9742.06
653.578	9846.46
653.93	9766.01
654.282	9745
654.633	9789.06
654.985	9819.8
655.337	9759.91
655.688	9686.69
656.039	9776.18
656.391	9715.39
656.742	9781.83
657.094	9749.52
657.445	9791.78
657.796	9782.51
658.147	9717.43
658.498	9824.54
658.849	9786.8
659.2	9768.73
659.551	9782.96
659.902	9805.56
660.253	9727.82
660.604	9761.95
660.955	9690.76
661.306	9665.68
661.656	9792.68
662.007	9735.96
662.358	9779.57
662.708	9747.48
663.059	9807.6
663.409	9677.2
663.76	9749.97
664.11	9763.53
664.461	9778.44
664.811	9737.99
665.161	9703.19
665.511	9726.92
665.862	9740.25
666.212	9789.74
666.562	9690.76
666.912	9679.91
667.262	9703.64
667.612	9702.06
667.962	9734.15
668.312	9748.16
668.662	9754.72
669.011	9740.93
669.361	9690.08
669.711	9700.93
670.06	9684.21
670.41	9747.48
670.76	9666.36
671.109	9696.19
671.459	9708.84
671.808	9666.81
672.157	9674.27
672.507	9634.72
672.856	9649.18
673.205	9646.7
673.554	9683.76
673.904	9618.9
674.253	9686.92
674.602	9580.93
674.951	9524.44
675.3	9473.59
675.649	9657.09
675.998	9588.17
676.346	9561.5
676.695	9622.74
677.044	9564.66
677.393	9550.88
677.741	9589.97
678.09	9595.62
678.438	9523.99
678.787	9564.21
679.135	9559.24
679.484	9526.02
679.832	9454.84
680.181	9439.7
680.529	9499.35
680.877	9437.44
681.225	9494.61
681.573	9542.74
681.922	9421.62
682.27	9387.04
682.618	9427.49
682.966	9386.82
683.314	9355.4
683.661	9396.31
684.009	9321.51
684.357	9219.14
684.705	9312.24
685.053	9272.24
685.4	9292.58
685.748	9269.98
686.095	9243.32
686.443	9200.15
686.79	9158.8
687.138	9140.72
687.485	9208.74
687.832	9181.4
688.18	9165.8
688.527	9033.15
688.874	9031.34
689.221	9051.46
689.568	9011.68
689.915	9006.71
690.262	8947.5
690.609	8954.28
690.956	8929.88
691.303	8928.07
691.65	8863.21
691.997	8961.29
692.344	8833.61
692.69	8832.25
693.037	8823.44
693.383	8733.95
693.73	8800.62
694.077	8704.12
694.423	8659.15
694.769	8760.39
695.116	8651.92
695.462	8657.79
695.808	8643.56
696.155	8679.72
696.501	8527.18
696.847	8609.43
697.193	8502.54
697.539	8556.78
697.885	8459.38
698.231	8409.21
698.577	8419.61
698.923	8409.67
699.269	8336.67
699.614	8305.94
699.96	8310.23
700.306	8319.95
700.651	8292.61
700.997	8220.07
701.342	8204.93
701.688	8189.56
702.033	8164.02
702.379	8177.81
702.724	8154.08
703.069	8186.39
703.415	8032.5
703.76	8047.87
704.105	8039.96
704.45	8050.58
704.795	7979.39
705.14	7940.3
705.485	7987.53
705.83	7952.5
706.175	7897.81
706.52	7884.03
706.865	7795.22
707.209	7816.01
707.554	7822.56
707.899	7834.31
708.243	7758.16
708.588	7758.16
708.932	7750.47
709.277	7700.98
709.621	7704.15
709.966	7649.91
710.31	7658.73
710.654	7622.57
710.998	7663.7
711.342	7649.91
711.687	7625.51
712.031	7612.4
712.375	7571.04
712.719	7568.78
713.063	7594.55
713.407	7536.69
713.75	7526.53
714.094	7495.79
714.438	7512.97
714.782	7549.58
715.125	7415.34
715.469	7453.08
715.812	7444.27
716.156	7494.66
716.499	7402.46
716.843	7493.76
717.186	7417.83
717.53	7407.43
717.873	7413.31
718.216	7438.17
718.559	7362.69
718.902	7289.92
719.246	7331.5
719.589	7326.08
719.932	7306.64
720.275	7347.32
720.617	7296.7
720.96	7298.73
721.303	7211.28
721.646	7283.59
721.989	7327.89
722.331	7297.38
722.674	7199.75
723.016	7244.27
723.359	7295.57
723.701	7287.21
724.044	7205.18
724.386	7187.33
724.729	7207.44
725.071	7210.15
725.413	7168.12
725.755	7194.78
726.097	7176.25
726.439	7141
726.782	7179.42
727.124	7194.78
727.465	7156.37
727.807	7209.7
728.149	7173.99
728.491	7187.78
728.833	7178.06
729.175	7168.57
729.516	7107.78
729.858	7132.19
730.199	7200.43
730.541	7143.71
730.882	7171.73
731.224	7125.86
731.565	7107.33
731.906	7093.77
732.248	7137.61
732.589	7059.19
732.93	7148.91
733.271	7069.59
733.612	7114.33
733.953	7137.38
734.294	7093.99
734.635	7115.69
734.976	7063.26
735.317	7121.56
735.658	7104.84
735.999	7089.25
736.339	7096.71
736.68	7121.11
737.021	7106.65
737.361	7050.38
737.702	7139.87
738.042	7063.94
738.383	7064.84
738.723	7107.1
739.063	7077.5
739.404	7101.45
739.744	7084.5
740.084	7011.96
740.424	7047.89
740.764	7037.27
741.104	7084.95
741.444	7035.01
741.784	7076.82
742.124	7037.05
742.464	7007.22
742.804	7066.88
743.143	7062.81
743.483	7037.72
743.823	7011.28
744.162	6999.53
744.502	7069.36
744.841	7021.91
745.181	7073.88
745.52	7035.46
745.86	7060.1
746.199	7057.61
746.538	6974.22
746.877	7006.76
747.216	7045.63
747.556	7085.41
747.895	6971.74
748.234	7022.36
748.573	6995.69
748.911	7007.89
749.25	6987.1
749.589	6943.94
749.928	6986.2
750.267	6979.65
750.605	7001.79
750.944	6986.65
751.283	6962.47
751.621	7007.22
751.96	6969.7
752.298	6978.97
752.636	6960.89
752.975	6902.81
753.313	6879.08
753.651	6928.12
753.989	6878.18
754.327	6853.1
754.666	6875.92
755.004	6863.94
755.342	6903.04
755.679	6923.83
756.017	6831.18
756.355	6827.33
756.693	6788.47
757.031	6852.87
757.368	6832.76
757.706	6771.06
758.044	6787.11
758.381	6792.53
758.719	6748.24
759.056	6791.18
759.394	6760.67
759.731	6672.08
760.068	6687.45
760.405	6706.66
760.743	6680.45
761.08	6710.05
761.417	6654.01
761.754	6592.09
762.091	6617.85
762.428	6578.08
762.765	6559.55
763.102	6578.3
763.438	6574.91
763.775	6517.06
764.112	6531.52
764.449	6510.51
764.785	6523.61
765.122	6480.45
765.458	6423.5
765.795	6434.12
766.131	6421.24
766.467	6420.57
766.804	6381.02
767.14	6345.77
767.476	6334.47
767.812	6298.76
768.148	6310.51
768.485	6216.73
768.821	6266.67
769.157	6241.36
