Data from mousepad_grey_FLMS001491_00066.txt Node
Date: Wed Feb 08 14:29:46 GMT 2017
User: dcchb
Spectrometer: FLMS00149
Trigger mode: 0
Integration Time (sec): 2.000000E-2
Scans to average: 10
Electric dark correction enabled: true
Nonlinearity correction enabled: false
Boxcar width: 0
XAxis mode: Wavelengths
Number of Pixels in Spectrum: 2048
>>>>>Begin Spectral Data<<<<<
341.393	-9.83
341.776	-9.83
342.16	-9.83
342.543	-69.72
342.927	-82.6
343.31	-63.39
343.693	-67.68
344.077	-57.06
344.46	-72.65
344.843	-50.06
345.226	-40.34
345.61	-40.56
345.993	-29.72
346.376	-0.34
346.759	3.28
347.142	32.65
347.525	22.26
347.908	52.77
348.291	71.52
348.674	121.24
349.057	118.08
349.44	114.01
349.823	129.15
350.206	139.32
350.588	156.95
350.971	204.63
351.354	215.02
351.737	230.62
352.119	224.97
352.502	228.13
352.884	259.77
353.267	268.58
353.65	271.74
354.032	279.88
354.414	269.48
354.797	290.95
355.179	313.78
355.562	303.83
355.944	309.71
356.326	308.58
356.709	295.7
357.091	303.38
357.473	301.35
357.855	306.09
358.238	325.75
358.62	328.24
359.002	321.01
359.384	342.7
359.766	314.91
360.148	349.93
360.53	302.93
360.912	331.4
361.294	310.39
361.676	314
362.057	285.08
362.439	301.8
362.821	339.09
363.203	305.87
363.584	326.88
363.966	292.99
364.348	310.39
364.729	298.64
365.111	289.37
365.493	294.79
365.874	301.12
366.256	297.51
366.637	314
367.019	295.47
367.4	291.18
367.781	298.18
368.163	290.5
368.544	314.68
368.925	307
369.306	291.86
369.688	283.72
370.069	290.95
370.45	271.52
370.831	294.34
371.212	299.09
371.593	289.37
371.974	268.35
372.355	302.93
372.736	303.83
373.117	291.86
373.498	294.79
373.879	282.37
374.26	288.69
374.641	288.92
375.021	278.3
375.402	318.97
375.783	311.97
376.163	313.33
376.544	304.74
376.925	319.2
377.305	301.8
377.686	294.79
378.066	317.17
378.447	325.3
378.827	308.35
379.208	290.95
379.588	316.49
379.968	321.23
380.349	311.74
380.729	317.62
381.109	307.9
381.489	333.66
381.87	323.72
382.25	323.04
382.63	305.19
383.01	316.04
383.39	314.68
383.77	334.12
384.15	335.02
384.53	334.34
384.91	313.55
385.29	326.43
385.67	309.48
386.049	315.58
386.429	343.83
386.809	344.96
387.189	344.96
387.568	315.13
387.948	335.7
388.328	358.3
388.707	339.09
389.087	337.96
389.466	342.93
389.846	342.93
390.225	343.83
390.605	323.49
390.984	349.03
391.363	356.26
391.743	346.09
392.122	351.29
392.501	344.96
392.881	373.66
393.26	334.34
393.639	349.03
394.018	369.82
394.397	324.85
394.776	353.32
395.155	361.91
395.534	361.69
395.913	383.15
396.292	377.73
396.671	368.69
397.05	366.66
397.429	386.09
397.808	381.57
398.186	368.69
398.565	366.21
398.944	369.37
399.323	375.47
399.701	380.44
400.08	366.66
400.458	364.85
400.837	384.28
401.215	389.71
401.594	383.15
401.972	399.65
402.351	400.78
402.729	409.59
403.107	393.1
403.486	399.88
403.864	393.1
404.242	410.05
404.62	401.01
404.999	406.2
405.377	403.94
405.755	411.63
406.133	406.2
406.511	427.45
406.889	433.55
407.267	426.32
407.645	429.48
408.023	422.93
408.401	443.94
408.779	447.78
409.156	451.85
409.534	446.65
409.912	445.53
410.29	441.68
410.667	466.32
411.045	445.07
411.422	455.02
411.8	483.72
412.178	469.48
412.555	460.89
412.933	460.44
413.31	485.98
413.687	491.17
414.065	478.07
414.442	482.36
414.819	473.77
415.197	478.07
415.574	482.13
415.951	499.76
416.328	494.79
416.705	514.45
417.082	520.55
417.46	506.31
417.837	504.05
418.214	516.71
418.591	511.96
418.967	512.42
419.344	538.4
419.721	537.73
420.098	526.88
420.475	526.2
420.852	534.79
421.228	549.93
421.605	548.57
421.982	573.66
422.358	548.8
422.735	556.48
423.111	571.17
423.488	561
423.864	559.87
424.241	560.32
424.617	589.48
424.994	586.54
425.37	577.72
425.746	589.25
426.123	591.74
426.499	605.07
426.875	591.06
427.251	600.1
427.627	619.76
428.003	609.36
428.379	623.83
428.756	631.96
429.132	613.66
429.507	638.74
429.883	643.94
430.259	650.04
430.635	643.49
431.011	640.32
431.387	675.58
431.763	666.76
432.138	669.7
432.514	683.94
432.89	683.94
433.265	683.94
433.641	691.39
434.016	711.73
434.392	711.73
434.767	703.6
435.143	703.82
435.518	739.3
435.894	745.63
436.269	747.44
436.644	744.73
437.02	765.29
437.395	759.19
437.77	779.3
438.145	743.37
438.52	785.86
438.895	792.18
439.271	775.69
439.646	765.52
440.021	783.14
440.395	801
440.77	774.1
441.145	806.87
441.52	789.92
441.895	822.46
442.27	818.85
442.645	845.06
443.019	837.61
443.394	843.71
443.769	851.16
444.143	845.29
444.518	858.62
444.892	847.1
445.267	862.69
445.641	868.34
446.016	852.75
446.39	865.85
446.764	867.89
447.139	843.25
447.513	885.74
447.887	864.27
448.262	884.16
448.636	901.33
449.01	895.46
449.384	908.34
449.758	932.74
450.132	899.07
450.506	914.67
450.88	948.34
451.254	921.9
451.628	921.67
452.002	958.51
452.376	968.68
452.75	951.05
453.123	966.87
453.497	983.36
453.871	988.79
454.244	1019.07
454.618	1013.87
454.992	1006.19
455.365	1014.32
455.739	1034.66
456.112	1031.05
456.486	1053.87
456.859	1082.34
457.232	1082.57
457.606	1081.89
457.979	1114.43
458.352	1120.99
458.725	1124.15
459.099	1107.2
459.472	1133.42
459.845	1152.85
460.218	1156.01
460.591	1177.71
460.964	1167.09
461.337	1202.12
461.71	1213.41
462.083	1235.56
462.456	1245.5
462.829	1227.43
463.201	1268.55
463.574	1266.75
463.947	1282.34
464.32	1305.84
464.692	1304.71
465.065	1282.57
465.438	1317.14
465.81	1358.27
466.183	1351.94
466.555	1375.9
466.928	1376.57
467.3	1395.78
467.672	1433.97
468.045	1438.95
468.417	1446.85
468.789	1438.72
469.161	1484.14
469.534	1488.89
469.906	1492.96
470.278	1518.04
470.65	1581.54
471.022	1548.55
471.394	1569.79
471.766	1586.06
472.138	1600.75
472.51	1632.39
472.882	1680.52
473.253	1676.23
473.625	1676
473.997	1728.2
474.369	1760.29
474.74	1738.82
475.112	1775.21
475.484	1836.9
475.855	1819.05
476.227	1846.84
476.598	1884.81
476.97	1909.89
477.341	1949.89
477.713	1954.86
478.084	1974.3
478.455	1989.21
478.827	2007.74
479.198	2101.75
479.569	2090.23
479.94	2131.58
480.311	2144.01
480.682	2151.24
481.053	2226.5
481.424	2267.17
481.795	2287.28
482.166	2336.55
482.537	2334.97
482.908	2397.34
483.279	2410.9
483.65	2437.79
484.021	2486.6
484.391	2499.71
484.762	2551.46
485.133	2566.83
485.503	2612.93
485.874	2630.1
486.244	2662.42
486.615	2715.52
486.985	2703.77
487.356	2749.87
487.726	2823.32
488.097	2838.91
488.467	2884.33
488.837	2924.78
489.207	2939.7
489.578	2972.92
489.948	3016.53
490.318	3048.85
490.688	3087.04
491.058	3096.3
491.428	3127.04
491.798	3194.38
492.168	3246.36
492.538	3249.97
492.908	3236.41
493.278	3302.4
493.648	3363.87
494.017	3339.69
494.387	3389.18
494.757	3385.79
495.126	3427.82
495.496	3444.77
495.866	3465.56
496.235	3490.64
496.605	3543.75
496.974	3594.82
497.344	3621.71
497.713	3633.01
498.082	3656.97
498.452	3679.79
498.821	3697.42
499.19	3717.76
499.559	3757.3
499.928	3749.39
500.298	3806.57
500.667	3833.23
501.036	3794.36
501.405	3870.29
501.774	3877.98
502.143	3860.12
502.512	3920.91
502.88	3957.3
503.249	3948.48
503.618	3974.25
503.987	3996.17
504.356	4033.91
504.724	4070.97
505.093	4097.18
505.462	4132.43
505.83	4164.3
506.199	4175.6
506.567	4164.75
506.936	4193.22
507.304	4270.51
507.672	4291.75
508.041	4290.62
508.409	4347.34
508.777	4357.51
509.145	4369.94
509.514	4410.39
509.882	4402.71
510.25	4438.19
510.618	4488.58
510.986	4512.31
511.354	4524.51
511.722	4599.31
512.09	4640.44
512.458	4609.26
512.826	4667.11
513.193	4676.37
513.561	4739.42
513.929	4719.31
514.297	4754.11
514.664	4834.56
515.032	4818.52
515.4	4836.14
515.767	4837.05
516.135	4875.69
516.502	4908.46
516.869	4945.75
517.237	4950.72
517.604	4989.59
517.972	5073.88
518.339	5050.38
518.706	5071.17
519.073	5119.3
519.44	5146.64
519.808	5168.79
520.175	5227.32
520.542	5278.39
520.909	5284.04
521.276	5305.06
521.643	5353.19
522.009	5415.34
522.376	5449.46
522.743	5426.64
523.11	5511.61
523.477	5591.6
523.843	5614.65
524.21	5619.63
524.577	5672.73
524.943	5686.07
525.31	5705.27
525.676	5799.96
526.043	5827.08
526.409	5823.91
526.776	5930.58
527.142	5939.17
527.508	5961.54
527.874	5991.82
528.241	6042.89
528.607	6075.21
528.973	6102.1
529.339	6135.09
529.705	6191.81
530.071	6278.14
530.437	6260.97
530.803	6276.78
531.169	6301.87
531.535	6402.88
531.901	6339.38
532.267	6400.4
532.632	6453.05
532.998	6447.85
533.364	6552.48
533.73	6577.79
534.095	6603.33
534.461	6644.23
534.826	6657.57
535.192	6662.54
535.557	6760.84
535.923	6711.57
536.288	6749.09
536.653	6787.51
537.019	6788.64
537.384	6838.8
537.749	6815.3
538.114	6822.76
538.479	6983.21
538.845	6897.11
539.21	6949.31
539.575	6966.26
539.94	7069.08
540.305	7055.29
540.67	7057.55
541.034	7088.74
541.399	7104.78
541.764	7142.52
542.129	7226.14
542.494	7210.32
542.858	7276.08
543.223	7185.91
543.587	7280.37
543.952	7325.34
544.316	7343.87
544.681	7371.22
545.045	7410.31
545.41	7465
545.774	7523.31
546.138	7489.41
546.503	7497.09
546.867	7550.2
547.231	7624.77
547.595	7669.74
547.959	7661.61
548.324	7652.12
548.688	7758.55
549.052	7703.19
549.416	7750.19
549.779	7806.01
550.143	7796.07
550.507	7912.9
550.871	7877.19
551.235	7933.01
551.599	7974.59
551.962	7961.94
552.326	7974.82
552.689	8022.5
553.053	8035.16
553.417	8111.54
553.78	8182.72
554.143	8132.78
554.507	8229.95
554.87	8226.56
555.234	8298.43
555.597	8257.97
555.96	8291.19
556.323	8374.36
556.686	8358.99
557.05	8404.86
557.413	8425.2
557.776	8446.9
558.139	8559.21
558.502	8577.06
558.865	8576.84
559.228	8587.46
559.59	8687.57
559.953	8657.74
560.316	8768.02
560.679	8820.67
561.041	8868.13
561.404	8808.69
561.767	8891.4
562.129	8849.6
562.492	8961.69
562.854	9024.96
563.217	8989.48
563.579	9078.74
563.941	9104.51
564.304	9136.14
564.666	9208.23
565.028	9232.64
565.39	9249.81
565.753	9281.45
566.115	9303.6
566.477	9357.61
566.839	9366.42
567.201	9451.39
567.563	9417.49
567.925	9480.54
568.287	9539.52
568.648	9501.56
569.01	9613.65
569.372	9711.95
569.734	9660.65
570.095	9745.39
570.457	9759.63
570.819	9793.08
571.18	9807.54
571.542	9905.39
571.903	9819.06
572.265	9877.59
572.626	9888.89
572.987	9992.84
573.349	10009.57
573.71	10024.26
574.071	10073.07
574.432	10063.35
574.794	10200.07
575.155	10158.04
575.516	10127.08
575.877	10168.66
576.238	10211.82
576.599	10243.01
576.96	10269.45
577.32	10179.96
577.681	10209.11
578.042	10278.03
578.403	10363
578.763	10319.39
579.124	10396
579.485	10378.37
579.845	10375.21
580.206	10379.5
580.566	10449.33
580.927	10433.06
581.287	10504.7
581.648	10388.31
582.008	10540.17
582.368	10487.07
582.728	10516.45
583.089	10456.79
583.449	10530.01
583.809	10532.04
584.169	10478.48
584.529	10602.55
584.889	10618.59
585.249	10579.5
585.609	10523.68
585.969	10561.19
586.329	10534.07
586.688	10610
587.048	10590.57
587.408	10575.2
587.768	10631.02
588.127	10570.91
588.487	10511.48
588.846	10663.79
589.206	10567.52
589.565	10586.95
589.925	10621.75
590.284	10582.43
590.643	10623.34
591.003	10613.39
591.362	10692.71
591.721	10581.3
592.08	10631.7
592.44	10586.28
592.799	10713.28
593.158	10621.08
593.517	10617.46
593.876	10691.81
594.235	10656.78
594.593	10658.82
594.952	10675.09
595.311	10644.35
595.67	10725.93
596.029	10774.29
596.387	10774.07
596.746	10810.9
597.104	10709.66
597.463	10739.27
597.822	10784.91
598.18	10785.37
598.538	10707.85
598.897	10788.3
599.255	10755.99
599.613	10876.21
599.972	10762.99
600.33	10812.26
600.688	10827.4
601.046	10810.45
601.404	10861.3
601.762	10775.2
602.12	10911.92
602.478	10852.03
602.836	10882.99
603.194	10782.88
603.552	10897.23
603.91	10792.37
604.268	10874.86
604.625	10814.29
604.983	10864.01
605.341	10828.75
605.698	10904.01
606.056	10999.37
606.413	10916.66
606.771	11063.1
607.128	10956.21
607.485	10925.7
607.843	10929.54
608.2	11006.15
608.557	11030.33
608.914	10954.85
609.272	11088.86
609.629	11049.54
609.986	11060.84
610.343	10997.56
610.7	11154.85
611.057	11111.91
611.414	11084.57
611.771	11056.77
612.127	11106.49
612.484	11116.43
612.841	11161.63
613.198	11168.63
613.554	11174.73
613.911	11173.83
614.267	11231.68
614.624	11188.07
614.98	11248.4
615.337	11183.55
615.693	11222.19
616.05	11208.18
616.406	11338.8
616.762	11272.13
617.118	11250.89
617.475	11257.44
617.831	11251.57
618.187	11292.47
618.543	11328.63
618.899	11386.03
619.255	11394.84
619.611	11313.71
619.967	11368.85
620.323	11414.28
620.678	11353.03
621.034	11354.16
621.39	11362.07
621.746	11368.85
622.101	11503.77
622.457	11374.5
622.812	11446.14
623.168	11356.88
623.523	11449.08
623.879	11473.26
624.234	11391.68
624.589	11451.79
624.945	11379.47
625.3	11442.98
625.655	11447.27
626.01	11429.42
626.365	11476.2
626.72	11370.89
627.075	11489.3
627.43	11452.47
627.785	11426.71
628.14	11432.58
628.495	11479.13
628.85	11357.78
629.205	11402.53
629.559	11461.05
629.914	11445.69
630.269	11388.51
630.623	11377.44
630.978	11364.79
631.332	11334.05
631.687	11403.2
632.041	11397.33
632.396	11387.84
632.75	11358.23
633.104	11284.56
633.459	11334.96
633.813	11261.06
634.167	11223.55
634.521	11331.34
634.875	11320.72
635.229	11295.41
635.583	11241.17
635.937	11242.98
636.291	11225.13
636.645	11290.89
636.999	11284.11
637.352	11237.78
637.706	11115.98
638.06	11226.94
638.413	11188.07
638.767	11204.34
639.121	11158.92
639.474	11170.44
639.828	11164.11
640.181	11130.67
640.534	11225.81
640.888	11086.6
641.241	11051.57
641.594	11104
641.947	11102.19
642.301	11133.38
642.654	11223.32
643.007	11188.07
643.36	11094.74
643.713	10992.37
644.066	11111.46
644.419	11060.16
644.771	11070.56
645.124	10880.73
645.477	10884.8
645.83	10812.26
646.182	10762.77
646.535	10742.2
646.888	10811.81
647.24	10684.13
647.593	10710.34
647.945	10706.95
648.298	10700.17
648.65	10649.55
649.002	10704.92
649.355	10724.12
649.707	10702.88
650.059	10761.86
650.411	10891.13
650.763	10838.7
651.115	10943.78
651.467	10962.08
651.819	10942.42
652.171	10944.68
652.523	10939.03
652.875	11035.08
653.227	10901.97
653.578	10960.95
653.93	11007.73
654.282	10945.59
654.633	10848.19
654.985	10850
655.337	10887.28
655.688	10953.5
656.039	10940.62
656.391	10802.77
656.742	10882.76
657.094	10917.34
657.445	10870.34
657.796	10882.54
658.147	10888.64
658.498	10905.81
658.849	10845.7
659.2	10890.22
659.551	10843.9
659.902	10926.38
660.253	10917.79
660.604	10872.14
660.955	10908.98
661.306	10871.01
661.656	10866.49
662.007	10916.66
662.358	10900.39
662.708	10901.52
663.059	10851.35
663.409	10825.14
663.76	10917.57
664.11	10912.82
664.461	10908.98
664.811	10873.73
665.161	10893.16
665.511	10897.68
665.862	10901.3
666.212	10907.62
666.562	10882.31
666.912	10915.76
667.262	10880.28
667.612	10850.68
667.962	10866.72
668.312	10911.24
668.662	10859.71
669.011	10838.92
669.361	10870.56
669.711	10860.84
670.06	10828.3
670.41	10806.38
670.76	10758.93
671.109	10785.59
671.459	10754.86
671.808	10740.62
672.157	10791.92
672.507	10762.77
672.856	10807.29
673.205	10788.53
673.554	10807.06
673.904	10707.63
674.253	10882.54
674.602	10730.23
674.951	10615.65
675.3	10547.18
675.649	10621.98
675.998	10721.86
676.346	10702.2
676.695	10737.23
677.044	10686.84
677.393	10668.08
677.741	10702.43
678.09	10738.81
678.438	10663.11
678.787	10700.62
679.135	10695.88
679.484	10532.49
679.832	10638.93
680.181	10511.25
680.529	10545.6
680.877	10558.71
681.225	10613.62
681.573	10564.13
681.922	10549.44
682.27	10469.89
682.618	10547.86
682.966	10511.93
683.314	10424.02
683.661	10446.84
684.009	10404.36
684.357	10355.55
684.705	10332.72
685.053	10399.61
685.4	10384.47
685.748	10297.24
686.095	10347.41
686.443	10295.89
686.79	10287.3
687.138	10275.55
687.485	10265.83
687.832	10155.1
688.18	10280.52
688.527	10153.29
688.874	10155.1
689.221	10082.11
689.568	10126.63
689.915	10054.09
690.262	10104.71
690.609	10041.88
690.956	9967.08
691.303	9996.91
691.65	9970.47
691.997	9981.55
692.344	9937.25
692.69	9885.73
693.037	9903.58
693.383	9806.18
693.73	9843.7
694.077	9808.22
694.423	9764.38
694.769	9822.68
695.116	9728.44
695.462	9719.86
695.808	9651.38
696.155	9695.68
696.501	9593.53
696.847	9648.22
697.193	9571.39
697.539	9557.6
697.885	9504.95
698.231	9427.44
698.577	9440.99
698.923	9418.4
699.269	9349.92
699.614	9284.39
699.96	9308.79
700.306	9339.75
700.651	9226.76
700.997	9250.94
701.342	9196.26
701.688	9193.54
702.033	9154.45
702.379	9210.94
702.724	9085.3
703.069	9168.01
703.415	9074.22
703.76	9047.78
704.105	9047.78
704.45	8967.56
704.795	8916.94
705.14	8979.99
705.485	8885.3
705.83	8908.58
706.175	8853.21
706.52	8879.2
706.865	8878.75
707.209	8843.5
707.554	8809.15
707.899	8863.38
708.243	8763.05
708.588	8738.41
708.932	8705.65
709.277	8636.5
709.621	8657.74
709.966	8592.2
710.31	8682.6
710.654	8533.22
710.998	8619.77
711.342	8627.68
711.687	8597.85
712.031	8539.1
712.375	8526.22
712.719	8510.62
713.063	8546.33
713.407	8518.53
713.75	8488.25
714.094	8510.4
714.438	8478.08
714.782	8499.1
715.125	8448.7
715.469	8416.61
715.812	8361.02
716.156	8341.36
716.499	8352.89
716.843	8329.39
717.186	8368.03
717.53	8363.73
717.873	8359.67
718.216	8340.46
718.559	8271.99
718.902	8309.27
719.246	8249.84
719.589	8244.19
719.932	8252.78
720.275	8229.05
720.617	8229.05
720.96	8259.78
721.303	8214.81
721.646	8264.08
721.989	8210.29
722.331	8215.49
722.674	8157.86
723.016	8177.07
723.359	8194.02
723.701	8227.92
724.044	8121.03
724.386	8027.02
724.729	8175.27
725.071	8095.72
725.413	8088.49
725.755	8139.11
726.097	8125.1
726.439	8060.69
726.782	8057.53
727.124	8164.64
727.465	8053.69
727.807	8076.74
728.149	8021.82
728.491	8074.25
728.833	8102.72
729.175	8022.27
729.516	8020.02
729.858	8088.26
730.199	8056.4
730.541	8038.09
730.882	8041.71
731.224	8058.21
731.565	8027.47
731.906	8023.63
732.248	7974.37
732.589	7993.58
732.93	7982.73
733.271	7955.61
733.612	7963.29
733.953	7985.21
734.294	7986.57
734.635	7927.36
734.976	7921.49
735.317	7942.73
735.658	7916.29
735.999	7953.58
736.339	7906.57
736.68	7981.82
737.021	7853.01
737.361	7900.47
737.702	7932.33
738.042	7944.76
738.383	7898.21
738.723	7944.76
739.063	7931.43
739.404	7922.16
739.744	7936.85
740.084	7862.96
740.424	7872.67
740.764	7856.86
741.104	7927.14
741.444	7872.67
741.784	7831.55
742.124	7921.49
742.464	7847.59
742.804	7899.11
743.143	7851.43
743.483	7873.35
743.823	7825.9
744.162	7809.17
744.502	7853.69
744.841	7770.08
745.181	7874.93
745.52	7824.99
745.86	7877.87
746.199	7785.9
746.538	7805.78
746.877	7852.11
747.216	7822.51
747.556	7819.79
747.895	7857.76
748.234	7826.8
748.573	7865.22
748.911	7838.55
749.25	7802.39
749.589	7844.2
749.928	7740.7
750.267	7748.38
750.605	7795.61
750.944	7783.41
751.283	7725.56
751.621	7732.57
751.96	7747.03
752.298	7774.6
752.636	7755.16
752.975	7642.17
753.313	7703.19
753.651	7691.66
753.989	7614.6
754.327	7661.38
754.666	7592.68
755.004	7699.35
755.342	7666.13
755.679	7631.78
756.017	7546.81
756.355	7569.86
756.693	7570.54
757.031	7583.87
757.368	7467.26
757.706	7565.34
758.044	7510.65
758.381	7505.23
758.719	7452.35
759.056	7464.1
759.394	7453.7
759.731	7450.09
760.068	7410.09
760.405	7440.82
760.743	7393.82
761.08	7403.99
761.417	7366.25
761.754	7358.34
762.091	7298.9
762.428	7292.8
762.765	7294.61
763.102	7352.91
763.438	7243.99
763.775	7245.57
764.112	7189.75
764.449	7223.88
