Data from mousepad_grey_FLMS001491_00037.txt Node
Date: Wed Feb 08 14:29:21 GMT 2017
User: dcchb
Spectrometer: FLMS00149
Trigger mode: 0
Integration Time (sec): 2.000000E-2
Scans to average: 10
Electric dark correction enabled: true
Nonlinearity correction enabled: false
Boxcar width: 0
XAxis mode: Wavelengths
Number of Pixels in Spectrum: 2048
>>>>>Begin Spectral Data<<<<<
341.393	14.05
341.776	14.05
342.16	14.05
342.543	-65.94
342.927	-66.62
343.31	-49
343.693	-70.92
344.077	-70.01
344.46	-70.92
344.843	-57.58
345.226	-38.6
345.61	-9
345.993	-26.85
346.376	-10.13
346.759	6.37
347.142	36.43
347.525	29.19
347.908	65.58
348.291	76.42
348.674	70.55
349.057	118.46
349.44	133.37
349.823	146.25
350.206	150.32
350.588	181.96
350.971	194.16
351.354	208.4
351.737	225.35
352.119	239.81
352.502	240.49
352.884	243.65
353.267	242.3
353.65	275.74
354.032	277.78
354.414	294.95
354.797	291.79
355.179	309.41
355.562	330.2
355.944	327.49
356.326	321.16
356.709	336.3
357.091	316.42
357.473	331.56
357.855	310.32
358.238	320.94
358.62	326.36
359.002	325.46
359.384	336.53
359.766	308.28
360.148	338.79
360.53	325.23
360.912	326.59
361.294	323.2
361.676	322.75
362.057	323.42
362.439	323.65
362.821	300.15
363.203	304.67
363.584	289.98
363.966	319.36
364.348	301.28
364.729	297.66
365.111	307.83
365.493	292.92
365.874	315.74
366.256	300.6
366.637	300.37
367.019	289.75
367.4	296.98
367.781	292.92
368.163	308.06
368.544	292.92
368.925	305.35
369.306	298.34
369.688	310.54
370.069	306.02
370.45	307.15
370.831	307.15
371.212	296.31
371.593	291.56
371.974	298.34
372.355	300.6
372.736	276.65
373.117	279.13
373.498	305.57
373.879	299.24
374.26	307.6
374.641	315.74
375.021	302.41
375.402	321.84
375.783	296.76
376.163	323.65
376.544	300.15
376.925	307.6
377.305	296.53
377.686	314.16
378.066	319.81
378.447	299.24
378.827	326.36
379.208	310.99
379.588	298.79
379.968	331.33
380.349	305.57
380.729	311.9
381.109	322.07
381.489	305.12
381.87	306.7
382.25	323.88
382.63	319.81
383.01	326.81
383.39	326.59
383.77	335.85
384.15	319.36
384.53	353.71
384.91	322.52
385.29	332.91
385.67	330.66
386.049	318
386.429	341.05
386.809	332.91
387.189	324.33
387.568	341.28
387.948	339.69
388.328	339.24
388.707	325.68
389.087	334.27
389.466	341.28
389.846	341.95
390.225	329.07
390.605	334.72
390.984	331.79
391.363	362.07
391.743	350.54
392.122	351.67
392.501	345.8
392.881	373.59
393.26	355.29
393.639	350.99
394.018	345.12
394.397	359.58
394.776	349.19
395.155	355.51
395.534	365
395.913	369.75
396.292	381.28
396.671	364.1
397.05	371.56
397.429	358.68
397.808	361.61
398.186	368.62
398.565	373.37
398.944	385.12
399.323	373.82
399.701	378.11
400.08	382.18
400.458	355.06
400.837	394.83
401.215	391.67
401.594	396.64
401.972	396.87
402.351	405.68
402.729	400.94
403.107	383.99
403.486	400.71
403.864	392.12
404.242	370.65
404.62	404.78
404.999	393.03
405.377	393.48
405.755	395.74
406.133	397.32
406.511	392.8
406.889	407.72
407.267	408.85
407.645	383.31
408.023	420.82
408.401	420.82
408.779	437.54
409.156	434.61
409.534	420.14
409.912	403.87
410.29	456.08
410.667	421.05
411.045	432.57
411.422	430.77
411.8	459.92
412.178	430.31
412.555	447.49
412.933	430.54
413.31	433.25
413.687	476.41
414.065	459.47
414.442	467.37
414.819	448.84
415.197	476.87
415.574	466.92
415.951	474.83
416.328	482.52
416.705	484.1
417.082	476.19
417.46	485
417.837	507.6
418.214	486.36
418.591	489.07
418.967	485.68
419.344	503.08
419.721	479.35
420.098	499.69
420.475	508.73
420.852	515.06
421.228	525.45
421.605	525.23
421.982	514.15
422.358	520.93
422.735	532.01
423.111	529.07
423.488	522.06
423.864	533.59
424.241	546.92
424.617	539.69
424.994	529.97
425.37	545.34
425.746	553.7
426.123	575.62
426.499	579.46
426.875	570.65
427.251	584.43
427.627	575.17
428.003	581.27
428.379	582.4
428.756	609.29
429.132	605.9
429.507	601.83
429.883	588.95
430.259	610.42
430.635	609.97
431.011	629.4
431.387	614.49
431.763	614.72
432.138	639.57
432.514	649.97
432.89	627.6
433.265	649.74
433.641	649.52
434.016	646.58
434.392	662.4
434.767	669.86
435.143	639.57
435.518	688.39
435.894	697.88
436.269	692
436.644	689.29
437.02	674.83
437.395	701.94
437.77	710.76
438.145	702.17
438.52	717.99
438.895	727.48
439.271	739.01
439.646	736.52
440.021	736.29
440.395	719.12
440.77	732.23
441.145	731.32
441.52	735.84
441.895	758.67
442.27	746.46
442.645	737.88
443.019	759.12
443.394	759.8
443.769	769.74
444.143	791.66
444.518	791.66
444.892	792.56
445.267	789.85
445.641	786.24
446.016	788.72
446.39	778.78
446.764	816.29
447.139	799.34
447.513	812.22
447.887	833.24
448.262	839.34
448.636	836.86
449.01	827.14
449.384	820.59
449.758	853.13
450.132	832.56
450.506	837.08
450.88	879.12
451.254	880.25
451.628	875.5
452.002	876.4
452.376	893.8
452.75	870.08
453.123	890.41
453.497	897.42
453.871	913.24
454.244	943.75
454.618	901.26
454.992	942.84
455.365	946.01
455.739	940.36
456.112	955.05
456.486	968.6
456.859	994.82
457.232	977.19
457.606	979.45
457.979	1001.82
458.352	1010.41
458.725	1026
459.099	1051.31
459.472	1051.77
459.845	1038.89
460.218	1061.48
460.591	1070.97
460.964	1097.64
461.337	1082.27
461.71	1102.61
462.083	1101.48
462.456	1146
462.829	1127.7
463.201	1169.28
463.574	1153.68
463.947	1172.89
464.32	1183.06
464.692	1170.86
465.065	1212.21
465.438	1208.82
465.81	1205.66
466.183	1233.46
466.555	1249.28
466.928	1257.64
467.3	1264.19
467.672	1264.64
468.045	1296.73
468.417	1317.52
468.789	1322.49
469.161	1300.12
469.534	1343.96
469.906	1366.11
470.278	1374.92
470.65	1382.83
471.022	1411.53
471.394	1426.22
471.766	1434.81
472.138	1458.31
472.51	1469.83
472.882	1487.23
473.253	1530.62
473.625	1539.66
473.997	1576.27
474.369	1577.63
474.74	1583.73
475.112	1621.02
475.484	1623.28
475.855	1647.68
476.227	1666.89
476.598	1709.6
476.97	1722.71
477.341	1768.13
477.713	1753.22
478.084	1782.14
478.455	1828.69
478.827	1814.91
479.198	1871.63
479.569	1892.87
479.94	1931.52
480.311	1920.44
480.682	1985.98
481.053	2007
481.424	2014.68
481.795	2031.63
482.166	2081.12
482.537	2107.33
482.908	2140.1
483.279	2152.98
483.65	2199.53
484.021	2225.97
484.391	2257.61
484.762	2247.89
485.133	2326.53
485.503	2327.44
485.874	2357.04
486.244	2349.81
486.615	2426.87
486.985	2465.51
487.356	2490.6
487.726	2522.69
488.097	2595.91
488.467	2557.04
488.837	2578.73
489.207	2649.24
489.578	2677.49
489.948	2719.29
490.318	2714.32
490.688	2738.28
491.058	2766.3
491.428	2759.07
491.798	2853.07
492.168	2876.58
492.538	2932.85
492.908	2944.37
493.278	2959.51
493.648	2974.88
494.017	2983.47
494.387	3003.35
494.757	3040.19
495.126	3053.75
495.496	3050.81
495.866	3112.05
496.235	3161.99
496.605	3181.2
496.974	3173.52
497.344	3160.41
497.713	3218.94
498.082	3278.83
498.452	3308.66
498.821	3274.98
499.19	3291.48
499.559	3345.72
499.928	3396.79
500.298	3379.61
500.667	3383.91
501.036	3392.72
501.405	3443.12
501.774	3454.64
502.143	3455.77
502.512	3484.02
502.88	3514.07
503.249	3524.47
503.618	3545.94
503.987	3569.89
504.356	3600.4
504.724	3626.16
505.093	3670.68
505.462	3662.32
505.83	3712.04
506.199	3704.13
506.567	3761.07
506.936	3765.14
507.304	3779.6
507.672	3820.28
508.041	3819.15
508.409	3848.75
508.777	3863.44
509.145	3907.06
509.514	3917.68
509.882	3942.09
510.25	3985.02
510.618	3970.11
510.986	4017.11
511.354	4048.98
511.722	4100.95
512.09	4125.58
512.458	4117.22
512.826	4148.18
513.193	4150.22
513.561	4185.92
513.929	4148.41
514.297	4246.94
514.664	4299.14
515.032	4275.18
515.4	4358.57
515.767	4356.31
516.135	4349.76
516.502	4334.17
516.869	4398.57
517.237	4410.77
517.604	4469.08
517.972	4512.24
518.339	4481.28
518.706	4516.76
519.073	4560.6
519.44	4558.11
519.808	4658
520.175	4619.81
520.542	4686.7
520.909	4681.05
521.276	4702.29
521.643	4732.8
522.009	4792.68
522.376	4853.02
522.743	4817.99
523.11	4940.48
523.477	4953.36
523.843	4962.17
524.21	5008.5
524.577	5023.41
524.943	5106.35
525.31	5156.74
525.676	5147.03
526.043	5182.73
526.409	5184.31
526.776	5231.54
527.142	5271.09
527.508	5255.27
527.874	5295.72
528.241	5338.89
528.607	5311.09
528.973	5455.94
529.339	5426.34
529.705	5474.93
530.071	5526.9
530.437	5553.34
530.803	5559.22
531.169	5628.14
531.535	5574.81
531.901	5638.09
532.267	5664.98
532.632	5729.38
532.998	5722.6
533.364	5709.04
533.73	5811.87
534.095	5819.78
534.461	5784.52
534.826	5840.11
535.192	5900
535.557	5962.15
535.923	5947.23
536.288	5980.22
536.653	6006.21
537.019	6017.51
537.384	6015.25
537.749	6090.73
538.114	6053.44
538.479	6083.27
538.845	6126.43
539.21	6128.92
539.575	6149.49
539.94	6207.79
540.305	6196.04
540.67	6231.52
541.034	6268.13
541.399	6275.58
541.764	6238.97
542.129	6316.49
542.494	6364.39
542.858	6379.54
543.223	6450.04
543.587	6488.23
543.952	6458.86
544.316	6510.61
544.681	6541.79
545.045	6525.97
545.41	6637.16
545.774	6588.12
546.138	6604.61
546.503	6622.24
546.867	6661.34
547.231	6678.51
547.595	6788.11
547.959	6811.39
548.324	6808.45
548.688	6777.27
549.052	6832.41
549.416	6852.97
549.779	6840.09
550.143	6849.35
550.507	6932.29
550.871	6956.92
551.235	6945.4
551.599	7036.47
551.962	7068.33
552.326	7062.23
552.689	7063.81
553.053	7061.1
553.417	7130.48
553.78	7187.2
554.143	7136.8
554.507	7202.79
554.87	7196.01
555.234	7275.78
555.597	7234.88
555.96	7313.07
556.323	7434.42
556.686	7360.07
557.05	7430.36
557.413	7437.13
557.776	7415.21
558.139	7469.22
558.502	7565.49
558.865	7572.72
559.228	7633.29
559.59	7612.05
559.953	7627.41
560.316	7793.28
560.679	7748.09
561.041	7772.72
561.404	7785.37
561.767	7926.39
562.129	7799.61
562.492	7908.76
562.854	7911.7
563.217	7971.36
563.579	7963
563.941	8024.92
564.304	8067.4
564.666	8085.03
565.028	8094.74
565.39	8151.47
565.753	8206.61
566.115	8202.99
566.477	8247.28
566.839	8230.33
567.201	8267.62
567.563	8374.29
567.925	8419.93
568.287	8400.05
568.648	8400.05
569.01	8485.24
569.372	8558.46
569.734	8540.83
570.095	8533.6
570.457	8634.17
570.819	8552.59
571.18	8610.21
571.542	8672.58
571.903	8659.7
572.265	8729.76
572.626	8779.25
572.987	8779.02
573.349	8811.34
573.71	8779.25
574.071	8828.28
574.432	8827.61
574.794	8968.39
575.155	8946.47
575.516	8877.78
575.877	9014.49
576.238	8984.89
576.599	9005.23
576.96	8988.73
577.32	9050.65
577.681	9101.72
578.042	9117.32
578.403	9083.19
578.763	9065.79
579.124	9047.04
579.485	9197.31
579.845	9196.86
580.206	9143.76
580.566	9240.25
580.927	9176.52
581.287	9214.72
581.648	9226.69
582.008	9241.61
582.368	9186.47
582.728	9253.13
583.089	9287.48
583.449	9274.15
583.809	9264.21
584.169	9224.43
584.529	9297.65
584.889	9337.88
585.249	9259.46
585.609	9279.8
585.969	9326.35
586.329	9245.67
586.688	9378.33
587.048	9320.02
587.408	9315.96
587.768	9285.45
588.127	9286.8
588.487	9308.05
588.846	9395.28
589.206	9364.09
589.565	9298.55
589.925	9393.92
590.284	9302.4
590.643	9320.48
591.003	9360.25
591.362	9413.35
591.721	9419
592.08	9357.99
592.44	9423.75
592.799	9426.01
593.158	9427.59
593.517	9334.49
593.876	9355.28
594.235	9381.04
594.593	9401.6
594.952	9449.51
595.311	9432.11
595.67	9404.99
596.029	9470.08
596.387	9459.68
596.746	9465.33
597.104	9397.99
597.463	9476.63
597.822	9517.76
598.18	9428.5
598.538	9460.58
598.897	9479.57
599.255	9390.53
599.613	9545.33
599.972	9591.88
600.33	9512.79
600.688	9518.89
601.046	9551.66
601.404	9513.01
601.762	9523.86
602.12	9546.23
602.478	9592.11
602.836	9601.6
603.194	9560.69
603.552	9560.02
603.91	9513.46
604.268	9510.07
604.625	9571.32
604.983	9621.94
605.341	9554.59
605.698	9554.82
606.056	9579
606.413	9687.92
606.771	9610.64
607.128	9655.16
607.485	9592.56
607.843	9612.9
608.2	9687.47
608.557	9714.59
608.914	9648.38
609.272	9690.64
609.629	9761.37
609.986	9773.57
610.343	9695.38
610.7	9759.11
611.057	9735.15
611.414	9735.61
611.771	9767.24
612.127	9805.66
612.484	9866.22
612.841	9820.58
613.198	9835.26
613.554	9789.16
613.911	9859.44
614.267	9859.44
614.624	9856.05
614.98	9870.52
615.337	9950.29
615.693	9927.24
616.05	9839.78
616.406	9953
616.762	9908.48
617.118	9847.24
617.475	9865.09
617.831	9963.85
618.187	9947.35
618.543	9941.25
618.899	10048.82
619.255	10023.51
619.611	9985.09
619.967	10038.42
620.323	9938.99
620.678	10001.81
621.034	9969.5
621.39	9960.91
621.746	10006.78
622.101	10100.12
622.457	9999.55
622.812	10076.61
623.168	10070.06
623.523	10118.65
623.879	10051.53
624.234	10013.11
624.589	10099.66
624.945	10053.11
625.3	10059.89
625.655	10074.35
626.01	10080.68
626.365	10030.51
626.72	10094.92
627.075	10087.01
627.43	10074.58
627.785	10086.33
628.14	10054.69
628.495	10050.17
628.85	10080.23
629.205	10055.82
629.559	10104.86
629.914	10060.12
630.269	10089.27
630.623	10037.74
630.978	10036.84
631.332	10011.08
631.687	10002.04
632.041	10011.76
632.396	10033
632.75	10010.63
633.104	9919.33
633.459	10008.59
633.813	9965.66
634.167	9943.96
634.521	9954.58
634.875	9893.34
635.229	9938.31
635.583	9948.48
635.937	9869.61
636.291	9850.86
636.645	9896.73
636.999	9861.03
637.352	9974.24
637.706	9860.12
638.06	9877.97
638.413	9889.05
638.767	9853.34
639.121	9884.75
639.474	9915.94
639.828	9812.21
640.181	9871.42
640.534	9916.84
640.888	9752.55
641.241	9811.99
641.594	9770.63
641.947	9845.66
642.301	9737.19
642.654	9819.67
643.007	9825.77
643.36	9829.39
643.713	9819.45
644.066	9839.33
644.419	9804.08
644.771	9735.15
645.124	9622.16
645.477	9588.72
645.83	9611.09
646.182	9571.32
646.535	9475.27
646.888	9548.49
647.24	9439.79
647.593	9492.45
647.945	9525.22
648.298	9497.42
648.65	9462.17
649.002	9458.32
649.355	9463.3
649.707	9520.47
650.059	9528.83
650.411	9690.18
650.763	9664.65
651.115	9709.39
651.467	9687.02
651.819	9754.59
652.171	9751.42
652.523	9678.43
652.875	9702.84
653.227	9674.36
653.578	9737.64
653.93	9665.32
654.282	9675.04
654.633	9638.66
654.985	9699
655.337	9697.19
655.688	9668.94
656.039	9703.74
656.391	9642.95
656.742	9726.11
657.094	9635.95
657.445	9717.53
657.796	9677.3
658.147	9660.13
658.498	9669.62
658.849	9706.91
659.2	9693.57
659.551	9624.87
659.902	9643.86
660.253	9671.88
660.604	9745.77
660.955	9656.74
661.306	9673.23
661.656	9655.61
662.007	9704.19
662.358	9690.86
662.708	9673.46
663.059	9585.55
663.409	9581.03
663.76	9620.58
664.11	9746.45
664.461	9701.03
664.811	9683.18
665.161	9674.59
665.511	9650.18
665.862	9713.69
666.212	9733.35
666.562	9687.47
666.912	9653.8
667.262	9605.89
667.612	9682.5
667.962	9654.25
668.312	9653.57
668.662	9761.59
669.011	9705.32
669.361	9635.04
669.711	9609.06
670.06	9617.19
670.41	9642.73
670.76	9624.65
671.109	9642.05
671.459	9607.7
671.808	9596.4
672.157	9660.81
672.507	9593.91
672.856	9564.31
673.205	9577.64
673.554	9627.36
673.904	9535.38
674.253	9642.27
674.602	9603.86
674.951	9448.16
675.3	9409.29
675.649	9493.35
675.998	9554.14
676.346	9617.64
676.695	9521.83
677.044	9452.68
677.393	9536.97
677.741	9510.53
678.09	9488.38
678.438	9495.39
678.787	9482.96
679.135	9527.02
679.484	9409.06
679.832	9460.58
680.181	9383.75
680.529	9482.96
680.877	9397.54
681.225	9435.05
681.573	9426.01
681.922	9341.49
682.27	9352.34
682.618	9426.01
682.966	9293.81
683.314	9327.25
683.661	9291.55
684.009	9290.87
684.357	9248.39
684.705	9212.46
685.053	9196.64
685.4	9206.35
685.748	9163.42
686.095	9214.49
686.443	9167.94
686.79	9098.56
687.138	9042.29
687.485	9173.13
687.832	9118.67
688.18	9067.37
688.527	9049.3
688.874	9060.6
689.221	9006.13
689.568	9011.1
689.915	9016.53
690.262	9027.83
690.609	8933.59
690.956	8880.71
691.303	8884.78
691.65	8851.34
691.997	8911.45
692.344	8850.66
692.69	8751.45
693.037	8786.93
693.383	8710.32
693.73	8686.37
694.077	8707.38
694.423	8695.41
694.769	8667.61
695.116	8694.95
695.462	8646.59
695.808	8620.83
696.155	8539.25
696.501	8581.51
696.847	8550.33
697.193	8425.58
697.539	8537.22
697.885	8467.39
698.231	8388.07
698.577	8397.56
698.923	8350.56
699.269	8372.93
699.614	8331.8
699.96	8266.94
700.306	8227.4
700.651	8277.34
700.997	8201.86
701.342	8248.19
701.688	8142.88
702.033	8151.01
702.379	8121.86
702.724	8125.48
703.069	8155.08
703.415	8042.32
703.76	8060.85
704.105	8017.68
704.45	8107.63
704.795	8036.44
705.14	7958.03
705.485	7960.96
705.83	7901.98
706.175	7952.15
706.52	7833.96
706.865	7807.75
707.209	7835.32
707.554	7783.11
707.899	7822.44
708.243	7758.48
708.588	7764.58
708.932	7747.41
709.277	7684.81
709.621	7781.53
709.966	7709.67
710.31	7638.71
710.654	7590.13
710.998	7650.24
711.342	7622.67
711.687	7676
712.031	7615.21
712.375	7607.75
712.719	7523.23
713.063	7536.57
713.407	7569.56
713.75	7474.87
714.094	7572.95
714.438	7442.56
714.782	7516.68
715.125	7439.85
715.469	7497.25
715.812	7432.84
716.156	7403.01
716.499	7435.1
716.843	7417.02
717.186	7410.47
717.53	7429
717.873	7440.98
718.216	7416.8
718.559	7371.15
718.902	7248.67
719.246	7347.87
719.589	7400.98
719.932	7309.91
720.275	7392.62
720.617	7379.96
720.96	7345.39
721.303	7339.74
721.646	7315.1
721.989	7271.04
722.331	7324.14
722.674	7216.58
723.016	7326.63
723.359	7258.61
723.701	7290.25
724.044	7225.16
724.386	7243.02
724.729	7266.29
725.071	7227.42
725.413	7265.61
725.755	7175.67
726.097	7221.32
726.439	7206.18
726.782	7217.93
727.124	7211.38
727.465	7197.59
727.807	7236.24
728.149	7134.77
728.491	7169.12
728.833	7187.88
729.175	7139.29
729.516	7138.39
729.858	7175.9
730.199	7152.62
730.541	7165.28
730.882	7151.72
731.224	7150.36
731.565	7089.12
731.906	7140.19
732.248	7108.33
732.589	7158.5
732.93	7158.5
733.271	7084.15
733.612	7158.72
733.953	7130.7
734.294	7095.9
734.635	7106.97
734.976	7093.42
735.317	7066.07
735.658	7133.41
735.999	7103.81
736.339	7119.63
736.68	7123.24
737.021	7137.71
737.361	7038.5
737.702	7123.02
738.042	7106.3
738.383	7066.07
738.723	7146.3
739.063	7043.92
739.404	7115.34
739.744	7084.83
740.084	7016.81
740.424	7058.39
740.764	7047.54
741.104	7087.31
741.444	7014.55
741.784	7073.53
742.124	7041.21
742.464	7031.27
742.804	7037.82
743.143	7035.34
743.483	7068.56
743.823	7008.67
744.162	7057.03
744.502	7034.21
744.841	7053.42
745.181	7016.36
745.52	7036.69
745.86	7023.36
746.199	7026.3
746.538	6989.01
746.877	7040.54
747.216	7017.48
747.556	6996.69
747.895	6963.25
748.234	6990.59
748.573	7001.67
748.911	6982.68
749.25	7006.86
749.589	6980.42
749.928	7002.12
750.267	6988.56
750.605	6979.97
750.944	6999.18
751.283	6918.28
751.621	6967.32
751.96	6962.8
752.298	6922.57
752.636	6938.84
752.975	6881.22
753.313	6898.84
753.651	6937.49
753.989	6847.77
754.327	6883.25
754.666	6828.79
755.004	6909.92
755.342	6925.74
755.679	6858.62
756.017	6900.43
756.355	6855.68
756.693	6823.14
757.031	6837.6
757.368	6771.16
757.706	6812.52
758.044	6756.7
758.381	6758.73
758.719	6725.74
759.056	6765.74
759.394	6818.39
759.731	6652.52
760.068	6664.95
760.405	6676.03
760.743	6680.09
761.08	6695.23
761.417	6621.56
761.754	6607.33
762.091	6594.22
762.428	6613.65
762.765	6610.72
763.102	6622.92
763.438	6519.87
763.775	6505.41
764.112	6483.94
764.449	6546.54
764.785	6508.12
765.122	6377.28
765.458	6459.76
765.795	6459.08
766.131	6459.76
766.467	6396.48
766.804	6368.01
767.14	6392.42
767.476	6281.69
767.812	6301.12
768.148	6315.13
768.485	6287.11
768.821	6307.67
769.157	6306.09
769.492	6242.14
769.828	6195.13
770.164	6210.05
