Data from mousepad_grey_FLMS001491_00053.txt Node
Date: Wed Feb 08 14:29:37 GMT 2017
User: dcchb
Spectrometer: FLMS00149
Trigger mode: 0
Integration Time (sec): 2.000000E-2
Scans to average: 10
Electric dark correction enabled: true
Nonlinearity correction enabled: false
Boxcar width: 0
XAxis mode: Wavelengths
Number of Pixels in Spectrum: 2048
>>>>>Begin Spectral Data<<<<<
341.393	4.56
341.776	4.56
342.16	4.56
342.543	-27.75
342.927	-53.29
343.31	-71.59
343.693	-68.88
344.077	-63.91
344.46	-40.63
344.843	-44.02
345.226	-28.21
345.61	-11.48
345.993	-17.58
346.376	-19.39
346.759	19.02
347.142	21.51
347.525	52.24
347.908	40.27
348.291	55.86
348.674	72.81
349.057	103.99
349.44	120.04
349.823	151.9
350.206	167.27
350.588	182.64
350.971	195.07
351.354	209.08
351.737	221.73
352.119	228.74
352.502	252.92
352.884	247.95
353.267	261.28
353.65	259.92
354.032	299.92
354.414	283.65
354.797	330.2
355.179	290.88
355.562	299.47
355.944	313.48
356.326	305.57
356.709	321.84
357.091	345.57
357.473	351.67
357.855	331.79
358.238	344.44
358.62	306.93
359.002	314.38
359.384	318.45
359.766	313.48
360.148	308.51
360.53	299.92
360.912	306.47
361.294	328.17
361.676	295.63
362.057	304.89
362.439	316.87
362.821	308.51
363.203	315.29
363.584	314.16
363.966	293.82
364.348	296.53
364.729	315.74
365.111	312.12
365.493	313.25
365.874	298.34
366.256	296.08
366.637	297.21
367.019	295.18
367.4	315.29
367.781	279.13
368.163	287.72
368.544	288.4
368.925	292.92
369.306	311.22
369.688	302.18
370.069	284.1
370.45	306.25
370.831	276.19
371.212	274.61
371.593	316.42
371.974	306.47
372.355	289.07
372.736	299.47
373.117	297.66
373.498	292.69
373.879	268.96
374.26	289.53
374.641	287.27
375.021	299.47
375.402	304.22
375.783	299.92
376.163	315.51
376.544	306.7
376.925	313.93
377.305	299.47
377.686	314.61
378.066	312.12
378.447	309.86
378.827	296.53
379.208	291.33
379.588	305.12
379.968	307.6
380.349	307.83
380.729	312.35
381.109	322.97
381.489	320.26
381.87	315.51
382.25	321.62
382.63	321.39
383.01	311.45
383.39	315.29
383.77	318.45
384.15	307.38
384.53	346.47
384.91	316.19
385.29	334.95
385.67	322.52
386.049	328.4
386.429	332.24
386.809	320.49
387.189	336.76
387.568	320.03
387.948	322.52
388.328	318.45
388.707	334.72
389.087	343.08
389.466	360.26
389.846	324.33
390.225	334.95
390.605	330.88
390.984	335.17
391.363	340.82
391.743	318.68
392.122	319.81
392.501	360.71
392.881	361.16
393.26	334.95
393.639	340.37
394.018	348.06
394.397	344.89
394.776	339.92
395.155	345.57
395.534	345.12
395.913	361.61
396.292	364.1
396.671	355.97
397.05	353.71
397.429	360.48
397.808	363.65
398.186	337.66
398.565	369.3
398.944	348.51
399.323	363.42
399.701	368.39
400.08	366.13
400.458	367.94
400.837	378.34
401.215	339.02
401.594	369.52
401.972	368.39
402.351	368.39
402.729	365.23
403.107	376.08
403.486	374.5
403.864	369.07
404.242	379.24
404.62	372.46
404.999	382.41
405.377	379.02
405.755	390.54
406.133	376.53
406.511	388.51
406.889	406.59
407.267	403.42
407.645	392.35
408.023	385.57
408.401	400.94
408.779	410.43
409.156	390.54
409.534	409.52
409.912	403.42
410.29	398.68
410.667	405.91
411.045	412.01
411.422	404.1
411.8	422.86
412.178	440.48
412.555	445.23
412.933	427.83
413.31	435.96
413.687	434.61
414.065	451.1
414.442	453.82
414.819	449.3
415.197	466.7
415.574	461.73
415.951	455.85
416.328	463.08
416.705	448.17
417.082	438
417.46	456.08
417.837	474.15
418.214	477.09
418.591	469.18
418.967	448.84
419.344	472.8
419.721	473.25
420.098	486.13
420.475	487.71
420.852	488.17
421.228	487.26
421.605	496.3
421.982	498.79
422.358	477.54
422.735	505.11
423.111	504.66
423.488	492.46
423.864	509.63
424.241	484.32
424.617	514.38
424.994	507.6
425.37	522.29
425.746	519.12
426.123	489.75
426.499	515.06
426.875	517.09
427.251	522.97
427.627	541.27
428.003	541.5
428.379	534.94
428.756	538.33
429.132	546.47
429.507	550.31
429.883	560.03
430.259	555.73
430.635	544.89
431.011	555.28
431.387	585.34
431.763	558.67
432.138	590.76
432.514	582.17
432.89	569.74
433.265	590.08
433.641	577.2
434.016	597.31
434.392	620.37
434.767	648.61
435.143	622.17
435.518	618.11
435.894	614.26
436.269	633.7
436.644	648.84
437.02	647.48
437.395	640.93
437.77	653.13
438.145	649.52
438.52	667.37
438.895	654.49
439.271	680.48
439.646	695.84
440.021	685.45
440.395	696.75
440.77	683.87
441.145	689.52
441.52	706.24
441.895	683.87
442.27	707.37
442.645	682.51
443.019	709.63
443.394	706.46
443.769	724.54
444.143	709.63
444.518	693.58
444.892	715.5
445.267	713.47
445.641	745.79
446.016	715.28
446.39	756.41
446.764	713.92
447.139	748.5
447.513	737.88
447.887	769.74
448.262	755.05
448.636	746.69
449.01	746.46
449.384	794.6
449.758	785.56
450.132	773.81
450.506	794.82
450.88	779.91
451.254	781.94
451.628	779.23
452.002	783.75
452.376	805.44
452.75	835.5
453.123	785.11
453.497	819.23
453.871	823.3
454.244	863.52
454.618	836.18
454.992	842.28
455.365	845.44
455.739	885.44
456.112	879.34
456.486	892.45
456.859	902.84
457.232	887.02
457.606	881.6
457.979	895.84
458.352	927.7
458.725	933.58
459.099	936.74
459.472	938.77
459.845	962.5
460.218	947.14
460.591	938.32
460.964	981.49
461.337	993.46
461.71	998.21
462.083	1017.87
462.456	1002.28
462.829	1006.8
463.201	1020.13
463.574	1012.9
463.947	1038.66
464.32	1065.33
464.692	1077.53
465.065	1074.14
465.438	1123.18
465.81	1091.54
466.183	1092.67
466.555	1132.22
466.928	1139.9
467.3	1124.76
467.672	1136.51
468.045	1154.81
468.417	1188.71
468.789	1193.68
469.161	1172.44
469.534	1198.88
469.906	1229.61
470.278	1238.2
470.65	1260.35
471.022	1252.44
471.394	1268.26
471.766	1276.62
472.138	1286.11
472.51	1323.85
472.882	1326.11
473.253	1338.54
473.625	1358.2
473.997	1375.37
474.369	1378.99
474.74	1389.84
475.112	1412.89
475.484	1414.24
475.855	1464.18
476.227	1476.61
476.598	1504.86
476.97	1508.48
477.341	1510.96
477.713	1574.92
478.084	1590.28
478.455	1601.13
478.827	1609.94
479.198	1650.39
479.569	1642.71
479.94	1676.38
480.311	1672.09
480.682	1737.85
481.053	1772.88
481.424	1812.88
481.795	1800.67
482.166	1811.07
482.537	1860.11
482.908	1892.42
483.279	1914.12
483.65	1919.09
484.021	1968.13
484.391	1977.39
484.762	1990.27
485.133	1996.37
485.503	2045.64
485.874	2059.65
486.244	2103.49
486.615	2119.53
486.985	2129.93
487.356	2165.86
487.726	2169.48
488.097	2222.36
488.467	2234.11
488.837	2269.14
489.207	2266.42
489.578	2308.46
489.948	2316.82
490.318	2401.56
490.688	2401.11
491.058	2408.11
491.428	2437.94
491.798	2458.51
492.168	2491.05
492.538	2479.98
492.908	2498.28
493.278	2559.75
493.648	2569.47
494.017	2580.99
494.387	2620.09
494.757	2631.61
495.126	2660.99
495.496	2687.43
495.866	2684.04
496.235	2696.24
496.605	2761.1
496.974	2785.28
497.344	2738.73
497.713	2794.32
498.082	2784.83
498.452	2839.29
498.821	2845.17
499.19	2866.41
499.559	2895.11
499.928	2891.72
500.298	2931.72
500.667	2952.73
501.036	2957.25
501.405	2922.45
501.774	2979.85
502.143	3009.68
502.512	3009
502.88	3046.52
503.249	3000.19
503.618	3092.39
503.987	3085.61
504.356	3121.77
504.724	3098.27
505.093	3096.91
505.462	3154.31
505.83	3179.39
506.199	3182.33
506.567	3232.27
506.936	3237.7
507.304	3261.2
507.672	3299.62
508.041	3306.17
508.409	3345.72
508.777	3335.32
509.145	3374.42
509.514	3360.63
509.882	3418.71
510.25	3419.61
510.618	3454.19
510.986	3441.99
511.354	3504.58
511.722	3466.39
512.09	3529.22
512.458	3517.24
512.826	3597.24
513.193	3561.53
513.561	3615.77
513.929	3642.66
514.297	3638.36
514.664	3642.66
515.032	3715.65
515.4	3697.35
515.767	3740.96
516.135	3757.46
516.502	3727.85
516.869	3782.99
517.237	3794.74
517.604	3807.4
517.972	3829.32
518.339	3887.85
518.706	3895.99
519.073	3892.6
519.44	3969.2
519.808	3938.92
520.175	3962.88
520.542	3999.49
520.909	3990.67
521.276	4021.86
521.643	4097.11
522.009	4096.43
522.376	4137.33
522.743	4189.54
523.11	4178.69
523.477	4194.06
523.843	4249.2
524.21	4264.56
524.577	4267.27
524.943	4324
525.31	4345.46
525.676	4380.04
526.043	4401.06
526.409	4420.72
526.776	4483.54
527.142	4482.64
527.508	4460.04
527.874	4546.36
528.241	4563.76
528.607	4566.7
528.973	4666.81
529.339	4632.91
529.705	4665.23
530.071	4704.1
530.437	4735.96
530.803	4801.05
531.169	4754.27
531.535	4806.92
531.901	4780.03
532.267	4848.28
532.632	4888.95
532.998	4901.83
533.364	4950.42
533.73	4900.03
534.095	4965.56
534.461	4989.06
534.826	5024.09
535.192	5079.91
535.557	5029.06
535.923	5053.47
536.288	5068.61
536.653	5051.21
537.019	5087.14
537.384	5125.78
537.749	5228.38
538.114	5171.66
538.479	5183.18
538.845	5238.55
539.21	5217.98
539.575	5307.93
539.94	5254.82
540.305	5354.93
540.67	5336.63
541.034	5299.56
541.399	5379.79
541.764	5349.28
542.129	5365.33
542.494	5407.13
542.858	5473.12
543.223	5432.22
543.587	5520.12
543.952	5509.95
544.316	5509.5
544.681	5540.69
545.045	5591.99
545.41	5540.01
545.774	5618.88
546.138	5660.46
546.503	5650.06
546.867	5660.68
547.231	5679.22
547.595	5783.85
547.959	5807.35
548.324	5757.63
548.688	5746.56
549.052	5804.18
549.416	5839.44
549.779	5825.43
550.143	5886.67
550.507	5926.44
550.871	5935.25
551.235	5969.6
551.599	5997.62
551.962	6004.18
552.326	6041.01
552.689	6056.61
553.053	6054.8
553.417	6098.19
553.78	6121.01
554.143	6104.51
554.507	6135.7
554.87	6179.09
555.234	6218.41
555.597	6234.45
555.96	6225.64
556.323	6208.01
556.686	6255.02
557.05	6301.8
557.413	6290.05
557.776	6367.56
558.139	6422.7
558.502	6389.25
558.865	6433.32
559.228	6448.91
559.59	6472.41
559.953	6511.28
560.316	6551.73
560.679	6589.02
561.041	6574.33
561.404	6602.13
561.767	6677.15
562.129	6628.57
562.492	6707.21
562.854	6665.86
563.217	6697.72
563.579	6764.84
563.941	6746.08
564.304	6830.15
564.666	6857.04
565.028	6838.96
565.39	6894.1
565.753	6914.66
566.115	6903.59
566.477	7004.83
566.839	6978.62
567.201	7027.2
567.563	7029.91
567.925	7034.66
568.287	7074.88
568.648	7117.14
569.01	7125.96
569.372	7150.36
569.734	7157.82
570.095	7219.74
570.457	7279.62
570.819	7220.64
571.18	7261.77
571.542	7336.12
571.903	7334.76
572.265	7365.72
572.626	7433.52
572.987	7361.43
573.349	7443.24
573.71	7443.24
574.071	7492.27
574.432	7497.25
574.794	7539.96
575.155	7559.84
575.516	7493.86
575.877	7604.81
576.238	7565.72
576.599	7609.79
576.96	7623.8
577.32	7634.64
577.681	7660.86
578.042	7686.39
578.403	7680.29
578.763	7681.65
579.124	7707.41
579.485	7744.92
579.845	7749.22
580.206	7748.09
580.566	7727.07
580.927	7749.44
581.287	7823.34
581.648	7812.04
582.008	7845.49
582.368	7801.19
582.728	7814.98
583.089	7827.86
583.449	7868.08
583.809	7805.71
584.169	7835.77
584.529	7889.33
584.889	7893.62
585.249	7840.51
585.609	7826.73
585.969	7892.04
586.329	7801.87
586.688	7867.41
587.048	7897.01
587.408	7846.16
587.768	7854.53
588.127	7904.92
588.487	7889.33
588.846	7953.96
589.206	7871.25
589.565	7873.73
589.925	7944.47
590.284	7904.92
590.643	7906.5
591.003	7926.16
591.362	7984.47
591.721	7904.24
592.08	7986.95
592.44	7962.77
592.799	7998.7
593.158	7919.61
593.517	7922.77
593.876	7995.54
594.235	7922.77
594.593	7972.26
594.952	7970.45
595.311	7955.54
595.67	7982.43
596.029	8001.41
596.387	7978.82
596.746	8010.68
597.104	8038.02
597.463	7989.66
597.822	7968.65
598.18	8000.51
598.538	7992.37
598.897	8091.81
599.255	8002.54
599.613	8097
599.972	7964.35
600.33	8015.2
600.688	7947.4
601.046	8082.99
601.404	8069.66
601.762	8057.23
602.12	8102.88
602.478	8111.24
602.836	8055.65
603.194	8023.11
603.552	8028.98
603.91	8037.57
604.268	8084.12
604.625	8081.86
604.983	8022.88
605.341	8014.75
605.698	8068.53
606.056	8160.28
606.413	8090.68
606.771	8136.1
607.128	8127.51
607.485	8113.95
607.843	8153.05
608.2	8182.43
608.557	8211.35
608.914	8117.57
609.272	8174.97
609.629	8201.41
609.986	8257.45
610.343	8185.14
610.7	8304.23
611.057	8221.97
611.414	8233.5
611.771	8214.06
612.127	8243.44
612.484	8254.29
612.841	8309.65
613.198	8217.45
613.554	8277.56
613.911	8349.65
614.267	8314.85
614.624	8290.67
614.98	8348.98
615.337	8371.57
615.693	8325.93
616.05	8305.59
616.406	8394.17
616.762	8370.22
617.118	8314.17
617.475	8357.79
617.831	8334.96
618.187	8368.86
618.543	8421.29
618.899	8387.39
619.255	8436.88
619.611	8392.36
619.967	8380.16
620.323	8440.95
620.678	8392.82
621.034	8411.8
621.39	8432.14
621.746	8349.88
622.101	8477.79
622.457	8442.31
622.812	8437.56
623.168	8494.51
623.523	8430.56
623.879	8473.49
624.234	8471.23
624.589	8520.95
624.945	8483.89
625.3	8437.56
625.655	8541.74
626.01	8499.71
626.365	8449.76
626.72	8452.7
627.075	8437.11
627.43	8431.91
627.785	8459.03
628.14	8429.65
628.495	8471.23
628.85	8526.82
629.205	8488.63
629.559	8492.02
629.914	8492.47
630.269	8481.85
630.623	8434.62
630.978	8465.36
631.332	8427.84
631.687	8489.54
632.041	8449.31
632.396	8404.34
632.75	8411.12
633.104	8412.25
633.459	8403.44
633.813	8392.59
634.167	8451.8
634.521	8388.52
634.875	8427.62
635.229	8423.1
635.583	8339.26
635.937	8301.07
636.291	8313.5
636.645	8299.94
636.999	8306.04
637.352	8352.82
637.706	8395.75
638.06	8326.6
638.413	8318.47
638.767	8301.29
639.121	8252.71
639.474	8278.47
639.828	8279.37
640.181	8261.97
640.534	8358.47
640.888	8294.06
641.241	8274.18
641.594	8284.57
641.947	8332.25
642.301	8208.64
642.654	8285.7
643.007	8237.79
643.36	8229.43
643.713	8256.1
644.066	8332.7
644.419	8249.77
644.771	8192.82
645.124	8171.58
645.477	8111.92
645.83	8165.03
646.182	8018.81
646.535	8057.68
646.888	8060.62
647.24	7987.4
647.593	8010.45
647.945	8000.06
648.298	7966.84
648.65	7981.98
649.002	7984.92
649.355	8040.73
649.707	7995.54
650.059	8047.74
650.411	8103.11
650.763	8146.72
651.115	8256.1
651.467	8132.03
651.819	8155.31
652.171	8162.54
652.523	8159.83
652.875	8181.3
653.227	8134.07
653.578	8218.36
653.93	8177
654.282	8159.38
654.633	8162.54
654.985	8158.25
655.337	8188.98
655.688	8191.92
656.039	8187.17
656.391	8135.87
656.742	8130.68
657.094	8145.59
657.445	8199.15
657.796	8178.36
658.147	8169.32
658.498	8141.52
658.849	8148.98
659.2	8158.92
659.551	8101.98
659.902	8207.74
660.253	8222.88
660.604	8188.98
660.955	8166.16
661.306	8172.26
661.656	8165.93
662.007	8172.48
662.358	8220.17
662.708	8216.1
663.059	8188.53
663.409	8115.54
663.76	8144.91
664.11	8179.94
664.461	8202.54
664.811	8223.1
665.161	8172.93
665.511	8129.32
665.862	8119.38
666.212	8207.06
666.562	8236.21
666.912	8198.7
667.262	8171.35
667.612	8103.78
667.962	8162.77
668.312	8155.99
668.662	8230.33
669.011	8145.36
669.361	8167.06
669.711	8158.02
670.06	8105.14
670.41	8111.47
670.76	8137.91
671.109	8188.53
671.459	8126.61
671.808	8102.88
672.157	8110.79
672.507	8130.9
672.856	8128.87
673.205	8119.6
673.554	8161.41
673.904	8061.07
674.253	8151.47
674.602	8169.09
674.951	8032.83
675.3	7962.32
675.649	8071.02
675.998	8101.52
676.346	8113.73
676.695	8047.97
677.044	8030.34
677.393	7960.96
677.741	8029.21
678.09	7990.34
678.438	8028.08
678.787	8041.64
679.135	7995.99
679.484	7927.29
679.832	8001.19
680.181	7973.84
680.529	7972.94
680.877	7945.37
681.225	7944.47
681.573	7955.99
681.922	7884.35
682.27	7923.9
682.618	7890.23
682.966	7864.47
683.314	7879.61
683.661	7854.75
684.009	7791.48
684.357	7829.89
684.705	7795.77
685.053	7866.95
685.4	7760.97
685.748	7756.45
686.095	7800.74
686.443	7690.91
686.79	7685.49
687.138	7760.74
687.485	7740.63
687.832	7679.84
688.18	7738.6
688.527	7567.53
688.874	7610.69
689.221	7642.55
689.568	7620.18
689.915	7553.06
690.262	7561.2
690.609	7522.56
690.956	7507.19
691.303	7574.31
691.65	7466.29
691.997	7450.69
692.344	7407.53
692.69	7407.76
693.037	7404.82
693.383	7324.14
693.73	7338.38
694.077	7290.25
694.423	7303.81
694.769	7244.82
695.116	7264.03
695.462	7208.21
695.808	7245.95
696.155	7231.94
696.501	7145.62
696.847	7246.63
697.193	7148.1
697.539	7162.11
697.885	7133.41
698.231	7061.55
698.577	7106.52
698.923	7025.85
699.269	6986.3
699.614	6965.28
699.96	6986.07
700.306	6960.54
700.651	6939.75
700.997	6938.39
701.342	6946.53
701.688	6930.71
702.033	6856.36
702.379	6837.38
702.724	6833.31
703.069	6839.41
703.415	6747.21
703.76	6732.97
704.105	6734.55
704.45	6748.57
704.795	6720.54
705.14	6736.36
705.485	6671.73
705.83	6685.29
706.175	6644.39
706.52	6605.52
706.865	6601.68
707.209	6603.48
707.554	6560.77
707.899	6559.87
708.243	6492.3
708.588	6481
708.932	6418.4
709.277	6510.15
709.621	6493.66
709.966	6405.07
710.31	6452.53
710.654	6415.47
710.998	6443.94
711.342	6384.06
711.687	6405.3
712.031	6379.08
712.375	6330.05
712.719	6341.57
713.063	6370.04
713.407	6401.68
713.75	6349.03
714.094	6290.72
714.438	6290.95
714.782	6320.1
715.125	6281.91
715.469	6314.68
715.812	6235.81
716.156	6279.43
716.499	6264.28
716.843	6327.33
717.186	6210.95
717.53	6222.93
717.873	6293.89
718.216	6193.33
718.559	6215.47
718.902	6197.17
719.246	6206.21
719.589	6227
719.932	6170.95
720.275	6139.09
720.617	6178.86
720.96	6165.08
721.303	6123.05
721.646	6179.99
721.989	6174.34
722.331	6140.9
722.674	6115.81
723.016	6109.94
723.359	6138.86
723.701	6112.65
724.044	6148.81
724.386	6152.87
724.729	6151.52
725.071	6138.41
725.413	6116.49
725.755	6118.3
726.097	6050.28
726.439	6074.46
726.782	6085.53
727.124	6051.63
727.465	6125.98
727.807	6065.65
728.149	6048.92
728.491	6089.37
728.833	6054.35
729.175	6024.06
729.516	5994.69
729.858	6052.09
730.199	6053.67
730.541	6020.45
730.882	6027.23
731.224	6042.82
731.565	6031.52
731.906	6026.55
732.248	6072.2
732.589	6031.97
732.93	6022.71
733.271	6000.11
733.612	6001.69
733.953	6064.52
734.294	6002.82
734.635	6009.38
734.976	6041.47
735.317	5998.53
735.658	5967.34
735.999	5996.72
736.339	6063.16
736.68	6027.91
737.021	5995.14
737.361	6041.01
737.702	6037.17
738.042	5986.78
738.383	6004.86
738.723	6074.46
739.063	6017.74
739.404	6034.46
739.744	5989.94
740.084	6010.73
740.424	6008.7
740.764	5941.36
741.104	5980
741.444	6014.57
741.784	5968.25
742.124	6017.96
742.464	5980.9
742.804	5918.3
743.143	5972.31
743.483	5963.73
743.823	6019.32
744.162	5985.42
744.502	6010.51
744.841	5975.93
745.181	5977.51
745.52	5968.92
745.86	6032.88
746.199	6036.72
746.538	5956.72
746.877	5993.78
747.216	5968.7
747.556	5970.73
747.895	5985.42
748.234	5988.81
748.573	5955.59
748.911	5937.97
749.25	6016.83
749.589	5983.61
749.928	5987.46
750.267	5987.91
750.605	5945.65
750.944	5933.45
751.283	5884.41
751.621	5932.99
751.96	5880.79
752.298	5920.34
752.636	5925.99
752.975	5876.05
753.313	5934.35
753.651	5876.05
753.989	5920.79
754.327	5906.1
754.666	5861.81
755.004	5841.7
755.342	5828.36
755.679	5889.83
756.017	5859.55
756.355	5869.27
756.693	5800.57
757.031	5833.56
757.368	5817.52
757.706	5822.26
758.044	5789.27
758.381	5803.51
758.719	5773.9
759.056	5801.92
759.394	5760.12
759.731	5704.98
760.068	5735.26
760.405	5708.59
760.743	5676.28
761.08	5707.69
761.417	5648.71
761.754	5694.13
762.091	5637.18
762.428	5608.93
762.765	5619.78
763.102	5671.76
763.438	5539.11
763.775	5558.09
764.112	5632.66
764.449	5539.56
764.785	5546.34
765.122	5515.38
765.458	5495.04
765.795	5516.73
766.131	5455.72
766.467	5485.1
766.804	5463.4
767.14	5427.02
767.476	5411.2
767.812	5386.12
768.148	5397.19
768.485	5366.23
768.821	5377.75
769.157	5340.69
769.492	5314.7
769.828	5372.56
770.164	5284.2
770.5	5273.8
770.836	5273.35
