Data from mousepad_grey_FLMS001491_00065.txt Node
Date: Wed Feb 08 14:29:46 GMT 2017
User: dcchb
Spectrometer: FLMS00149
Trigger mode: 0
Integration Time (sec): 2.000000E-2
Scans to average: 10
Electric dark correction enabled: true
Nonlinearity correction enabled: false
Boxcar width: 0
XAxis mode: Wavelengths
Number of Pixels in Spectrum: 2048
>>>>>Begin Spectral Data<<<<<
341.393	-12.37
341.776	-12.37
342.16	-12.37
342.543	-46.95
342.927	-59.6
343.31	-72.71
343.693	-67.06
344.077	-72.94
344.46	-53.05
344.843	-57.57
345.226	-53.5
345.61	-38.81
345.993	7.97
346.376	9.1
346.759	7.97
347.142	34.18
347.525	16.78
347.908	65.59
348.291	75.99
348.674	103.56
349.057	94.52
349.44	123.67
349.823	151.24
350.206	155.76
350.588	170.9
350.971	179.94
351.354	210.22
351.737	236.43
352.119	210.22
352.502	242.76
352.884	258.13
353.267	257
353.65	271.46
354.032	278.47
354.414	278.24
354.797	285.25
355.179	302.42
355.562	299.48
355.944	315.3
356.326	292.48
356.709	314.17
357.091	310.78
357.473	333.83
357.855	294.29
358.238	300.61
358.62	319.14
359.002	328.64
359.384	324.57
359.766	323.21
360.148	349.65
360.53	301.29
360.912	310.33
361.294	310.33
361.676	312.82
362.057	304.23
362.439	312.14
362.821	315.3
363.203	315.53
363.584	305.81
363.966	332.93
364.348	304.68
364.729	298.58
365.111	287.96
365.493	294.06
365.874	298.35
366.256	277.79
366.637	292.93
367.019	305.13
367.4	295.87
367.781	289.99
368.163	294.06
368.544	282.08
368.925	299.26
369.306	329.09
369.688	302.2
370.069	292.48
370.45	293.38
370.831	298.13
371.212	293.83
371.593	299.94
371.974	299.03
372.355	287.73
372.736	318.92
373.117	285.02
373.498	302.87
373.879	300.61
374.26	296.55
374.641	274.85
375.021	294.74
375.402	294.51
375.783	310.33
376.163	300.61
376.544	303.78
376.925	306.04
377.305	315.08
377.686	316.43
378.066	316.88
378.447	319.82
378.827	318.92
379.208	303.55
379.588	311.23
379.968	313.27
380.349	297.22
380.729	311.46
381.109	302.2
381.489	321.18
381.87	326.83
382.25	328.18
382.63	308.3
383.01	310.33
383.39	323.44
383.77	339.03
384.15	321.86
384.53	336.09
384.91	330.44
385.29	328.64
385.67	338.8
386.049	320.73
386.429	341.97
386.809	349.43
387.189	336.77
387.568	311.91
387.948	337.9
388.328	337.67
388.707	349.65
389.087	348.07
389.466	354.4
389.846	325.7
390.225	324.34
390.605	335.87
390.984	324.12
391.363	327.73
391.743	354.85
392.122	360.5
392.501	365.7
392.881	348.3
393.26	334.28
393.639	356.43
394.018	352.36
394.397	355.75
394.776	356.21
395.155	361.18
395.534	363.44
395.913	368.41
396.292	352.59
396.671	369.99
397.05	367.96
397.429	376.54
397.808	362.76
398.186	370.44
398.565	383.32
398.944	371.35
399.323	372.02
399.701	389.2
400.08	384.91
400.458	377
400.837	364.11
401.215	417.22
401.594	389.88
401.972	375.64
402.351	387.62
402.729	388.75
403.107	388.29
403.486	402.31
403.864	412.93
404.242	387.62
404.62	393.94
404.999	419.93
405.377	411.12
405.755	429.65
406.133	420.61
406.511	418.12
406.889	439.14
407.267	427.84
407.645	420.38
408.023	422.87
408.401	438.69
408.779	461.29
409.156	437.11
409.534	428.07
409.912	466.48
410.29	438.92
410.667	449.31
411.045	448.86
411.422	459.48
411.8	460.61
412.178	453.38
412.555	464.23
412.933	493.6
413.31	459.71
413.687	459.93
414.065	466.71
414.442	495.41
414.819	500.38
415.197	498.35
415.574	482.53
415.951	508.29
416.328	512.81
416.705	482.53
417.082	495.86
417.46	507.16
417.837	497.22
418.214	515.3
418.591	512.36
418.967	527.73
419.344	530.89
419.721	528.4
420.098	506.94
420.475	522.3
420.852	540.61
421.228	551.68
421.605	541.74
421.982	536.54
422.358	554.17
422.735	559.36
423.111	541.51
423.488	580.61
423.864	580.83
424.241	567.27
424.617	562.98
424.994	570.21
425.37	583.54
425.746	557.33
426.123	581.28
426.499	583.32
426.875	575.86
427.251	588.52
427.627	597.55
428.003	607.5
428.379	617.22
428.756	622.64
429.132	625.8
429.507	645.24
429.883	640.27
430.259	630.77
430.635	647.27
431.011	655.18
431.387	644.33
431.763	698.34
432.138	660.83
432.514	680.49
432.89	652.02
433.265	698.8
433.641	698.12
434.016	681.17
434.392	692.92
434.767	720.94
435.143	709.42
435.518	731.56
435.894	724.11
436.269	750.09
436.644	732.24
437.02	759.81
437.395	729.98
437.77	735.18
438.145	749.64
438.52	755.97
438.895	787.83
439.271	774.5
439.646	797.1
440.021	789.87
440.395	800.94
440.77	801.17
441.145	800.04
441.52	803.88
441.895	826.02
442.27	808.17
442.645	808.85
443.019	828.06
443.394	832.13
443.769	848.4
444.143	849.53
444.518	827.38
444.892	864.67
445.267	855.4
445.641	861.95
446.016	856.98
446.39	844.33
446.764	871.9
447.139	850.2
447.513	891.56
447.887	862.63
448.262	894.04
448.636	868.28
449.01	905.12
449.384	891.33
449.758	904.89
450.132	919.58
450.506	937.66
450.88	937.66
451.254	912.12
451.628	932.24
452.002	962.29
452.376	937.43
452.75	961.84
453.123	957.55
453.497	1019.46
453.871	989.41
454.244	999.58
454.618	1007.94
454.992	1031.67
455.365	1028.96
455.739	1046.81
456.112	1041.84
456.486	1048.84
456.859	1078.9
457.232	1073.25
457.606	1114.38
457.979	1100.82
458.352	1081.38
458.725	1094.72
459.099	1136.3
459.472	1145.34
459.845	1143.76
460.218	1149.4
460.591	1177.65
460.964	1162.96
461.337	1206.35
461.71	1204.54
462.083	1208.39
462.456	1241.38
462.829	1230.76
463.201	1261.49
463.574	1233.7
463.947	1254.94
464.32	1305.33
464.692	1299.68
465.065	1297.88
465.438	1335.61
465.81	1329.97
466.183	1344.65
466.555	1395.5
466.928	1415.16
467.3	1386.69
467.672	1400.7
468.045	1451.77
468.417	1425.78
468.789	1444.99
469.161	1451.77
469.534	1466.46
469.906	1505.1
470.278	1503.75
470.65	1525.44
471.022	1550.07
471.394	1590.98
471.766	1614.25
472.138	1607.7
472.51	1636.85
472.882	1656.74
473.253	1663.06
473.625	1696.51
473.997	1736.28
474.369	1716.17
474.74	1746
475.112	1799.33
475.484	1781.93
475.855	1864.41
476.227	1856.96
476.598	1917.75
476.97	1862.83
477.341	1946.9
477.713	1975.82
478.084	1975.82
478.455	2017.4
478.827	2028.03
479.198	2058.31
479.569	2095.14
479.94	2127.01
480.311	2147.8
480.682	2168.14
481.053	2213.56
481.424	2241.35
481.795	2272.31
482.166	2307.57
482.537	2342.14
482.908	2395.47
483.279	2409.48
483.65	2436.15
484.021	2481.57
484.391	2507.56
484.762	2569.03
485.133	2555.02
485.503	2605.86
485.874	2644.05
486.244	2662.36
486.615	2676.37
486.985	2720.89
487.356	2766.09
487.726	2807.89
488.097	2828.68
488.467	2834.11
488.837	2896.7
489.207	2944.61
489.578	2983.71
489.948	2998.4
490.318	3034.33
490.688	3060.54
491.058	3116.36
491.428	3153.42
491.798	3184.83
492.168	3242.91
492.538	3237.26
492.908	3255.79
493.278	3281.78
493.648	3321.55
494.017	3359.29
494.387	3355.45
494.757	3392.74
495.126	3425.28
495.496	3403.36
495.866	3490.36
496.235	3486.07
496.605	3551.15
496.974	3587.31
497.344	3606.74
497.713	3647.64
498.082	3604.71
498.452	3657.36
498.821	3655.33
499.19	3682.45
499.559	3747.3
499.928	3770.13
500.298	3762.9
500.667	3847.64
501.036	3836.57
501.405	3838.83
501.774	3860.75
502.143	3905.72
502.512	3891.25
502.88	3966.05
503.249	3973.51
503.618	4007.41
503.987	3977.13
504.356	4042.44
504.724	4081.98
505.093	4099.38
505.462	4098.71
505.83	4131.02
506.199	4183.45
506.567	4180.51
506.936	4226.61
507.304	4242.43
507.672	4302.09
508.041	4326.5
508.409	4335.08
508.777	4358.13
509.145	4388.87
509.514	4366.72
509.882	4396.55
510.25	4410.56
510.618	4478.81
510.986	4481.97
511.354	4523.55
511.722	4550.22
512.09	4584.34
512.458	4622.76
512.826	4632.93
513.193	4648.97
513.561	4690.55
513.929	4691.91
514.297	4772.59
514.664	4819.59
515.032	4823.43
515.4	4862.3
515.767	4879.7
516.135	4924.45
516.502	4902.3
516.869	5011.68
517.237	5001.73
517.604	4966.03
517.972	5035.63
518.339	5054.16
518.706	5094.84
519.073	5136.42
519.44	5189.3
519.808	5203.31
520.175	5164.21
520.542	5280.82
520.909	5308.62
521.276	5329.41
521.643	5331.67
522.009	5406.47
522.376	5436.3
522.743	5501.38
523.11	5517.43
523.477	5547.93
523.843	5574.37
524.21	5651.43
524.577	5634.26
524.943	5709.96
525.31	5727.14
525.676	5767.36
526.043	5847.81
526.409	5888.04
526.776	5935.04
527.142	5923.74
527.508	5971.65
527.874	6020.92
528.241	6011.65
528.607	6090.29
528.973	6100.01
529.339	6128.71
529.705	6158.99
530.071	6228.14
530.437	6284.19
530.803	6282.83
531.169	6357.86
531.535	6313.34
531.901	6397.18
532.267	6412.54
532.632	6434.01
532.998	6501.81
533.364	6548.13
533.73	6568.02
534.095	6632.42
534.461	6610.28
534.826	6642.37
535.192	6706.09
535.557	6708.81
535.923	6754.91
536.288	6778.18
536.653	6759.2
537.019	6806.43
537.384	6802.82
537.749	6871.06
538.114	6891.63
538.479	6908.12
538.845	6971.85
539.21	6995.8
539.575	6988.35
539.94	7026.54
540.305	7068.57
540.67	7091.17
541.034	7084.16
541.399	7162.13
541.764	7128.46
542.129	7208.68
542.494	7212.97
542.858	7286.64
543.223	7272.86
543.587	7312.18
543.952	7363.7
544.316	7359.86
544.681	7390.6
545.045	7432.86
545.41	7450.71
545.774	7465.62
546.138	7522.57
546.503	7533.19
546.867	7541.33
547.231	7634.21
547.595	7620.2
547.959	7639.86
548.324	7695.45
548.688	7659.97
549.052	7699.74
549.416	7782.68
549.779	7734.09
550.143	7805.05
550.507	7865.16
550.871	7844.6
551.235	7886.63
551.599	7991.26
551.962	7955.55
552.326	7980.41
552.689	8062.67
553.053	7995.55
553.417	8092.73
553.78	8147.86
554.143	8121.42
554.507	8124.59
554.87	8182.44
555.234	8271.7
555.597	8245.72
555.96	8313.28
556.323	8272.38
556.686	8350.8
557.05	8378.59
557.413	8409.55
557.776	8478.25
558.139	8519.83
558.502	8542.66
558.865	8509.21
559.228	8667.4
559.59	8656.78
559.953	8661.98
560.316	8793.5
560.679	8734.97
561.041	8827.4
561.404	8895.19
561.767	8902.42
562.129	8876.66
562.492	8977.45
562.854	9013.15
563.217	8931.8
563.579	9007.05
563.941	9085.92
564.304	9130.66
564.666	9188.97
565.028	9194.39
565.39	9225.58
565.753	9265.12
566.115	9313.71
566.477	9331.34
566.839	9360.26
567.201	9436.64
567.563	9435.29
567.925	9562.06
568.287	9531.78
568.648	9546.25
569.01	9632.57
569.372	9680.03
569.734	9637.32
570.095	9685.9
570.457	9747.37
570.819	9761.83
571.18	9813.36
571.542	9812.68
571.903	9866.69
572.265	9840.48
572.626	9965.9
572.987	9979.68
573.349	10044.76
573.71	9986.69
574.071	10005.44
574.432	10084.99
574.794	10125.89
575.155	10162.28
575.516	10147.36
575.877	10204.08
576.238	10148.49
576.599	10267.36
576.96	10202.5
577.32	10275.27
577.681	10310.29
578.042	10363.85
578.403	10332.21
578.763	10364.53
579.124	10414.02
579.485	10409.27
579.845	10383.29
580.206	10393.68
580.566	10439.78
580.927	10395.49
581.287	10537.86
581.648	10447.92
582.008	10523.85
582.368	10498.99
582.728	10511.64
583.089	10531.98
583.449	10520.68
583.809	10485.88
584.169	10535.82
584.529	10538.54
584.889	10595.48
585.249	10543.96
585.609	10535.15
585.969	10588.93
586.329	10510.74
586.688	10635.48
587.048	10566.33
587.408	10603.17
587.768	10576.05
588.127	10536.95
588.487	10573.34
588.846	10630.96
589.206	10572.66
589.565	10634.58
589.925	10632.77
590.284	10622.83
590.643	10593
591.003	10624.18
591.362	10676.61
591.721	10645.88
592.08	10652.43
592.44	10716.61
592.799	10695.37
593.158	10691.98
593.517	10699.44
593.876	10711.64
594.235	10720.23
594.593	10738.08
594.952	10710.06
595.311	10661.92
595.67	10731.53
596.029	10776.5
596.387	10775.59
596.746	10762.71
597.104	10745.76
597.463	10717.97
597.822	10776.04
598.18	10788.25
598.538	10742.15
598.897	10823.5
599.255	10676.16
599.613	10842.94
599.972	10792.99
600.33	10788.47
600.688	10749.6
601.046	10754.58
601.404	10828.47
601.762	10793.22
602.12	10864.4
602.478	10845.42
602.836	10849.94
603.194	10894.91
603.552	10884.29
603.91	10796.38
604.268	10789.83
604.625	10823.05
604.983	10923.84
605.341	10827.79
605.698	10954.34
606.056	10922.48
606.413	10881.58
606.771	10879.09
607.128	10927.9
607.485	10917.51
607.843	10844.07
608.2	10972.88
608.557	11059.65
608.914	11027.79
609.272	11035.25
609.629	11020.33
609.986	11075.7
610.343	11019.88
610.7	11085.87
611.057	11091.74
611.414	11041.8
611.771	11036.6
612.127	11162.25
612.484	11152.76
612.841	11176.94
613.198	11140.78
613.554	11147.33
613.911	11203.6
614.267	11218.07
614.624	11175.36
614.98	11225.3
615.337	11287.9
615.693	11225.52
616.05	11283.38
616.406	11260.33
616.762	11223.72
617.118	11235.24
617.475	11315.24
617.831	11376.25
618.187	11309.36
618.543	11308.01
618.899	11397.72
619.255	11351.62
619.611	11322.02
619.967	11341.45
620.323	11385.97
620.678	11327.67
621.034	11295.58
621.39	11344.16
621.746	11320.66
622.101	11488.34
622.457	11372.64
622.812	11415.12
623.168	11401.34
623.523	11401.56
623.879	11444.28
624.234	11360.44
624.589	11461.68
624.945	11460.09
625.3	11488.57
625.655	11482.69
626.01	11424.61
626.365	11415.58
626.72	11391.4
627.075	11452.41
627.43	11471.62
627.785	11375.58
628.14	11449.92
628.495	11440.21
628.85	11435.69
629.205	11448.34
629.559	11423.48
629.914	11380.55
630.269	11418.29
630.623	11352.75
630.978	11344.39
631.332	11425.97
631.687	11357.5
632.041	11397.72
632.396	11368.57
632.75	11335.58
633.104	11439.76
633.459	11302.36
633.813	11303.71
634.167	11272.53
634.521	11263.26
634.875	11342.13
635.229	11386.65
635.583	11210.38
635.937	11243.6
636.291	11214.68
636.645	11294.45
636.999	11192.08
637.352	11263.72
637.706	11173.77
638.06	11285.18
638.413	11164.96
638.767	11206.32
639.121	11237.5
639.474	11052.42
639.828	11124.96
640.181	11148.92
640.534	11172.64
640.888	11087.9
641.241	11104.85
641.594	11110.27
641.947	11151.18
642.301	11037.05
642.654	11147.56
643.007	11079.09
643.36	11063.04
643.713	11046.32
644.066	11145.98
644.419	11153.44
644.771	10966.32
645.124	10909.15
645.477	10941.01
645.83	10854.23
646.182	10776.72
646.535	10731.3
646.888	10813.33
647.24	10701.92
647.593	10748.93
647.945	10744.86
648.298	10734.46
648.65	10693.33
649.002	10616.27
649.355	10703.28
649.707	10732.66
650.059	10718.64
650.411	10868.02
650.763	10895.59
651.115	10922.71
651.467	10914.35
651.819	10959.09
652.171	10896.72
652.523	10945.53
652.875	10917.96
653.227	10920.22
653.578	10968.58
653.93	10955.02
654.282	10915.7
654.633	10880.22
654.985	10937.17
655.337	10915.25
655.688	10893.78
656.039	10914.8
656.391	10865.53
656.742	10865.31
657.094	10872.76
657.445	10901.24
657.796	10972.88
658.147	10876.15
658.498	10962.93
658.849	10884.29
659.2	10900.11
659.551	10877.96
659.902	10926.77
660.253	10847.91
660.604	10919.32
660.955	10863.27
661.306	10915.25
661.656	10906.66
662.007	10868.25
662.358	10876.15
662.708	10896.49
663.059	10876.83
663.409	10759.32
663.76	10894.69
664.11	10869.6
664.461	10864.18
664.811	10850.62
665.161	10922.03
665.511	10854.69
665.862	10929.94
666.212	10884.29
666.562	10923.84
666.912	10856.95
667.262	10853.78
667.612	10860.56
667.962	10868.02
668.312	10839.55
668.662	10902.37
669.011	10898.53
669.361	10816.72
669.711	10834.8
670.06	10835.48
670.41	10800.68
670.76	10714.13
671.109	10855.82
671.459	10764.75
671.808	10810.85
672.157	10857.85
672.507	10779.89
672.856	10727.23
673.205	10775.14
673.554	10769.94
673.904	10730.62
674.253	10845.65
674.602	10793.45
674.951	10624.86
675.3	10562.72
675.649	10758.64
675.998	10750.51
676.346	10745.54
676.695	10739.66
677.044	10677.74
677.393	10689.04
677.741	10661.02
678.09	10726.55
678.438	10656.27
678.787	10633.22
679.135	10651.98
679.484	10602.04
679.832	10606.33
680.181	10556.62
680.529	10658.53
680.877	10540.57
681.225	10580.8
681.573	10664.63
681.922	10468.26
682.27	10443.85
682.618	10570.4
682.966	10503.96
683.314	10512.55
683.661	10389.61
684.009	10379.9
684.357	10376.96
684.705	10383.29
685.053	10336.28
685.4	10362.95
685.748	10305.1
686.095	10331.54
686.443	10315.27
686.79	10337.19
687.138	10296.06
687.485	10274.59
687.832	10187.13
688.18	10185.33
688.527	10121.37
688.874	10131.32
689.221	10093.35
689.568	10106.23
689.915	10100.81
690.262	10075.72
690.609	10048.38
690.956	10012.22
691.303	10004.54
691.65	9948.27
691.997	10018.1
692.344	9886.12
692.69	9890.87
693.037	9962.05
693.383	9789.4
693.73	9867.37
694.077	9770.65
694.423	9772.68
694.769	9719.12
695.116	9701.72
695.462	9654.72
695.808	9659.24
696.155	9676.41
696.501	9565
696.847	9584.44
697.193	9566.36
697.539	9544.21
697.885	9463.54
698.231	9492.46
698.577	9469.86
698.923	9423.99
699.269	9307.83
699.614	9309.42
699.96	9313.48
700.306	9333.37
700.651	9277.33
700.997	9205.92
701.342	9230.77
701.688	9202.07
702.033	9228.51
702.379	9156.65
702.724	9097.22
703.069	9163.88
703.415	9073.26
703.76	9070.33
704.105	9074.17
704.45	9035.3
704.795	8920.95
705.14	8965.47
705.485	8939.93
705.83	8880.27
706.175	8931.35
706.52	8918.69
706.865	8857.22
707.209	8855.64
707.554	8829.65
707.899	8795.31
708.243	8772.03
708.588	8711.92
708.932	8673.5
709.277	8657
709.621	8726.38
709.966	8611.13
710.31	8688.87
710.654	8506.27
710.998	8626.27
711.342	8657.91
711.687	8548.08
712.031	8561.41
712.375	8473.05
712.719	8511.02
713.063	8545.59
713.407	8477.8
713.75	8409.33
714.094	8517.57
714.438	8484.13
714.782	8479.38
715.125	8473.28
715.469	8452.94
715.812	8346.28
716.156	8400.74
716.499	8335.2
716.843	8363.23
717.186	8354.87
717.53	8296.56
717.873	8290.46
718.216	8279.39
718.559	8313.06
718.902	8307.63
719.246	8295.88
719.589	8229.9
719.932	8292.49
720.275	8283.91
720.617	8212.04
720.96	8203.68
721.303	8230.57
721.646	8234.19
721.989	8120.75
722.331	8225.6
722.674	8199.39
723.016	8112.61
723.359	8192.84
723.701	8180.18
724.044	8167.53
724.386	8153.06
724.729	8184.25
725.071	8135.44
725.413	8125.72
725.755	8126.17
726.097	8059.96
726.439	8075.1
726.782	8116.45
727.124	8125.27
727.465	8050.92
727.807	8046.85
728.149	7997.59
728.491	8043.23
728.833	8011.37
729.175	8058.38
729.516	8005.27
729.858	8002.78
730.199	8035.33
730.541	8019.51
730.882	8031.03
731.224	8031.48
731.565	8018.38
731.906	8043.46
732.248	8002.78
732.589	7988.77
732.93	8010.69
733.271	7907.19
733.612	8001.88
733.953	7986.06
734.294	7927.98
734.635	7955.55
734.976	7987.64
735.317	7972.5
735.658	7991.71
735.999	8000.07
736.339	7884.14
736.68	7951.49
737.021	7900.64
737.361	7936.34
737.702	8025.38
738.042	7909
738.383	7933.86
738.723	7953.29
739.063	7908.55
739.404	7908.1
739.744	7874.65
740.084	7898.61
740.424	7934.31
740.764	7888.66
741.104	7889.79
741.444	7900.41
741.784	7876.69
742.124	7889.11
742.464	7857.93
742.804	7852.51
743.143	7849.57
743.483	7814.54
743.823	7814.99
744.162	7851.38
744.502	7845.05
744.841	7815.44
745.181	7912.16
745.52	7836.23
745.86	7870.13
746.199	7859.74
746.538	7828.33
746.877	7830.13
747.216	7867.65
747.556	7835.1
747.895	7818.83
748.234	7805.27
748.573	7798.27
748.911	7720.31
749.25	7816.35
749.589	7775.67
749.928	7770.02
750.267	7786.97
750.605	7779.74
750.944	7711.72
751.283	7777.25
751.621	7771.83
751.96	7699.29
752.298	7751.49
752.636	7713.75
752.975	7702
753.313	7652.06
753.651	7719.4
753.989	7702.45
754.327	7704.71
754.666	7540.65
755.004	7652.51
755.342	7647.09
755.679	7631.27
756.017	7591.72
756.355	7668.78
756.693	7588.56
757.031	7556.69
757.368	7554.89
757.706	7516.47
758.044	7548.56
758.381	7527.32
758.719	7519.86
759.056	7382.46
759.394	7475.11
759.731	7418.84
760.068	7386.08
760.405	7406.64
760.743	7442.35
761.08	7385.63
761.417	7311.73
761.754	7332.75
762.091	7335.46
762.428	7259.53
762.765	7297.49
763.102	7320.09
763.438	7236.48
763.775	7194.22
