Data from mousepad_grey_FLMS001491_00086.txt Node
Date: Wed Feb 08 14:30:03 GMT 2017
User: dcchb
Spectrometer: FLMS00149
Trigger mode: 0
Integration Time (sec): 2.000000E-2
Scans to average: 10
Electric dark correction enabled: true
Nonlinearity correction enabled: false
Boxcar width: 0
XAxis mode: Wavelengths
Number of Pixels in Spectrum: 2048
>>>>>Begin Spectral Data<<<<<
341.393	-15.79
341.776	-15.79
342.16	-15.79
342.543	-65.05
342.927	-75.68
343.31	-40.87
343.693	-71.83
344.077	-53.53
344.46	-60.54
344.843	-59.63
345.226	-50.37
345.61	-33.42
345.993	-20.54
346.376	-18.95
346.759	6.36
347.142	34.6
347.525	25.56
347.908	70.76
348.291	64.89
348.674	95.39
349.057	112.12
349.44	118.44
349.823	146.92
350.206	157.31
350.588	181.27
350.971	181.49
351.354	196.41
351.737	220.81
352.119	243.41
352.502	213.58
352.884	255.84
353.267	264.2
353.65	272.79
354.032	285.44
354.414	284.31
354.797	281.15
355.179	306.23
355.562	295.39
355.944	291.55
356.326	311.43
356.709	327.93
357.091	304.2
357.473	320.92
357.855	321.83
358.238	325.22
358.62	295.84
359.002	330.64
359.384	315.95
359.766	316.86
360.148	298.78
360.53	319.79
360.912	330.19
361.294	317.31
361.676	325.67
362.057	307.59
362.439	311.43
362.821	316.4
363.203	286.12
363.584	316.63
363.966	324.99
364.348	310.3
364.729	294.26
365.111	302.17
365.493	293.13
365.874	289.51
366.256	295.61
366.637	306.01
367.019	284.31
367.4	305.1
367.781	295.16
368.163	296.52
368.544	292.45
368.925	290.19
369.306	296.07
369.688	302.17
370.069	297.65
370.45	279.57
370.831	303.98
371.212	293.35
371.593	291.55
371.974	300.59
372.355	283.64
372.736	282.05
373.117	295.16
373.498	306.46
373.879	319.79
374.26	308.72
374.641	307.36
375.021	306.01
375.402	295.61
375.783	306.23
376.163	310.75
376.544	301.72
376.925	297.65
377.305	299
377.686	302.17
378.066	306.46
378.447	302.85
378.827	311.88
379.208	308.04
379.588	306.46
379.968	332.67
380.349	298.33
380.729	313.69
381.109	323.86
381.489	313.92
381.87	324.99
382.25	295.61
382.63	317.99
383.01	322.96
383.39	313.69
383.77	321.6
384.15	324.99
384.53	335.84
384.91	331.77
385.29	317.08
385.67	351.43
386.049	348.27
386.429	329.96
386.809	340.36
387.189	338.1
387.568	334.03
387.948	334.26
388.328	316.63
388.707	329.96
389.087	338.78
389.466	326.35
389.846	353.92
390.225	353.24
390.605	346.23
390.984	345.56
391.363	349.85
391.743	365.89
392.122	359.57
392.501	344.88
392.881	355.05
393.26	364.76
393.639	365.22
394.018	366.12
394.397	347.59
394.776	334.03
395.155	352.11
395.534	351.66
395.913	354.14
396.292	360.24
396.671	386.91
397.05	374.03
397.429	363.63
397.808	369.74
398.186	404.76
398.565	374.93
398.944	367.25
399.323	378.32
399.701	393.69
400.08	355.27
400.458	368.15
400.837	389.4
401.215	375.39
401.594	388.72
401.972	393.01
402.351	387.81
402.729	407.93
403.107	384.42
403.486	396.18
403.864	405.67
404.242	386.01
404.62	420.58
404.999	405.22
405.377	428.72
405.755	412.67
406.133	413.8
406.511	428.72
406.889	440.92
407.267	423.52
407.645	434.82
408.023	431.66
408.401	436.63
408.779	435.27
409.156	432.56
409.534	457.42
409.912	447.47
410.29	444.54
410.667	434.82
411.045	468.26
411.422	452.22
411.8	460.13
412.178	472.56
412.555	474.14
412.933	460.36
413.31	450.41
413.687	474.14
414.065	478.66
414.442	485.67
414.819	475.72
415.197	473.69
415.574	499
415.951	485.44
416.328	496.29
416.705	516.85
417.082	488.38
417.46	478.89
417.837	510.52
418.214	501.94
418.591	517.98
418.967	506.91
419.344	545.32
419.721	536.74
420.098	532.67
420.475	518.88
420.852	541.93
421.228	545.1
421.605	519.56
421.982	550.3
422.358	559.56
422.735	547.13
423.111	541.93
423.488	541.26
423.864	561.37
424.241	559.11
424.617	565.21
424.994	584.87
425.37	587.58
425.746	567.24
426.123	568.83
426.499	593.23
426.875	579.45
427.251	609.05
427.627	605.89
428.003	614.7
428.379	607.24
428.756	619.67
429.132	617.87
429.507	626
429.883	622.38
430.259	625.1
430.635	640.24
431.011	614.02
431.387	661.25
431.763	664.87
432.138	672.55
432.514	675.49
432.89	669.16
433.265	689.05
433.641	686.34
434.016	663.06
434.392	664.42
434.767	708.26
435.143	701.25
435.518	709.39
435.894	705.32
436.269	711.2
436.644	762.72
437.02	717.75
437.395	722.04
437.77	743.51
438.145	754.13
438.52	761.36
438.895	762.95
439.271	744.87
439.646	759.1
440.021	801.36
440.395	790.06
440.77	760.23
441.145	768.37
441.52	817.63
441.895	802.94
442.27	794.13
442.645	783.28
443.019	804.98
443.394	792.32
443.769	812.66
444.143	807.24
444.518	804.75
444.892	821.02
445.267	812.66
445.641	833.23
446.016	856.5
446.39	838.42
446.764	860.34
447.139	830.97
447.513	865.99
447.887	870.74
448.262	858.08
448.636	858.99
449.01	873.23
449.384	877.52
449.758	917.29
450.132	882.72
450.506	905.99
450.88	892.89
451.254	901.25
451.628	924.98
452.002	919.1
452.376	929.04
452.75	957.29
453.123	974.92
453.497	925.43
453.871	970.17
454.244	964.52
454.618	981.02
454.992	989.61
455.365	971.3
455.739	1032.54
456.112	1007.69
456.486	1010.85
456.859	1057.63
457.232	1059.89
457.606	1047.46
457.979	1052.88
458.352	1072.77
458.725	1076.38
459.099	1109.83
459.472	1104.41
459.845	1108.47
460.218	1111.64
460.591	1129.94
460.964	1134.01
461.337	1169.72
461.71	1158.19
462.083	1186.44
462.456	1190.73
462.829	1197.96
463.201	1220.56
463.574	1191.18
463.947	1234.12
464.32	1276.15
464.692	1251.52
465.065	1261.46
465.438	1279.99
465.81	1291.07
466.183	1293.55
466.555	1345.53
466.928	1325.42
467.3	1339.43
467.672	1358.41
468.045	1371.52
468.417	1402.7
468.789	1391.63
469.161	1380.78
469.534	1421.46
469.906	1441.8
470.278	1456.04
470.65	1472.08
471.022	1473.21
471.394	1510.5
471.766	1514.34
472.138	1540.55
472.51	1571.29
472.882	1578.74
473.253	1609.93
473.625	1601.34
473.997	1641.12
474.369	1658.52
474.74	1658.97
475.112	1698.74
475.484	1751.85
475.855	1750.49
476.227	1793.2
476.598	1779.19
476.97	1799.75
477.341	1823.71
477.713	1852.63
478.084	1897.15
478.455	1930.82
478.827	1924.72
479.198	1965.17
479.569	2001.33
479.94	2031.16
480.311	2062.57
480.682	2105.28
481.053	2058.28
481.424	2126.07
481.795	2175.34
482.166	2206.75
482.537	2234.55
482.908	2254.43
483.279	2272.06
483.65	2308.67
484.021	2369.68
484.391	2373.98
484.762	2401.32
485.133	2400.64
485.503	2435.67
485.874	2512.05
486.244	2507.53
486.615	2573.29
486.985	2563.58
487.356	2623.69
487.726	2680.86
488.097	2669.79
488.467	2706.85
488.837	2774.87
489.207	2786.62
489.578	2810.8
489.948	2853.51
490.318	2867.3
490.688	2881.08
491.058	2903.68
491.428	2951.36
491.798	3006.28
492.168	3059.16
492.538	3050.34
492.908	3096.22
493.278	3107.74
493.648	3128.99
494.017	3156.78
494.387	3159.72
494.757	3217.57
495.126	3272.94
495.496	3220.96
495.866	3261.64
496.235	3302.77
496.605	3288.76
496.974	3353.39
497.344	3378.02
497.713	3378.24
498.082	3411.69
498.452	3421.41
498.821	3492.37
499.19	3463.67
499.559	3519.26
499.928	3527.85
500.298	3556.32
500.667	3612.81
501.036	3578.01
501.405	3580.5
501.774	3613.72
502.143	3653.49
502.512	3647.16
502.88	3662.98
503.249	3737.56
503.618	3748.63
503.987	3769.87
504.356	3800.38
504.724	3828.85
505.093	3813.49
505.462	3853.49
505.83	3855.97
506.199	3904.33
506.567	3930.55
506.936	3935.74
507.304	3938.68
507.672	3970.55
508.041	4029.3
508.409	4033.59
508.777	4047.61
509.145	4101.84
509.514	4091.22
509.882	4108.62
510.25	4140.26
510.618	4180.71
510.986	4217.54
511.354	4230.65
511.722	4252.57
512.09	4307.71
512.458	4303.42
512.826	4322.63
513.193	4345.68
513.561	4382.29
513.929	4385.22
514.297	4417.31
514.664	4469.97
515.032	4471.32
515.4	4500.47
515.767	4522.85
516.135	4514.03
516.502	4542.06
516.869	4566.69
517.237	4652.11
517.604	4625.9
517.972	4674.93
518.339	4715.61
518.706	4743.18
519.073	4730.98
519.44	4768.04
519.808	4838.09
520.175	4825.21
520.542	4881.93
520.909	4890.97
521.276	4909.5
521.643	4974.36
522.009	4950.41
522.376	5003.74
522.743	5067.69
523.11	5092.78
523.477	5165.77
523.843	5146.33
524.21	5175.94
524.577	5265.2
524.943	5285.54
525.31	5292.09
525.676	5351.3
526.043	5353.11
526.409	5382.94
526.776	5441.69
527.142	5512.43
527.508	5488.02
527.874	5600.56
528.241	5551.52
528.607	5567.11
528.973	5650.73
529.339	5647.79
529.705	5673.55
530.071	5719.2
530.437	5747.22
530.803	5782.93
531.169	5814.79
531.535	5773.89
531.901	5842.36
532.267	5853.66
532.632	5941.79
532.998	5925.52
533.364	5966.2
533.73	5942.02
534.095	6064.5
534.461	6076.03
534.826	6062.92
535.192	6130.49
535.557	6179.3
535.923	6141.79
536.288	6174.33
536.653	6233.31
537.019	6247.32
537.384	6252.75
537.749	6333.87
538.114	6322.57
538.479	6351.73
538.845	6371.61
539.21	6291.39
539.575	6403.25
539.94	6392.63
540.305	6499.07
540.67	6532.29
541.034	6541.55
541.399	6566.86
541.764	6542.23
542.129	6585.17
542.494	6556.01
542.858	6666.97
543.223	6670.36
543.587	6699.51
543.952	6712.62
544.316	6756.69
544.681	6755.56
545.045	6765.95
545.41	6868.55
545.774	6815.22
546.138	6892.5
546.503	6903.12
546.867	6821.09
547.231	6965.49
547.595	6981.31
547.959	6975.66
548.324	7050.24
548.688	7038.94
549.052	7063.8
549.416	7130.46
549.779	7065.38
550.143	7108.09
550.507	7173.85
550.871	7210.01
551.235	7222.89
551.599	7268.09
551.962	7265.15
552.326	7326.62
552.689	7403.9
553.053	7339.27
553.417	7424.01
553.78	7453.17
554.143	7514.18
554.507	7520.28
554.87	7501.07
555.234	7548.3
555.597	7502.43
555.96	7589.21
556.323	7648.19
556.686	7647.74
557.05	7786.26
557.413	7748.53
557.776	7744.01
558.139	7798.47
558.502	7818.35
558.865	7819.71
559.228	7907.84
559.59	7933.83
559.953	7908.29
560.316	7991.23
560.679	8028.29
561.041	8013.6
561.404	8062.19
561.767	8153.26
562.129	8131.57
562.492	8200.72
562.854	8220.15
563.217	8234.84
563.579	8252.01
563.941	8348.96
564.304	8336.76
564.666	8381.73
565.028	8407.26
565.39	8428.96
565.753	8442.97
566.115	8527.04
566.477	8583.31
566.839	8557.54
567.201	8575.4
567.563	8609.07
567.925	8675.73
568.287	8709.4
568.648	8651.78
569.01	8818.1
569.372	8833.47
569.734	8877.99
570.095	8866.91
570.457	8932.67
570.819	8891.32
571.18	8935.39
571.542	9008.6
571.903	9046.8
572.265	9019.9
572.626	8986.68
572.987	9088.83
573.349	9126.34
573.71	9175.83
574.071	9199.11
574.432	9254.02
574.794	9336.28
575.155	9233.91
575.516	9248.37
575.877	9282.5
576.238	9265.77
576.599	9348.93
576.96	9295.38
577.32	9437.97
577.681	9401.81
578.042	9344.64
578.403	9374.25
578.763	9421.7
579.124	9533.79
579.485	9508.25
579.845	9496.95
580.206	9479.78
580.566	9488.14
580.927	9503.73
581.287	9586.67
581.648	9517.52
582.008	9586.44
582.368	9588.48
582.728	9564.3
583.089	9549.38
583.449	9610.62
583.809	9599.1
584.169	9607.01
584.529	9612.88
584.889	9619.66
585.249	9643.84
585.609	9585.99
585.969	9590.51
586.329	9648.36
586.688	9629.38
587.048	9635.48
587.408	9626.89
587.768	9679.77
588.127	9643.62
588.487	9622.37
588.846	9674.12
589.206	9633.22
589.565	9669.6
589.925	9680
590.284	9626.22
590.643	9630.51
591.003	9730.17
591.362	9724.74
591.721	9665.54
592.08	9687.46
592.44	9694.01
592.799	9718.19
593.158	9704.18
593.517	9674.35
593.876	9701.47
594.235	9606.78
594.593	9728.81
594.952	9729.49
595.311	9689.72
595.67	9749.83
596.029	9751.86
596.387	9779.88
596.746	9784.63
597.104	9741.47
597.463	9736.72
597.822	9781.69
598.18	9828.02
598.538	9748.47
598.897	9808.81
599.255	9757.74
599.613	9897.62
599.972	9817.17
600.33	9844.06
600.688	9790.51
601.046	9790.73
601.404	9876.83
601.762	9797.06
602.12	9886.32
602.478	9887.68
602.836	9876.15
603.194	9838.41
603.552	9880.9
603.91	9820.34
604.268	9895.81
604.625	9841.8
604.983	9888.81
605.341	9853.33
605.698	9838.87
606.056	9899.43
606.413	9859.88
606.771	9874.8
607.128	9917.06
607.485	9886.55
607.843	9915.7
608.2	9960.22
608.557	9957.51
608.914	9953.66
609.272	9945.98
609.629	9956.83
609.986	10016.04
610.343	9959.77
610.7	10000.44
611.057	9962.03
611.414	9991.4
611.771	9990.73
612.127	10050.61
612.484	10096.03
612.841	10099.2
613.198	10036.6
613.554	10025.53
613.911	10128.12
614.267	10117.28
614.624	10156.15
614.98	10074.11
615.337	10222.36
615.693	10162.02
616.05	10129.03
616.406	10230.49
616.762	10197.05
617.118	10154.79
617.475	10157.5
617.831	10143.72
618.187	10178.74
618.543	10200.44
618.899	10267.33
619.255	10247.67
619.611	10238.86
619.967	10277.5
620.323	10322.02
620.678	10197.95
621.034	10188.91
621.39	10206.54
621.746	10188.91
622.101	10355.46
622.457	10267.55
622.812	10248.35
623.168	10274.11
623.523	10277.5
623.879	10341.9
624.234	10188.91
624.589	10299.87
624.945	10294.67
625.3	10268.23
625.655	10303.26
626.01	10258.97
626.365	10305.97
626.72	10288.57
627.075	10321.56
627.43	10310.94
627.785	10271.4
628.14	10266.88
628.495	10295.8
628.85	10279.76
629.205	10286.76
629.559	10361.11
629.914	10307.55
630.269	10265.75
630.623	10276.37
630.978	10292.41
631.332	10244.5
631.687	10278.4
632.041	10223.94
632.396	10251.06
632.75	10220.32
633.104	10185.98
633.459	10181.46
633.813	10134.68
634.167	10156.15
634.521	10181.46
634.875	10194.56
635.229	10162.25
635.583	10124.28
635.937	10070.95
636.291	10179.65
636.645	10175.13
636.999	10114.79
637.352	10096.03
637.706	10161.12
638.06	10070.72
638.413	10080.22
638.767	10064.85
639.121	10070.95
639.474	9985.3
639.828	10096.49
640.181	10040.44
640.534	10057.16
640.888	10072.76
641.241	9923.61
641.594	9955.47
641.947	10117.05
642.301	10037.5
642.654	10030.05
643.007	10021.46
643.36	10049.03
643.713	9983.04
644.066	9984.4
644.419	9907.56
644.771	9920.9
645.124	9792.99
645.477	9792.99
645.83	9709.6
646.182	9693.11
646.535	9713.45
646.888	9662.6
647.24	9694.91
647.593	9746.89
647.945	9739.43
648.298	9686.33
648.65	9663.05
649.002	9585.76
649.355	9649.72
649.707	9698.53
650.059	9636.16
650.411	9841.8
650.763	9828.47
651.115	9857.85
651.467	9852.65
651.819	9887.9
652.171	9914.12
652.523	9841.13
652.875	9846.55
653.227	9864.63
653.578	9900.33
653.93	9862.59
654.282	9843.16
654.633	9799.77
654.985	9853.55
655.337	9847.23
655.688	9839.54
656.039	9902.82
656.391	9768.36
656.742	9833.22
657.094	9789.83
657.445	9877.28
657.796	9888.58
658.147	9811.07
658.498	9856.94
658.849	9887.68
659.2	9853.55
659.551	9823.05
659.902	9820.34
660.253	9834.35
660.604	9801.35
660.955	9807.68
661.306	9821.92
661.656	9809.94
662.007	9870.05
662.358	9901.24
662.708	9858.07
663.059	9755.48
663.409	9813.33
663.76	9848.58
664.11	9836.61
664.461	9830.5
664.811	9821.01
665.161	9836.38
665.511	9754.8
665.862	9720.68
666.212	9865.31
666.562	9843.61
666.912	9824.63
667.262	9786.66
667.612	9765.87
667.962	9796.38
668.312	9806.55
668.662	9843.16
669.011	9862.82
669.361	9768.13
669.711	9750.96
670.06	9774.23
670.41	9757.96
670.76	9772.88
671.109	9747.57
671.459	9752.77
671.808	9705.54
672.157	9778.08
672.507	9719.77
672.856	9738.08
673.205	9685.2
673.554	9746.44
673.904	9737.85
674.253	9828.47
674.602	9702.6
674.951	9529.95
675.3	9551.19
675.649	9674.35
675.998	9671.41
676.346	9628.93
676.695	9683.16
677.044	9611.3
677.393	9605.88
677.741	9687.23
678.09	9649.04
678.438	9597.97
678.787	9616.27
679.135	9631.41
679.484	9569.72
679.832	9592.09
680.181	9557.97
680.529	9492.89
680.877	9543.28
681.225	9470.74
681.573	9554.13
681.922	9537.18
682.27	9388.03
682.618	9468.48
682.966	9431.19
683.314	9432.55
683.661	9398.43
684.009	9415.15
684.357	9328.14
684.705	9388.93
685.053	9383.96
685.4	9285.43
685.748	9287.47
686.095	9320.46
686.443	9280.01
686.79	9206.34
687.138	9274.36
687.485	9214.25
687.832	9165.89
688.18	9235.27
688.527	9057.64
688.874	9142.16
689.221	9111.2
689.568	9081.82
689.915	9130.86
690.262	9109.39
690.609	9000.92
690.956	9040.69
691.303	8967.7
691.65	8967.48
691.997	8914.82
692.344	8935.16
692.69	8867.37
693.037	8948.49
693.383	8835.05
693.73	8827.37
694.077	8823.07
694.423	8760.48
694.769	8663.53
695.116	8758.22
695.462	8732.45
695.808	8687.71
696.155	8664.66
696.501	8600.03
696.847	8569.75
697.193	8556.19
697.539	8535.62
697.885	8500.82
698.231	8475.96
698.577	8473.93
698.923	8445.91
699.269	8381.05
699.614	8359.13
699.96	8328.17
700.306	8303.09
700.651	8275.97
700.997	8281.39
701.342	8277.32
701.688	8279.58
702.033	8221.51
702.379	8184.22
702.724	8205.91
703.069	8190.77
703.415	8128.63
703.76	8117.1
704.105	8093.15
704.45	8120.27
704.795	7980.16
705.14	7965.02
705.485	8008.41
705.83	7920.27
706.175	7941.97
706.52	7957.33
706.865	7872.59
707.209	7898.8
707.554	7824
707.899	7894.51
708.243	7830.1
708.588	7800.5
708.932	7753.27
709.277	7762.76
709.621	7748.98
709.966	7703.1
710.31	7755.08
710.654	7675.98
710.998	7655.19
711.342	7699.26
711.687	7635.76
712.031	7610.22
712.375	7531.36
712.719	7614.74
713.063	7526.16
713.407	7612.94
713.75	7497.01
714.094	7523.22
714.438	7500.85
714.782	7503.56
715.125	7450
715.469	7491.36
715.812	7478.93
716.156	7493.39
716.499	7466.95
716.843	7444.58
717.186	7435.99
717.53	7425.14
717.873	7452.71
718.216	7386.5
718.559	7374.07
718.902	7371.13
719.246	7369.1
719.589	7356.67
719.932	7353.96
720.275	7353.96
720.617	7272.38
720.96	7333.17
721.303	7335.88
721.646	7385.6
721.989	7252.94
722.331	7362.55
722.674	7288.2
723.016	7289.1
723.359	7307.86
723.701	7287.75
724.044	7277.35
724.386	7299.5
724.729	7295.88
725.071	7283
725.413	7260.18
725.755	7247.75
726.097	7243.91
726.439	7264.47
726.782	7165.04
727.124	7203.91
727.465	7285.03
727.807	7195.77
728.149	7184.02
728.491	7191.93
728.833	7266.05
729.175	7168.65
729.516	7200.74
729.858	7210.91
730.199	7157.81
730.541	7173.4
730.882	7125.04
731.224	7165.26
731.565	7161.65
731.906	7165.04
732.248	7267.86
732.589	7143.8
732.93	7131.82
733.271	7147.41
733.612	7168.65
733.953	7164.59
734.294	7138.6
734.635	7139.28
734.976	7107.19
735.317	7116.9
735.658	7136.34
735.999	7150.35
736.339	7111.25
736.68	7140.86
737.021	7189.44
737.361	7115.55
737.702	7165.72
738.042	7126.62
738.383	7099.73
738.723	7156.9
739.063	7168.88
739.404	7170.91
739.744	7172.5
740.084	7142.44
740.424	7179.5
740.764	7127.07
741.104	7167.07
741.444	7096.34
741.784	7108.09
742.124	7116.9
742.464	7110.12
742.804	7073.97
743.143	7149.67
743.483	7111.25
743.823	6996.45
744.162	7077.13
744.502	7105.83
744.841	7026.28
745.181	7092.95
745.52	7091.59
745.86	7071.71
746.199	7104.93
746.538	7101.76
746.877	7104.47
747.216	7087.3
747.556	7094.08
747.895	7070.8
748.234	7066.06
748.573	7064.25
748.911	7048.2
749.25	7105.6
749.589	7045.04
749.928	7050.69
750.267	7035.78
750.605	7035.78
750.944	7077.81
751.283	7043.91
751.621	7083.68
751.96	7019.28
752.298	7005.27
752.636	7050.01
752.975	7039.84
753.313	6961.65
753.651	6977.02
753.989	6887.53
754.327	6911.03
754.666	6924.37
755.004	6941.99
755.342	6916.91
755.679	6914.42
756.017	6797.82
756.355	6923.91
756.693	6863.12
757.031	6891.6
757.368	6827.87
757.706	6869.45
758.044	6815.22
758.381	6850.7
758.719	6785.61
759.056	6835.33
759.394	6782.67
759.731	6750.13
760.068	6732.51
760.405	6765.05
760.743	6709
761.08	6698.61
761.417	6694.32
761.754	6687.99
762.091	6662
762.428	6663.36
762.765	6584.04
763.102	6637.82
763.438	6594.43
763.775	6598.27
764.112	6567.54
764.449	6610.48
764.785	6530.93
765.122	6497.26
765.458	6443.02
765.795	6534.55
766.131	6492.96
766.467	6519.18
766.804	6412.52
767.14	6373.65
767.476	6376.36
767.812	6388.33
768.148	6363.02
768.485	6353.08
768.821	6288.22
