Data from mousepad_grey_FLMS001491_00083.txt Node
Date: Wed Feb 08 14:30:02 GMT 2017
User: dcchb
Spectrometer: FLMS00149
Trigger mode: 0
Integration Time (sec): 2.000000E-2
Scans to average: 10
Electric dark correction enabled: true
Nonlinearity correction enabled: false
Boxcar width: 0
XAxis mode: Wavelengths
Number of Pixels in Spectrum: 2048
>>>>>Begin Spectral Data<<<<<
341.393	-2.27
341.776	-2.27
342.16	-2.27
342.543	-68.49
342.927	-59
343.31	-66.45
343.693	-65.78
344.077	-56.96
344.46	-64.65
344.843	-34.82
345.226	-24.19
345.61	-44.31
345.993	-22.84
346.376	-3.18
346.759	17.84
347.142	14.67
347.525	25.52
347.908	51.51
348.291	81.79
348.674	91.06
349.057	100.77
349.44	132.41
349.823	142.81
350.206	154.78
350.588	186.65
350.971	203.6
351.354	195.01
351.737	212.41
352.119	252.18
352.502	248.34
352.884	260.77
353.267	274.1
353.65	271.39
354.032	302.35
354.414	297.15
354.797	310.71
355.179	286.76
355.562	311.84
355.944	308
356.326	304.84
356.709	330.6
357.091	304.61
357.473	341.22
357.855	309.13
358.238	307.55
358.62	336.02
359.002	325.4
359.384	340.54
359.766	327.21
360.148	320.88
360.53	317.94
360.912	292.41
361.294	330.37
361.676	330.6
362.057	311.39
362.439	312.75
362.821	315.01
363.203	332.63
363.584	303.48
363.966	312.52
364.348	319.98
364.729	300.09
365.111	303.93
365.493	285.85
365.874	314.33
366.256	296.7
366.637	288.57
367.019	311.16
367.4	305.06
367.781	296.02
368.163	284.95
368.544	296.02
368.925	305.06
369.306	297.38
369.688	276.59
370.069	283.82
370.45	296.93
370.831	304.61
371.212	307.1
371.593	314.55
371.974	302.12
372.355	300.77
372.736	319.53
373.117	294.44
373.498	275.23
373.879	307.1
374.26	299.86
374.641	305.06
375.021	288.34
375.402	305.51
375.783	338.28
376.163	306.64
376.544	310.49
376.925	300.09
377.305	322.69
377.686	318.85
378.066	317.27
378.447	319.98
378.827	335.8
379.208	310.94
379.588	311.16
379.968	319.07
380.349	336.93
380.729	300.09
381.109	333.99
381.489	330.82
381.87	309.81
382.25	355.91
382.63	327.21
383.01	340.77
383.39	336.02
383.77	325.18
384.15	329.69
384.53	318.85
384.91	342.12
385.29	325.18
385.67	339.64
386.049	347.32
386.429	352.97
386.809	338.96
387.189	322.01
387.568	318.17
387.948	330.6
388.328	347.1
388.707	352.29
389.087	355.46
389.466	343.03
389.846	331.95
390.225	348.68
390.605	331.05
390.984	365.63
391.363	343.71
391.743	350.26
392.122	336.47
392.501	331.95
392.881	350.26
393.26	357.26
393.639	359.3
394.018	376.93
394.397	351.39
394.776	355.91
395.155	369.92
395.534	386.42
395.913	373.31
396.292	379.86
396.671	373.08
397.05	360.88
397.429	390.03
397.808	378.28
398.186	357.04
398.565	388.22
398.944	387.09
399.323	376.7
399.701	379.18
400.08	391.61
400.458	404.72
400.837	383.25
401.215	403.59
401.594	390.94
401.972	395.68
402.351	389.58
402.729	387.32
403.107	394.78
403.486	403.82
403.864	399.75
404.242	431.84
404.62	398.62
404.999	411.5
405.377	420.09
405.755	420.99
406.133	421.44
406.511	427.32
406.889	428.45
407.267	427.32
407.645	431.39
408.023	418.51
408.401	454.21
408.779	451.05
409.156	440.2
409.534	459.86
409.912	449.92
410.29	448.11
410.667	458.73
411.045	473.19
411.422	441.56
411.8	449.92
412.178	448.56
412.555	473.65
412.933	474.78
413.31	465.51
413.687	482.23
414.065	496.92
414.442	476.81
414.819	482.69
415.197	505.96
415.574	481.33
415.951	503.48
416.328	497.15
416.705	492.4
417.082	503.25
417.46	520.65
417.837	489.69
418.214	527.2
418.591	525.85
418.967	528.56
419.344	532.63
419.721	530.37
420.098	514.55
420.475	524.49
420.852	539.18
421.228	519.29
421.605	541.67
421.982	578.5
422.358	548.22
422.735	538.28
423.111	555.45
423.488	558.62
423.864	566.3
424.241	564.49
424.617	573.3
424.994	548.9
425.37	576.92
425.746	593.42
426.123	597.03
426.499	568.11
426.875	585.06
427.251	594.32
427.627	592.96
428.003	612.85
428.379	611.04
428.756	625.51
429.132	622.57
429.507	620.31
429.883	640.42
430.259	635.9
430.635	632.29
431.011	631.16
431.387	678.39
431.763	661.21
432.138	664.38
432.514	684.26
432.89	657.82
433.265	677.71
433.641	710.25
434.016	684.94
434.392	668.67
434.767	711.15
435.143	702.57
435.518	726.75
435.894	743.02
436.269	725.62
436.644	710.48
437.02	757.48
437.395	703.02
437.77	761.32
438.145	750.7
438.52	764.03
438.895	773.98
439.271	755.9
439.646	790.02
440.021	772.85
440.395	786.18
440.77	786.86
441.145	808.78
441.52	791.6
441.895	824.6
442.27	802.68
442.645	795.9
443.019	831.15
443.394	839.29
443.769	835.9
444.143	831.38
444.518	842.45
444.892	827.99
445.267	828.89
445.641	852.39
446.016	844.03
446.39	837.03
446.764	845.16
447.139	841.09
447.513	859.4
447.887	851.26
448.262	861.21
448.636	860.53
449.01	897.59
449.384	862.11
449.758	922.45
450.132	897.82
450.506	920.41
450.88	899.62
451.254	910.02
451.628	935.1
452.002	927.65
452.376	938.94
452.75	961.77
453.123	945.72
453.497	971.94
453.871	939.17
454.244	993.63
454.618	997.93
454.992	1011.03
455.365	988.66
455.739	1047.42
456.112	1005.84
456.486	1035.66
456.859	1054.2
457.232	1066.4
457.606	1061.2
457.979	1047.64
458.352	1058.72
458.725	1064.36
459.099	1089.9
459.472	1103.23
459.845	1097.13
460.218	1117.24
460.591	1140.29
460.964	1149.33
461.337	1157.02
461.71	1159.28
462.083	1185.04
462.456	1194.98
462.829	1189.33
463.201	1208.09
463.574	1219.39
463.947	1233.17
464.32	1250.35
464.692	1270.01
465.065	1246.51
465.438	1280.4
465.81	1283.79
466.183	1275.66
466.555	1359.5
466.928	1346.39
467.3	1328.99
467.672	1375.99
468.045	1389.55
468.417	1380.97
468.789	1400.63
469.161	1379.61
469.534	1429.1
469.906	1444.02
470.278	1476.11
470.65	1472.49
471.022	1484.92
471.394	1527.18
471.766	1528.08
472.138	1566.5
472.51	1581.64
472.882	1601.3
473.253	1607.85
473.625	1630.9
473.997	1673.84
474.369	1662.54
474.74	1650.56
475.112	1697.34
475.484	1719.71
475.855	1744.8
476.227	1754.74
476.598	1822.76
476.97	1820.73
477.341	1860.73
477.713	1894.4
478.084	1882.42
478.455	1955.41
478.827	1958.35
479.198	2007.84
479.569	1994.06
479.94	2038.8
480.311	2056.65
480.682	2095.07
481.053	2159.93
481.424	2163.77
481.795	2161.74
482.166	2174.17
482.537	2245.35
482.908	2284.9
483.279	2284.22
483.65	2305.69
484.021	2376.65
484.391	2402.63
484.762	2385.01
485.133	2427.94
485.503	2468.85
485.874	2485.57
486.244	2509.07
486.615	2547.94
486.985	2608.96
487.356	2672.68
487.726	2640.14
488.097	2690.54
488.467	2763.3
488.837	2776.18
489.207	2802.17
489.578	2799.91
489.948	2858.44
490.318	2875.62
490.688	2854.37
491.058	2922.62
491.428	2948.38
491.798	2995.84
492.168	3051.66
492.538	3063.86
492.908	3047.82
493.278	3084.88
493.648	3117.87
494.017	3162.61
494.387	3193.8
494.757	3216.62
495.126	3244.65
495.496	3259.56
495.866	3279
496.235	3311.31
496.605	3352.89
496.974	3317.41
497.344	3433.57
497.713	3431.31
498.082	3396.51
498.452	3437.86
498.821	3435.6
499.19	3496.84
499.559	3512.21
499.928	3530.29
500.298	3554.02
500.667	3596.5
501.036	3575.03
501.405	3655.71
501.774	3634.01
502.143	3623.85
502.512	3663.62
502.88	3715.37
503.249	3742.94
503.618	3731.19
503.987	3796.5
504.356	3768.7
504.724	3818.87
505.093	3816.83
505.462	3843.73
505.83	3863.61
506.199	3904.97
506.567	3913.33
506.936	3937.28
507.304	3984.06
507.672	4028.13
508.041	4028.13
508.409	4040.78
508.777	4067
509.145	4101.57
509.514	4117.39
509.882	4132.76
510.25	4111.97
510.618	4167.79
510.986	4196.03
511.354	4191.74
511.722	4269.48
512.09	4283.04
512.458	4251.17
512.826	4320.78
513.193	4370.94
513.561	4355.58
513.929	4384.05
514.297	4468.12
514.664	4458.17
515.032	4460.43
515.4	4522.8
515.767	4562.13
516.135	4577.94
516.502	4551.5
516.869	4618.62
517.237	4649.13
517.604	4639.64
517.972	4669.47
518.339	4720.31
518.706	4735.45
519.073	4724.38
519.44	4778.39
519.808	4838.73
520.175	4779.75
520.542	4885.06
520.909	4910.82
521.276	4884.6
521.643	4911.5
522.009	5012.28
522.376	5035.33
522.743	5003.24
523.11	5089.57
523.477	5109.46
523.843	5151.04
524.21	5185.84
524.577	5278.27
524.943	5273.07
525.31	5290.02
525.676	5349.9
526.043	5364.14
526.409	5413.85
526.776	5483.68
527.142	5452.27
527.508	5506.06
527.874	5558.48
528.241	5557.13
528.607	5600.74
528.973	5651.59
529.339	5617.01
529.705	5700.85
530.071	5705.82
530.437	5758.25
530.803	5769.33
531.169	5852.94
531.535	5853.84
531.901	5901.75
532.267	5899.49
532.632	5911.92
532.998	5955.08
533.364	5993.27
533.73	6064.69
534.095	6066.49
534.461	6083.44
534.826	6071.69
535.192	6102.88
535.557	6189.2
535.923	6203.89
536.288	6183.33
536.653	6227.84
537.019	6210.9
537.384	6284.34
537.749	6328.63
538.114	6342.87
538.479	6388.29
538.845	6377.9
539.21	6366.6
539.575	6407.73
539.94	6400.72
540.305	6487.95
540.67	6484.56
541.034	6539.02
541.399	6577.67
541.764	6584.67
542.129	6639.13
542.494	6568.17
542.858	6675.29
543.223	6671.22
543.587	6711.67
543.952	6739.02
544.316	6742.86
544.681	6715.97
545.045	6849.3
545.41	6820.37
545.774	6872.57
546.138	6915.51
546.503	6875.29
546.867	6886.13
547.231	6971.33
547.595	7002.29
547.959	7007.49
548.324	6981.27
548.688	7049.74
549.052	7079.57
549.416	7107.82
549.779	7081.16
550.143	7125
550.507	7263.07
550.871	7241.15
551.235	7202.51
551.599	7310.75
551.962	7296.52
552.326	7302.62
552.689	7361.83
553.053	7409.96
553.417	7413.35
553.78	7470.3
554.143	7502.39
554.507	7461.71
554.87	7531.09
555.234	7586.91
555.597	7508.49
555.96	7582.39
556.323	7569.5
556.686	7702.38
557.05	7727.01
557.413	7729.95
557.776	7771.76
558.139	7763.62
558.502	7835.03
558.865	7833.9
559.228	7908.7
559.59	7920.46
559.953	7917.29
560.316	8027.57
560.679	8010.17
561.041	8045.88
561.404	8081.13
561.767	8131.3
562.129	8132.88
562.492	8203.16
562.854	8220.56
563.217	8162.03
563.579	8257.62
563.941	8316.38
564.304	8326.77
564.666	8380.78
565.028	8418.75
565.39	8449.93
565.753	8514.79
566.115	8493.32
566.477	8563.15
566.839	8559.08
567.201	8606.31
567.563	8714.33
567.925	8718.63
568.287	8689.02
568.648	8750.72
569.01	8732.19
569.372	8872.75
569.734	8773.09
570.095	8893.99
570.457	8935.34
570.819	8915.68
571.18	8939.64
571.542	8986.64
571.903	9002.24
572.265	9045.4
572.626	9081.1
572.987	9061.67
573.349	9071.61
573.71	9145.73
574.071	9207.43
574.432	9147.54
574.794	9274.32
575.155	9302.79
575.516	9266.41
575.877	9237.26
576.238	9294.66
576.599	9340.98
576.96	9369.23
577.32	9325.62
577.681	9479.74
578.042	9414.43
578.403	9406.97
578.763	9441.77
579.124	9458.27
579.485	9510.02
579.845	9495.1
580.206	9473.64
580.566	9504.37
580.927	9508.66
581.287	9570.36
581.648	9532.84
582.008	9581.43
582.368	9478.61
582.728	9559.28
583.089	9570.81
583.449	9563.58
583.809	9558.6
584.169	9655.33
584.529	9560.41
584.889	9701.43
585.249	9647.42
585.609	9585.27
585.969	9699.17
586.329	9665.72
586.688	9614.2
587.048	9672.05
587.408	9602.9
587.768	9650.81
588.127	9592.5
588.487	9652.84
588.846	9691.48
589.206	9632.73
589.565	9636.34
589.925	9694.65
590.284	9672.5
590.643	9685.38
591.003	9697.58
591.362	9761.09
591.721	9669.11
592.08	9705.95
592.44	9728.54
592.799	9693.74
593.158	9721.09
593.517	9671.14
593.876	9719.96
594.235	9747.3
594.593	9653.07
594.952	9718.15
595.311	9644.48
595.67	9700.97
596.029	9728.54
596.387	9792.5
596.746	9789.56
597.104	9747.98
597.463	9732.39
597.822	9774.64
598.18	9721.31
598.538	9792.95
598.897	9784.36
599.255	9705.49
599.613	9828.43
599.972	9813.29
600.33	9760.18
600.688	9796.11
601.046	9801.99
601.404	9803.12
601.762	9762.44
602.12	9859.61
602.478	9842.44
602.836	9779.16
603.194	9834.53
603.552	9848.77
603.91	9800.86
604.268	9768.99
604.625	9827.07
604.983	9907.97
605.341	9868.2
605.698	9934.19
606.056	9884.02
606.413	9914.75
606.771	9896.9
607.128	9934.19
607.485	9952.94
607.843	9916.11
608.2	9960.4
608.557	9940.29
608.914	9957.69
609.272	10002.89
609.629	10034.3
609.986	10036.56
610.343	9999.27
610.7	9951.81
611.057	9976.45
611.414	10005.6
611.771	10006.5
612.127	10042.21
612.484	10010.12
612.841	10047.18
613.198	10029.78
613.554	10138.48
613.911	10140.28
614.267	10134.86
614.624	10129.66
614.98	10131.7
615.337	10230.45
615.693	10079.49
616.05	10111.36
616.406	10161.07
616.762	10117.69
617.118	10178.25
617.475	10193.16
617.831	10201.53
618.187	10217.12
618.543	10250.34
618.899	10264.57
619.255	10228.42
619.611	10183.67
619.967	10264.35
620.323	10303.9
620.678	10232.03
621.034	10254.41
621.39	10229.77
621.746	10237.46
622.101	10347.06
622.457	10257.57
622.812	10273.16
623.168	10252.15
623.523	10260.51
623.879	10305.25
624.234	10242.65
624.589	10275.2
624.945	10302.09
625.3	10351.35
625.655	10331.24
626.01	10256.44
626.365	10285.14
626.72	10276.1
627.075	10287.62
627.43	10232.71
627.785	10280.17
628.14	10239.26
628.495	10338.7
628.85	10248.3
629.205	10270.9
629.559	10312.94
629.914	10284.46
630.269	10248.08
630.623	10256.44
630.978	10299.83
631.332	10276.55
631.687	10302.09
632.041	10252.37
632.396	10244.01
632.75	10149.78
633.104	10240.85
633.459	10187.74
633.813	10201.3
634.167	10141.41
634.521	10157.91
634.875	10191.36
635.229	10132.6
635.583	10138.93
635.937	10136.67
636.291	10037.01
636.645	10107.97
636.999	10083.79
637.352	10159.27
637.706	10087.4
638.06	10088.99
638.413	10011.02
638.767	10086.5
639.121	10002.43
639.474	10046.28
639.828	10016.45
640.181	10062.09
640.534	9998.82
640.888	10017.12
641.241	9992.72
641.594	10050.8
641.947	10027.74
642.301	10009.67
642.654	10078.82
643.007	10020.74
643.36	9939.61
643.713	9976.22
644.066	9956.56
644.419	9954.3
644.771	9837.02
645.124	9857.13
645.477	9811.03
645.83	9727.41
646.182	9693.74
646.535	9673.4
646.888	9715.66
647.24	9674.76
647.593	9766.51
647.945	9703.69
648.298	9649.45
648.65	9667.75
649.002	9639.28
649.355	9669.79
649.707	9659.17
650.059	9663.23
650.411	9752.5
650.763	9779.84
651.115	9938.26
651.467	9918.37
651.819	9872.72
652.171	9897.35
652.523	9919.73
652.875	9858.26
653.227	9891.7
653.578	9910.91
653.93	9883.34
654.282	9811.93
654.633	9820.74
654.985	9877.69
655.337	9881.31
655.688	9811.48
656.039	9852.38
656.391	9859.84
656.742	9780.29
657.094	9829.33
657.445	9836.11
657.796	9850.12
658.147	9859.61
658.498	9823.46
658.849	9870.23
659.2	9815.32
659.551	9799.28
659.902	9863.46
660.253	9845.15
660.604	9879.5
660.955	9840.86
661.306	9851.7
661.656	9837.69
662.007	9819.61
662.358	9833.63
662.708	9854.42
663.059	9811.93
663.409	9794.3
663.76	9830.24
664.11	9937.13
664.461	9811.25
664.811	9878.14
665.161	9812.84
665.511	9800.63
665.862	9859.16
666.212	9814.42
666.562	9831.37
666.912	9770.58
667.262	9835.89
667.612	9823.91
667.962	9850.57
668.312	9826.39
668.662	9877.69
669.011	9743.68
669.361	9755.89
669.711	9810.8
670.06	9759.28
670.41	9754.31
670.76	9771.93
671.109	9755.21
671.459	9800.63
671.808	9708.21
672.157	9726.96
672.507	9702.33
672.856	9699.17
673.205	9670.92
673.554	9729.45
673.904	9717.47
674.253	9751.59
674.602	9658.94
674.951	9600.41
675.3	9536.68
675.649	9727.19
675.998	9652.61
676.346	9719.96
676.695	9689
677.044	9666.62
677.393	9629.11
677.741	9656.91
678.09	9611.26
678.438	9624.59
678.787	9645.83
679.135	9698.94
679.484	9562.67
679.832	9601.32
680.181	9532.16
680.529	9593.86
680.877	9557.7
681.225	9519.74
681.573	9599.96
681.922	9482
682.27	9458.72
682.618	9472.28
682.966	9472.51
683.314	9427.08
683.661	9409.23
684.009	9320.19
684.357	9407.87
684.705	9307.76
685.053	9404.03
685.4	9353.41
685.748	9317.48
686.095	9274.32
686.443	9268.67
686.79	9222.34
687.138	9215.56
687.485	9215.79
687.832	9194.77
688.18	9197.03
688.527	9101.44
688.874	9091.05
689.221	9130.37
689.568	9162.46
689.915	9104.38
690.262	9075.23
690.609	9073.19
690.956	8967.89
691.303	8916.14
691.65	8913.2
691.997	8992.07
692.344	8904.84
692.69	8931.95
693.037	8919.3
693.383	8824.39
693.73	8838.62
694.077	8754.78
694.423	8767.89
694.769	8704.84
695.116	8703.03
695.462	8739.19
695.808	8685.86
696.155	8631.17
696.501	8605.64
696.847	8668.91
697.193	8534.45
697.539	8556.37
697.885	8485.19
698.231	8508.46
698.577	8462.14
698.923	8459.42
699.269	8428.24
699.614	8420.78
699.96	8306.66
700.306	8358.41
700.651	8283.16
700.997	8269.6
701.342	8297.85
701.688	8295.36
702.033	8316.6
702.379	8243.38
702.724	8147.79
703.069	8170.84
703.415	8126.33
703.76	8091.98
704.105	8105.31
704.45	8095.82
704.795	8038.64
705.14	8015.14
705.485	7966.1
705.83	7991.41
706.175	7975.6
706.52	7931.08
706.865	7888.37
707.209	7859.44
707.554	7872.32
707.899	7864.41
708.243	7778.99
708.588	7856.05
708.932	7741.7
709.277	7753
709.621	7763.4
709.966	7690.86
710.31	7750.97
710.654	7625.77
710.998	7678.43
711.342	7679.11
711.687	7648.15
712.031	7615.38
712.375	7597.98
712.719	7555.72
713.063	7573.57
713.407	7630.75
713.75	7568.37
714.094	7523.18
714.438	7472.78
714.782	7570.41
715.125	7408.15
715.469	7607.02
715.812	7477.3
716.156	7475.95
716.499	7489.73
716.843	7498.32
717.186	7368.38
717.53	7447.25
717.873	7510.52
718.216	7466.23
718.559	7377.19
718.902	7286.57
719.246	7383.52
719.589	7389.85
719.932	7357.31
720.275	7347.36
720.617	7392.11
720.96	7362.73
721.303	7413.12
721.646	7356.85
721.989	7310.3
722.331	7395.72
722.674	7307.14
723.016	7315.5
723.359	7300.13
723.701	7352.11
724.044	7256.52
724.386	7247.03
724.729	7291.55
725.071	7261.26
725.413	7303.3
725.755	7259.68
726.097	7209.74
726.439	7181.04
726.782	7233.24
727.124	7261.72
727.465	7214.94
727.807	7245.9
728.149	7194.82
728.491	7209.29
728.833	7204.09
729.175	7173.13
729.516	7208.38
729.858	7200.47
730.199	7194.82
730.541	7202.73
730.882	7195.95
731.224	7148.95
731.565	7180.14
731.906	7141.72
732.248	7164.54
732.589	7093.81
732.93	7106.92
733.271	7171.55
733.612	7152.79
733.953	7209.51
734.294	7117.31
734.635	7122.51
734.976	7131.1
735.317	7148.72
735.658	7101.27
735.999	7172
736.339	7126.35
736.68	7194.37
737.021	7148.72
737.361	7146.92
737.702	7162.74
738.042	7104.21
738.383	7121.15
738.723	7161.61
739.063	7169.51
739.404	7201.6
739.744	7123.19
740.084	7153.7
740.424	7186.24
740.764	7108.27
741.104	7128.61
741.444	7099.01
741.784	7105.34
742.124	7104.43
742.464	7120.93
742.804	7106.92
743.143	7072.79
743.483	7106.47
743.823	7035.51
744.162	7024.89
744.502	7092
744.841	7063.53
745.181	7086.81
745.52	7055.39
745.86	7089.97
746.199	7113.25
746.538	7091.55
746.877	7077.77
747.216	7094.04
747.556	7037.54
747.895	7069.63
748.234	7072.34
748.573	7002.06
748.911	7118.44
749.25	7029.63
749.589	7038.67
749.928	7073.92
750.267	7071.66
750.605	7016.75
750.944	7047.94
751.283	7054.72
751.621	7007.26
751.96	6962.51
752.298	7005
752.636	7034.38
752.975	6970.65
753.313	6953.7
753.651	6989.41
753.989	6960.71
754.327	6948.96
754.666	6986.69
755.004	6943.76
755.342	6919.58
755.679	6950.76
756.017	6923.42
756.355	6991.44
756.693	6896.3
757.031	6883.42
757.368	6832.12
757.706	6848.62
758.044	6820.37
758.381	6847.04
758.719	6819.92
759.056	6793.93
759.394	6759.13
759.731	6758.23
760.068	6767.72
760.405	6709.87
760.743	6725.91
761.08	6744.44
761.417	6709.41
761.754	6666.25
762.091	6666.03
762.428	6639.13
762.765	6594.16
763.102	6617.44
763.438	6625.8
763.775	6550.32
764.112	6606.14
764.449	6619.25
764.785	6566.37
765.122	6475.07
765.458	6480.04
765.795	6496.09
766.131	6516.65
766.467	6453.38
766.804	6421.29
767.14	6438.46
767.476	6407.95
767.812	6347.39
768.148	6319.14
768.485	6385.58
768.821	6287.73
769.157	6266.94
