Data from mousepad_grey_FLMS001491_00067.txt Node
Date: Wed Feb 08 14:29:46 GMT 2017
User: dcchb
Spectrometer: FLMS00149
Trigger mode: 0
Integration Time (sec): 2.000000E-2
Scans to average: 10
Electric dark correction enabled: true
Nonlinearity correction enabled: false
Boxcar width: 0
XAxis mode: Wavelengths
Number of Pixels in Spectrum: 2048
>>>>>Begin Spectral Data<<<<<
341.393	-17.71
341.776	-17.71
342.16	-17.71
342.543	-59.52
342.927	-69.91
343.31	-66.07
343.693	-66.98
344.077	-66.98
344.46	-41.21
344.843	-54.55
345.226	-37.6
345.61	-17.49
345.993	-23.13
346.376	5.34
346.759	13.02
347.142	24.77
347.525	34.94
347.908	62.74
348.291	56.64
348.674	70.42
349.057	106.13
349.44	143.41
349.823	143.64
350.206	160.81
350.588	199.91
350.971	171.89
351.354	204.43
351.737	231.55
352.119	223.86
352.502	266.8
352.884	270.19
353.267	273.13
353.65	278.78
354.032	298.89
354.414	306.12
354.797	311.77
355.179	312
355.562	324.88
355.944	296.63
356.326	327.14
356.709	310.64
357.091	335.5
357.473	313.58
357.855	329.4
358.238	333.47
358.62	333.92
359.002	340.25
359.384	328.72
359.766	309.74
360.148	316.29
360.53	321.71
360.912	339.79
361.294	326.91
361.676	322.17
362.057	309.29
362.439	310.64
362.821	313.58
363.203	327.59
363.584	304.99
363.966	309.29
364.348	304.77
364.729	310.64
365.111	322.39
365.493	298.66
365.874	300.02
366.256	303.86
366.637	286.69
367.019	280.13
367.4	309.96
367.781	296.18
368.163	298.89
368.544	309.51
368.925	297.08
369.306	315.61
369.688	283.52
370.069	299.57
370.45	285.33
370.831	304.99
371.212	295.5
371.593	311.09
371.974	301.6
372.355	293.01
372.736	319.23
373.117	311.09
373.498	298.66
373.879	305.67
374.26	298.44
374.641	295.95
375.021	293.92
375.402	297.76
375.783	300.7
376.163	319.45
376.544	313.35
376.925	307.25
377.305	337.08
377.686	294.14
378.066	304.77
378.447	314.26
378.827	304.99
379.208	342.73
379.588	342.05
379.968	323.97
380.349	320.58
380.729	318.32
381.109	312.68
381.489	329.85
381.87	328.72
382.25	305.44
382.63	320.36
383.01	356.97
383.39	322.62
383.77	321.94
384.15	343.18
384.53	339.57
384.91	344.99
385.29	334.6
385.67	339.34
386.049	337.31
386.429	332.79
386.809	349.96
387.189	343.86
387.568	351.09
387.948	357.19
388.328	342.05
388.707	331.21
389.087	355.39
389.466	346.57
389.846	350.87
390.225	349.74
390.605	344.31
390.984	339.34
391.363	357.19
391.743	356.52
392.122	347.7
392.501	367.14
392.881	353.13
393.26	369.62
393.639	349.28
394.018	363.52
394.397	376.4
394.776	364.2
395.155	354.03
395.534	369.85
395.913	366.23
396.292	382.73
396.671	389.96
397.05	381.83
397.429	356.97
397.808	379.11
398.186	389.28
398.565	376.18
398.944	388.15
399.323	391.09
399.701	384.31
400.08	378.66
400.458	372.56
400.837	391.77
401.215	388.83
401.594	402.39
401.972	382.05
402.351	414.82
402.729	388.15
403.107	422.05
403.486	412.56
403.864	422.28
404.242	413.24
404.62	436.74
404.999	402.39
405.377	441.71
405.755	426.57
406.133	427.93
406.511	421.37
406.889	418.21
407.267	422.95
407.645	439.68
408.023	441.49
408.401	440.13
408.779	443.29
409.156	436.29
409.534	447.14
409.912	451.43
410.29	464.31
410.667	469.73
411.045	475.16
411.422	454.82
411.8	458.66
412.178	467.02
412.555	485.1
412.933	479.22
413.31	474.48
413.687	488.04
414.065	467.47
414.442	514.03
414.819	500.69
415.197	496.85
415.574	488.49
415.951	505.44
416.328	491.43
416.705	508.83
417.082	504.76
417.46	502.73
417.837	535.27
418.214	531.43
418.591	496.63
418.967	535.49
419.344	520.35
419.721	531.43
420.098	527.13
420.475	539.56
420.852	561.26
421.228	564.19
421.605	553.35
421.982	535.72
422.358	556.28
422.735	572.33
423.111	575.27
423.488	568.94
423.864	571.43
424.241	582.27
424.617	583.4
424.994	596.51
425.37	595.38
425.746	589.73
426.123	600.35
426.499	587.92
426.875	599.9
427.251	582.27
427.627	617.07
428.003	609.16
428.379	634.25
428.756	627.92
429.132	636.73
429.507	627.24
429.883	650.97
430.259	638.32
430.635	652.78
431.011	627.24
431.387	687.58
431.763	643.51
432.138	669.28
432.514	676.73
432.89	679.67
433.265	671.76
433.641	673.34
434.016	696.85
434.392	719.22
434.767	716.96
435.143	727.81
435.518	715.38
435.894	731.87
436.269	728.71
436.644	759.22
437.02	732.55
437.395	742.49
437.77	755.83
438.145	790.4
438.52	751.76
438.895	786.56
439.271	754.92
439.646	769.16
440.021	772.1
440.395	785.88
440.77	790.85
441.145	789.05
441.52	797.41
441.895	817.29
442.27	850.06
442.645	817.07
443.019	858.88
443.394	821.81
443.769	854.81
444.143	816.16
444.518	854.13
444.892	856.84
445.267	853
445.641	876.5
446.016	876.95
446.39	885.77
446.764	875.15
447.139	875.82
447.513	876.5
447.887	882.83
448.262	908.37
448.636	911.3
449.01	889.38
449.384	930.29
449.758	909.95
450.132	924.41
450.506	929.61
450.88	934.35
451.254	928.25
451.628	947.46
452.002	955.14
452.376	961.92
452.75	1030.17
453.123	975.48
453.497	984.52
453.871	1015.71
454.244	1015.26
454.618	1026.55
454.992	1022.71
455.365	1018.42
455.739	1040.57
456.112	1033.56
456.486	1073.79
456.859	1086.89
457.232	1091.19
457.606	1100.68
457.979	1109.04
458.352	1111.07
458.725	1125.99
459.099	1145.65
459.472	1164.4
459.845	1159.43
460.218	1195.36
460.591	1193.78
460.964	1180
461.337	1202.14
461.71	1222.93
462.083	1226.1
462.456	1246.44
462.829	1247.79
463.201	1268.81
463.574	1256.38
463.947	1272.2
464.32	1321.01
464.692	1318.52
465.065	1358.3
465.438	1351.52
465.81	1340.22
466.183	1341.8
466.555	1405.08
466.928	1357.62
467.3	1396.49
467.672	1400.1
468.045	1421.8
468.417	1442.59
468.789	1446.2
469.161	1453.21
469.534	1478.75
469.906	1503.83
470.278	1513.1
470.65	1542.02
471.022	1594.45
471.394	1599.2
471.766	1609.36
472.138	1623.83
472.51	1644.39
472.882	1676.93
473.253	1686.42
473.625	1717.16
473.997	1716.48
474.369	1733.88
474.74	1749.25
475.112	1806.65
475.484	1843.03
475.855	1863.82
476.227	1871.05
476.598	1878.74
476.97	1899.53
477.341	1956.7
477.713	1976.81
478.084	1980.2
478.455	1982.91
478.827	2049.13
479.198	2094.1
479.569	2089.58
479.94	2128.67
480.311	2174.32
480.682	2179.29
481.053	2248.67
481.424	2281.21
481.795	2295.45
482.166	2338.16
482.537	2335.67
482.908	2401.21
483.279	2421.32
483.65	2444.37
484.021	2488.66
484.391	2545.61
484.762	2527.31
485.133	2563.46
485.503	2595.33
485.874	2633.07
486.244	2686.17
486.615	2688.21
486.985	2748.32
487.356	2798.03
487.726	2767.75
488.097	2848.2
488.467	2858.82
488.837	2909.9
489.207	2946.96
489.578	2948.31
489.948	3018.14
490.318	3058.82
490.688	3068.99
491.058	3071.02
491.428	3126.16
491.798	3173.39
492.168	3222.2
492.538	3264.46
492.908	3267.85
493.278	3296.33
493.648	3332.71
494.017	3374.29
494.387	3393.5
494.757	3431.01
495.126	3449.32
495.496	3481.63
495.866	3496.32
496.235	3544.23
496.605	3531.35
496.974	3572.48
497.344	3598.69
497.713	3615.64
498.082	3633.49
498.452	3701.29
498.821	3711.91
499.19	3706.03
499.559	3754.84
499.928	3785.58
500.298	3811.57
500.667	3858.8
501.036	3835.75
501.405	3856.09
501.774	3876.42
502.143	3875.75
502.512	3932.02
502.88	3977.44
503.249	3969.98
503.618	3979.92
503.987	4046.59
504.356	4035.97
504.724	4045.01
505.093	4096.3
505.462	4143.31
505.83	4099.47
506.199	4177.88
506.567	4213.59
506.936	4204.55
507.304	4252.23
507.672	4289.29
508.041	4319.35
508.409	4333.59
508.777	4360.93
509.145	4382.17
509.514	4410.42
509.882	4411.1
510.25	4455.17
510.618	4534.03
510.986	4467.37
511.354	4548.27
511.722	4554.82
512.09	4642.05
512.458	4637.08
512.826	4603.64
513.193	4665.56
513.561	4684.31
513.929	4757.98
514.297	4792.33
514.664	4805.89
515.032	4824.87
515.4	4855.61
515.767	4896.74
516.135	4880.69
516.502	4883.85
516.869	4972.67
517.237	4990.52
517.604	4964.3
517.972	5027.13
518.339	5042.27
518.706	5080.69
519.073	5095.6
519.44	5125.2
519.808	5260.34
520.175	5256.95
520.542	5265.09
520.909	5305.54
521.276	5310.96
521.643	5407.91
522.009	5406.55
522.376	5443.16
522.743	5494.46
523.11	5528.81
523.477	5580.79
523.843	5601.12
524.21	5698.97
524.577	5736.04
524.943	5701.01
525.31	5760.67
525.676	5800.89
526.043	5797.5
526.409	5881.12
526.776	5940.32
527.142	5868.01
527.508	5957.95
527.874	6008.12
528.241	6018.74
528.607	6096.7
528.973	6146.65
529.339	6110.26
529.705	6199.98
530.071	6197.94
530.437	6244.95
530.803	6301.9
531.169	6356.13
531.535	6378.73
531.901	6387.54
532.267	6393.65
532.632	6467.32
532.998	6524.94
533.364	6488.11
533.73	6529.24
534.095	6584.83
534.461	6652.17
534.826	6615.56
535.192	6664.6
535.557	6702.11
535.923	6750.47
536.288	6742.56
536.653	6790.25
537.019	6807.19
537.384	6799.96
537.749	6900.75
538.114	6945.95
538.479	6920.41
538.845	6961.77
539.21	7032.05
539.575	7032.95
539.94	7030.92
540.305	7065.49
540.67	7110.69
541.034	7106.62
541.399	7108.88
541.764	7155.43
542.129	7195.43
542.494	7224.13
542.858	7287.41
543.223	7274.07
543.587	7330.12
543.952	7307.07
544.316	7354.07
544.681	7376.44
545.045	7398.82
545.41	7494.41
545.774	7482.88
546.138	7485.37
546.503	7571.92
546.867	7580.73
547.231	7616.21
547.595	7657.57
547.959	7679.26
548.324	7692.37
548.688	7673.39
549.052	7721.97
549.416	7756.1
549.779	7784.12
550.143	7828.18
550.507	7907.05
550.871	7905.24
551.235	7865.92
551.599	7935.75
551.962	8003.09
552.326	7996.99
552.689	8056.88
553.053	8013.72
553.417	8036.09
553.78	8166.25
554.143	8186.59
554.507	8132.36
554.87	8286.48
555.234	8325.35
555.597	8272.47
555.96	8271.34
556.323	8327.61
556.686	8339.58
557.05	8432.46
557.413	8490.99
557.776	8472.46
558.139	8540.26
558.502	8556.07
558.865	8573.7
559.228	8650.76
559.59	8680.59
559.953	8666.13
560.316	8750.87
560.679	8815.95
561.041	8790.42
561.404	8890.3
561.767	8904.99
562.129	8899.79
562.492	9054.59
562.854	8996.29
563.217	9003.52
563.579	9059.11
563.941	9109.96
564.304	9124.65
564.666	9133.91
565.028	9234.7
565.39	9282.16
565.753	9265.66
566.115	9366.67
566.477	9412.55
566.839	9345.66
567.201	9436.73
567.563	9497.29
567.925	9543.85
568.287	9504.98
568.648	9538.87
569.01	9645.31
569.372	9664.52
569.734	9631.75
570.095	9741.13
570.457	9809.6
570.819	9776.83
571.18	9791.07
571.542	9851.41
571.903	9872.88
572.265	9898.86
572.626	9906.77
572.987	9918.75
573.349	9998.97
573.71	10061.35
574.071	10103.6
574.432	10114.23
574.794	10165.07
575.155	10174.11
575.516	10098.86
575.877	10221.34
576.238	10228.8
576.599	10279.87
576.96	10257.5
577.32	10194
577.681	10302.7
578.042	10280.77
578.403	10377.5
578.763	10361.22
579.124	10396.25
579.485	10416.14
579.845	10492.97
580.206	10379.53
580.566	10387.21
580.927	10447.78
581.287	10500.66
581.648	10481.9
582.008	10541.11
582.368	10462.47
582.728	10508.79
583.089	10534.33
583.449	10511.28
583.809	10576.59
584.169	10601.67
584.529	10531.39
584.889	10625.62
585.249	10540.2
585.609	10621.78
585.969	10629.01
586.329	10536.59
586.688	10616.81
587.048	10652.06
587.408	10590.15
587.768	10562.58
588.127	10537.94
588.487	10583.59
588.846	10643.25
589.206	10573.2
589.565	10587.43
589.925	10610.03
590.284	10699.52
590.643	10634.44
591.003	10684.38
591.362	10708.79
591.721	10641.9
592.08	10683.93
592.44	10680.09
592.799	10696.36
593.158	10680.31
593.517	10653.65
593.876	10702.68
594.235	10697.04
594.593	10701.55
594.952	10730.03
595.311	10665.17
595.67	10683.93
596.029	10724.83
596.387	10748.79
596.746	10791.27
597.104	10733.19
597.463	10736.13
597.822	10733.42
598.18	10744.27
598.538	10689.8
598.897	10689.13
599.255	10726.64
599.613	10841.89
599.972	10797.82
600.33	10837.37
600.688	10773.64
601.046	10808.22
601.404	10887.99
601.762	10856.58
602.12	10894.54
602.478	10827.2
602.836	10932.74
603.194	10821.55
603.552	10880.08
603.91	10833.75
604.268	10868.33
604.625	10858.61
604.983	10871.72
605.341	10844.83
605.698	10924.83
606.056	10924.15
606.413	10939.51
606.771	10953.3
607.128	10972.73
607.485	10952.62
607.843	10924.6
608.2	11003.47
608.557	11072.62
608.914	10961.43
609.272	11007.08
609.629	11041.66
609.986	11115.1
610.343	10967.08
610.7	11091.38
611.057	11073.3
611.414	11119.62
611.771	11150.81
612.127	11142.9
612.484	11153.75
612.841	11223.12
613.198	11167.08
613.554	11220.64
613.911	11167.08
614.267	11213.41
614.624	11229
614.98	11180.86
615.337	11229.45
615.693	11230.13
616.05	11201.43
616.406	11253.63
616.762	11265.83
617.118	11297.7
617.475	11191.71
617.831	11268.77
618.187	11352.61
618.543	11365.04
618.899	11398.26
619.255	11348.54
619.611	11390.58
619.967	11327.08
620.323	11404.59
620.678	11329.79
621.034	11334.08
621.39	11303.12
621.746	11339.28
622.101	11498.14
622.457	11363.01
622.812	11330.46
623.168	11410.46
623.523	11431.71
623.879	11437.58
624.234	11404.14
624.589	11430.12
624.945	11457.24
625.3	11448.65
625.655	11423.57
626.01	11442.55
626.365	11490.46
626.72	11416.79
627.075	11420.63
627.43	11438.03
627.785	11466.96
628.14	11411.59
628.495	11522.55
628.85	11414.08
629.205	11340.86
629.559	11460.4
629.914	11424.25
630.269	11366.17
630.623	11368.43
630.978	11337.92
631.332	11450.91
631.687	11450.91
632.041	11334.76
632.396	11349
632.75	11320.97
633.104	11375.66
633.459	11272.61
633.813	11264.48
634.167	11293.4
634.521	11340.18
634.875	11356.68
635.229	11318.94
635.583	11238.49
635.937	11290.92
636.291	11250.69
636.645	11291.37
636.999	11221.99
637.352	11265.38
637.706	11214.76
638.06	11266.06
638.413	11237.36
638.767	11223.12
639.121	11220.19
639.474	11124.82
639.828	11190.58
640.181	11114.43
640.534	11217.47
640.888	11108.55
641.241	11068.55
641.594	11121.88
641.947	11118.27
642.301	11088.66
642.654	11152.16
643.007	11094.54
643.36	11092.96
643.713	11109.91
644.066	11110.13
644.419	11041.43
644.771	11038.95
645.124	10902.45
645.477	10878.95
645.83	10843.7
646.182	10762.12
646.535	10735.23
646.888	10743.36
647.24	10676.7
647.593	10819.52
647.945	10720.09
648.298	10753.98
648.65	10635.79
649.002	10668.34
649.355	10736.13
649.707	10703.59
650.059	10724.38
650.411	10848.44
650.763	10898.84
651.115	11000.53
651.467	10987.42
651.819	11023.58
652.171	10927.99
652.523	10898.16
652.875	10950.81
653.227	10846.86
653.578	11042.34
653.93	10942.68
654.282	10882.34
654.633	10898.16
654.985	10903.13
655.337	10959.4
655.688	10942.68
656.039	10946.52
656.391	10851.38
656.742	10923.24
657.094	10965.73
657.445	11016.57
657.796	10958.27
658.147	10905.62
658.498	10865.17
658.849	10975.9
659.2	10840.53
659.551	10833.08
659.902	10883.92
660.253	10857.71
660.604	10945.62
660.955	10898.84
661.306	10841.66
661.656	10846.64
662.007	10858.16
662.358	10869.23
662.708	10895.22
663.059	10891.15
663.409	10807.54
663.76	10919.4
664.11	10959.18
664.461	10844.38
664.811	10866.3
665.161	10881.66
665.511	10895.67
665.862	10840.76
666.212	10920.76
666.562	10830.82
666.912	10920.31
667.262	10785.62
667.612	10895.67
667.962	10909.46
668.312	10896.35
668.662	10936.58
669.011	10832.4
669.361	10878.27
669.711	10837.14
670.06	10841.21
670.41	10827.43
670.76	10856.58
671.109	10840.08
671.459	10773.19
671.808	10754.21
672.157	10787.2
672.507	10711.72
672.856	10744.72
673.205	10725.73
673.554	10838.73
673.904	10770.93
674.253	10820.65
674.602	10700.2
674.951	10646.41
675.3	10550.82
675.649	10749.01
675.998	10756.24
676.346	10727.99
676.695	10755.56
677.044	10675.34
677.393	10751.72
677.741	10687.32
678.09	10679.18
678.438	10644.61
678.787	10675.11
679.135	10612.07
679.484	10605.06
679.832	10691.16
680.181	10659.07
680.529	10612.07
680.877	10566.87
681.225	10591.73
681.573	10600.31
681.922	10484.61
682.27	10479.87
682.618	10447.32
682.966	10591.73
683.314	10485.97
683.661	10472.86
684.009	10428.57
684.357	10430.6
684.705	10386.53
685.053	10428.34
685.4	10353.54
685.748	10305.41
686.095	10326.42
686.443	10244.62
686.79	10276.03
687.138	10274.22
687.485	10262.47
687.832	10210.72
688.18	10216.82
688.527	10188.12
688.874	10203.49
689.221	10109.93
689.568	10106.77
689.915	10069.03
690.262	10071.74
690.609	10001.01
690.956	10042.36
691.303	9994
691.65	9907.9
691.997	10010.73
692.344	9913.78
692.69	9887.79
693.037	9944.29
693.383	9822.26
693.73	9843.05
694.077	9831.97
694.423	9848.24
694.769	9738.19
695.116	9719.66
695.462	9729.15
695.808	9634.01
696.155	9730.51
696.501	9621.81
696.847	9677.63
697.193	9502.94
697.539	9598.08
697.885	9503.62
698.231	9394.47
698.577	9455.03
698.923	9428.37
699.269	9400.8
699.614	9351.08
699.96	9324.64
700.306	9286.68
700.651	9274.7
700.997	9260.46
701.342	9209.62
701.688	9213.46
702.033	9158.77
702.379	9188.83
702.724	9105.89
703.069	9172.78
703.415	9090.07
703.76	9041.03
704.105	9047.59
704.45	9076.06
704.795	8974.37
705.14	8996.97
705.485	8980.47
705.83	8877.87
706.175	8919.68
706.52	8831.55
706.865	8881.49
707.209	8885.56
707.554	8738.44
707.899	8768.72
708.243	8771.66
708.588	8789.29
708.932	8683.3
709.277	8687.37
709.621	8720.14
709.966	8650.99
710.31	8686.24
710.654	8559.69
710.998	8649.41
711.342	8537.32
711.687	8589.97
712.031	8572.8
712.375	8528.28
712.719	8516.75
713.063	8535.96
713.407	8472.23
713.75	8479.69
714.094	8521.95
714.438	8375.29
714.782	8460.94
715.125	8442.63
715.469	8449.18
715.812	8425.46
716.156	8357.89
716.499	8338.23
716.843	8371.45
717.186	8300.71
717.53	8345.23
717.873	8335.29
718.216	8284.9
718.559	8336.65
718.902	8284.22
719.246	8307.95
719.589	8274.27
719.932	8251
720.275	8291.67
720.617	8193.37
720.96	8261.84
721.303	8245.57
721.646	8244.67
721.989	8203.32
722.331	8246.25
722.674	8268.4
723.016	8186.14
723.359	8228.17
723.701	8199.25
724.044	8171.23
724.386	8136.88
724.729	8219.59
725.071	8135.97
725.413	8107.72
725.755	8087.84
726.097	8121.74
726.439	8032.7
726.782	8160.15
727.124	8149.31
727.465	8111.57
727.807	8052.58
728.149	8115.41
728.491	8096.43
728.833	8066.14
729.175	8025.24
729.516	8033.83
729.858	8018.91
730.199	8067.27
730.541	8020.5
730.882	7997.9
731.224	8024.56
731.565	8001.51
731.906	8005.13
732.248	8047.16
732.589	7995.19
732.93	7981.85
733.271	7992.25
733.612	7999.03
733.953	7972.59
734.294	7993.83
734.635	7959.03
734.976	7999.48
735.317	7977.56
735.658	7955.86
735.999	7919.93
736.339	7899.37
736.68	7996.77
737.021	7957.9
737.361	7918.13
737.702	7938.69
738.042	7994.51
738.383	7954.28
738.723	7952.47
739.063	7924.23
739.404	7956.77
739.744	7921.51
740.084	7880.39
740.424	7961.06
740.764	7908.18
741.104	7937.56
741.444	7933.04
741.784	7871.12
742.124	7917.22
742.464	7872.48
742.804	7848.75
743.143	7912.02
743.483	7856.43
743.823	7809.43
744.162	7855.75
744.502	7792.7
744.841	7902.31
745.181	7841.29
745.52	7849.2
745.86	7862.76
746.199	7930.33
746.538	7851.69
746.877	7830.9
747.216	7858.47
747.556	7819.82
747.895	7877.45
748.234	7778.02
748.573	7845.81
748.911	7843.32
749.25	7823.44
749.589	7726.27
749.928	7824.34
750.267	7759.03
750.605	7745.47
750.944	7801.07
751.283	7760.16
751.621	7805.59
751.96	7681.52
752.298	7694.85
752.636	7790.44
752.975	7725.36
753.313	7681.75
753.651	7674.74
753.989	7705.25
754.327	7707.06
754.666	7595.2
755.004	7636.1
755.342	7639.49
755.679	7653.95
756.017	7624.8
756.355	7632.48
756.693	7505.93
757.031	7594.97
757.368	7573.5
757.706	7597.23
758.044	7549.32
758.381	7510.9
758.719	7482.43
759.056	7521.07
759.394	7458.93
759.731	7412.38
760.068	7413.73
760.405	7381.87
760.743	7362.43
761.08	7443.79
761.417	7368.08
761.754	7352.94
762.091	7343.9
762.428	7350.68
762.765	7264.13
763.102	7287.86
763.438	7260.29
763.775	7285.83
