Data from mousepad_grey_FLMS001491_00055.txt Node
Date: Wed Feb 08 14:29:38 GMT 2017
User: dcchb
Spectrometer: FLMS00149
Trigger mode: 0
Integration Time (sec): 2.000000E-2
Scans to average: 10
Electric dark correction enabled: true
Nonlinearity correction enabled: false
Boxcar width: 0
XAxis mode: Wavelengths
Number of Pixels in Spectrum: 2048
>>>>>Begin Spectral Data<<<<<
341.393	-0.83
341.776	-0.83
342.16	-0.83
342.543	-66.37
342.927	-69.53
343.31	-76.76
343.693	-65.01
344.077	-50.78
344.46	-48.06
344.843	-65.92
345.226	-50.78
345.61	-29.76
345.993	-27.5
346.376	15.44
346.759	0.07
347.142	34.87
347.525	52.05
347.908	51.59
348.291	75.32
348.674	99.05
349.057	86.17
349.44	132.5
349.823	145.15
350.206	156.45
350.588	168.2
350.971	182.44
351.354	203.23
351.737	220.18
352.119	233.06
352.502	254.08
352.884	253.17
353.267	256.11
353.65	267.41
354.032	268.09
354.414	272.83
354.797	275.77
355.179	308.09
355.562	322.55
355.944	313.96
356.326	327.97
356.709	288.88
357.091	305.83
357.473	325.03
357.855	326.39
358.238	293.17
358.62	309.67
359.002	325.71
359.384	312.83
359.766	304.24
360.148	310.34
360.53	299.5
360.912	306.96
361.294	306.28
361.676	318.03
362.057	318.25
362.439	316.67
362.821	289.1
363.203	309.67
363.584	306.05
363.966	291.36
364.348	293.85
364.729	285.03
365.111	302.44
365.493	300.4
365.874	299.72
366.256	283.68
366.637	292.27
367.019	300.85
367.4	287.97
367.781	300.18
368.163	295.88
368.544	294.53
368.925	303.34
369.306	286.39
369.688	302.21
370.069	266.96
370.45	284.58
370.831	285.49
371.212	275.09
371.593	303.11
371.974	281.65
372.355	294.53
372.736	279.61
373.117	282.55
373.498	298.37
373.879	282.55
374.26	285.71
374.641	296.11
375.021	289.1
375.402	294.3
375.783	300.63
376.163	300.18
376.544	291.36
376.925	299.72
377.305	295.43
377.686	316.22
378.066	332.49
378.447	287.07
378.827	285.94
379.208	314.41
379.588	299.05
379.968	314.86
380.349	310.57
380.729	301.31
381.109	314.86
381.489	297.24
381.87	296.56
382.25	313.28
382.63	302.21
383.01	288.2
383.39	315.09
383.77	314.86
384.15	325.71
384.53	325.49
384.91	317.35
385.29	323.45
385.67	329.1
386.049	332.04
386.429	322.32
386.809	328.2
387.189	333.4
387.568	319.84
387.948	338.14
388.328	314.41
388.707	314.64
389.087	328.88
389.466	321.19
389.846	308.31
390.225	317.8
390.605	346.28
390.984	334.3
391.363	322.77
391.743	333.85
392.122	325.71
392.501	323
392.881	350.57
393.26	343.56
393.639	332.49
394.018	341.53
394.397	355.77
394.776	356.22
395.155	354.64
395.534	372.26
395.913	354.86
396.292	363.22
396.671	354.19
397.05	357.12
397.429	342.21
397.808	347.41
398.186	351.93
398.565	353.06
398.944	357.58
399.323	352.6
399.701	345.6
400.08	362.09
400.458	354.19
400.837	374.3
401.215	362.77
401.594	368.87
401.972	390.79
402.351	364.13
402.729	384.02
403.107	361.64
403.486	383.11
403.864	363.9
404.242	374.07
404.62	398.03
404.999	382.21
405.377	389.44
405.755	370.68
406.133	373.62
406.511	395.09
406.889	407.97
407.267	386.95
407.645	396.44
408.023	407.74
408.401	403.45
408.779	414.52
409.156	404.58
409.534	429.44
409.912	412.72
410.29	403.22
410.667	417.01
411.045	416.33
411.422	425.37
411.8	442.77
412.178	425.37
412.555	415.43
412.933	431.02
413.31	429.89
413.687	435.99
414.065	421.75
414.442	435.09
414.819	446.16
415.197	432.15
415.574	445.26
415.951	445.03
416.328	434.86
416.705	458.82
417.082	444.13
417.46	466.27
417.837	457.91
418.214	442.77
418.591	466.73
418.967	459.72
419.344	470.34
419.721	465.37
420.098	495.65
420.475	467.18
420.852	504.69
421.228	483.9
421.605	476.22
421.982	486.84
422.358	488.65
422.735	500.4
423.111	476.89
423.488	523.22
423.864	509.44
424.241	517.57
424.617	510.11
424.994	496.1
425.37	509.21
425.746	505.37
426.123	511.92
426.499	503.79
426.875	522.77
427.251	536.33
427.627	525.93
428.003	510.11
428.379	543.33
428.756	547.17
429.132	566.16
429.507	545.82
429.883	539.49
430.259	562.32
430.635	560.06
431.011	576.78
431.387	584.69
431.763	576.33
432.138	593.28
432.514	577
432.89	586.95
433.265	615.65
433.641	609.32
434.016	621.52
434.392	594.18
434.767	604.12
435.143	603.44
435.518	632.14
435.894	630.34
436.269	633.95
436.644	626.49
437.02	653.39
437.395	633.5
437.77	635.99
438.145	651.13
438.52	675.76
438.895	670.79
439.271	649.55
439.646	680.28
440.021	678.7
440.395	672.14
440.77	666.49
441.145	673.5
441.52	705.14
441.895	707.4
442.27	675.31
442.645	712.82
443.019	728.19
443.394	681.86
443.769	696.32
444.143	694.52
444.518	720.96
444.892	716.44
445.267	711.24
445.641	736.55
446.016	728.41
446.39	727.96
446.764	723.67
447.139	746.94
447.513	744.46
447.887	748.75
448.262	750.33
448.636	754.18
449.01	787.85
449.384	765.25
449.758	771.35
450.132	758.02
450.506	786.72
450.88	779.03
451.254	783.1
451.628	770.67
452.002	778.81
452.376	803.67
452.75	815.87
453.123	799.15
453.497	828.3
453.871	809.09
454.244	809.99
454.618	835.53
454.992	836.21
455.365	862.19
455.739	888.18
456.112	892.25
456.486	882.76
456.859	887.73
457.232	918.01
457.606	921.85
457.979	907.39
458.352	903.78
458.725	939.71
459.099	907.39
459.472	936.09
459.845	944.68
460.218	951.46
460.591	966.37
460.964	987.39
461.337	957.11
461.71	987.62
462.083	1024.9
462.456	1010.44
462.829	998.69
463.201	1027.16
463.574	1027.39
463.947	1037.33
464.32	1057.44
464.692	1058.57
465.065	1072.81
465.438	1079.14
465.81	1106.03
466.183	1097.44
466.555	1111
466.928	1144
467.3	1125.24
467.672	1150.32
468.045	1172.24
468.417	1162.07
468.789	1155.97
469.161	1199.59
469.534	1209.98
469.906	1212.92
470.278	1230.55
470.65	1204.78
471.022	1238.91
471.394	1282.07
471.766	1266.48
472.138	1313.93
472.51	1333.59
472.882	1320.49
473.253	1342.41
473.625	1340.83
473.997	1377.89
474.369	1405.68
474.74	1393.03
475.112	1446.13
475.484	1429.19
475.855	1467.83
476.227	1475.29
476.598	1470.77
476.97	1533.59
477.341	1530.43
477.713	1560.93
478.084	1560.48
478.455	1593.25
478.827	1627.15
479.198	1641.16
479.569	1671.21
479.94	1679.57
480.311	1719.12
480.682	1742.62
481.053	1745.56
481.424	1766.58
481.795	1776.52
482.166	1829.85
482.537	1848.84
482.908	1890.64
483.279	1923.41
483.65	1960.92
484.021	1961.6
484.391	1984.65
484.762	1998.44
485.133	2030.75
485.503	2013.8
485.874	2046.57
486.244	2103.07
486.615	2111.43
486.985	2132.44
487.356	2155.04
487.726	2197.98
488.097	2224.42
488.467	2212.89
488.837	2270.97
489.207	2299.45
489.578	2299.9
489.948	2349.16
490.318	2355.26
490.688	2380.8
491.058	2422.15
491.428	2467.12
491.798	2421.93
492.168	2502.38
492.538	2508.93
492.908	2491.53
493.278	2585.54
493.648	2563.62
494.017	2590.74
494.387	2589.16
494.757	2639.32
495.126	2652.88
495.496	2702.6
495.866	2690.62
496.235	2752.54
496.605	2720.68
496.974	2752.09
497.344	2769.49
497.713	2800.45
498.082	2820.11
498.452	2840.22
498.821	2822.37
499.19	2879.54
499.559	2875.93
499.928	2903.27
500.298	2900.33
500.667	2949.6
501.036	2940.33
501.405	2981.91
501.774	2982.82
502.143	3035.47
502.512	3014.91
502.88	3076.15
503.249	3055.81
503.618	3061.01
503.987	3088.35
504.356	3109.59
504.724	3150.04
505.093	3112.08
505.462	3162.93
505.83	3166.54
506.199	3195.01
506.567	3268.69
506.936	3209.03
507.304	3277.72
507.672	3285.18
508.041	3287.89
508.409	3325.86
508.777	3338.51
509.145	3340.77
509.514	3326.99
509.882	3388.91
510.25	3416.03
510.618	3459.19
510.986	3447.21
511.354	3464.61
511.722	3538.73
512.09	3493.54
512.458	3514.78
512.826	3608.34
513.193	3573.31
513.561	3551.84
513.929	3590.48
514.297	3653.76
514.664	3704.61
515.032	3694.21
515.4	3722.23
515.767	3685.4
516.135	3734.66
516.502	3737.83
516.869	3792.29
517.237	3790.03
517.604	3792.97
517.972	3846.3
518.339	3869.8
518.706	3908.22
519.073	3937.37
519.44	3899.18
519.808	3955.9
520.175	3972.85
520.542	3978.5
520.909	3998.38
521.276	4059.62
521.643	4078.83
522.009	4073.64
522.376	4107.76
522.743	4153.86
523.11	4172.16
523.477	4189.34
523.843	4220.07
524.21	4282.44
524.577	4303.23
524.943	4326.74
525.31	4332.61
525.676	4400.18
526.043	4454.64
526.409	4472.72
526.776	4524.92
527.142	4465.49
527.508	4513.62
527.874	4518.37
528.241	4536.9
528.607	4536.45
528.973	4655.99
529.339	4622.1
529.705	4706.61
530.071	4752.04
530.437	4718.59
530.803	4717.91
531.169	4750.91
531.535	4772.37
531.901	4792.71
532.267	4867.51
532.632	4834.07
532.998	4885.14
533.364	4918.13
533.73	4879.94
534.095	4955.65
534.461	4970.11
534.826	4975.08
535.192	5021.18
535.557	5028.19
535.923	5072.03
536.288	5073.61
536.653	5106.83
537.019	5119.48
537.384	5156.09
537.749	5133.95
538.114	5174.17
538.479	5124.91
538.845	5212.81
539.21	5261.4
539.575	5238.12
539.94	5302.08
540.305	5340.72
540.67	5302.53
541.034	5321.51
541.399	5394.05
541.764	5352.25
542.129	5391.79
542.494	5416.2
542.858	5444.45
543.223	5512.92
543.587	5496.88
543.952	5497.33
544.316	5520.6
544.681	5574.39
545.045	5587.49
545.41	5598.57
545.774	5643.09
546.138	5554.5
546.503	5611
546.867	5641.5
547.231	5680.15
547.595	5686.25
547.959	5735.51
548.324	5765.79
548.688	5760.37
549.052	5815.28
549.416	5848.73
549.779	5866.36
550.143	5862.97
550.507	5884.44
550.871	5912.46
551.235	5949.52
551.599	5978.67
551.962	5977.54
552.326	5993.81
552.689	6057.76
553.053	6005.79
553.417	6031.55
553.78	6099.57
554.143	6123.53
554.507	6144.54
554.87	6158.1
555.234	6210.75
555.597	6185.67
555.96	6231.55
556.323	6231.77
556.686	6241.49
557.05	6296.4
557.413	6302.28
557.776	6337.53
558.139	6372.33
558.502	6399.68
558.865	6401.03
559.228	6459.56
559.59	6444.65
559.953	6474.25
560.316	6591.31
560.679	6505.89
561.041	6581.59
561.404	6582.04
561.767	6634.92
562.129	6598.32
562.492	6697.52
562.854	6748.37
563.217	6710.63
563.579	6757.63
563.941	6787.24
564.304	6840.12
564.666	6916.95
565.028	6867.23
565.39	6919.89
565.753	6901.58
566.115	6908.14
566.477	7027.68
566.839	7054.8
567.201	7113.33
567.563	7056.16
567.925	7071.3
568.287	7077.4
568.648	7046.66
569.01	7135.25
569.372	7164.18
569.734	7127.57
570.095	7207.79
570.457	7283.95
570.819	7256.15
571.18	7264.96
571.542	7302.7
571.903	7350.61
572.265	7356.26
572.626	7387
572.987	7407.56
573.349	7498.18
573.71	7393.55
574.071	7446.65
574.432	7430.38
574.794	7518.29
575.155	7530.95
575.516	7480.33
575.877	7581.34
576.238	7530.27
576.599	7685.97
576.96	7589.93
577.32	7637.16
577.681	7629.47
578.042	7655.46
578.403	7676.03
578.763	7720.09
579.124	7692.52
579.485	7760.32
579.845	7733.88
580.206	7738.85
580.566	7738.62
580.927	7810.26
581.287	7800.32
581.648	7769.36
582.008	7844.38
582.368	7830.15
582.728	7862.24
583.089	7808.68
583.449	7916.7
583.809	7898.62
584.169	7818.62
584.529	7834.67
584.889	7833.76
585.249	7870.6
585.609	7864.95
585.969	7895.68
586.329	7838.73
586.688	7879.64
587.048	7866.3
587.408	7834.89
587.768	7852.07
588.127	7898.62
588.487	7883.03
588.846	7959.41
589.206	7924.61
589.565	7889.81
589.925	7931.61
590.284	7915.12
590.643	7867.89
591.003	7959.41
591.362	7967.77
591.721	7890.03
592.08	7925.06
592.44	7958.28
592.799	7966.87
593.158	7903.82
593.517	7947.66
593.876	7939.07
594.235	7896.36
594.593	7960.99
594.952	7944.49
595.311	7908.11
595.67	7984.27
596.029	7975.45
596.387	7982.23
596.746	8031.95
597.104	8006.19
597.463	7934.1
597.822	7979.07
598.18	7982.91
598.538	8003.48
598.897	8048.67
599.255	7994.89
599.613	8056.13
599.972	8026.75
600.33	8067.43
600.688	7991.05
601.046	8043.93
601.404	8061.33
601.762	8025.17
602.12	8045.51
602.478	8063.59
602.836	8070.14
603.194	8057.49
603.552	8011.61
603.91	8016.13
604.268	8052.06
604.625	8038.28
604.983	8073.76
605.341	8064.04
605.698	8129.35
606.056	8158.95
606.413	8121.89
606.771	8128.9
607.128	8150.36
607.485	8116.02
607.843	8153.08
608.2	8177.48
608.557	8255.45
608.914	8157.37
609.272	8210.48
609.629	8216.8
609.986	8250.7
610.343	8187.65
610.7	8199.63
611.057	8208.22
611.414	8176.35
611.771	8184.26
612.127	8225.62
612.484	8192.62
612.841	8248.44
613.198	8313.52
613.554	8261.1
613.911	8339.29
614.267	8294.77
614.624	8348.1
614.98	8282.11
615.337	8354.88
615.693	8284.6
616.05	8345.84
616.406	8380.42
616.762	8361.43
617.118	8363.92
617.475	8384.03
617.831	8403.01
618.187	8402.11
618.543	8429
618.899	8444.82
619.255	8455.22
619.611	8422.67
619.967	8472.16
620.323	8450.24
620.678	8393.3
621.034	8390.36
621.39	8343.35
621.746	8339.51
622.101	8465.38
622.457	8378.61
622.812	8432.84
623.168	8520.3
623.523	8450.92
623.879	8476.46
624.234	8407.99
624.589	8471.03
624.945	8399.62
625.3	8424.03
625.655	8406.4
626.01	8449.11
626.365	8500.19
626.72	8467.64
627.075	8543.57
627.43	8466.97
627.785	8387.19
628.14	8504.93
628.495	8453.86
628.85	8481.43
629.205	8398.49
629.559	8504.48
629.914	8442.56
630.269	8492.73
630.623	8430.13
630.978	8448.21
631.332	8470.58
631.687	8464.93
632.041	8431.04
632.396	8436.46
632.75	8419.51
633.104	8392.17
633.459	8396.46
633.813	8395.33
634.167	8403.92
634.521	8398.49
634.875	8372.51
635.229	8355.56
635.583	8320.98
635.937	8374.99
636.291	8339.51
636.645	8315.78
636.999	8428.32
637.352	8380.64
637.706	8374.77
638.06	8294.99
638.413	8272.85
638.767	8246.63
639.121	8270.81
639.474	8280.76
639.828	8295.22
640.181	8296.35
640.534	8314.88
640.888	8251.38
641.241	8276.01
641.594	8258.38
641.947	8318.72
642.301	8285.05
642.654	8227.2
643.007	8240.98
643.36	8239.4
643.713	8203.7
644.066	8272.4
644.419	8294.99
644.771	8207.54
645.124	8112.17
645.477	8108.33
645.83	8079.63
646.182	8027.88
646.535	7975.45
646.888	8009.35
647.24	7983.59
647.593	8050.03
647.945	8041.89
648.298	8019.29
648.65	8004.15
649.002	7951.27
649.355	8014.1
649.707	7932.74
650.059	8062.01
650.411	8098.16
650.763	8099.52
651.115	8234.66
651.467	8134.32
651.819	8220.87
652.171	8230.59
652.523	8188.33
652.875	8182.91
653.227	8110.37
653.578	8201.66
653.93	8188.33
654.282	8150.14
654.633	8154.43
654.985	8189.91
655.337	8193.08
655.688	8149.23
656.039	8207.99
656.391	8107.88
656.742	8177.48
657.094	8140.42
657.445	8171.38
657.796	8165.96
658.147	8200.76
658.498	8168.22
658.849	8184.94
659.2	8145.17
659.551	8125.05
659.902	8195.79
660.253	8096.58
660.604	8156.01
660.955	8205.28
661.306	8213.64
661.656	8120.31
662.007	8150.59
662.358	8185.17
662.708	8203.24
663.059	8179.06
663.409	8096.58
663.76	8186.75
664.11	8189.69
664.461	8185.62
664.811	8197.37
665.161	8130.48
665.511	8182.45
665.862	8186.52
666.212	8185.84
666.562	8220.19
666.912	8138.39
667.262	8161.66
667.612	8113.08
667.962	8215.9
668.312	8183.81
668.662	8188.1
669.011	8134.77
669.361	8116.24
669.711	8159.63
670.06	8119.41
670.41	8145.85
670.76	8101.78
671.109	8145.62
671.459	8137.26
671.808	8118.73
672.157	8177.26
672.507	8076.24
672.856	8089.58
673.205	8060.65
673.554	8099.07
673.904	8069.46
674.253	8178.39
674.602	8144.04
674.951	7998.05
675.3	7936.36
675.649	8028.33
675.998	8073.76
676.346	8095.45
676.695	8065.4
677.044	8012.52
677.393	8030.37
677.741	8024.04
678.09	8071.27
678.438	7965.74
678.787	8030.82
679.135	7998.73
679.484	7875.12
679.832	8000.09
680.181	7980.65
680.529	7967.77
680.877	7910.15
681.225	7915.79
681.573	7962.35
681.922	7942.01
682.27	7846.64
682.618	7879.86
682.966	7861.56
683.314	7879.86
683.661	7819.07
684.009	7870.82
684.357	7808.45
684.705	7808.68
685.053	7802.58
685.4	7742.24
685.748	7732.52
686.095	7761.45
686.443	7659.3
686.79	7723.71
687.138	7693.43
687.485	7689.13
687.832	7715.35
688.18	7684.61
688.527	7657.5
688.874	7661.34
689.221	7638.51
689.568	7575.01
689.915	7553.54
690.262	7541.57
690.609	7562.58
690.956	7525.75
691.303	7468.35
691.65	7409.59
691.997	7490.72
692.344	7430.16
692.69	7400.78
693.037	7409.14
693.383	7390.16
693.73	7353.32
694.077	7327.79
694.423	7296.6
694.769	7239.2
695.116	7342.48
695.462	7301.12
695.808	7216.15
696.155	7184.29
696.501	7184.97
696.847	7179.32
697.193	7104.52
697.539	7209.82
697.885	7129.37
698.231	7094.57
698.577	7070.62
698.923	7100.67
699.269	7019.1
699.614	6973.9
699.96	6929.61
700.306	6937.74
700.651	6974.35
700.997	6907.46
701.342	6881.92
701.688	6883.28
702.033	6867.91
702.379	6844.18
702.724	6856.39
703.069	6833.56
703.415	6696.62
703.76	6734.58
704.105	6726.45
704.45	6773.23
704.795	6714.47
705.14	6712.44
705.485	6647.58
705.83	6623.85
706.175	6682.15
706.52	6631.76
706.865	6584.98
707.209	6560.12
707.554	6594.25
707.899	6575.49
708.243	6509.05
708.588	6517.19
708.932	6492.56
709.277	6496.62
709.621	6469.51
709.966	6471.31
710.31	6469.05
710.654	6404.2
710.998	6446.91
711.342	6381.82
711.687	6364.88
712.031	6384.54
712.375	6351.99
712.719	6383.41
713.063	6321.03
713.407	6427.02
713.75	6292.11
714.094	6346.8
714.438	6325.55
714.782	6328.72
715.125	6286.23
715.469	6279.45
715.812	6312
716.156	6260.24
716.499	6259.79
716.843	6305.44
717.186	6239.45
717.53	6283.07
717.873	6243.3
718.216	6270.64
718.559	6188.16
718.902	6222.05
719.246	6199
719.589	6147.03
719.932	6204.43
720.275	6158.78
720.617	6158.1
720.96	6194.03
721.303	6181.83
721.646	6180.93
721.989	6144.54
722.331	6155.61
722.674	6161.04
723.016	6109.06
723.359	6114.03
723.701	6114.71
724.044	6046.92
724.386	6134.15
724.729	6123.53
725.071	6074.49
725.413	6082.17
725.755	6096.86
726.097	6086.92
726.439	6083.75
726.782	6073.58
727.124	6131.66
727.465	6079.68
727.807	6061.15
728.149	6060.02
728.491	6025.9
728.833	6043.98
729.175	5978.22
729.516	6078.55
729.858	6030.87
730.199	6091.44
730.541	6053.7
730.882	6011.89
731.224	6069.06
731.565	6031.1
731.906	6082.62
732.248	6063.64
732.589	6050.31
732.93	6006.01
733.271	6001.49
733.612	5976.86
733.953	6047.37
734.294	6011.21
734.635	5966.24
734.976	6061.61
735.317	5957.88
735.658	6006.69
735.999	5977.99
736.339	5998.78
736.68	6057.09
737.021	6041.04
737.361	5954.49
737.702	6082.17
738.042	5992
738.383	6001.04
738.723	6064.54
739.063	5968.5
739.404	6039.69
739.744	5957.2
740.084	6016.64
740.424	5986.35
740.764	5975.96
741.104	5983.64
741.444	5918.56
741.784	6002.62
742.124	6010.31
742.464	5942.51
742.804	5953.13
743.143	5983.19
743.483	5943.64
743.823	5909.07
744.162	5969.63
744.502	5982.74
744.841	6012.34
745.181	5961.04
745.52	5938.45
745.86	5958.56
746.199	5963.08
746.538	5982.96
746.877	5996.3
747.216	5974.6
747.556	6050.08
747.895	6003.75
748.234	5947.03
748.573	5955.39
748.911	5954.49
749.25	5965.34
749.589	5959.01
749.928	5957.2
750.267	5964.21
750.605	5925.56
750.944	5936.19
751.283	5872.01
751.621	5921.04
751.96	5907.26
752.298	5965.11
752.636	5929.63
752.975	5900.25
753.313	5882.18
753.651	5895.51
753.989	5883.76
754.327	5892.35
754.666	5867.49
755.004	5873.36
755.342	5862.06
755.679	5815.28
756.017	5810.09
756.355	5848.28
756.693	5823.19
757.031	5840.6
757.368	5806.7
757.706	5830.43
758.044	5783.2
758.381	5787.94
758.719	5771.9
759.056	5736.19
759.394	5759.24
759.731	5719.02
760.068	5678.34
760.405	5708.85
760.743	5719.69
761.08	5658.68
761.417	5679.47
761.754	5675.85
762.091	5609.19
762.428	5591.56
762.765	5618.68
763.102	5580.04
763.438	5571.68
763.775	5560.6
764.112	5516.31
764.449	5566.48
764.785	5518.8
765.122	5493.94
765.458	5493.94
765.795	5477.44
766.131	5495.07
766.467	5453.26
766.804	5484.67
767.14	5425.24
767.476	5409.87
767.812	5401.06
768.148	5392.92
768.485	5393.38
768.821	5360.61
769.157	5314.06
769.492	5341.85
769.828	5310.67
770.164	5226.15
770.5	5269.08
770.836	5274.28
