Data from mousepad_grey_FLMS001491_00094.txt Node
Date: Wed Feb 08 14:30:13 GMT 2017
User: dcchb
Spectrometer: FLMS00149
Trigger mode: 0
Integration Time (sec): 2.000000E-2
Scans to average: 10
Electric dark correction enabled: true
Nonlinearity correction enabled: false
Boxcar width: 0
XAxis mode: Wavelengths
Number of Pixels in Spectrum: 2048
>>>>>Begin Spectral Data<<<<<
341.393	-17.81
341.776	-17.81
342.16	-17.81
342.543	-40.86
342.927	-80.41
343.31	-59.84
343.693	-85.15
344.077	-60.75
344.46	-83.12
344.843	-32.05
345.226	-29.79
345.61	-52.16
345.993	-12.84
346.376	-11.71
346.759	3.66
347.142	46.82
347.525	53.37
347.908	49.76
348.291	66.03
348.674	87.95
349.057	119.81
349.44	113.03
349.823	137.89
350.206	155.29
350.588	166.14
350.971	186.48
351.354	206.59
351.737	228.74
352.119	228.96
352.502	230.54
352.884	228.74
353.267	272.13
353.65	269.87
354.032	266.7
354.414	292.01
354.797	300.83
355.179	286.59
355.562	281.39
355.944	318.45
356.326	289.98
356.709	312.8
357.091	319.13
357.473	344.21
357.855	302.63
358.238	314.16
358.62	304.22
359.002	309.19
359.384	326.81
359.766	332.24
360.148	322.75
360.53	336.08
360.912	289.98
361.294	317.55
361.676	306.93
362.057	311.22
362.439	320.26
362.821	311.67
363.203	316.87
363.584	293.14
363.966	306.93
364.348	317.55
364.729	294.27
365.111	298.34
365.493	294.72
365.874	310.77
366.256	301.05
366.637	307.6
367.019	276.65
367.4	310.09
367.781	308.96
368.163	299.92
368.544	292.69
368.925	279.81
369.306	308.73
369.688	288.85
370.069	275.74
370.45	286.36
370.831	299.92
371.212	296.98
371.593	297.89
371.974	284.1
372.355	302.86
372.736	287.49
373.117	296.98
373.498	293.59
373.879	303.76
374.26	272.58
374.641	281.39
375.021	300.6
375.402	281.16
375.783	302.63
376.163	285.01
376.544	319.58
376.925	308.28
377.305	331.79
377.686	291.56
378.066	290.66
378.447	318
378.827	306.02
379.208	314.61
379.588	314.84
379.968	296.53
380.349	321.62
380.729	308.51
381.109	314.38
381.489	314.16
381.87	318.68
382.25	338.79
382.63	302.18
383.01	316.64
383.39	318
383.77	333.82
384.15	312.58
384.53	333.59
384.91	325.23
385.29	311.9
385.67	329.07
386.049	329.3
386.429	306.25
386.809	336.76
387.189	338.34
387.568	343.31
387.948	331.56
388.328	339.69
388.707	327.72
389.087	326.14
389.466	356.64
389.846	314.16
390.225	348.51
390.605	333.82
390.984	339.02
391.363	343.08
391.743	348.28
392.122	358.68
392.501	363.65
392.881	375.63
393.26	338.79
393.639	342.18
394.018	365.46
394.397	365
394.776	350.32
395.155	353.71
395.534	371.78
395.913	360.48
396.292	368.39
396.671	347.83
397.05	401.39
397.429	350.54
397.808	349.86
398.186	385.34
398.565	376.53
398.944	370.65
399.323	384.44
399.701	377.21
400.08	406.59
400.458	388.28
400.837	376.98
401.215	375.17
401.594	387.6
401.972	402.29
402.351	373.82
402.729	391.67
403.107	404.33
403.486	401.61
403.864	408.39
404.242	412.23
404.62	401.84
404.999	405.68
405.377	418.56
405.755	405
406.133	412.69
406.511	414.04
406.889	427.15
407.267	411.11
407.645	399.81
408.023	437.09
408.401	420.82
408.779	409.98
409.156	432.12
409.534	446.58
409.912	430.77
410.29	450.88
410.667	450.88
411.045	470.31
411.422	445.23
411.8	455.17
412.178	462.18
412.555	459.69
412.933	482.29
413.31	460.37
413.687	489.75
414.065	472.12
414.442	459.69
414.819	488.84
415.197	501.05
415.574	484.55
415.951	466.02
416.328	461.73
416.705	491.33
417.082	484.1
417.46	483.42
417.837	478.45
418.214	504.21
418.591	513.93
418.967	531.1
419.344	510.31
419.721	533.81
420.098	533.36
420.475	518.22
420.852	530.88
421.228	527.71
421.605	535.85
421.982	529.75
422.358	544.21
422.735	542.85
423.111	537.2
423.488	557.99
423.864	573.81
424.241	568.61
424.617	578.33
424.994	563.42
425.37	551.67
425.746	575.62
426.123	586.69
426.499	600.25
426.875	572.23
427.251	574.04
427.627	601.16
428.003	590.99
428.379	595.51
428.756	592.57
429.132	619.69
429.507	636.41
429.883	624.43
430.259	628.27
430.635	636.86
431.011	640.03
431.387	638.22
431.763	671.66
432.138	654.94
432.514	643.19
432.89	673.7
433.265	663.75
433.641	674.37
434.016	681.38
434.392	677.54
434.767	693.81
435.143	710.08
435.518	717.54
435.894	740.59
436.269	706.92
436.644	722.28
437.02	732.45
437.395	708.72
437.77	754.37
438.145	737.2
438.52	761.38
438.895	756.41
439.271	727.71
439.646	777.65
440.021	771.32
440.395	779
440.77	752.34
441.145	779.68
441.52	807.7
441.895	796.18
442.27	777.2
442.645	797.31
443.019	794.82
443.394	816.29
443.769	811.32
444.143	823.07
444.518	841.38
444.892	816.29
445.267	830.08
445.641	846.35
446.016	816.97
446.39	852.9
446.764	862.84
447.139	848.38
447.513	865.78
447.887	857.19
448.262	865.78
448.636	873.24
449.01	882.05
449.384	917.98
449.758	886.8
450.132	912.33
450.506	894.48
450.88	921.83
451.254	922.73
451.628	917.98
452.002	945.78
452.376	930.19
452.75	937.42
453.123	954.82
453.497	963.18
453.871	960.7
454.244	989.39
454.618	994.37
454.992	994.37
455.365	1016.51
455.739	1037.3
456.112	1014.25
456.486	1048.6
456.859	1059.9
457.232	1078.66
457.606	1044.08
457.979	1091.77
458.352	1107.13
458.725	1094.48
459.099	1106
459.472	1113.01
459.845	1145.1
460.218	1138.32
460.591	1149.39
460.964	1146
461.337	1168.6
461.71	1204.76
462.083	1221.71
462.456	1229.39
462.829	1202.5
463.201	1242.95
463.574	1233.68
463.947	1253.12
464.32	1269.84
464.692	1259.44
465.065	1309.61
465.438	1294.47
465.81	1334.02
466.183	1310.29
466.555	1355.71
466.928	1374.92
467.3	1368.59
467.672	1376.5
468.045	1411.76
468.417	1403.4
468.789	1424.19
469.161	1436.61
469.534	1486.78
469.906	1481.59
470.278	1515.48
470.65	1532.66
471.022	1528.36
471.394	1544.18
471.766	1546.67
472.138	1594.35
472.51	1613.56
472.882	1605.2
473.253	1651.3
473.625	1647.91
473.997	1712.31
474.369	1715.7
474.74	1701.69
475.112	1771.3
475.484	1770.62
475.855	1796.83
476.227	1802.93
476.598	1861.01
476.97	1881.12
477.341	1906.21
477.713	1924.51
478.084	1954.57
478.455	2016.26
478.827	2016.71
479.198	2068.24
479.569	2068.69
479.94	2103.26
480.311	2132.19
480.682	2155.47
481.053	2200.66
481.424	2211.28
481.795	2252.86
482.166	2279.53
482.537	2318.17
482.908	2378.96
483.279	2400.43
483.65	2385.52
484.021	2474.1
484.391	2499.64
484.762	2494.67
485.133	2542.8
485.503	2564.04
485.874	2594.32
486.244	2663.93
486.615	2676.13
486.985	2697.6
487.356	2771.95
487.726	2744.15
488.097	2818.95
488.467	2834.32
488.837	2888.78
489.207	2925.62
489.578	2933.98
489.948	2995.22
490.318	3025.5
490.688	3033.63
491.058	3076.35
491.428	3077.02
491.798	3140.52
492.168	3194.99
492.538	3163.8
492.908	3230.69
493.278	3261.2
493.648	3314.31
494.017	3336.9
494.387	3342.55
494.757	3396.79
495.126	3399.28
495.496	3399.5
495.866	3486.05
496.235	3440.86
496.605	3529.22
496.974	3566.73
497.344	3541.87
497.713	3599.5
498.082	3632.04
498.452	3620.51
498.821	3655.54
499.19	3648.76
499.559	3740.73
499.928	3768.98
500.298	3758.14
500.667	3789.1
501.036	3801.52
501.405	3804.69
501.774	3832.94
502.143	3866.83
502.512	3885.36
502.88	3898.7
503.249	3968.98
503.618	3941.41
503.987	3992.71
504.356	3994.29
504.724	4010.56
505.093	4094.85
505.462	4051.91
505.83	4065.47
506.199	4143.21
506.567	4194.06
506.936	4188.63
507.304	4260.04
507.672	4171.91
508.041	4253.72
508.409	4305.69
508.777	4316.54
509.145	4344.11
509.514	4370.77
509.882	4405.12
510.25	4456.87
510.618	4504.33
510.986	4480.38
511.354	4483.31
511.722	4498.68
512.09	4565.12
512.458	4545.23
512.826	4657.32
513.193	4637.43
513.561	4674.72
513.929	4734.38
514.297	4730.99
514.664	4792.23
515.032	4809.86
515.4	4832.01
515.767	4850.76
516.135	4843.98
516.502	4884.66
516.869	4930.31
517.237	4986.35
517.604	4956.97
517.972	5032
518.339	5071.1
518.706	5075.16
519.073	5076.52
519.44	5124.88
519.808	5142.51
520.175	5213.46
520.542	5277.42
520.909	5260.7
521.276	5282.84
521.643	5363.97
522.009	5389.73
522.376	5381.37
522.743	5465.89
523.11	5473.57
523.477	5549.73
523.843	5633.79
524.21	5609.84
524.577	5693.9
524.943	5662.49
525.31	5692.77
525.676	5745.2
526.043	5789.95
526.409	5781.59
526.776	5871.98
527.142	5870.17
527.508	5982.03
527.874	6014.57
528.241	6020.9
528.607	6045.99
528.973	6107.9
529.339	6116.94
529.705	6120.11
530.071	6236.71
530.437	6277.17
530.803	6260.22
531.169	6294.11
531.535	6390.83
531.901	6332.08
532.267	6416.6
532.632	6472.87
532.998	6458.18
533.364	6483.94
533.73	6519.64
534.095	6556.48
534.461	6571.62
534.826	6646.65
535.192	6630.83
535.557	6658.4
535.923	6695.91
536.288	6828.79
536.653	6799.86
537.019	6747.44
537.384	6821.11
537.749	6870.14
538.114	6841.67
538.479	6899.75
538.845	6893.65
539.21	6913.53
539.575	6922.8
539.94	6969.12
540.305	7016.13
540.67	7015
541.034	7064.49
541.399	7120.53
541.764	7102.68
542.129	7157.37
542.494	7174.32
542.858	7206.86
543.223	7212.51
543.587	7319.85
543.952	7311.71
544.316	7313.97
544.681	7358.72
545.045	7353.75
545.41	7450.47
545.774	7419.96
546.138	7467.87
546.503	7503.35
546.867	7486.17
547.231	7544.02
547.595	7584.7
547.959	7597.81
548.324	7615.44
548.688	7699.5
549.052	7655.21
549.416	7779.05
549.779	7777.69
550.143	7791.93
550.507	7877.12
550.871	7875.09
551.235	7863.56
551.599	7887.07
551.962	7953.96
552.326	8013.39
552.689	8022.66
553.053	8005.93
553.417	8043.45
553.78	8148.98
554.143	8131.81
554.507	8155.53
554.87	8201.86
555.234	8332.93
555.597	8221.52
555.96	8384.68
556.323	8349.88
556.686	8331.8
557.05	8400.05
557.413	8452.93
557.776	8469.2
558.139	8506.94
558.502	8523.43
558.865	8465.36
559.228	8567.05
559.59	8669.87
559.953	8648.85
560.316	8728.4
560.679	8791.9
561.041	8762.98
561.404	8838.23
561.767	8910.54
562.129	8852.69
562.492	8937.43
562.854	8944.21
563.217	8923.42
563.579	8998.45
563.941	9047.94
564.304	9111.67
564.666	9186.47
565.028	9198.67
565.39	9230.31
565.753	9272.79
566.115	9305.56
566.477	9390.76
566.839	9270.31
567.201	9384.43
567.563	9459.45
567.925	9498.32
568.287	9559.79
568.648	9524.54
569.01	9546.01
569.372	9541.26
569.734	9601.15
570.095	9689.73
570.457	9786.45
570.819	9819.9
571.18	9797.75
571.542	9811.54
571.903	9813.12
572.265	9826.22
572.626	9874.81
572.987	9969.5
573.349	9987.12
573.71	9957.97
574.071	10071.64
574.432	10070.96
574.794	10125.43
575.155	10137.18
575.516	10094.01
575.877	10204.97
576.238	10201.13
576.599	10180.34
576.96	10232.09
577.32	10171.75
577.681	10245.2
578.042	10325.87
578.403	10309.38
578.763	10331.75
579.124	10324.97
579.485	10374.01
579.845	10375.59
580.206	10366.1
580.566	10436.15
580.927	10432.08
581.287	10442.93
581.648	10478.64
582.008	10478.18
582.368	10500.11
582.728	10515.47
583.089	10619.65
583.449	10489.48
583.809	10539.65
584.169	10498.3
584.529	10504.4
584.889	10534.23
585.249	10530.61
585.609	10548.47
585.969	10594.11
586.329	10586.88
586.688	10557.96
587.048	10578.97
587.408	10562.7
587.768	10559.99
588.127	10527
588.487	10604.06
588.846	10672.98
589.206	10562.7
589.565	10620.1
589.925	10610.16
590.284	10622.59
590.643	10660.1
591.003	10607
591.362	10658.29
591.721	10612.19
592.08	10657.39
592.44	10668.46
592.799	10728.57
593.158	10693.55
593.517	10665.52
593.876	10711.63
594.235	10649.71
594.593	10677.05
594.952	10717.05
595.311	10708.46
595.67	10704.85
596.029	10715.01
596.387	10773.54
596.746	10753.43
597.104	10736.71
597.463	10787.56
597.822	10784.17
598.18	10780.78
598.538	10709.82
598.897	10850.15
599.255	10705.98
599.613	10842.92
599.972	10887.44
600.33	10759.99
600.688	10808.8
601.046	10850.15
601.404	10917.72
601.762	10832.3
602.12	10886.31
602.478	10863.94
602.836	10861
603.194	10769.7
603.552	10852.19
603.91	10838.18
604.268	10900.32
604.625	10896.93
604.983	10907.55
605.341	10846.54
605.698	10953.2
606.056	10985.06
606.413	10983.48
606.771	10908.91
607.128	11019.41
607.485	10951.62
607.843	10883.82
608.2	11014.89
608.557	11072.29
608.914	10998.17
609.272	11122.69
609.629	11101.45
609.986	11104.16
610.343	11053.99
610.7	11175.34
611.057	11027.32
611.414	11102.35
611.771	11177.15
612.127	11181.44
612.484	11167.88
612.841	11117.94
613.198	11140.77
613.554	11192.97
613.911	11262.57
614.267	11181.9
614.624	11200.43
614.98	11204.95
615.337	11304.6
615.693	11308.22
616.05	11278.16
616.406	11328.78
616.762	11273.64
617.118	11298.28
617.475	11312.74
617.831	11376.47
618.187	11366.3
618.543	11323.13
618.899	11415.11
619.255	11413.75
619.611	11344.6
619.967	11427.31
620.323	11478.84
620.678	11406.07
621.034	11366.3
621.39	11385.05
621.746	11357.71
622.101	11501.89
622.457	11391.38
622.812	11463.24
623.168	11498.95
623.523	11477.25
623.879	11487.88
624.234	11388.22
624.589	11464.6
624.945	11503.02
625.3	11472.74
625.655	11521.55
626.01	11479.06
626.365	11449.46
626.72	11484.94
627.075	11463.47
627.43	11474.99
627.785	11424.15
628.14	11467.54
628.495	11423.24
628.85	11512.28
629.205	11394.09
629.559	11521.32
629.914	11378.95
630.269	11486.52
630.623	11379.18
630.978	11418.5
631.332	11450.81
631.687	11437.48
632.041	11419.63
632.396	11495.56
632.75	11469.12
633.104	11464.37
633.459	11318.84
633.813	11338.28
634.167	11437.03
634.521	11319.29
634.875	11391.38
635.229	11391.83
635.583	11287.43
635.937	11285.4
636.291	11298.28
636.645	11363.59
636.999	11350.7
637.352	11331.95
637.706	11236.58
638.06	11386.41
638.413	11295.11
638.767	11209.69
639.121	11275.9
639.474	11271.38
639.828	11269.35
640.181	11286.3
640.534	11213.08
640.888	11232.06
641.241	11216.7
641.594	11208.34
641.947	11168.56
642.301	11247.43
642.654	11241.33
643.007	11162.46
643.36	11215.11
643.713	11105.74
644.066	11211.27
644.419	11171.27
644.771	11051.05
645.124	11037.49
645.477	10968.57
645.83	10976.25
646.182	10856.71
646.535	10849.93
646.888	10841.79
647.24	10785.75
647.593	10881.79
647.945	10856.03
648.298	10845.63
648.65	10715.24
649.002	10785.97
649.355	10816.93
649.707	10729.25
650.059	10835.24
650.411	10983.93
650.763	11029.81
651.115	11088.11
651.467	11043.59
651.819	11033.2
652.171	11025.97
652.523	11079.75
652.875	11032.52
653.227	11020.32
653.578	11056.47
653.93	11022.35
654.282	11042.46
654.633	10972.41
654.985	11045.4
655.337	11033.88
655.688	11082.69
656.039	11039.3
656.391	10886.08
656.742	11024.61
657.094	10936.25
657.445	11027.32
657.796	10987.55
658.147	10988.68
658.498	11031.39
658.849	11102.58
659.2	11051.28
659.551	10948.46
659.902	11007.66
660.253	10971.28
660.604	11054.67
660.955	10973.77
661.306	10980.54
661.656	10975.12
662.007	10996.14
662.358	10994.33
662.708	10971.73
663.059	11014.67
663.409	10910.72
663.76	10961.11
664.11	10945.52
664.461	10949.36
664.811	11000.21
665.161	10971.96
665.511	11003.37
665.862	11000.66
666.212	10977.15
666.562	11028.9
666.912	10948.46
667.262	10935.8
667.612	10992.52
667.962	10972.64
668.312	10949.58
668.662	11073.42
669.011	10928.12
669.361	10933.77
669.711	10951.62
670.06	10924.95
670.41	10905.97
670.76	10855.58
671.109	11008.34
671.459	10973.77
671.808	10931.05
672.157	10918.63
672.507	10873.43
672.856	10899.19
673.205	10876.14
673.554	10926.99
673.904	10844.5
674.253	10958.4
674.602	10857.16
674.951	10761.34
675.3	10741.45
675.649	10802.47
675.998	10830.49
676.346	10828.46
676.695	10924.5
677.044	10729.03
677.393	10808.35
677.741	10806.76
678.09	10777.61
678.438	10781.23
678.787	10767.67
679.135	10828.91
679.484	10714.11
679.832	10770.38
680.181	10715.47
680.529	10806.09
680.877	10680.21
681.225	10640.21
681.573	10771.51
681.922	10686.99
682.27	10657.84
682.618	10659.42
682.966	10648.12
683.314	10651.29
683.661	10587.56
684.009	10529.93
684.357	10527
684.705	10541.69
685.053	10465.3
685.4	10491.52
685.748	10416.94
686.095	10470.05
686.443	10419.66
686.79	10365.87
687.138	10320.22
687.485	10376.04
687.832	10373.78
688.18	10366.78
688.527	10262.37
688.874	10270.96
689.221	10276.38
689.568	10306.89
689.915	10204.75
690.262	10244.07
690.609	10155.03
690.956	10100.12
691.303	10090.85
691.65	10113.67
691.997	10037.52
692.344	10014.24
692.69	10056.95
693.037	10077.97
693.383	9948.03
693.73	9983.51
694.077	9926.34
694.423	9942.15
694.769	9917.07
695.116	9868.71
695.462	9886.34
695.808	9784.42
696.155	9865.55
696.501	9736.28
696.847	9716.17
697.193	9694.7
697.539	9651.31
697.885	9602.05
698.231	9609.96
698.577	9524.31
698.923	9541.71
699.269	9445.67
699.614	9522.96
699.96	9470.98
700.306	9491.77
700.651	9399.57
700.997	9353.92
701.342	9347.14
701.688	9379.68
702.033	9301.27
702.379	9332
702.724	9281.61
703.069	9359.34
703.415	9141.5
703.76	9221.27
704.105	9226.24
704.45	9075.28
704.795	9109.18
705.14	9108.28
705.485	9066.92
705.83	9079.58
706.175	9050.43
706.52	9048.39
706.865	8976.53
707.209	9019.69
707.554	8865.35
707.899	8976.76
708.243	8892.69
708.588	8884.1
708.932	8862.41
709.277	8819.47
709.621	8818.34
709.966	8788.96
710.31	8813.6
710.654	8700.38
710.998	8741.51
711.342	8708.51
711.687	8728.85
712.031	8661.06
712.375	8673.49
712.719	8667.61
713.063	8639.36
713.407	8678.23
713.75	8601.17
714.094	8560.95
714.438	8559.14
714.782	8646.82
715.125	8537.45
715.469	8609.99
715.812	8515.3
716.156	8489.31
716.499	8584.45
716.843	8498.58
717.186	8510.55
717.53	8528.63
717.873	8544.68
718.216	8439.37
718.559	8487.28
718.902	8415.19
719.246	8464.23
719.589	8414.96
719.932	8391.69
720.275	8366.38
720.617	8348.98
720.96	8370.44
721.303	8390.1
721.646	8368.64
721.989	8327.96
722.331	8395.98
722.674	8286.15
723.016	8300.84
723.359	8328.18
723.701	8307.17
724.044	8329.77
724.386	8294.29
724.729	8295.19
725.071	8259.71
725.413	8289.32
725.755	8314.85
726.097	8275.08
726.439	8195.53
726.782	8217
727.124	8274.4
727.465	8179.49
727.807	8195.53
728.149	8198.92
728.491	8256.77
728.833	8178.81
729.175	8148.53
729.516	8146.95
729.858	8199.37
730.199	8117.34
730.541	8173.61
730.882	8141.98
731.224	8154.86
731.565	8146.95
731.906	8129.32
732.248	8148.08
732.589	8110.34
732.93	8090.45
733.271	8096.1
733.612	8130.68
733.953	8153.5
734.294	8098.81
734.635	8109.66
734.976	8124.12
735.317	8126.83
735.658	8083.22
735.999	8068.76
736.339	8014.07
736.68	8092.48
737.021	8121.18
737.361	8098.36
737.702	8040.28
738.042	8057.91
738.383	8047.51
738.723	8037.12
739.063	8047.97
739.404	8064.24
739.744	8073.73
740.084	8039.38
740.424	8038.93
740.764	8046.16
741.104	8080.96
741.444	8033.73
741.784	7999.15
742.124	8053.62
742.464	7986.5
742.804	8030.79
743.143	8031.02
743.483	8012.04
743.823	7933.85
744.162	7922.55
744.502	7916.44
744.841	7950.12
745.181	8017.91
745.52	7971.58
745.86	7977.69
746.199	7994.18
746.538	7944.92
746.877	7949.89
747.216	7954.41
747.556	7984.24
747.895	7950.34
748.234	7962.09
748.573	7909.21
748.911	7913.96
749.25	7933.62
749.589	7907.63
749.928	7880.97
750.267	7887.07
750.605	7910.57
750.944	7894.07
751.283	7886.39
751.621	7871.7
751.96	7873.28
752.298	7878.93
752.636	7874.86
752.975	7797.58
753.313	7784.92
753.651	7823.57
753.989	7777.24
754.327	7730.01
754.666	7770.01
755.004	7768.65
755.342	7720.74
755.679	7788.99
756.017	7773.17
756.355	7640.97
756.693	7676.9
757.031	7745.83
757.368	7670.58
757.706	7646.62
758.044	7601.2
758.381	7634.42
758.719	7577.24
759.056	7585.61
759.394	7637.13
759.731	7560.52
760.068	7507.87
760.405	7485.5
760.743	7517.81
761.08	7447.53
761.417	7502.44
761.754	7459.73
762.091	7475.1
762.428	7390.81
762.765	7380.64
763.102	7449.11
763.438	7362.33
763.775	7332.73
764.112	7356.01
