Data from mousepad_grey_FLMS001491_00091.txt Node
Date: Wed Feb 08 14:30:12 GMT 2017
User: dcchb
Spectrometer: FLMS00149
Trigger mode: 0
Integration Time (sec): 2.000000E-2
Scans to average: 10
Electric dark correction enabled: true
Nonlinearity correction enabled: false
Boxcar width: 0
XAxis mode: Wavelengths
Number of Pixels in Spectrum: 2048
>>>>>Begin Spectral Data<<<<<
341.393	-3.25
341.776	-3.25
342.16	-3.25
342.543	-43.02
342.927	-61.1
343.31	-73.3
343.693	-76.24
344.077	-52.51
344.46	-59.74
344.843	-53.87
345.226	-45.96
345.61	-35.34
345.993	-22.23
346.376	-5.28
346.759	2.4
347.142	32.68
347.525	39.46
347.908	72.46
348.291	77.43
348.674	87.14
349.057	112.91
349.44	116.3
349.823	153.36
350.206	157.43
350.588	171.89
350.971	179.12
351.354	191.55
351.737	203.07
352.119	217.31
352.502	241.04
352.884	261.83
353.267	264.32
353.65	270.64
354.032	288.95
354.414	302.05
354.797	290.3
355.179	309.06
355.562	303.64
355.944	296.63
356.326	318.32
356.709	307.48
357.091	306.8
357.473	329.85
357.855	321.04
358.238	317.65
358.62	309.06
359.002	328.27
359.384	324.65
359.766	311.32
360.148	329.17
360.53	325.78
360.912	331.66
361.294	327.36
361.676	323.75
362.057	321.26
362.439	338.66
362.821	300.47
363.203	322.62
363.584	293.69
363.966	297.31
364.348	300.7
364.729	318.1
365.111	294.14
365.493	299.57
365.874	300.92
366.256	289.85
366.637	300.25
367.019	291.66
367.4	286.24
367.781	308.61
368.163	301.6
368.544	281.72
368.925	304.54
369.306	322.39
369.688	291.66
370.069	296.4
370.45	292.11
370.831	295.27
371.212	281.49
371.593	288.95
371.974	300.02
372.355	309.74
372.736	320.36
373.117	303.41
373.498	289.4
373.879	295.5
374.26	279.91
374.641	297.76
375.021	298.21
375.402	315.84
375.783	310.19
376.163	302.73
376.544	323.75
376.925	324.2
377.305	292.56
377.686	299.79
378.066	305.67
378.447	305.67
378.827	298.89
379.208	307.03
379.588	294.37
379.968	320.58
380.349	295.95
380.729	302.73
381.109	317.2
381.489	325.33
381.87	311.55
382.25	308.83
382.63	302.51
383.01	318.1
383.39	315.61
383.77	316.29
384.15	315.39
384.53	344.99
384.91	334.37
385.29	307.93
385.67	326.69
386.049	349.06
386.429	348.61
386.809	322.84
387.189	335.95
387.568	363.52
387.948	361.26
388.328	343.18
388.707	329.85
389.087	348.83
389.466	346.12
389.846	340.02
390.225	334.82
390.605	355.61
390.984	349.74
391.363	361.04
391.743	356.29
392.122	358.78
392.501	355.39
392.881	356.74
393.26	363.07
393.639	363.75
394.018	343.86
394.397	377.76
394.776	360.81
395.155	368.72
395.534	363.97
395.913	351.77
396.292	356.29
396.671	362.17
397.05	373.69
397.429	360.13
397.808	376.4
398.186	381.37
398.565	392.9
398.944	370.75
399.323	376.4
399.701	372.56
400.08	388.61
400.458	382.96
400.837	399
401.215	399.68
401.594	403.07
401.972	419.79
402.351	404.42
402.729	390.87
403.107	416.63
403.486	416.85
403.864	405.78
404.242	404.65
404.62	405.78
404.999	406.46
405.377	408.04
405.755	424.76
406.133	416.63
406.511	410.07
406.889	420.24
407.267	412.56
407.645	421.83
408.023	429.96
408.401	418.44
408.779	435.16
409.156	445.55
409.534	440.58
409.912	431.09
410.29	454.37
410.667	446.46
411.045	459.34
411.422	438.1
411.8	455.04
412.178	455.72
412.555	459.11
412.933	462.73
413.31	485.78
413.687	454.59
414.065	457.08
414.442	484.87
414.819	475.83
415.197	470.64
415.574	481.94
415.951	497.76
416.328	483.07
416.705	504.53
417.082	500.24
417.46	509.73
417.837	513.57
418.214	493.24
418.591	493.46
418.967	520.81
419.344	523.29
419.721	518.55
420.098	521.71
420.475	528.94
420.852	531.88
421.228	520.81
421.605	552.22
421.982	526.23
422.358	540.01
422.735	562.39
423.111	538.88
423.488	561.48
423.864	536.85
424.241	586.11
424.617	578.88
424.994	576.4
425.37	549.05
425.746	584.08
426.123	601.26
426.499	575.27
426.875	602.16
427.251	556.06
427.627	608.26
428.003	599.22
428.379	591.76
428.756	623.63
429.132	618.2
429.507	623.85
429.883	624.53
430.259	636.28
430.635	653.46
431.011	630.86
431.387	666.79
431.763	663.85
432.138	683.74
432.514	672.89
432.89	677.86
433.265	683.74
433.641	667.69
434.016	679.67
434.392	687.13
434.767	701.59
435.143	698.88
435.518	698.43
435.894	706.56
436.269	716.73
436.644	741.82
437.02	732.33
437.395	737.75
437.77	734.13
438.145	751.76
438.52	768.48
438.895	774.13
439.271	778.88
439.646	792.66
440.021	801.93
440.395	804.19
440.77	789.95
441.145	788.82
441.52	775.71
441.895	814.81
442.27	817.29
442.645	805.77
443.019	801.48
443.394	832.89
443.769	818.2
444.143	816.84
444.518	848.25
444.892	835.83
445.267	831.31
445.641	841.02
446.016	829.05
446.39	840.35
446.764	848.48
447.139	855.03
447.513	862.49
447.887	902.94
448.262	883.96
448.636	902.72
449.01	930.74
449.384	912.66
449.758	909.5
450.132	898.65
450.506	914.92
450.88	897.07
451.254	875.82
451.628	907.46
452.002	931.42
452.376	936.16
452.75	951.53
453.123	958.76
453.497	979.55
453.871	982.26
454.244	985.88
454.618	1028.81
454.992	1015.03
455.365	1010.06
455.739	1031.07
456.112	1034.01
456.486	1040.57
456.859	1044.63
457.232	1071.07
457.606	1072.43
457.979	1085.31
458.352	1098.87
458.725	1123.28
459.099	1108.13
459.472	1126.67
459.845	1127.57
460.218	1166.21
460.591	1156.04
460.964	1150.62
461.337	1176.38
461.71	1211.86
462.083	1234.01
462.456	1194.69
462.829	1198.3
463.201	1232.43
463.574	1235.14
463.947	1220
464.32	1304.97
464.692	1304.74
465.065	1287.34
465.438	1309.03
465.81	1327.34
466.183	1344.29
466.555	1335.02
466.928	1380.67
467.3	1367.56
467.672	1389.71
468.045	1413.21
468.417	1435.36
468.789	1431.06
469.161	1451.85
469.534	1459.76
469.906	1471.97
470.278	1515.36
470.65	1518.97
471.022	1531.4
471.394	1566.88
471.766	1557.84
472.138	1563.94
472.51	1617.05
472.882	1624.51
473.253	1669.7
473.625	1669.7
473.997	1674.67
474.369	1677.84
474.74	1721
475.112	1762.81
475.484	1777.5
475.855	1767.78
476.227	1818.85
476.598	1854.1
476.97	1869.24
477.341	1895.91
477.713	1943.14
478.084	1909.47
478.455	2006.19
478.827	2005.51
479.198	2063.14
479.569	2057.04
479.94	2110.82
480.311	2122.57
480.682	2170.93
481.053	2213.64
481.424	2259.52
481.795	2239.4
482.166	2298.39
482.537	2303.36
482.908	2369.57
483.279	2353.98
483.65	2396.69
484.021	2455.9
484.391	2486.4
484.762	2494.76
485.133	2530.47
485.503	2584.25
485.874	2614.76
486.244	2636.46
486.615	2673.97
486.985	2708.77
487.356	2761.2
487.726	2768.66
488.097	2801.88
488.467	2842.33
488.837	2872.38
489.207	2903.79
489.578	2953.28
489.948	2963.45
490.318	2994.64
490.688	3072.6
491.058	3060.4
491.428	3135.43
491.798	3146.05
492.168	3189.66
492.538	3216.78
492.908	3242.09
493.278	3230.34
493.648	3300.17
494.017	3330.9
494.387	3350.34
494.757	3356.66
495.126	3399.83
495.496	3407.06
495.866	3448.41
496.235	3454.06
496.605	3528.86
496.974	3510.78
497.344	3565.02
497.713	3605.24
498.082	3627.39
498.452	3675.07
498.821	3654.73
499.19	3694.28
499.559	3683.43
499.928	3696.09
500.298	3774.96
500.667	3792.58
501.036	3818.12
501.405	3794.39
501.774	3861.51
502.143	3876.88
502.512	3894.5
502.88	3949.87
503.249	3965.46
503.618	3989.41
503.987	4017.66
504.356	3993.71
504.724	4057.21
505.093	4023.09
505.462	4079.81
505.83	4105.34
506.199	4187.15
506.567	4173.82
506.936	4195.96
507.304	4222.86
507.672	4324.32
508.041	4256.98
508.409	4290.42
508.777	4341.95
509.145	4342.63
509.514	4367.48
509.882	4432.79
510.25	4392.34
510.618	4448.61
510.986	4469.85
511.354	4484.09
511.722	4555.5
512.09	4611.55
512.458	4573.35
512.826	4610.64
513.193	4621.04
513.561	4653.8
513.929	4705.33
514.297	4756.17
514.664	4774.25
515.032	4810.64
515.4	4797.3
515.767	4815.38
516.135	4883.18
516.502	4837.75
516.869	4922.95
517.237	4970.63
517.604	4955.72
517.972	5072.55
518.339	5040.91
518.706	5077.3
519.073	5085.21
519.44	5214.02
519.808	5208.82
520.175	5244.98
520.542	5258.99
520.909	5269.16
521.276	5283.62
521.643	5367.23
522.009	5387.8
522.376	5440
522.743	5455.14
523.11	5516.38
523.477	5524.52
523.843	5604.97
524.21	5643.61
524.577	5677.96
524.943	5679.54
525.31	5730.39
525.676	5771.74
526.043	5788.92
526.409	5830.27
526.776	5885.18
527.142	5904.17
527.508	5916.37
527.874	5931.28
528.241	5964.96
528.607	6065.29
528.973	6128.12
529.339	6125.86
529.705	6125.4
530.071	6217.6
530.437	6235.91
530.803	6248.79
531.169	6367.66
531.535	6358.39
531.901	6337.83
532.267	6408.79
532.632	6357.26
532.998	6517.03
533.364	6515.68
533.73	6502.8
534.095	6541.44
534.461	6590.25
534.826	6651.27
535.192	6674.77
535.557	6692.62
535.923	6656.69
536.288	6770.36
536.653	6766.74
537.019	6834.54
537.384	6794.99
537.749	6826.63
538.114	6867.76
538.479	6940.3
538.845	6900.75
539.21	6933.74
539.575	6946.4
539.94	6975.33
540.305	7008.77
540.67	7035.21
541.034	7120.63
541.399	7120.63
541.764	7166.51
542.129	7183.23
542.494	7183.68
542.858	7189.33
543.223	7187.75
543.587	7249.89
543.952	7310.68
544.316	7304.13
544.681	7317.91
545.045	7347.97
545.41	7433.84
545.774	7367.41
546.138	7475.88
546.503	7525.59
546.867	7485.59
547.231	7585.93
547.595	7678.81
547.959	7599.49
548.324	7674.06
548.688	7625.48
549.052	7736.21
549.416	7711.8
549.779	7728.98
550.143	7796.32
550.507	7846.49
550.871	7893.04
551.235	7872.48
551.599	7897.11
551.962	7893.94
552.326	7949.08
552.689	8043.55
553.053	7964.45
553.417	8012.13
553.78	8141.62
554.143	8090.32
554.507	8174.84
554.87	8172.81
555.234	8276.31
555.597	8200.6
555.96	8276.53
556.323	8295.06
556.686	8338
557.05	8420.94
557.413	8425
557.776	8503.87
558.139	8470.88
558.502	8532.8
558.865	8554.49
559.228	8614.83
559.59	8649.41
559.953	8647.6
560.316	8712.45
560.679	8740.25
561.041	8762.85
561.404	8832.23
561.767	8870.87
562.129	8828.61
562.492	8960.36
562.854	8910.19
563.217	8978.66
563.579	9043.97
563.941	9112.44
564.304	9060.92
564.666	9145.66
565.028	9188.83
565.39	9276.51
565.753	9285.77
566.115	9299.11
566.477	9267.47
566.839	9303.4
567.201	9440.12
567.563	9427.24
567.925	9514.92
568.287	9508.14
568.648	9485.54
569.01	9607.57
569.372	9602.15
569.734	9639.21
570.095	9708.13
570.457	9686.89
570.819	9718.3
571.18	9750.39
571.542	9791.97
571.903	9774.57
572.265	9844.85
572.626	9893.21
572.987	9955.13
573.349	10027.9
573.71	10042.82
574.071	10036.49
574.432	10059.09
574.794	10199.65
575.155	10180.66
575.516	10085.53
575.877	10104.73
576.238	10123.49
576.599	10267.44
576.96	10231.74
577.32	10232.19
577.681	10262.92
578.042	10349.93
578.403	10309.7
578.763	10303.15
579.124	10391.51
579.485	10388.34
579.845	10399.64
580.206	10406.65
580.566	10408.91
580.927	10464.72
581.287	10488
581.648	10371.39
582.008	10520.99
582.368	10482.13
582.728	10527.77
583.089	10481.67
583.449	10522.12
583.809	10493.42
584.169	10495.91
584.529	10507.66
584.889	10643.93
585.249	10567.77
585.609	10497.49
585.969	10559.19
586.329	10568.68
586.688	10626.3
587.048	10586.53
587.408	10567.55
587.768	10558.73
588.127	10590.82
588.487	10558.73
588.846	10570.71
589.206	10558.06
589.565	10597.38
589.925	10660.88
590.284	10604.16
590.643	10673.76
591.003	10656.13
591.362	10686.19
591.721	10654.78
592.08	10637.38
592.44	10721.67
592.799	10646.64
593.158	10670.14
593.517	10632.4
593.876	10668.56
594.235	10644.83
594.593	10633.08
594.952	10733.19
595.311	10682.12
595.67	10699.75
596.029	10729.12
596.387	10670.82
596.746	10758.95
597.104	10711.05
597.463	10758.5
597.822	10768.45
598.18	10687.77
598.538	10719.41
598.897	10835.34
599.255	10747.2
599.613	10866.3
599.972	10754.89
600.33	10837.6
600.688	10760.54
601.046	10758.5
601.404	10915.79
601.762	10781.1
602.12	10868.1
602.478	10911.72
602.836	10889.8
603.194	10814.55
603.552	10893.19
603.91	10842.34
604.268	10902
604.625	10831.04
604.983	10907.43
605.341	10901.55
605.698	10892.51
606.056	10940.64
606.413	10932.96
606.771	11000.53
607.128	10948.78
607.485	10948.55
607.843	10948.1
608.2	10975.22
608.557	11014.99
608.914	11009.12
609.272	11056.12
609.629	11097.02
609.986	11090.7
610.343	11061.09
610.7	11093.41
611.057	11089.34
611.414	11066.06
611.771	11105.39
612.127	11184.25
612.484	11180.19
612.841	11175.89
613.198	11187.19
613.554	11155.1
613.911	11201.88
614.267	11248.43
614.624	11245.04
614.98	11259.96
615.337	11332.05
615.693	11285.27
616.05	11290.01
616.406	11382.89
616.762	11238.72
617.118	11339.96
617.475	11261.09
617.831	11305.83
618.187	11314.19
618.543	11367.07
618.899	11420.41
619.255	11400.07
619.611	11379.05
619.967	11431.71
620.323	11474.42
620.678	11357.58
621.034	11355.55
621.39	11389.45
621.746	11324.82
622.101	11500.18
622.457	11456.56
622.812	11426.96
623.168	11407.75
623.523	11408.2
623.879	11516
624.234	11408.88
624.589	11587.18
624.945	11441.87
625.3	11467.18
625.655	11487.52
626.01	11456.11
626.365	11485.26
626.72	11449.11
627.075	11484.13
627.43	11486.17
627.785	11400.52
628.14	11490.69
628.495	11479.84
628.85	11494.75
629.205	11423.57
629.559	11463.57
629.914	11429.45
630.269	11509.22
630.623	11384.7
630.978	11392.61
631.332	11516.22
631.687	11490.46
632.041	11454.53
632.396	11452.95
632.75	11471.93
633.104	11439.39
633.459	11382.67
633.813	11397.58
634.167	11402.33
634.521	11397.36
634.875	11449.33
635.229	11351.26
635.583	11280.52
635.937	11337.92
636.291	11248.66
636.645	11294.08
636.999	11337.92
637.352	11267.64
637.706	11287.3
638.06	11264.25
638.413	11276
638.767	11328.88
639.121	11280.07
639.474	11261.31
639.828	11176.8
640.181	11291.14
640.534	11236.91
640.888	11161.66
641.241	11181.09
641.594	11176.57
641.947	11262.22
642.301	11217.25
642.654	11180.19
643.007	11086.86
643.36	11187.42
643.713	11175.67
644.066	11181.77
644.419	11159.62
644.771	11123.92
645.124	10957.14
645.477	10961.21
645.83	10815.68
646.182	10854.32
646.535	10872.17
646.888	10895.67
647.24	10749.92
647.593	10794.21
647.945	10828.56
648.298	10811.61
648.65	10775.23
649.002	10719.18
649.355	10772.06
649.707	10720.99
650.059	10797.6
650.411	11054.31
650.763	10993.75
651.115	11065.16
651.467	11084.14
651.819	11017.25
652.171	11086.63
652.523	11091.6
652.875	10934.99
653.227	11000.53
653.578	11023.58
653.93	11042.34
654.282	10985.62
654.633	10964.82
654.985	11045.27
655.337	11019.74
655.688	11069.45
656.039	11008.44
656.391	10934.09
656.742	10938.16
657.094	10975.45
657.445	10988.78
657.796	11059.96
658.147	10943.81
658.498	11004.37
658.849	11062.9
659.2	10932.74
659.551	10939.51
659.902	11010.25
660.253	11014.31
660.604	11067.87
660.955	10919.4
661.306	10986.29
661.656	10932.96
662.007	10944.94
662.358	10970.25
662.708	10968.21
663.059	10887.31
663.409	10906.75
663.76	10972.28
664.11	10926.18
664.461	11005.73
664.811	11021.77
665.161	10979.29
665.511	11056.35
665.862	10953.98
666.212	11014.31
666.562	11015.67
666.912	10982.23
667.262	10948.33
667.612	10951.94
667.962	10941.55
668.312	10908.33
668.662	11108.1
669.011	10946.75
669.361	10989.91
669.711	10930.7
670.06	10950.14
670.41	10952.17
670.76	10863.36
671.109	10911.27
671.459	10932.28
671.808	10907.43
672.157	10944.94
672.507	10824.94
672.856	10881.44
673.205	10849.12
673.554	10913.3
673.904	10816.35
674.253	10965.73
674.602	10857.03
674.951	10746.07
675.3	10726.19
675.649	10831.49
675.998	10829.01
676.346	10809.57
676.695	10890.02
677.044	10782.46
677.393	10825.85
677.741	10859.74
678.09	10833.08
678.438	10825.62
678.787	10792.17
679.135	10774.1
679.484	10715.11
679.832	10772.06
680.181	10696.13
680.529	10693.42
680.877	10693.65
681.225	10686.19
681.573	10733.42
681.922	10593.31
682.27	10642.8
682.618	10617.49
682.966	10589.69
683.314	10616.13
683.661	10627.88
684.009	10562.8
684.357	10457.49
684.705	10506.08
685.053	10520.09
685.4	10460.88
685.748	10456.82
686.095	10438.96
686.443	10370.72
686.79	10325.07
687.138	10418.62
687.485	10406.42
687.832	10353.09
688.18	10385.86
688.527	10330.94
688.874	10354.22
689.221	10294.79
689.568	10164.39
689.915	10197.84
690.262	10266.76
690.609	10176.6
690.956	10095.24
691.303	10215.01
691.65	10114.9
691.997	10041.46
692.344	10074.23
692.69	9976.6
693.037	9982.48
693.383	9887.79
693.73	9944.51
694.077	9904.29
694.423	9909.26
694.769	9887.79
695.116	9871.07
695.462	9777.96
695.808	9789.04
696.155	9800.56
696.501	9755.59
696.847	9712.2
697.193	9647.12
697.539	9623.84
697.885	9605.31
698.231	9536.61
698.577	9619.78
698.923	9562.6
699.269	9515.6
699.614	9492.77
699.96	9455.03
700.306	9464.75
700.651	9404.41
700.997	9359.67
701.342	9344.08
701.688	9362.15
702.033	9368.71
702.379	9318.54
702.724	9202.39
703.069	9287.81
703.415	9211.88
703.76	9181.37
704.105	9207.81
704.45	9155.15
704.795	9122.84
705.14	9081.71
705.485	9094.37
705.83	9023.86
706.175	9049.39
706.52	9015.72
706.865	8990.41
707.209	8933.24
707.554	8922.84
707.899	8947.02
708.243	8886.46
708.588	8866.35
708.932	8842.85
709.277	8812.79
709.621	8726.69
709.966	8783.87
710.31	8777.09
710.654	8665.22
710.998	8747.48
711.342	8739.57
711.687	8761.04
712.031	8676.75
712.375	8648.28
712.719	8697.31
713.063	8640.59
713.407	8695.51
713.75	8612.57
714.094	8619.58
714.438	8612.8
714.782	8536.41
715.125	8524.89
715.469	8568.5
715.812	8536.19
716.156	8466.81
716.499	8483.31
716.843	8515.62
717.186	8474.49
717.53	8524.44
717.873	8493.93
718.216	8488.96
718.559	8528.5
718.902	8400.37
719.246	8399.02
719.589	8452.12
719.932	8377.32
720.275	8360.15
720.617	8352.92
720.96	8389.75
721.303	8344.1
721.646	8381.16
721.989	8355.63
722.331	8378.45
722.674	8367.6
723.016	8303.2
723.359	8290.77
723.701	8371.22
724.044	8282.64
724.386	8227.95
724.729	8274.73
725.071	8258.91
725.413	8232.69
725.755	8252.58
726.097	8228.17
726.439	8231.34
726.782	8163.09
727.124	8229.98
727.465	8258.91
727.807	8194.28
728.149	8145.69
728.491	8155.18
728.833	8153.37
729.175	8205.8
729.516	8172.81
729.858	8153.15
730.199	8159.02
730.541	8201.96
730.882	8128.74
731.224	8209.64
731.565	8138.91
731.906	8136.88
732.248	8192.69
732.589	8116.31
732.93	8130.32
733.271	8159.93
733.612	8162.64
733.953	8150.44
734.294	8084
734.635	8133.26
734.976	8138.23
735.317	8082.64
735.658	8112.7
735.999	8075.18
736.339	8110.44
736.68	8090.32
737.021	8098.91
737.361	8056.2
737.702	8081.96
738.042	8078.8
738.383	8032.02
738.723	8094.39
739.063	8038.57
739.404	8043.77
739.744	8107.27
740.084	7968.29
740.424	8021.4
740.764	8034.96
741.104	8035.86
741.444	8023.21
741.784	8078.57
742.124	8004
742.464	7990.44
742.804	7987.73
743.143	8015.52
743.483	7964.45
743.823	7960.84
744.162	7974.85
744.502	7963.1
744.841	7939.82
745.181	7989.76
745.52	7907.05
745.86	8005.58
746.199	7972.59
746.538	7938.01
746.877	8001.29
747.216	7980.72
747.556	7997.9
747.895	7969.42
748.234	7907.73
748.573	7941.85
748.911	7910.89
749.25	7897.56
749.589	7922.87
749.928	7891.69
750.267	7937.56
750.605	7857.79
750.944	7872.7
751.283	7873.61
751.621	7870.67
751.96	7795.19
752.298	7844.68
752.636	7843.55
752.975	7852.14
753.313	7752.48
753.651	7797.9
753.989	7797.68
754.327	7806.72
754.666	7756.32
755.004	7757
755.342	7772.37
755.679	7750.22
756.017	7684.01
756.355	7745.25
756.693	7717.23
757.031	7792.48
757.368	7640.84
757.706	7646.27
758.044	7584.57
758.381	7655.08
758.719	7637.23
759.056	7702.76
759.394	7645.36
759.731	7598.13
760.068	7519.94
760.405	7492.83
760.743	7558.36
761.08	7463
761.417	7473.62
761.754	7483.79
762.091	7433.62
762.428	7406.05
762.765	7387.07
763.102	7385.48
763.438	7362.89
763.775	7346.39
764.112	7297.12
