Data from mousepad_grey_FLMS001491_00089.txt Node
Date: Wed Feb 08 14:30:04 GMT 2017
User: dcchb
Spectrometer: FLMS00149
Trigger mode: 0
Integration Time (sec): 2.000000E-2
Scans to average: 10
Electric dark correction enabled: true
Nonlinearity correction enabled: false
Boxcar width: 0
XAxis mode: Wavelengths
Number of Pixels in Spectrum: 2048
>>>>>Begin Spectral Data<<<<<
341.393	-10.71
341.776	-10.71
342.16	-10.71
342.543	-66.98
342.927	-60.65
343.31	-75.11
343.693	-54.77
344.077	-72.63
344.46	-62
344.843	-58.84
345.226	-40.31
345.61	-39.63
345.993	1.05
346.376	-10.25
346.759	5.34
347.142	36.75
347.525	40.82
347.908	65.45
348.291	76.52
348.674	70.87
349.057	116.75
349.44	121.27
349.823	142.51
350.206	174.6
350.588	151.32
350.971	192.68
351.354	197.42
351.737	201.04
352.119	236.75
352.502	221.15
352.884	229.97
353.267	255.28
353.65	251.89
354.032	268.16
354.414	307.03
354.797	273.58
355.179	298.44
355.562	286.46
355.944	301.83
356.326	308.61
356.709	275.61
357.091	322.39
357.473	308.83
357.855	319.45
358.238	324.2
358.62	337.53
359.002	324.2
359.384	310.42
359.766	302.05
360.148	292.34
360.53	335.5
360.912	306.12
361.294	303.64
361.676	325.78
362.057	314.03
362.439	313.35
362.821	314.26
363.203	304.09
363.584	309.06
363.966	295.27
364.348	297.99
364.729	297.08
365.111	309.96
365.493	279
365.874	297.99
366.256	291.88
366.637	286.46
367.019	289.4
367.4	304.31
367.781	305.22
368.163	299.79
368.544	275.39
368.925	279.91
369.306	299.12
369.688	283.3
370.069	294.82
370.45	279
370.831	290.3
371.212	307.03
371.593	287.37
371.974	283.98
372.355	275.16
372.736	309.74
373.117	275.39
373.498	291.66
373.879	304.99
374.26	304.09
374.641	304.54
375.021	293.01
375.402	278.78
375.783	307.03
376.163	297.53
376.544	302.73
376.925	294.14
377.305	312.68
377.686	299.34
378.066	299.34
378.447	308.16
378.827	307.48
379.208	307.48
379.588	296.86
379.968	309.74
380.349	315.84
380.729	310.64
381.109	304.77
381.489	337.08
381.87	311.55
382.25	303.41
382.63	340.92
383.01	305.67
383.39	323.3
383.77	307.25
384.15	313.35
384.53	316.74
384.91	318.1
385.29	310.19
385.67	316.07
386.049	335.05
386.429	324.2
386.809	323.07
387.189	335.73
387.568	315.39
387.948	331.66
388.328	351.09
388.707	343.18
389.087	339.12
389.466	312.68
389.846	338.89
390.225	343.41
390.605	333.01
390.984	325.56
391.363	347.02
391.743	359.68
392.122	324.2
392.501	349.28
392.881	341.83
393.26	353.35
393.639	355.16
394.018	326.46
394.397	344.99
394.776	359.23
395.155	366.23
395.534	380.7
395.913	370.75
396.292	342.96
396.671	347.48
397.05	349.06
397.429	356.74
397.808	366.46
398.186	361.71
398.565	390.64
398.944	372.79
399.323	378.44
399.701	372.79
400.08	380.47
400.458	410.3
400.837	382.28
401.215	394.71
401.594	380.24
401.972	396.29
402.351	383.63
402.729	384.31
403.107	379.57
403.486	393.58
403.864	398.1
404.242	398.32
404.62	402.39
404.999	407.36
405.377	403.97
405.755	412.79
406.133	419.79
406.511	403.52
406.889	419.34
407.267	414.82
407.645	425.21
408.023	422.73
408.401	415.27
408.779	441.71
409.156	434.71
409.534	442.16
409.912	443.52
410.29	454.14
410.667	460.24
411.045	457.76
411.422	447.36
411.8	413.01
412.178	446.23
412.555	466.12
412.933	467.02
413.31	486
413.687	462.95
414.065	483.07
414.442	468.83
414.819	481.26
415.197	472.9
415.574	472.22
415.951	481.26
416.328	494.59
416.705	510.18
417.082	493.69
417.46	500.47
417.837	511.77
418.214	523.74
418.591	496.63
418.967	511.09
419.344	517.19
419.721	498.43
420.098	495.04
420.475	517.19
420.852	535.27
421.228	534.36
421.605	523.74
421.982	519.68
422.358	538.88
422.735	551.31
423.111	520.35
423.488	565.1
423.864	565.1
424.241	596.96
424.617	548.6
424.994	554.93
425.37	546.57
425.746	588.83
426.123	563.29
426.499	575.49
426.875	582.27
427.251	584.98
427.627	620.24
428.003	602.84
428.379	617.98
428.756	619.11
429.132	614.36
429.507	619.56
429.883	617.07
430.259	638.77
430.635	629.05
431.011	629.05
431.387	639.67
431.763	646.68
432.138	657.3
432.514	671.76
432.89	655.94
433.265	688.48
433.641	683.06
434.016	672.44
434.392	674.93
434.767	707.69
435.143	696.62
435.518	692.78
435.894	704.08
436.269	715.6
436.644	719.9
437.02	737.75
437.395	716.51
437.77	728.71
438.145	760.8
438.52	774.58
438.895	759.22
439.271	744.98
439.646	730.29
440.021	778.2
440.395	787.01
440.77	771.87
441.145	755.38
441.52	823.4
441.895	780.46
442.27	785.21
442.645	790.4
443.019	819.1
443.394	807.35
443.769	808.26
444.143	809.84
444.518	820.23
444.892	814.81
445.267	866.56
445.641	839.22
446.016	823.17
446.39	823.85
446.764	852.55
447.139	851.64
447.513	861.81
447.887	851.42
448.262	886.22
448.636	872.21
449.01	874.47
449.384	887.35
449.758	902.26
450.132	895.71
450.506	897.52
450.88	897.97
451.254	867.01
451.628	918.31
452.002	921.7
452.376	942.49
452.75	933.45
453.123	934.35
453.497	968.7
453.871	939.1
454.244	994.92
454.618	967.35
454.992	989.04
455.365	1010.51
455.739	978.87
456.112	998.53
456.486	1012.54
456.859	1020.91
457.232	1034.01
457.606	1063.16
457.979	1074.46
458.352	1054.8
458.725	1088.02
459.099	1083.95
459.472	1103.39
459.845	1099.55
460.218	1134.12
460.591	1141.58
460.964	1140.9
461.337	1165.08
461.71	1184.97
462.083	1180.68
462.456	1184.06
462.829	1170.05
463.201	1204.18
463.574	1228.13
463.947	1236.27
464.32	1265.87
464.692	1245.76
465.065	1249.6
465.438	1269.71
465.81	1286.66
466.183	1296.38
466.555	1320.11
466.928	1344.06
467.3	1361.69
467.672	1359.65
468.045	1375.47
468.417	1387
468.789	1396.26
469.161	1388.13
469.534	1436.94
469.906	1460.67
470.278	1500.44
470.65	1480.55
471.022	1501.34
471.394	1497.73
471.766	1525.98
472.138	1530.95
472.51	1592.42
472.882	1595.81
473.253	1614.56
473.625	1621.34
473.997	1655.69
474.369	1637.61
474.74	1660.21
475.112	1728.23
475.484	1727.55
475.855	1769.59
476.227	1759.64
476.598	1805.52
476.97	1806.42
477.341	1856.14
477.713	1872.18
478.084	1880.77
478.455	1900.2
478.827	1957.15
479.198	1980.88
479.569	2007.55
479.94	2047.09
480.311	2053.87
480.682	2093.65
481.053	2129.8
481.424	2140.42
481.795	2167.09
482.166	2194.89
482.537	2240.76
482.908	2276.01
483.279	2310.59
483.65	2325.73
484.021	2367.31
484.391	2396.46
484.762	2398.27
485.133	2387.42
485.503	2446.18
485.874	2523.46
486.244	2519.85
486.615	2567.31
486.985	2606.85
487.356	2624.7
487.726	2664.03
488.097	2714.87
488.467	2706.06
488.837	2752.16
489.207	2755.1
489.578	2799.16
489.948	2796.9
490.318	2859.5
490.688	2901.08
491.058	2925.49
491.428	2923.68
491.798	2996.9
492.168	3067.86
492.538	3069.67
492.908	3073.96
493.278	3104.69
493.648	3122.55
494.017	3193.5
494.387	3165.93
494.757	3202.99
495.126	3233.95
495.496	3269.89
495.866	3249.1
496.235	3301.98
496.605	3328.64
496.974	3351.24
497.344	3386.94
497.713	3349.43
498.082	3438.02
498.452	3433.5
498.821	3466.26
499.19	3465.36
499.559	3502.65
499.928	3504.46
500.298	3555.08
500.667	3596.66
501.036	3570.67
501.405	3640.72
501.774	3601.18
502.143	3630.33
502.512	3730.66
502.88	3729.53
503.249	3675.52
503.618	3724.56
503.987	3807.27
504.356	3802.98
504.724	3778.35
505.093	3777.44
505.462	3852.02
505.83	3896.76
506.199	3881.4
506.567	3930.66
506.936	3953.48
507.304	3962.97
507.672	3991.22
508.041	3989.64
508.409	4006.82
508.777	4070.32
509.145	4094.5
509.514	4100.37
509.882	4127.26
510.25	4109.64
510.618	4159.35
510.986	4206.81
511.354	4227.6
511.722	4230.09
512.09	4291.33
512.458	4292.68
512.826	4349.63
513.193	4319.8
513.561	4362.96
513.929	4435.05
514.297	4441.83
514.664	4459.91
515.032	4445.22
515.4	4545.11
515.767	4524.54
516.135	4522.28
516.502	4524.99
516.869	4637.08
517.237	4603.64
517.604	4649.74
517.972	4704.42
518.339	4726.34
518.706	4720.92
519.073	4752.33
519.44	4790.75
519.808	4833.01
520.175	4779.9
520.542	4900.13
520.909	4930.18
521.276	4901.48
521.643	4941.48
522.009	4950.29
522.376	5012.66
522.743	5015.15
523.11	5058.54
523.477	5139.89
523.843	5150.06
524.21	5190.06
524.577	5228.93
524.943	5305.99
525.31	5288.82
525.676	5390.51
526.043	5385.08
526.409	5377.17
526.776	5463.5
527.142	5408.59
527.508	5490.62
527.874	5564.97
528.241	5554.57
528.607	5567.23
528.973	5663.04
529.339	5658.52
529.705	5691.29
530.071	5712.99
530.437	5783.27
530.803	5823.49
531.169	5833.21
531.535	5868.46
531.901	5846.32
532.267	5855.13
532.632	5924.73
532.998	5949.59
533.364	5948.91
533.73	5976.48
534.095	6037.27
534.461	6081.34
534.826	6070.04
535.192	6116.82
535.557	6134.44
535.923	6189.81
536.288	6185.52
536.653	6212.41
537.019	6197.27
537.384	6283.14
537.749	6310.03
538.114	6346.64
538.479	6351.84
538.845	6382.35
539.21	6357.26
539.575	6405.4
539.94	6465.51
540.305	6540.08
540.67	6474.1
541.034	6526.07
541.399	6558.16
541.764	6555.9
542.129	6570.59
542.494	6641.1
542.858	6639.74
543.223	6633.41
543.587	6693.75
543.952	6701.66
544.316	6804.71
544.681	6755.22
545.045	6734.88
545.41	6805.61
545.774	6866.63
546.138	6866.4
546.503	6858.94
546.867	6871.6
547.231	6964.03
547.595	7005.61
547.959	7037.02
548.324	7015.1
548.688	7019.84
549.052	7045.15
549.416	7061.88
549.779	7119.73
550.143	7089.22
550.507	7257.8
550.871	7158.82
551.235	7252.61
551.599	7276.33
551.962	7264.36
552.326	7276.11
552.689	7381.87
553.053	7318.82
553.417	7366.05
553.78	7476.1
554.143	7457.8
554.507	7451.02
554.87	7469.1
555.234	7571.69
555.597	7547.51
555.96	7559.49
556.323	7624.57
556.686	7646.95
557.05	7700.05
557.413	7709.77
557.776	7753.38
558.139	7790.22
558.502	7785.25
558.865	7779.37
559.228	7922.64
559.59	7904.79
559.953	7951.57
560.316	8004.68
560.679	7971.91
561.041	8082.64
561.404	8090.55
561.767	8134.16
562.129	8144.56
562.492	8181.85
562.854	8232.69
563.217	8237.44
563.579	8276.53
563.941	8245.12
564.304	8320.15
564.666	8368.51
565.028	8419.58
565.39	8450.09
565.753	8466.81
566.115	8434.27
566.477	8533.02
566.839	8544.55
567.201	8647.82
567.563	8610.99
567.925	8718.78
568.287	8663.87
568.648	8727.14
569.01	8698.9
569.372	8796.52
569.734	8801.94
570.095	8904.99
570.457	8834.94
570.819	8927.14
571.18	8937.76
571.542	8927.82
571.903	8956.74
572.265	9032.45
572.626	9104.99
572.987	9097.08
573.349	9079.68
573.71	9105.89
574.071	9208.03
574.432	9154.7
574.794	9246.23
575.155	9293.91
575.516	9167.36
575.877	9217.07
576.238	9253.68
576.599	9263.85
576.96	9353.79
577.32	9369.39
577.681	9409.61
578.042	9411.65
578.403	9465.88
578.763	9430.18
579.124	9422.27
579.485	9524.86
579.845	9520.79
580.206	9394.7
580.566	9473.56
580.927	9450.74
581.287	9502.72
581.648	9519.66
582.008	9601.24
582.368	9533.22
582.728	9489.61
583.089	9552.66
583.449	9521.92
583.809	9517.18
584.169	9620.91
584.529	9578.19
584.889	9666.78
585.249	9614.58
585.609	9612.54
585.969	9621.81
586.329	9598.98
586.688	9603.05
587.048	9628.81
587.408	9618.42
587.768	9733.22
588.127	9648.02
588.487	9663.16
588.846	9714.01
589.206	9656.16
589.565	9670.17
589.925	9680.56
590.284	9650.06
590.643	9688.93
591.003	9728.7
591.362	9704.97
591.721	9640.79
592.08	9707.68
592.44	9721.47
592.799	9709.04
593.158	9681.02
593.517	9661.58
593.876	9740.9
594.235	9705.65
594.593	9671.07
594.952	9739.55
595.311	9665.2
595.67	9671.07
596.029	9763.5
596.387	9708.59
596.746	9787
597.104	9720.79
597.463	9748.59
597.822	9769.6
598.18	9773.9
598.538	9698.42
598.897	9805.99
599.255	9680.79
599.613	9830.84
599.972	9779.32
600.33	9798.3
600.688	9784.06
601.046	9791.3
601.404	9809.6
601.762	9824.52
602.12	9885.08
602.478	9833.33
602.836	9859.09
603.194	9798.3
603.552	9841.01
603.91	9799.43
604.268	9859.54
604.625	9787.91
604.983	9852.99
605.341	9810.96
605.698	9851.18
606.056	9917.17
606.413	9880.79
606.771	9913.1
607.128	9941.35
607.485	9820.67
607.843	9855.48
608.2	9868.58
608.557	10008.92
608.914	9949.26
609.272	9965.75
609.629	9990.39
609.986	9998.97
610.343	9993.1
610.7	10049.14
611.057	9943.16
611.414	9947.68
611.771	10000.56
612.127	9978.64
612.484	10041.01
612.841	10079.88
613.198	10022.02
613.554	9974.79
613.911	10133.89
614.267	10093.89
614.624	10103.6
614.98	10129.14
615.337	10171.4
615.693	10139.99
616.05	10182.7
616.406	10213.21
616.762	10116.49
617.118	10104.51
617.475	10117.62
617.831	10150.61
618.187	10158.52
618.543	10250.95
618.899	10282.81
619.255	10210.04
619.611	10199.2
619.967	10260.66
620.323	10236.71
620.678	10181.57
621.034	10200.33
621.39	10199.2
621.746	10229.93
622.101	10287.1
622.457	10327.33
622.812	10206.43
623.168	10272.87
623.523	10309.93
623.879	10323.94
624.234	10240.78
624.589	10207.1
624.945	10273.54
625.3	10302.24
625.655	10262.92
626.01	10270.61
626.365	10219.31
626.72	10279.19
627.075	10287.55
627.43	10297.27
627.785	10241.91
628.14	10352.64
628.495	10333.65
628.85	10290.49
629.205	10243.26
629.559	10297.05
629.914	10243.71
630.269	10254.79
630.623	10218.86
630.978	10233.09
631.332	10244.39
631.687	10316.03
632.041	10202.58
632.396	10278.29
632.75	10162.59
633.104	10216.14
633.459	10211.4
633.813	10156.26
634.167	10182.47
634.521	10151.96
634.875	10200.55
635.229	10152.64
635.583	10148.12
635.937	10133.43
636.291	10046.88
636.645	10112.42
636.999	10097.28
637.352	10085.98
637.706	10097.95
638.06	10123.72
638.413	10131.63
638.767	10097.5
639.121	10165.98
639.474	9990.16
639.828	10003.04
640.181	10002.36
640.534	10083.49
640.888	10051.18
641.241	9892.08
641.594	9977.96
641.947	10025.64
642.301	9978.18
642.654	9972.08
643.007	9995.58
643.36	10056.83
643.713	10017.5
644.066	9978.86
644.419	9941.35
644.771	9933.21
645.124	9784.74
645.477	9790.39
645.83	9728.25
646.182	9739.77
646.535	9599.21
646.888	9696.16
647.24	9628.14
647.593	9727.57
647.945	9715.82
648.298	9639.21
648.65	9712.43
649.002	9679.66
649.355	9707
649.707	9705.65
650.059	9665.42
650.411	9821.13
650.763	9862.93
651.115	9901.12
651.467	9906.77
651.819	9895.7
652.171	9950.16
652.523	9839.43
652.875	9909.49
653.227	9785.42
653.578	9898.19
653.93	9845.31
654.282	9851.86
654.633	9833.33
654.985	9861.8
655.337	9851.86
655.688	9848.47
656.039	9890.5
656.391	9802.37
656.742	9842.82
657.094	9843.27
657.445	9897.06
657.796	9836.27
658.147	9838.98
658.498	9860.45
658.849	9887.79
659.2	9789.26
659.551	9817.74
659.902	9903.16
660.253	9845.08
660.604	9862.93
660.955	9819.54
661.306	9843.27
661.656	9857.28
662.007	9886.66
662.358	9787
662.708	9791.52
663.059	9780
663.409	9784.29
663.76	9871.97
664.11	9782.03
664.461	9786.1
664.811	9859.77
665.161	9827.23
665.511	9772.54
665.862	9852.54
666.212	9828.81
666.562	9846.44
666.912	9810.73
667.262	9810.96
667.612	9809.83
667.962	9826.78
668.312	9834.23
668.662	9842.82
669.011	9813.89
669.361	9805.08
669.711	9783.84
670.06	9724.18
670.41	9714.69
670.76	9765.53
671.109	9776.83
671.459	9824.29
671.808	9727.8
672.157	9749.26
672.507	9687.8
672.856	9766.44
673.205	9688.25
673.554	9702.26
673.904	9671.75
674.253	9756.72
674.602	9719.66
674.951	9575.48
675.3	9520.57
675.649	9680.34
675.998	9629.72
676.346	9654.8
676.695	9676.27
677.044	9617.06
677.393	9686.21
677.741	9580.45
678.09	9625.88
678.438	9560.57
678.787	9560.12
679.135	9600.79
679.484	9565.54
679.832	9633.56
680.181	9512.89
680.529	9547.91
680.877	9493.9
681.225	9469.5
681.573	9505.88
681.922	9479.67
682.27	9523.51
682.618	9505.65
682.966	9437.18
683.314	9444.64
683.661	9427.92
684.009	9330.74
684.357	9298.2
684.705	9373.23
685.053	9377.97
685.4	9312.66
685.748	9324.19
686.095	9302.27
686.443	9288.26
686.79	9215.72
687.138	9215.49
687.485	9252.33
687.832	9220.24
688.18	9160.8
688.527	9200.58
688.874	9025.67
689.221	9133.23
689.568	9075.61
689.915	9057.53
690.262	9053.91
690.609	9092.56
690.956	9022.73
691.303	8962.39
691.65	8889.4
691.997	8956.06
692.344	8881.49
692.69	8895.73
693.037	8914.03
693.383	8841.94
693.73	8800.81
694.077	8792.45
694.423	8741.83
694.769	8767.14
695.116	8648.95
695.462	8668.16
695.808	8657.31
696.155	8679.24
696.501	8609.63
696.847	8559.69
697.193	8513.82
697.539	8545.45
697.885	8509.3
698.231	8490.77
698.577	8450.31
698.923	8442.86
699.269	8454.16
699.614	8326.25
699.96	8381.62
700.306	8358.11
700.651	8266.82
700.997	8279.7
701.342	8333.26
701.688	8223.88
702.033	8282.41
702.379	8195.18
702.724	8166.25
703.069	8131.23
703.415	8071.57
703.76	8044
704.105	8135.97
704.45	8018.24
704.795	8026.82
705.14	8034.51
705.485	7997.67
705.83	7963.55
706.175	7920.84
706.52	7936.88
706.865	7851.91
707.209	7907.28
707.554	7839.94
707.899	7896.88
708.243	7811.46
708.588	7791.12
708.932	7745.25
709.277	7775.98
709.621	7739.82
709.966	7721.07
710.31	7683.56
710.654	7659.15
710.998	7662.31
711.342	7652.37
711.687	7662.76
712.031	7532.82
712.375	7559.94
712.719	7607.62
713.063	7594.52
713.407	7599.72
713.75	7524.92
714.094	7532.15
714.438	7544.58
714.782	7544.58
715.125	7466.61
715.469	7498.7
715.812	7489.44
716.156	7444.69
716.499	7427.74
716.843	7423.67
717.186	7413.28
717.53	7419.61
717.873	7424.13
718.216	7441.3
718.559	7445.14
718.902	7361.98
719.246	7355.65
719.589	7339.61
719.932	7313.85
720.275	7300.97
720.617	7360.85
720.96	7319.95
721.303	7340.74
721.646	7357.01
721.989	7329.89
722.331	7314.75
722.674	7271.59
723.016	7318.82
723.359	7298.71
723.701	7335.54
724.044	7280.63
724.386	7268.2
724.729	7264.58
725.071	7277.46
725.413	7286.05
725.755	7228.65
726.097	7205.38
726.439	7232.04
726.782	7209.44
727.124	7243.34
727.465	7194.08
727.807	7165.38
728.149	7248.09
728.491	7179.16
728.833	7196.56
729.175	7169.67
729.516	7183.91
729.858	7189.1
730.199	7155.89
730.541	7153.4
730.882	7152.5
731.224	7200.4
731.565	7181.87
731.906	7195.88
732.248	7126.51
732.589	7194.3
732.93	7114.08
733.271	7151.14
733.612	7084.25
733.953	7168.31
734.294	7162.89
734.635	7117.47
734.976	7174.42
735.317	7128.09
735.658	7142.1
735.999	7100.75
736.339	7164.47
736.68	7181.42
737.021	7112.72
737.361	7112.27
737.702	7150.24
738.042	7148.88
738.383	7149.56
738.723	7173.74
739.063	7110.24
739.404	7154.08
739.744	7163.79
740.084	7061.2
740.424	7145.94
740.764	7105.49
741.104	7140.74
741.444	7103.46
741.784	7063.68
742.124	7130.35
742.464	7120.41
742.804	7074.08
743.143	7064.81
743.483	7117.92
743.823	7047.64
744.162	7079.5
744.502	7143
744.841	7044.02
745.181	7059.16
745.52	7071.82
745.86	7098.26
746.199	7060.07
746.538	7037.24
746.877	7067.3
747.216	7094.42
747.556	7080.18
747.895	7129.22
748.234	7023.91
748.573	7099.39
748.911	7009.9
749.25	7032.27
749.589	6988.21
749.928	7049.45
750.267	7052.39
750.605	7014.42
750.944	6996.12
751.283	6992.05
751.621	7054.42
751.96	6948.21
752.298	7028.88
752.636	6989.56
752.975	7016.45
753.313	6886.97
753.651	6996.34
753.989	6975.78
754.327	6978.94
754.666	6899.62
755.004	6934.42
755.342	6881.99
755.679	6954.76
756.017	6904.82
756.355	6891.03
756.693	6881.32
757.031	6922.67
757.368	6828.44
757.706	6792.73
758.044	6819.17
758.381	6819.17
758.719	6789.12
759.056	6836.57
759.394	6724.71
759.731	6783.24
760.068	6785.95
760.405	6712.96
760.743	6694.88
761.08	6722
761.417	6701.21
761.754	6681.1
762.091	6668.67
762.428	6645.39
762.765	6637.71
763.102	6635.22
763.438	6595.22
763.775	6602.68
764.112	6620.53
764.449	6565.39
764.785	6519.29
765.122	6531.27
765.458	6492.4
765.795	6446.07
766.131	6481.1
766.467	6455.11
766.804	6426.41
767.14	6389.8
767.476	6426.86
767.812	6351.84
768.148	6411.27
768.485	6346.64
768.821	6309.35
769.157	6290.15
769.492	6265.51
