Data from mousepad_grey_FLMS001491_00096.txt Node
Date: Wed Feb 08 14:30:13 GMT 2017
User: dcchb
Spectrometer: FLMS00149
Trigger mode: 0
Integration Time (sec): 2.000000E-2
Scans to average: 10
Electric dark correction enabled: true
Nonlinearity correction enabled: false
Boxcar width: 0
XAxis mode: Wavelengths
Number of Pixels in Spectrum: 2048
>>>>>Begin Spectral Data<<<<<
341.393	-15.21
341.776	-15.21
342.16	-15.21
342.543	-36.68
342.927	-40.52
343.31	-57.24
343.693	-54.76
344.077	-55.44
344.46	-52.95
344.843	-48.88
345.226	-46.17
345.61	-28.54
345.993	-17.02
346.376	-16.12
346.759	15.75
347.142	30.21
347.525	32.02
347.908	39.7
348.291	73.15
348.674	84.9
349.057	101.4
349.44	138.46
349.823	144.11
350.206	150.43
350.588	182.52
350.971	167.83
351.354	205.57
351.737	196.99
352.119	252.13
352.502	253.48
352.884	261.39
353.267	276.08
353.65	269.07
354.032	277.89
354.414	285.35
354.797	287.61
355.179	307.72
355.562	311.56
355.944	302.07
356.326	336.64
356.709	313.59
357.091	304.55
357.473	316.53
357.855	317.44
358.238	331.67
358.62	328.73
359.002	339.58
359.384	324.21
359.766	326.7
360.148	315.4
360.53	331.9
360.912	314.95
361.294	315.18
361.676	303.2
362.057	313.82
362.439	317.89
362.821	329.64
363.203	312.24
363.584	307.27
363.966	307.27
364.348	287.83
364.729	311.33
365.111	311.11
365.493	315.18
365.874	300.71
366.256	318.79
366.637	293.26
367.019	293.71
367.4	280.15
367.781	289.87
368.163	283.54
368.544	294.84
368.925	320.37
369.306	303.65
369.688	287.61
370.069	302.97
370.45	285.8
370.831	283.76
371.212	283.54
371.593	291.67
371.974	300.71
372.355	311.56
372.736	287.83
373.117	280.6
373.498	292.58
373.879	286.25
374.26	288.96
374.641	287.38
375.021	274.5
375.402	323.31
375.783	327.38
376.163	307.49
376.544	304.78
376.925	314.27
377.305	326.47
377.686	314.27
378.066	305.91
378.447	292.58
378.827	338.23
379.208	299.36
379.588	314.95
379.968	319.02
380.349	330.54
380.729	306.36
381.109	323.76
381.489	309.3
381.87	300.94
382.25	333.25
382.63	323.31
383.01	340.94
383.39	317.66
383.77	327.15
384.15	349.98
384.53	348.39
384.91	338
385.29	311.79
385.67	327.6
386.049	327.15
386.429	352.24
386.809	330.77
387.189	330.32
387.568	338.23
387.948	326.93
388.328	341.84
388.707	333.93
389.087	340.71
389.466	345.01
389.846	338.45
390.225	351.56
390.605	357.89
390.984	328.51
391.363	362.63
391.743	359.47
392.122	373.48
392.501	350.65
392.881	370.09
393.26	348.39
393.639	350.88
394.018	348.39
394.397	352.91
394.776	348.17
395.155	355.63
395.534	344.78
395.913	366.47
396.292	381.61
396.671	350.88
397.05	364.89
397.429	359.02
397.808	364.67
398.186	362.86
398.565	389.52
398.944	398.79
399.323	385
399.701	370.77
400.08	384.78
400.458	399.69
400.837	380.26
401.215	383.42
401.594	389.75
401.972	379.35
402.351	401.27
402.729	414.83
403.107	400.37
403.486	400.82
403.864	414.38
404.242	439.92
404.62	404.66
404.999	413.25
405.377	398.34
405.755	421.61
406.133	402.86
406.511	442.63
406.889	423.65
407.267	435.4
407.645	425.23
408.023	437.21
408.401	432.91
408.779	434.95
409.156	418.45
409.534	423.87
409.912	457.77
410.29	456.87
410.667	466.13
411.045	448.05
411.422	447.15
411.8	465.45
412.178	470.88
412.555	464.78
412.933	467.94
413.31	491.44
413.687	452.35
414.065	476.98
414.442	478.56
414.819	502.52
415.197	487.83
415.574	497.54
415.951	491.44
416.328	487.15
416.705	487.37
417.082	500.93
417.46	506.81
417.837	520.14
418.214	491.44
418.591	514.72
418.967	512.68
419.344	520.82
419.721	528.5
420.098	525.79
420.475	519.92
420.852	520.14
421.228	531.21
421.605	535.28
421.982	528.96
422.358	540.93
422.735	536.19
423.111	569.41
423.488	550.88
423.864	564.43
424.241	570.08
424.617	554.27
424.994	551.55
425.37	562.17
425.746	589.97
426.123	585
426.499	596.98
426.875	592.23
427.251	598.56
427.627	590.2
428.003	594.49
428.379	596.07
428.756	608.27
429.132	644.66
429.507	625.9
429.883	642.62
430.259	632.46
430.635	640.14
431.011	657.09
431.387	636.97
431.763	663.41
432.138	654.15
432.514	677.65
432.89	668.61
433.265	671.32
433.641	678.1
434.016	686.92
434.392	686.47
434.767	702.28
435.143	684.21
435.518	727.14
435.894	717.2
436.269	704.09
436.644	726.46
437.02	757.42
437.395	782.28
437.77	736.18
438.145	744.32
438.52	779.12
438.895	771.66
439.271	770.98
439.646	779.12
440.021	796.97
440.395	792
440.77	781.83
441.145	788.38
441.52	785.45
441.895	801.26
442.27	809.17
442.645	793.81
443.019	817.76
443.394	824.77
443.769	828.38
444.143	799.91
444.518	835.61
444.892	812.34
445.267	831.55
445.641	846.01
446.016	867.48
446.39	863.64
446.764	850.98
447.139	848.49
447.513	851.43
447.887	892.11
448.262	879.91
448.636	883.3
449.01	904.31
449.384	895.27
449.758	889.62
450.132	915.16
450.506	918.32
450.88	924.42
451.254	901.83
451.628	921.26
452.002	938.89
452.376	929.4
452.75	943.63
453.123	961.94
453.497	984.76
453.871	1002.84
454.244	1003.29
454.618	993.8
454.992	1028.15
455.365	1014.59
455.739	1010.52
456.112	1026.8
456.486	1046.91
456.859	1050.07
457.232	1068.38
457.606	1047.13
457.979	1065.66
458.352	1104.53
458.725	1112.22
459.099	1109.5
459.472	1131.43
459.845	1117.87
460.218	1162.84
460.591	1165.1
460.964	1158.09
461.337	1156.51
461.71	1184.76
462.083	1220.69
462.456	1191.08
462.829	1203.97
463.201	1219.33
463.574	1222.04
463.947	1251.42
464.32	1281.25
464.692	1285.09
465.065	1278.31
465.438	1297.97
465.81	1323.06
466.183	1358.31
466.555	1351.31
466.928	1373.9
467.3	1360.35
467.672	1408.48
468.045	1424.3
468.417	1429.04
468.789	1418.42
469.161	1456.16
469.534	1457.07
469.906	1472.21
470.278	1492.55
470.65	1475.37
471.022	1560.34
471.394	1555.14
471.766	1579.77
472.138	1636.04
472.51	1591.75
472.882	1632.65
473.253	1668.81
473.625	1680.34
473.997	1678.98
474.369	1705.2
474.74	1737.74
475.112	1792.65
475.484	1769.6
475.855	1809.83
476.227	1795.36
476.598	1879.2
476.97	1885.08
477.341	1887.56
477.713	1943.83
478.084	1944.29
478.455	1962.14
478.827	2004.62
479.198	2048.24
479.569	2056.15
479.94	2084.39
480.311	2115.81
480.682	2165.75
481.053	2223.15
481.424	2252.3
481.795	2281.45
482.166	2302.47
482.537	2323.26
482.908	2361
483.279	2344.95
483.65	2404.16
484.021	2456.14
484.391	2468.11
484.762	2521.22
485.133	2551.5
485.503	2591.95
485.874	2608.22
486.244	2629.92
486.615	2680.54
486.985	2694.32
487.356	2761.44
487.726	2773.19
488.097	2821.78
488.467	2799.18
488.837	2861.1
489.207	2930.47
489.578	2934.09
489.948	2977.93
490.318	3018.38
490.688	3029
491.058	3115.78
491.428	3126.63
491.798	3167.3
492.168	3133.63
492.538	3232.61
492.908	3218.38
493.278	3297.47
493.648	3281.65
494.017	3350.12
494.387	3367.3
494.757	3393.74
495.126	3439.61
495.496	3450.69
495.866	3437.58
496.235	3487.75
496.605	3518.71
496.974	3531.36
497.344	3541.76
497.713	3582.89
498.082	3606.84
498.452	3643.45
498.821	3715.54
499.19	3721.41
499.559	3734.29
499.928	3717.8
500.298	3786.27
500.667	3774.52
501.036	3818.13
501.405	3832.82
501.774	3861.75
502.143	3846.38
502.512	3923.22
502.88	3929.77
503.249	3952.37
503.618	3995.53
503.987	3972.71
504.356	4005.47
504.724	4060.61
505.093	4071.91
505.462	4053.38
505.83	4121.4
506.199	4148.97
506.567	4200.95
506.936	4181.74
507.304	4205.69
507.672	4228.52
508.041	4293.15
508.409	4340.38
508.777	4343.77
509.145	4375.86
509.514	4371.34
509.882	4385.35
510.25	4440.26
510.618	4473.48
510.986	4459.7
511.354	4531.11
511.722	4557.55
512.09	4606.36
512.458	4590.32
512.826	4636.64
513.193	4643.65
513.561	4687.72
513.929	4713.7
514.297	4784.21
514.664	4751.22
515.032	4748.05
515.4	4856.98
515.767	4890.2
516.135	4881.38
516.502	4868.95
516.869	4985.56
517.237	4999.57
517.604	4965.9
517.972	5056.07
518.339	5031.44
518.706	5026.69
519.073	5099.23
519.44	5184.88
519.808	5145.1
520.175	5183.75
520.542	5255.84
520.909	5260.81
521.276	5297.64
521.643	5373.57
522.009	5405.66
522.376	5395.04
522.743	5419.67
523.11	5479.11
523.477	5541.48
523.843	5568.37
524.21	5627.8
524.577	5707.12
524.943	5696.05
525.31	5748.25
525.676	5794.81
526.043	5799.1
526.409	5820.12
526.776	5912.77
527.142	5884.29
527.508	6004.97
527.874	6025.99
528.241	6008.81
528.607	6033.22
528.973	6131.75
529.339	6130.39
529.705	6164.51
530.071	6172.65
530.437	6239.99
530.803	6289.03
531.169	6313.66
531.535	6346.43
531.901	6361.34
532.267	6389.37
532.632	6480.44
532.998	6446.54
533.364	6461.45
533.73	6516.37
534.095	6608.57
534.461	6586.42
534.826	6655.57
535.192	6666.19
535.557	6720.66
535.923	6717.27
536.288	6771.5
536.653	6759.75
537.019	6781.67
537.384	6814.21
537.749	6862.35
538.114	6792.29
538.479	6852.86
538.845	6968.11
539.21	6904.61
539.575	6998.84
539.94	6997.26
540.305	7072.96
540.67	7052.17
541.034	7069.8
541.399	7127.65
541.764	7100.53
542.129	7137.59
542.494	7250.59
542.858	7188.44
543.223	7262.79
543.587	7310.92
543.952	7265.05
544.316	7369.23
544.681	7336.01
545.045	7380.75
545.41	7396.57
545.774	7466.4
546.138	7487.87
546.503	7485.16
546.867	7530.13
547.231	7609.9
547.595	7578.49
547.959	7665.94
548.324	7647.86
548.688	7664.36
549.052	7758.6
549.416	7725.38
549.779	7749.33
550.143	7717.24
550.507	7865.03
550.871	7838.14
551.235	7908.42
551.599	7942.09
551.962	7946.61
552.326	7984.58
552.689	8023
553.053	7988.42
553.417	8005.37
553.78	8200.62
554.143	8167.4
554.507	8171.01
554.87	8172.37
555.234	8329.2
555.597	8235.42
555.96	8268.41
556.323	8354.51
556.686	8351.35
557.05	8354.06
557.413	8460.5
557.776	8480.61
558.139	8492.14
558.502	8527.61
558.865	8529.2
559.228	8641.06
559.59	8642.19
559.953	8689.87
560.316	8740.72
560.679	8748.63
561.041	8860.94
561.404	8842.18
561.767	8879.24
562.129	8864.78
562.492	9034.04
562.854	8924.67
563.217	8951.11
563.579	9085.11
563.941	9103.19
564.304	9040.6
564.666	9169.63
565.028	9218.44
565.39	9266.35
565.753	9240.82
566.115	9284.88
566.477	9336.86
566.839	9358.1
567.201	9434.03
567.563	9504.09
567.925	9480.58
568.287	9514.48
568.648	9542.5
569.01	9599.9
569.372	9686.23
569.734	9625.44
570.095	9668.6
570.457	9715.61
570.819	9741.82
571.18	9813.91
571.542	9822.95
571.903	9809.84
572.265	9880.8
572.626	9877.64
572.987	9929.61
573.349	9997.18
573.71	10000.8
574.071	10010.51
574.432	10037.63
574.794	10201.02
575.155	10164.18
575.516	10095.03
575.877	10254.58
576.238	10206.21
576.599	10210.73
576.96	10242.37
577.32	10271.3
577.681	10284.63
578.042	10237.85
578.403	10325.99
578.763	10309.94
579.124	10397.17
579.485	10457.28
579.845	10453.67
580.206	10372.99
580.566	10422.25
580.927	10425.87
581.287	10439.65
581.648	10450.05
582.008	10546.09
582.368	10466.32
582.728	10536.6
583.089	10415.47
583.449	10498.64
583.809	10502.03
584.169	10548.8
584.529	10542.03
584.889	10606.66
585.249	10557.84
585.609	10549.93
585.969	10630.16
586.329	10597.62
586.688	10542.48
587.048	10612.31
587.408	10586.09
587.768	10590.84
588.127	10597.84
588.487	10554.45
588.846	10652.53
589.206	10601.46
589.565	10652.53
589.925	10681.23
590.284	10632.87
590.643	10613.66
591.003	10645.53
591.362	10670.16
591.721	10673.32
592.08	10648.24
592.44	10658.18
592.799	10704.51
593.158	10694.34
593.517	10652.53
593.876	10764.84
594.235	10702.47
594.593	10728.01
594.952	10772.75
595.311	10719.42
595.67	10677.16
596.029	10775.24
596.387	10813.66
596.746	10805.75
597.104	10780.66
597.463	10798.74
597.822	10775.47
598.18	10743.83
598.538	10808.23
598.897	10885.07
599.255	10771.4
599.613	10900.43
599.972	10833.09
600.33	10859.53
600.688	10828.57
601.046	10808.68
601.404	10899.76
601.762	10854.56
602.12	10956.03
602.478	10903.15
602.836	10904.73
603.194	10831.96
603.552	10843.71
603.91	10872.19
604.268	10922.81
604.625	10885.29
604.983	10959.19
605.341	10858.85
605.698	10928.46
606.056	10984.73
606.413	10954.22
606.771	10935.91
607.128	11002.13
607.485	10910.83
607.843	10972.75
608.2	10997.15
608.557	10997.15
608.914	11002.13
609.272	11056.36
609.629	11037.61
609.986	11076.7
610.343	11034.89
610.7	11148.56
611.057	11115.8
611.414	11128
611.771	11120.54
612.127	11155.34
612.484	11117.83
612.841	11189.47
613.198	11208
613.554	11194.89
613.911	11217.94
614.267	11274.66
614.624	11258.62
614.98	11220.65
615.337	11324.83
615.693	11277.15
616.05	11261.1
616.406	11375.45
616.762	11322.57
617.118	11305.39
617.475	11334.09
617.831	11334.32
618.187	11369.35
618.543	11389.69
618.899	11398.73
619.255	11431.49
619.611	11352.85
619.967	11397.82
620.323	11497.25
620.678	11383.81
621.034	11350.82
621.39	11424.04
621.746	11426.07
622.101	11521.21
622.457	11374.09
622.812	11453.64
623.168	11490.25
623.523	11386.75
623.879	11507.2
624.234	11370.48
624.589	11518.04
624.945	11478.05
625.3	11542
625.655	11534.99
626.01	11487.76
626.365	11453.64
626.72	11501.77
627.075	11470.59
627.43	11453.87
627.785	11457.26
628.14	11443.02
628.495	11480.98
628.85	11475.79
629.205	11469.01
629.559	11568.66
629.914	11432.85
630.269	11496.35
630.623	11438.27
630.978	11456.13
631.332	11496.58
631.687	11549.23
632.041	11450.02
632.396	11439.85
632.75	11427.2
633.104	11404.6
633.459	11393.3
633.813	11373.42
634.167	11370.25
634.521	11404.6
634.875	11323.47
635.229	11364.83
635.583	11273.53
635.937	11326.19
636.291	11366.41
636.645	11318.5
636.999	11301.1
637.352	11333.87
637.706	11249.35
638.06	11363.47
638.413	11293.87
638.767	11261.78
639.121	11267.66
639.474	11187.21
639.828	11207.54
640.181	11263.59
640.534	11275.57
640.888	11221.56
641.241	11138.17
641.594	11223.59
641.947	11178.84
642.301	11143.14
642.654	11163.25
643.007	11171.16
643.36	11168.9
643.713	11126.87
644.066	11154.66
644.419	11137.49
644.771	11057.04
645.124	11013.43
645.477	10970.94
645.83	10841.68
646.182	10831.51
646.535	10761
646.888	10819.53
647.24	10772.08
647.593	10852.98
647.945	10915.8
648.298	10796.26
648.65	10792.87
649.002	10776.82
649.355	10838.06
649.707	10779.53
650.059	10855.69
650.411	10991.05
650.763	10907.21
651.115	11157.6
651.467	11087.77
651.819	11010.49
652.171	11058.4
652.523	10995.57
652.875	11064.27
653.227	11008.68
653.578	11127.55
653.93	11057.49
654.282	11017.27
654.633	10992.63
654.985	11021.33
655.337	11025.4
655.688	10997.61
656.039	11112.63
656.391	10927.1
656.742	11042.12
657.094	10992.86
657.445	11032.63
657.796	11062.46
658.147	11011.84
658.498	11042.12
658.849	10997.15
659.2	10991.28
659.551	10954.9
659.902	11073.76
660.253	10994.89
660.604	11068.11
660.955	10915.35
661.306	11015.23
661.656	10954.22
662.007	10993.99
662.358	11011.84
662.708	10996.25
663.059	10945.63
663.409	10940.66
663.76	11017.49
664.11	10958.96
664.461	11063.37
664.811	11027.89
665.161	10954.9
665.511	10928.91
665.862	10969.58
666.212	11047.77
666.562	10938.17
666.912	10985.63
667.262	10989.92
667.612	10968.45
667.962	10970.94
668.312	10989.7
668.662	10978.4
669.011	10998.06
669.361	11017.49
669.711	10985.4
670.06	10935.46
670.41	10876.93
670.76	10924.39
671.109	10957.16
671.459	10895.91
671.808	10898.85
672.157	10961.22
672.507	10890.49
672.856	10852.98
673.205	10934.11
673.554	10913.09
673.904	10875.8
674.253	10942.69
674.602	10948.57
674.951	10835.35
675.3	10671.29
675.649	10845.07
675.998	10849.14
676.346	10871.06
676.695	10877.84
677.044	10737.05
677.393	10808.01
677.741	10844.62
678.09	10688.46
678.438	10771.17
678.787	10815.46
679.135	10815.92
679.484	10711.74
679.832	10775.69
680.181	10715.58
680.529	10749.25
680.877	10748.57
681.225	10687.11
681.573	10740.66
681.922	10674.9
682.27	10605.07
682.618	10707.22
682.966	10619.99
683.314	10592.65
683.661	10640.78
684.009	10577.73
684.357	10503.83
684.705	10537.96
685.053	10588.8
685.4	10555.36
685.748	10454.57
686.095	10444.63
686.443	10401.69
686.79	10396.94
687.138	10430.62
687.485	10523.04
687.832	10368.02
688.18	10335.93
688.527	10298.42
688.874	10316.49
689.221	10307.91
689.568	10292.09
689.915	10267
690.262	10224.75
690.609	10185.65
690.956	10106.56
691.303	10121.25
691.65	10151.75
691.997	10114.24
692.344	10037.86
692.69	10042.83
693.037	9987.46
693.383	9993.56
693.73	9955.83
694.077	9916.05
694.423	9928.03
694.769	9888.03
695.116	9846.22
695.462	9831.54
695.808	9794.7
696.155	9842.38
696.501	9771.42
696.847	9720.8
697.193	9621.82
697.539	9665.44
697.885	9645.33
698.231	9607.13
698.577	9531.43
698.923	9611.43
699.269	9530.07
699.614	9505.22
699.96	9461.15
700.306	9464.54
700.651	9447.14
700.997	9433.81
701.342	9381.6
701.688	9344.77
702.033	9310.42
702.379	9372.79
702.724	9247.82
703.069	9271.32
703.415	9178.67
703.76	9215.73
704.105	9238.1
704.45	9212.12
704.795	9157.65
705.14	9103.19
705.485	9102.51
705.83	9025.45
706.175	9066.13
706.52	9024.32
706.865	9015.06
707.209	8975.96
707.554	8970.31
707.899	8977.32
708.243	8932.8
708.588	8860.94
708.932	8842.86
709.277	8808.51
709.621	8823.65
709.966	8770.09
710.31	8776.87
710.654	8759.25
710.998	8724.45
711.342	8773.48
711.687	8713.6
712.031	8672.7
712.375	8651.23
712.719	8646.26
713.063	8641.28
713.407	8684.67
713.75	8637.89
714.094	8633.83
714.438	8563.32
714.782	8651.23
715.125	8591.57
715.469	8617.33
715.812	8551.79
716.156	8492.36
716.499	8534.62
716.843	8542.53
717.186	8545.47
717.53	8502.76
717.873	8540.27
718.216	8480.38
718.559	8434.51
718.902	8387.28
719.246	8356.77
719.589	8428.86
719.932	8409.88
720.275	8377.11
720.617	8389.09
720.96	8349.54
721.303	8406.26
721.646	8388.18
721.989	8365.13
722.331	8321.74
722.674	8328.98
723.016	8363.33
723.359	8345.92
723.701	8335.3
724.044	8259.15
724.386	8250.79
724.729	8306.83
725.071	8311.35
725.413	8268.19
725.755	8254.18
726.097	8269.54
726.439	8207.85
726.782	8286.49
727.124	8214.18
727.465	8198.13
727.807	8216.66
728.149	8213.05
728.491	8192.93
728.833	8256.21
729.175	8244.23
729.516	8210.56
729.858	8183.67
730.199	8166.04
730.541	8177.79
730.882	8113.39
731.224	8175.53
731.565	8130.11
731.906	8194.29
732.248	8129.43
732.589	8103.45
732.93	8072.26
733.271	8121.52
733.612	8145.48
733.953	8148.64
734.294	8088.53
734.635	8096.21
734.976	8116.55
735.317	8130.11
735.658	8105.25
735.999	8114.74
736.339	8103.45
736.68	8146.16
737.021	8031.36
737.361	8006.72
737.702	8066.16
738.042	8101.19
738.383	8148.64
738.723	8093.28
739.063	8051.92
739.404	8067.06
739.744	8057.12
740.084	8012.37
740.424	8039.94
740.764	7971.47
741.104	8031.36
741.444	8066.16
741.784	8023.67
742.124	8028.64
742.464	7983
742.804	8015.54
743.143	8039.04
743.483	8010.57
743.823	8006.05
744.162	8004.92
744.502	8011.7
744.841	7976.22
745.181	8037.23
745.52	7968.31
745.86	8007.85
746.199	7954.52
746.538	7941.87
746.877	7983.67
747.216	7949.55
747.556	8008.08
747.895	8008.76
748.234	7897.35
748.573	7949.55
748.911	7917.01
749.25	7950.23
749.589	7890.34
749.928	7974.86
750.267	7933.28
750.605	7927.4
750.944	7880.4
751.283	7862.77
751.621	7850.8
751.96	7878.82
752.298	7857.35
752.636	7863
752.975	7821.19
753.313	7847.41
753.651	7874.52
753.989	7764.92
754.327	7775.32
754.666	7743.45
755.004	7745.49
755.342	7801.98
755.679	7763.57
756.017	7778.03
756.355	7710.01
756.693	7680.18
757.031	7712.27
757.368	7614.64
757.706	7682.67
758.044	7634.53
758.381	7659.84
758.719	7616.9
759.056	7652.84
759.394	7601.31
759.731	7594.31
760.068	7558.15
760.405	7508.21
760.743	7469.11
761.08	7500.52
761.417	7469.79
761.754	7495.1
762.091	7377.81
762.428	7402.22
762.765	7376.91
763.102	7439.51
763.438	7393.63
763.775	7361.32
764.112	7346.85
