Data from mousepad_grey_FLMS001491_00032.txt Node
Date: Wed Feb 08 14:29:20 GMT 2017
User: dcchb
Spectrometer: FLMS00149
Trigger mode: 0
Integration Time (sec): 2.000000E-2
Scans to average: 10
Electric dark correction enabled: true
Nonlinearity correction enabled: false
Boxcar width: 0
XAxis mode: Wavelengths
Number of Pixels in Spectrum: 2048
>>>>>Begin Spectral Data<<<<<
341.393	-14.08
341.776	-14.08
342.16	-14.08
342.543	-61.31
342.927	-86.17
343.31	-67.87
343.693	-53.85
344.077	-60.41
344.46	-65.83
344.843	-33.74
345.226	-61.31
345.61	-18.15
345.993	-21.09
346.376	-9.11
346.759	19.36
347.142	23.43
347.525	55.97
347.908	49.42
348.291	66.14
348.674	81.51
349.057	95.52
349.44	115.41
349.823	142.98
350.206	177.33
350.588	190.66
350.971	211
351.354	225.23
351.737	230.88
352.119	243.99
352.502	247.38
352.884	242.18
353.267	286.02
353.65	281.28
354.032	300.94
354.414	290.77
354.797	294.16
355.179	307.04
355.562	308.17
355.944	310.2
356.326	309.53
356.709	296.87
357.091	335.74
357.473	321.05
357.855	306.14
358.238	327.38
358.62	323.31
359.002	314.95
359.384	311.79
359.766	330.54
360.148	326.47
360.53	320.6
360.912	317.89
361.294	308.85
361.676	306.14
362.057	324.67
362.439	321.95
362.821	324.44
363.203	300.49
363.584	314.95
363.966	300.49
364.348	316.31
364.729	301.84
365.111	296.19
365.493	295.51
365.874	296.87
366.256	295.97
366.637	296.87
367.019	304.78
367.4	289.19
367.781	291.9
368.163	283.99
368.544	308.17
368.925	321.73
369.306	293.93
369.688	272.24
370.069	283.54
370.45	265.91
370.831	296.19
371.212	297.32
371.593	301.39
371.974	302.29
372.355	301.62
372.736	309.3
373.117	312.92
373.498	298.68
373.879	270.43
374.26	307.94
374.641	290.54
375.021	293.93
375.402	301.84
375.783	291.22
376.163	316.98
376.544	316.08
376.925	304.33
377.305	287.61
377.686	307.94
378.066	320.37
378.447	319.92
378.827	304.33
379.208	288.51
379.588	309.53
379.968	310.88
380.349	309.98
380.729	318.11
381.109	303.65
381.489	328.96
381.87	313.14
382.25	317.44
382.63	315.63
383.01	305.68
383.39	310.66
383.77	319.47
384.15	320.37
384.53	308.4
384.91	319.92
385.29	315.63
385.67	323.31
386.049	318.79
386.429	318.11
386.809	327.6
387.189	326.93
387.568	309.53
387.948	318.34
388.328	336.19
388.707	337.55
389.087	324.21
389.466	343.2
389.846	332.8
390.225	347.26
390.605	337.1
390.984	306.36
391.363	339.81
391.743	325.57
392.122	333.48
392.501	352.46
392.881	329.64
393.26	345.91
393.639	357.89
394.018	363.08
394.397	348.85
394.776	350.2
395.155	361.95
395.534	342.29
395.913	348.17
396.292	360.15
396.671	341.62
397.05	349.52
397.429	376.19
397.808	357.89
398.186	344.33
398.565	355.4
398.944	360.6
399.323	366.47
399.701	363.76
400.08	364.67
400.458	363.54
400.837	390.65
401.215	371.67
401.594	365.12
401.972	375.74
402.351	396.08
402.729	387.72
403.107	374.83
403.486	382.29
403.864	389.98
404.242	392.69
404.62	393.37
404.999	405.34
405.377	409.18
405.755	396.3
406.133	416.42
406.511	417.09
406.889	409.18
407.267	414.61
407.645	431.33
408.023	399.01
408.401	412.8
408.779	418
409.156	427.94
409.534	426.13
409.912	438.34
410.29	419.13
410.667	410.09
411.045	435.4
411.422	465.23
411.8	441.5
412.178	454.83
412.555	444.66
412.933	465.91
413.31	464.32
413.687	451.89
414.065	458.67
414.442	461.39
414.819	476.3
415.197	469.07
415.574	472.01
415.951	465.45
416.328	478.56
416.705	476.98
417.082	486.7
417.46	482.4
417.837	492.12
418.214	504.55
418.591	502.97
418.967	502.06
419.344	497.09
419.721	496.87
420.098	496.64
420.475	497.32
420.852	493.93
421.228	521.72
421.605	523.08
421.982	510.88
422.358	517.66
422.735	522.4
423.111	503.64
423.488	523.53
423.864	533.25
424.241	539.8
424.617	542.97
424.994	542.97
425.37	545.68
425.746	526.02
426.123	542.29
426.499	563.98
426.875	563.08
427.251	550.65
427.627	564.43
428.003	578.9
428.379	590.42
428.756	562.63
429.132	580.25
429.507	596.98
429.883	599.91
430.259	604.66
430.635	593.59
431.011	590.2
431.387	627.48
431.763	619.8
432.138	636.07
432.514	615.28
432.89	630.65
433.265	634.04
433.641	642.85
434.016	664.32
434.392	647.6
434.767	664.32
435.143	688.05
435.518	689.18
435.894	684.88
436.269	693.02
436.644	690.76
437.02	707.93
437.395	692.57
437.77	709.52
438.145	722.17
438.52	713.81
438.895	725.33
439.271	723.07
439.646	726.69
440.021	734.6
440.395	742.51
440.77	738.67
441.145	722.85
441.52	737.99
441.895	754.94
442.27	732.11
442.645	738.67
443.019	758.78
443.394	768.27
443.769	793.81
444.143	769.63
444.518	792.9
444.892	783.19
445.267	765.78
445.641	787.03
446.016	808.95
446.39	796.29
446.764	803.75
447.139	806.91
447.513	794.71
447.887	783.64
448.262	821.15
448.636	815.05
449.01	845.1
449.384	848.49
449.758	838.55
450.132	853.47
450.506	871.77
450.88	872.22
451.254	864.99
451.628	848.49
452.002	878.32
452.376	870.19
452.75	913.8
453.123	902.5
453.497	908.83
453.871	904.54
454.244	930.75
454.618	919.23
454.992	940.7
455.365	962.16
455.739	959.9
456.112	950.41
456.486	939.11
456.859	947.93
457.232	999
457.606	996.97
457.979	1012.56
458.352	1010.52
458.725	1040.35
459.099	1029.05
459.472	1053.46
459.845	1058.43
460.218	1037.64
460.591	1068.83
460.964	1072.44
461.337	1079.68
461.71	1080.13
462.083	1134.36
462.456	1107.7
462.829	1129.17
463.201	1135.04
463.574	1137.98
463.947	1160.35
464.32	1176.4
464.692	1177.07
465.065	1170.97
465.438	1236.96
465.81	1210.52
466.183	1230.41
466.555	1249.16
466.928	1271.08
467.3	1274.02
467.672	1270.18
468.045	1300.91
468.417	1291.42
468.789	1328.93
469.161	1340.69
469.534	1355.15
469.906	1369.61
470.278	1369.16
470.65	1395.37
471.022	1419.1
471.394	1426.78
471.766	1440.57
472.138	1441.93
472.51	1479.66
472.882	1505.88
473.253	1510.4
473.625	1540.91
473.997	1556.27
474.369	1579.55
474.74	1572.09
475.112	1566.22
475.484	1634.24
475.855	1641.92
476.227	1649.38
476.598	1705.65
476.97	1698.19
477.341	1744.29
477.713	1783.61
478.084	1775.02
478.455	1818.86
478.827	1837.85
479.198	1871.07
479.569	1886.43
479.94	1931.4
480.311	1960.56
480.682	1962.14
481.053	2009.82
481.424	2036.49
481.795	2035.58
482.166	2072.19
482.537	2101.34
482.908	2157.84
483.279	2161.45
483.65	2175.92
484.021	2237.16
484.391	2255.46
484.762	2255.01
485.133	2308.57
485.503	2302.92
485.874	2368.23
486.244	2349.02
486.615	2429.47
486.985	2468.34
487.356	2490.26
487.726	2513.76
488.097	2532.52
488.467	2540.2
488.837	2577.94
489.207	2617.26
489.578	2638.28
489.948	2662.91
490.318	2687.09
490.688	2721.21
491.058	2769.12
491.428	2810.25
491.798	2809.12
492.168	2850.02
492.538	2862.9
492.908	2911.72
493.278	2936.12
493.648	2961.89
494.017	2974.31
494.387	3041.21
494.757	3013.86
495.126	3048.44
495.496	3066.06
495.866	3114.88
496.235	3121.43
496.605	3161.43
496.974	3179.28
497.344	3203.01
497.713	3219.05
498.082	3213.63
498.452	3279.39
498.821	3301.54
499.19	3301.31
499.559	3355.77
499.928	3329.11
500.298	3382.67
500.667	3405.04
501.036	3406.17
501.405	3438.94
501.774	3446.84
502.143	3464.7
502.512	3474.19
502.88	3501.98
503.249	3530.91
503.618	3517.35
503.987	3567.75
504.356	3609.78
504.724	3606.39
505.093	3636.9
505.462	3664.01
505.83	3671.7
506.199	3696.78
506.567	3757.8
506.936	3757.12
507.304	3779.04
507.672	3798.93
508.041	3831.47
508.409	3843.67
508.777	3889.77
509.145	3889.54
509.514	3905.82
509.882	3919.37
510.25	3947.4
510.618	3983.33
510.986	4033.5
511.354	4005.7
511.722	4074.85
512.09	4084.79
512.458	4045.47
512.826	4161.4
513.193	4165.92
513.561	4164.11
513.929	4217.67
514.297	4214.96
514.664	4240.72
515.032	4266.26
515.4	4319.59
515.767	4329.53
516.135	4400.27
516.502	4373.37
516.869	4408.18
517.237	4415.63
517.604	4467.61
517.972	4452.24
518.339	4485.01
518.706	4513.26
519.073	4558.91
519.44	4587.15
519.808	4627.15
520.175	4670.09
520.542	4686.13
520.909	4694.95
521.276	4694.5
521.643	4755.06
522.009	4777.2
522.376	4793.48
522.743	4815.17
523.11	4888.84
523.477	4942.62
523.843	4949.4
524.21	5025.79
524.577	5019.68
524.943	5031.89
525.31	5076.63
525.676	5151.43
526.043	5168.16
526.409	5174.93
526.776	5269.17
527.142	5210.87
527.508	5294.93
527.874	5309.85
528.241	5331.99
528.607	5383.06
528.973	5380.8
529.339	5419.22
529.705	5458.77
530.071	5494.25
530.437	5534.02
530.803	5561.14
531.169	5531.76
531.535	5565.21
531.901	5672.32
532.267	5689.5
532.632	5664.87
532.998	5713.23
533.364	5747.12
533.73	5808.59
534.095	5808.59
534.461	5797.74
534.826	5836.61
535.192	5889.49
535.557	5943.73
535.923	5920
536.288	5949.83
536.653	5978.3
537.019	5977.85
537.384	5990.05
537.749	6095.14
538.114	6080.45
538.479	6072.76
538.845	6126.77
539.21	6132.88
539.575	6171.29
539.94	6240.9
540.305	6198.86
540.67	6227.11
541.034	6352.76
541.399	6317.96
541.764	6325.41
542.129	6378.74
542.494	6397.73
542.858	6359.31
543.223	6413.55
543.587	6466.88
543.952	6415.13
544.316	6519.98
544.681	6435.92
545.045	6515.69
545.41	6540.1
545.774	6573.32
546.138	6586.65
546.503	6637.72
546.867	6627.78
547.231	6750.26
547.595	6716.81
547.959	6791.16
548.324	6732.63
548.688	6776.7
549.052	6818.28
549.416	6821.44
549.779	6832.74
550.143	6861.22
550.507	6910.48
550.871	6919.3
551.235	6936.47
551.599	7004.26
551.962	7060.53
552.326	7024.38
552.689	7078.61
553.053	7061.89
553.417	7073.19
553.78	7136.24
554.143	7157.03
554.507	7277.7
554.87	7235.45
555.234	7331.04
555.597	7306.18
555.96	7324.93
556.323	7342.34
556.686	7333.52
557.05	7434.54
557.413	7451.03
557.776	7431.37
558.139	7555.66
558.502	7441.32
558.865	7550.01
559.228	7554.98
559.59	7593.4
559.953	7703.68
560.316	7734.87
560.679	7772.38
561.041	7813.28
561.404	7798.82
561.767	7874.98
562.129	7851.93
562.492	7946.84
562.854	7898.93
563.217	7840.4
563.579	7954.3
563.941	8046.05
564.304	8070.45
564.666	8093.73
565.028	8054.86
565.39	8081.52
565.753	8184.57
566.115	8253.5
566.477	8226.15
566.839	8281.75
567.201	8315.19
567.563	8348.18
567.925	8370.56
568.287	8380.95
568.648	8413.49
569.01	8488.29
569.372	8572.36
569.734	8520.61
570.095	8596.31
570.457	8575.52
570.819	8592.02
571.18	8646.93
571.542	8683.09
571.903	8695.29
572.265	8698.68
572.626	8675.41
572.987	8685.35
573.349	8846.7
573.71	8743.43
574.071	8805.12
574.432	8824.78
574.794	8963.08
575.155	8856.19
575.516	8873.14
575.877	8930.77
576.238	9007.6
576.599	9026.58
576.96	8998.11
577.32	8975.06
577.681	9077.88
578.042	9100.03
578.403	9123.53
578.763	9090.09
579.124	9197.65
579.485	9230.2
579.845	9129.18
580.206	9199.69
580.566	9140.71
580.927	9174.15
581.287	9169.86
581.648	9206.47
582.008	9263.19
582.368	9223.19
582.728	9271.32
583.089	9205.79
583.449	9277.2
583.809	9274.26
584.169	9259.57
584.529	9276.07
584.889	9358.1
585.249	9293.02
585.609	9211.44
585.969	9337.99
586.329	9265.67
586.688	9266.35
587.048	9316.07
587.408	9275.39
587.768	9301.83
588.127	9361.04
588.487	9314.71
588.846	9397.2
589.206	9267.26
589.565	9364.2
589.925	9377.54
590.284	9353.58
590.643	9342.06
591.003	9391.55
591.362	9358.33
591.721	9394.94
592.08	9455.27
592.44	9393.13
592.799	9415.28
593.158	9312.45
593.517	9463.86
593.876	9399.46
594.235	9417.08
594.593	9367.37
594.952	9402.17
595.311	9414.82
595.67	9440.13
596.029	9490.3
596.387	9481.49
596.746	9472.9
597.104	9504.31
597.463	9487.59
597.822	9473.58
598.18	9437.65
598.538	9507.25
598.897	9474.71
599.255	9441.49
599.613	9544.76
599.972	9528.94
600.33	9486.46
600.688	9543.41
601.046	9533.01
601.404	9537.76
601.762	9514.48
602.12	9614.14
602.478	9603.74
602.836	9580.92
603.194	9488.72
603.552	9613.91
603.91	9562.39
604.268	9584.76
604.625	9548.6
604.983	9583.18
605.341	9575.27
605.698	9573.01
606.056	9577.08
606.413	9641.71
606.771	9650.3
607.128	9597.87
607.485	9628.83
607.843	9622.95
608.2	9687.36
608.557	9702.05
608.914	9688.94
609.272	9707.7
609.629	9725.55
609.986	9731.65
610.343	9719.22
610.7	9758.99
611.057	9812.1
611.414	9734.36
611.771	9756.28
612.127	9836.51
612.484	9786.34
612.841	9853.46
613.198	9829.05
613.554	9749.05
613.911	9826.11
614.267	9831.76
614.624	9857.52
614.98	9894.58
615.337	9972.1
615.693	9890.74
616.05	9904.08
616.406	10002.15
616.762	9966
617.118	9939.78
617.475	9912.66
617.831	9922.83
618.187	9954.02
618.543	9953.79
618.899	9999.89
619.255	9940.91
619.611	9954.7
619.967	10017.97
620.323	10003.06
620.678	10037.86
621.034	9970.29
621.39	9957.18
621.746	9963.51
622.101	10116.95
622.457	9997.18
622.812	10079.21
623.168	10015.03
623.523	10038.99
623.879	10136.39
624.234	10029.95
624.589	10053.45
624.945	10052.77
625.3	10080.34
625.655	10071.98
626.01	10054.35
626.365	10100.68
626.72	10037.63
627.075	10027.91
627.43	10092.09
627.785	10064.52
628.14	10076.05
628.495	10091.64
628.85	10093.22
629.205	10039.44
629.559	10101.81
629.914	9989.27
630.269	10034.47
630.623	9962.83
630.978	10047.57
631.332	10034.92
631.687	10081.02
632.041	10054.58
632.396	10038.31
632.75	10001.7
633.104	9973.45
633.459	9902.72
633.813	9974.36
634.167	9991.31
634.521	9934.81
634.875	9954.47
635.229	9960.12
635.583	9925.54
635.937	9905.21
636.291	9926.67
636.645	9868.14
636.999	9872.89
637.352	9891.65
637.706	9881.03
638.06	9914.47
638.413	9837.41
638.767	9870.63
639.121	9851.65
639.474	9806.23
639.828	9845.55
640.181	9899.33
640.534	9859.56
640.888	9799.45
641.241	9824.08
641.594	9789.05
641.947	9836.05
642.301	9826.79
642.654	9770.29
643.007	9873.79
643.36	9756.51
643.713	9791.99
644.066	9775.72
644.419	9769.84
644.771	9706.79
645.124	9637.19
645.477	9617.3
645.83	9557.42
646.182	9565.1
646.535	9483.75
646.888	9540.7
647.24	9451.21
647.593	9512
647.945	9513.35
648.298	9447.59
648.65	9412.79
649.002	9479
649.355	9481.49
649.707	9446.23
650.059	9584.08
650.411	9607.81
650.763	9596.51
651.115	9681.03
651.467	9702.5
651.819	9725.1
652.171	9717.64
652.523	9719.9
652.875	9719.45
653.227	9686
653.578	9696.85
653.93	9726.68
654.282	9692.78
654.633	9589.06
654.985	9655.95
655.337	9686.91
655.688	9737.07
656.039	9689.39
656.391	9597.87
656.742	9623.86
657.094	9629.28
657.445	9636.96
657.796	9673.8
658.147	9695.95
658.498	9629.96
658.849	9638.55
659.2	9674.25
659.551	9721.26
659.902	9706.11
660.253	9643.97
660.604	9690.97
660.955	9650.07
661.306	9633.35
661.656	9679.45
662.007	9702.5
662.358	9667.02
662.708	9665.21
663.059	9669.96
663.409	9603.29
663.76	9585.89
664.11	9684.42
664.461	9694.14
664.811	9727.36
665.161	9695.04
665.511	9659.34
665.862	9616.85
666.212	9683.74
666.562	9669.96
666.912	9636.96
667.262	9650.52
667.612	9637.19
667.962	9678.09
668.312	9586.8
668.662	9741.82
669.011	9643.07
669.361	9652.56
669.711	9640.13
670.06	9683.74
670.41	9602.84
670.76	9606.23
671.109	9592.67
671.459	9607.81
671.808	9592.67
672.157	9676.74
672.507	9478.78
672.856	9562.16
673.205	9594.48
673.554	9641.26
673.904	9566.01
674.253	9566.68
674.602	9602.39
674.951	9388.16
675.3	9371.89
675.649	9591.32
675.998	9517.19
676.346	9513.8
676.695	9487.14
677.044	9438.78
677.393	9479.68
677.741	9534.37
678.09	9421.38
678.438	9492.34
678.787	9403.07
679.135	9503.63
679.484	9366.24
679.832	9445.33
680.181	9460.47
680.529	9481.71
680.877	9357.65
681.225	9383.19
681.573	9468.61
681.922	9341.6
682.27	9279.01
682.618	9307.26
682.966	9294.83
683.314	9317.2
683.661	9221.38
684.009	9255.51
684.357	9305
684.705	9292.34
685.053	9180.7
685.4	9258.44
685.748	9149.97
686.095	9181.38
686.443	9173.93
686.79	9140.71
687.138	9153.36
687.485	9075.85
687.832	9154.94
688.18	9109.75
688.527	9014.61
688.874	9006.47
689.221	8968.51
689.568	9034.27
689.915	8980.94
690.262	8905.68
690.609	8928.51
690.956	8887.38
691.303	8831.56
691.65	8827.04
691.997	8850.09
692.344	8794.05
692.69	8740.94
693.037	8811.22
693.383	8732.58
693.73	8733.26
694.077	8709.53
694.423	8606.71
694.769	8706.82
695.116	8678.8
695.462	8660.49
695.808	8575.52
696.155	8623.88
696.501	8531.23
696.847	8538.91
697.193	8439.93
697.539	8464.34
697.885	8416.66
698.231	8427.05
698.577	8404.91
698.923	8373.72
699.269	8355.42
699.614	8312.03
699.96	8262.54
700.306	8275.42
700.651	8238.13
700.997	8211.46
701.342	8156.33
701.688	8187.06
702.033	8238.81
702.379	8130.79
702.724	8153.16
703.069	8163.1
703.415	8067.97
703.76	8035.88
704.105	8109.77
704.45	8008.98
704.795	7996.33
705.14	7962.43
705.485	7916.56
705.83	7864.58
706.175	7948.19
706.52	7931.7
706.865	7848.76
707.209	7776.9
707.554	7822.32
707.899	7861.19
708.243	7771.02
708.588	7727.41
708.932	7703.68
709.277	7706.62
709.621	7696
709.966	7710.01
710.31	7665.94
710.654	7639.5
710.998	7641.54
711.342	7639.95
711.687	7607.19
712.031	7597.02
712.375	7560.41
712.719	7609.45
713.063	7554.98
713.407	7553.63
713.75	7526.51
714.094	7503.91
714.438	7469.34
714.782	7496.91
715.125	7451.26
715.469	7525.61
715.812	7462.56
716.156	7423.24
716.499	7426.63
716.843	7405.84
717.186	7348.89
717.53	7392.05
717.873	7439.51
718.216	7392.5
718.559	7356.57
718.902	7316.35
719.246	7380.53
719.589	7367.42
719.932	7330.58
720.275	7323.8
720.617	7329.68
720.96	7293.97
721.303	7328.1
721.646	7322.45
721.989	7250.81
722.331	7314.09
722.674	7234.09
723.016	7306.86
723.359	7239.74
723.701	7247.42
724.044	7226.63
724.386	7174.43
724.729	7355.22
725.071	7234.09
725.413	7245.39
725.755	7163.58
726.097	7190.25
726.439	7211.49
726.782	7160.87
727.124	7258.27
727.465	7192.06
727.807	7099.4
728.149	7179.4
728.491	7122.23
728.833	7103.92
729.175	7135.79
729.516	7185.73
729.858	7166.97
730.199	7156.8
730.541	7161.1
730.882	7163.13
731.224	7118.84
731.565	7129.23
731.906	7152.28
732.248	7103.47
732.589	7056.47
732.93	7128.56
733.271	7075.68
733.612	7093.3
733.953	7123.58
734.294	7028.67
734.635	7060.08
734.976	7113.19
735.317	7044.94
735.658	7123.81
735.999	7156.8
736.339	7110.48
736.68	7114.32
737.021	7140.08
737.361	7081.33
737.702	7115.22
738.042	7077.71
738.383	7068.67
738.723	7097.37
739.063	7103.92
739.404	7096.92
739.744	7073.42
740.084	7047.65
740.424	7041.55
740.764	7050.59
741.104	7046.52
741.444	7032.74
741.784	7054.89
742.124	7103.02
742.464	7063.47
742.804	7086.97
743.143	7058.95
743.483	7065.05
743.823	6938.73
744.162	6989.35
744.502	7033.19
744.841	7050.14
745.181	7047.65
745.52	6997.49
745.86	7020.99
746.199	7042.91
746.538	6982.12
746.877	7071.83
747.216	7032.74
747.556	7021.67
747.895	7006.75
748.234	6957.49
748.573	6957.03
748.911	6996.81
749.25	6995.9
749.589	7014.21
749.928	6983.02
750.267	7024.6
750.605	6929.46
750.944	6941.67
751.283	7006.98
751.621	6973.53
751.96	6958.39
752.298	6930.82
752.636	6949.58
752.975	6927.88
753.313	6922.23
753.651	6888.34
753.989	6841.56
754.327	6867.55
754.666	6869.35
755.004	6857.15
755.342	6878.17
755.679	6852.18
756.017	6846.53
756.355	6835.23
756.693	6811.28
757.031	6837.72
757.368	6828.22
757.706	6804.27
758.044	6764.05
758.381	6775.34
758.719	6739.87
759.056	6811.05
759.394	6766.53
759.731	6713.43
760.068	6685.18
760.405	6655.57
760.743	6643.14
761.08	6681.79
761.417	6690.6
761.754	6639.98
762.091	6616.03
762.428	6498.74
762.765	6599.53
763.102	6573.54
763.438	6526.31
763.775	6537.38
764.112	6497.84
764.449	6493.77
764.785	6498.74
765.122	6459.87
765.458	6432.53
765.795	6395.02
766.131	6419.2
766.467	6396.82
766.804	6383.94
767.14	6375.81
767.476	6346.88
767.812	6347.33
768.148	6350.04
768.485	6275.92
768.821	6214.91
769.157	6188.02
769.492	6240.67
769.828	6201.35
770.164	6148.47
