Data from mousepad_grey_FLMS001491_00088.txt Node
Date: Wed Feb 08 14:30:03 GMT 2017
User: dcchb
Spectrometer: FLMS00149
Trigger mode: 0
Integration Time (sec): 2.000000E-2
Scans to average: 10
Electric dark correction enabled: true
Nonlinearity correction enabled: false
Boxcar width: 0
XAxis mode: Wavelengths
Number of Pixels in Spectrum: 2048
>>>>>Begin Spectral Data<<<<<
341.393	-20.1
341.776	-20.1
342.16	-20.1
342.543	-53.09
342.927	-61.68
343.31	-75.69
343.693	-65.97
344.077	-56.71
344.46	-69.36
344.843	-49.48
345.226	-46.99
345.61	-31.85
345.993	-6.09
346.376	-16.48
346.759	13.8
347.142	31.65
347.525	43.85
347.908	58.32
348.291	62.16
348.674	107.58
349.057	101.25
349.44	122.72
349.823	136.73
350.206	162.04
350.588	174.02
350.971	187.35
351.354	215.15
351.737	221.48
352.119	238.2
352.502	263.74
352.884	258.76
353.267	263.96
353.65	281.59
354.032	292.66
354.414	301.7
354.797	311.42
355.179	313
355.562	302.83
355.944	301.93
356.326	302.83
356.709	319.55
357.091	321.59
357.473	314.36
357.855	355.03
358.238	307.8
358.62	338.08
359.002	343.96
359.384	313.45
359.766	327.24
360.148	321.14
360.53	326.33
360.912	328.59
361.294	311.42
361.676	305.32
362.057	304.19
362.439	328.82
362.821	315.94
363.203	299.44
363.584	323.4
363.966	307.35
364.348	307.12
364.729	294.24
365.111	300.35
365.493	291.53
365.874	314.13
366.256	302.38
366.637	310.06
367.019	315.94
367.4	284.75
367.781	269.84
368.163	294.47
368.544	319.55
368.925	275.26
369.306	285.88
369.688	308.71
370.069	289.27
370.45	272.32
370.831	292.89
371.212	302.38
371.593	319.1
371.974	303.06
372.355	306.67
372.736	313.9
373.117	277.52
373.498	294.7
373.879	302.38
374.26	300.8
374.641	308.71
375.021	288.14
375.402	312.1
375.783	303.06
376.163	326.11
376.544	310.06
376.925	307.58
377.305	316.62
377.686	301.25
378.066	303.51
378.447	301.25
378.827	307.58
379.208	322.49
379.588	325.66
379.968	308.71
380.349	325.43
380.729	316.39
381.109	320.01
381.489	323.62
381.87	322.72
382.25	315.94
382.63	304.64
383.01	322.04
383.39	323.17
383.77	318.42
384.15	330.85
384.53	309.84
384.91	337.18
385.29	326.11
385.67	328.82
386.049	340.8
386.429	330.17
386.809	331.08
387.189	343.28
387.568	336.5
387.948	356.39
388.328	337.63
388.707	343.96
389.087	349.84
389.466	342.38
389.846	355.49
390.225	351.87
390.605	346.45
390.984	343.28
391.363	356.16
391.743	364.52
392.122	370.17
392.501	345.77
392.881	346.22
393.26	362.94
393.639	385.99
394.018	365.88
394.397	338.76
394.776	355.94
395.155	380.8
395.534	348.48
395.913	376.73
396.292	371.3
396.671	362.04
397.05	396.39
397.429	383.28
397.808	366.56
398.186	374.24
398.565	360.68
398.944	393.45
399.323	397.52
399.701	388.7
400.08	386.22
400.458	379.21
400.837	379.89
401.215	393.68
401.594	399.33
401.972	404.75
402.351	411.75
402.729	398.65
403.107	407.24
403.486	393
403.864	404.98
404.242	399.78
404.62	402.04
404.999	408.36
405.377	409.95
405.755	425.31
406.133	414.69
406.511	391.64
406.889	432.32
407.267	437.97
407.645	415.37
408.023	414.69
408.401	430.51
408.779	448.82
409.156	445.65
409.534	433
409.912	431.19
410.29	434.58
410.667	465.76
411.045	463.73
411.422	453.79
411.8	461.02
412.178	475.71
412.555	463.73
412.933	481.13
413.31	495.82
413.687	472.77
414.065	451.53
414.442	482.94
414.819	473.67
415.197	480
415.574	495.37
415.951	496.27
416.328	482.49
416.705	493.56
417.082	513.67
417.46	507.12
417.837	508.48
418.214	529.49
418.591	519.77
418.967	506.67
419.344	528.59
419.721	504.86
420.098	521.13
420.475	535.14
420.852	527.68
421.228	540.56
421.605	553.67
421.982	553.9
422.358	547.8
422.735	545.54
423.111	552.99
423.488	552.09
423.864	553.22
424.241	587.34
424.617	569.49
424.994	557.06
425.37	563.62
425.746	572.2
426.123	580.56
426.499	587.8
426.875	594.12
427.251	600.45
427.627	612.2
428.003	612.65
428.379	615.37
428.756	599.77
429.132	612.88
429.507	635.7
429.883	661.92
430.259	634.8
430.635	621.24
431.011	619.43
431.387	670.5
431.763	651.3
432.138	683.61
432.514	684.97
432.89	675.7
433.265	680.22
433.641	692.43
434.016	698.53
434.392	698.98
434.767	714.57
435.143	695.59
435.518	715.7
435.894	718.87
436.269	723.84
436.644	720.22
437.02	716.38
437.395	736.27
437.77	755.47
438.145	744.85
438.52	776.49
438.895	755.02
439.271	760.9
439.646	783.5
440.021	746.66
440.395	792.54
440.77	785.3
441.145	796.15
441.52	811.74
441.895	793.67
442.27	806.77
442.645	827.56
443.019	805.19
443.394	785.53
443.769	822.37
444.143	809.48
444.518	858.75
444.892	836.83
445.267	836.6
445.641	864.62
446.016	827.34
446.39	835.02
446.764	847.22
447.139	855.36
447.513	871.86
447.887	857.84
448.262	875.92
448.636	870.27
449.01	873.89
449.384	901.23
449.758	877.73
450.132	913.44
450.506	890.84
450.88	910.95
451.254	914.34
451.628	922.7
452.002	920.22
452.376	951.4
452.75	965.64
453.123	924.06
453.497	946.66
453.871	968.8
454.244	985.52
454.618	999.76
454.992	988.46
455.365	976.94
455.739	1025.07
456.112	1032.3
456.486	1028.69
456.859	1051.74
457.232	1045.86
457.606	1069.59
457.979	1073.43
458.352	1089.25
458.725	1098.97
459.099	1086.99
459.472	1109.36
459.845	1117.27
460.218	1108.23
460.591	1134.67
460.964	1133.77
461.337	1164.73
461.71	1164.73
462.083	1170.83
462.456	1178.51
462.829	1179.19
463.201	1185.97
463.574	1204.73
463.947	1197.04
464.32	1248.57
464.692	1259.64
465.065	1265.29
465.438	1278.85
465.81	1308.45
466.183	1315.91
466.555	1331.73
466.928	1334.89
467.3	1354.78
467.672	1346.42
468.045	1424.16
468.417	1371.05
468.789	1391.39
469.161	1402.01
469.534	1454.21
469.906	1475.23
470.278	1427.55
470.65	1445.85
471.022	1507.55
471.394	1508.68
471.766	1557.71
472.138	1549.35
472.51	1587.32
472.882	1614.43
473.253	1607.88
473.625	1630.48
473.997	1644.04
474.369	1659.86
474.74	1679.29
475.112	1724.71
475.484	1734.43
475.855	1755.45
476.227	1774.43
476.598	1815.79
476.97	1814.2
477.341	1872.73
477.713	1866.41
478.084	1912.73
478.455	1929.91
478.827	1943.01
479.198	1972.39
479.569	1987.31
479.94	2046.51
480.311	2081.32
480.682	2071.15
481.053	2144.14
481.424	2181.65
481.795	2159.05
482.166	2220.52
482.537	2245.15
482.908	2284.47
483.279	2273.85
483.65	2343.68
484.021	2375.54
484.391	2393.85
484.762	2421.42
485.133	2447.18
485.503	2491.25
485.874	2515.88
486.244	2520.85
486.615	2568.08
486.985	2603.79
487.356	2635.65
487.726	2641.53
488.097	2731.47
488.467	2683.56
488.837	2768.75
489.207	2782.54
489.578	2800.17
489.948	2824.8
490.318	2846.27
490.688	2893.5
491.058	2934.17
491.428	2989.09
491.798	2980.95
492.168	3013.27
492.538	3057.56
492.908	3065.02
493.278	3117.22
493.648	3096.43
494.017	3164.45
494.387	3191.57
494.757	3175.3
495.126	3254.62
495.496	3252.13
495.866	3273.15
496.235	3297.55
496.605	3320.83
496.974	3313.83
497.344	3361.51
497.713	3393.6
498.082	3432.01
498.452	3469.98
498.821	3484.67
499.19	3469.53
499.559	3505.23
499.928	3522.63
500.298	3578.9
500.667	3580.94
501.036	3592.46
501.405	3604.67
501.774	3612.8
502.143	3654.38
502.512	3650.09
502.88	3656.87
503.249	3718.79
503.618	3734.38
503.987	3772.12
504.356	3743.42
504.724	3756.98
505.093	3817.09
505.462	3847.14
505.83	3841.04
506.199	3858.44
506.567	3939.57
506.936	3930.31
507.304	3943.64
507.672	4016.86
508.041	3998.78
508.409	3992.9
508.777	4080.81
509.145	4117.87
509.514	4100.02
509.882	4133.69
510.25	4140.7
510.618	4163.07
510.986	4181.6
511.354	4261.15
511.722	4271.99
512.09	4252.33
512.458	4337.08
512.826	4352.22
513.193	4343.85
513.561	4342.5
513.929	4408.71
514.297	4424.76
514.664	4411.2
515.032	4493.91
515.4	4524.64
515.767	4515.83
516.135	4533.68
516.502	4492.78
516.869	4638.99
517.237	4627.24
517.604	4646.45
517.972	4662.72
518.339	4704.98
518.706	4704.98
519.073	4701.13
519.44	4774.58
519.808	4815.48
520.175	4822.94
520.542	4865.2
520.909	4968.92
521.276	4925.99
521.643	5003.95
522.009	4972.76
522.376	5039.66
522.743	5023.84
523.11	5099.09
523.477	5121.46
523.843	5184.51
524.21	5187.9
524.577	5255.47
524.943	5280.78
525.31	5315.81
525.676	5371.4
526.043	5424.05
526.409	5354.68
526.776	5440.32
527.142	5482.13
527.508	5496.59
527.874	5559.64
528.241	5574.1
528.607	5571.85
528.973	5570.49
529.339	5668.34
529.705	5728.45
530.071	5753.99
530.437	5728.68
530.803	5804.38
531.169	5836.24
531.535	5827.88
531.901	5929.35
532.267	5889.58
532.632	5883.7
532.998	5927.32
533.364	5986.07
533.73	6010.25
534.095	6056.13
534.461	6063.36
534.826	6149
535.192	6108.78
535.557	6167.76
535.923	6186.74
536.288	6184.26
536.653	6270.58
537.019	6208.44
537.384	6238.04
537.749	6308.1
538.114	6307.42
538.479	6344.25
538.845	6422.22
539.21	6366.63
539.575	6405.27
539.94	6423.8
540.305	6507.19
540.67	6430.58
541.034	6565.27
541.399	6529.56
541.764	6544.7
542.129	6613.85
542.494	6574.53
542.858	6667.64
543.223	6691.36
543.587	6633.29
543.952	6688.2
544.316	6725.49
544.681	6727.97
545.045	6744.92
545.41	6890.45
545.774	6827.18
546.138	6903.56
546.503	6895.43
546.867	6917.35
547.231	7024.69
547.595	7028.3
547.959	7011.81
548.324	7021.52
548.688	7014.74
549.052	7098.36
549.416	7128.87
549.779	7118.92
550.143	7165.02
550.507	7201.63
550.871	7272.37
551.235	7240.05
551.599	7320.73
551.962	7264.91
552.326	7310.56
552.689	7369.76
553.053	7359.82
553.417	7375.41
553.78	7469.2
554.143	7429.2
554.507	7558.91
554.87	7541.51
555.234	7634.39
555.597	7545.35
555.96	7616.31
556.323	7611.34
556.686	7689.98
557.05	7631.45
557.413	7712.81
557.776	7711
558.139	7770.66
558.502	7815.18
558.865	7838.45
559.228	7830.09
559.59	7925.23
559.953	7942.86
560.316	8004.55
560.679	8011.1
561.041	8046.58
561.404	8094.26
561.767	8140.59
562.129	8165.68
562.492	8123.87
562.854	8144.66
563.217	8212.45
563.579	8230.53
563.941	8329.29
564.304	8352.56
564.666	8413.13
565.028	8350.08
565.39	8465.78
565.753	8491.54
566.115	8488.15
566.477	8543.97
566.839	8572.22
567.201	8659.22
567.563	8651.09
567.925	8766.56
568.287	8638.21
568.648	8740.8
569.01	8796.17
569.372	8800.69
569.734	8783.51
570.095	8872.1
570.457	8924.07
570.819	8941.47
571.18	8868.48
571.542	9007.46
571.903	9007.69
572.265	9047.23
572.626	9070.28
572.987	8991.19
573.349	9103.96
573.71	9101.24
574.071	9198.87
574.432	9170.17
574.794	9259.43
575.155	9294.68
575.516	9260.56
575.877	9278.64
576.238	9274.8
576.599	9343.95
576.96	9365.19
577.32	9366.1
577.681	9461.01
578.042	9412.87
578.403	9406.55
578.763	9390.95
579.124	9455.81
579.485	9486.77
579.845	9533.77
580.206	9510.72
580.566	9474.34
580.927	9562.25
581.287	9559.08
581.648	9488.58
582.008	9650.83
582.368	9532.42
582.728	9598.63
583.089	9574.68
583.449	9597.73
583.809	9551.4
584.169	9614
584.529	9583.04
584.889	9691.06
585.249	9584.62
585.609	9613.09
585.969	9668.46
586.329	9638.18
586.688	9639.31
587.048	9623.94
587.408	9640.89
587.768	9624.85
588.127	9619.2
588.487	9599.31
588.846	9728.8
589.206	9611.74
589.565	9695.13
589.925	9679.53
590.284	9585.07
590.643	9692.87
591.003	9693.32
591.362	9720.44
591.721	9687.44
592.08	9679.08
592.44	9661.23
592.799	9697.61
593.158	9749.59
593.517	9760.21
593.876	9701.68
594.235	9730.38
594.593	9655.13
594.952	9703.26
595.311	9712.53
595.67	9708.46
596.029	9795.91
596.387	9783.94
596.746	9796.14
597.104	9751.62
597.463	9773.99
597.822	9775.35
598.18	9712.53
598.538	9737.84
598.897	9813.54
599.255	9677.05
599.613	9842.24
599.972	9787.78
600.33	9810.6
600.688	9745.29
601.046	9804.73
601.404	9838.17
601.762	9783.49
602.12	9857.83
602.478	9865.97
602.836	9868.23
603.194	9806.76
603.552	9817.38
603.91	9745.97
604.268	9882.92
604.625	9848.57
604.983	9848.57
605.341	9807.89
605.698	9863.03
606.056	9876.82
606.413	9878.4
606.771	9917.04
607.128	9980.77
607.485	9893.31
607.843	9914.56
608.2	9966.31
608.557	9990.71
608.914	9967.21
609.272	10013.99
609.629	9993.42
609.986	9988
610.343	9979.41
610.7	10003.82
611.057	10056.47
611.414	10023.25
611.771	10046.3
612.127	10084.72
612.484	10034.33
612.841	10089.01
613.198	10051.95
613.554	10011.73
613.911	10168.79
614.267	10136.92
614.624	10072.52
614.98	10155.45
615.337	10129.69
615.693	10100.54
616.05	10166.75
616.406	10166.53
616.762	10144.38
617.118	10095.57
617.475	10130.14
617.831	10202.46
618.187	10248.33
618.543	10266.64
618.899	10237.94
619.255	10276.58
619.611	10186.64
619.967	10269.12
620.323	10292.62
620.678	10162.46
621.034	10228.9
621.39	10209.69
621.746	10252.85
622.101	10291.49
622.457	10256.92
622.812	10251.04
623.168	10296.92
623.523	10284.72
623.879	10336.24
624.234	10244.26
624.589	10343.92
624.945	10345.05
625.3	10322
625.655	10316.13
626.01	10317.26
626.365	10333.53
626.72	10347.31
627.075	10299.4
627.43	10318.61
627.785	10299.18
628.14	10263.25
628.495	10342.79
628.85	10239.97
629.205	10222.12
629.559	10313.64
629.914	10269.57
630.269	10236.13
630.623	10165.85
630.978	10199.75
631.332	10343.7
631.687	10264.15
632.041	10295.79
632.396	10245.85
632.75	10169.24
633.104	10210.59
633.459	10171.5
633.813	10171.05
634.167	10130.37
634.521	10155
634.875	10176.47
635.229	10133.76
635.583	10142.57
635.937	10113.87
636.291	10167.88
636.645	10135.57
636.999	10109.8
637.352	10125.85
637.706	10118.17
638.06	10122.46
638.413	10020.32
638.767	10115
639.121	10032.07
639.474	10038.62
639.828	10079.3
640.181	10052.63
640.534	10093.99
640.888	10049.02
641.241	9961.79
641.594	9935.8
641.947	10009.24
642.301	9992.97
642.654	10051.95
643.007	10006.08
643.36	9987.55
643.713	9964.5
644.066	10025.06
644.419	9988.45
644.771	9872.97
645.124	9854.44
645.477	9787.78
645.83	9768.57
646.182	9692.41
646.535	9773.54
646.888	9711.17
647.24	9700.1
647.593	9720.66
647.945	9736.26
648.298	9717.72
648.65	9619.87
649.002	9583.72
649.355	9724.28
649.707	9670.95
650.059	9655.13
650.411	9796.14
650.763	9816.03
651.115	9948.91
651.467	9874.56
651.819	9853.99
652.171	9948.45
652.523	9858.74
652.875	9778.29
653.227	9805.63
653.578	9894.67
653.93	9863.71
654.282	9807.67
654.633	9816.03
654.985	9841.34
655.337	9866.65
655.688	9891.73
656.039	9879.75
656.391	9769.02
656.742	9848.79
657.094	9846.53
657.445	9868.46
657.796	9879.75
658.147	9948.91
658.498	9875.69
658.849	9854.44
659.2	9835.24
659.551	9844.5
659.902	9861.22
660.253	9828.23
660.604	9868.23
660.955	9803.37
661.306	9847.44
661.656	9826.87
662.007	9766.99
662.358	9782.13
662.708	9785.97
663.059	9793.65
663.409	9763.83
663.76	9872.52
664.11	9868.46
664.461	9829.59
664.811	9907.1
665.161	9836.37
665.511	9794.56
665.862	9871.84
666.212	9860.32
666.562	9863.94
666.912	9770.6
667.262	9875.23
667.612	9839.08
667.962	9825.74
668.312	9799.08
668.662	9830.49
669.011	9806.31
669.361	9816.71
669.711	9782.36
670.06	9767.89
670.41	9823.48
670.76	9769.93
671.109	9810.38
671.459	9784.62
671.808	9784.16
672.157	9754.79
672.507	9708.69
672.856	9705.75
673.205	9735.35
673.554	9776.71
673.904	9707.1
674.253	9736.71
674.602	9716.14
674.951	9637.05
675.3	9494.68
675.649	9671.4
675.998	9627.78
676.346	9741.9
676.695	9769.93
677.044	9640.66
677.393	9708.69
677.741	9583.72
678.09	9580.1
678.438	9619.65
678.787	9622.59
679.135	9587.33
679.484	9552.31
679.832	9603.6
680.181	9551.63
680.529	9564.06
680.877	9502.36
681.225	9491.74
681.573	9555.7
681.922	9496.94
682.27	9472.53
682.618	9483.38
682.966	9451.52
683.314	9465.3
683.661	9456.49
684.009	9387.56
684.357	9354.12
684.705	9372.88
685.053	9361.58
685.4	9337.4
685.748	9265.53
686.095	9267.79
686.443	9225.76
686.79	9240.68
687.138	9233.44
687.485	9243.84
687.832	9149.83
688.18	9198.19
688.527	9161.58
688.874	9103.96
689.221	9102.15
689.568	9163.39
689.915	9113.9
690.262	9106.44
690.609	9061.92
690.956	9007.01
691.303	8996.39
691.65	8920.46
691.997	8946.9
692.344	8912.1
692.69	8841.82
693.037	8875.49
693.383	8791.2
693.73	8842.27
694.077	8812.66
694.423	8823.51
694.769	8706
695.116	8700.12
695.462	8668.94
695.808	8710.07
696.155	8668.03
696.501	8600.01
696.847	8583.29
697.193	8585.33
697.539	8592.56
697.885	8434.14
698.231	8485.67
698.577	8439.11
698.923	8486.12
699.269	8374.26
699.614	8342.17
699.96	8329.74
700.306	8382.84
700.651	8291.55
700.997	8266.92
701.342	8302.85
701.688	8278.89
702.033	8252
702.379	8209.97
702.724	8171.32
703.069	8212.45
703.415	8105.79
703.76	8153.25
704.105	8093.36
704.45	8068.05
704.795	8029.86
705.14	7967.71
705.485	7996.87
705.83	7894.5
706.175	7931.11
706.52	7937.66
706.865	7902.63
707.209	7897.66
707.554	7866.25
707.899	7923.2
708.243	7796.19
708.588	7817.44
708.932	7786.25
709.277	7814.27
709.621	7764.56
709.966	7692.47
710.31	7788.51
710.654	7622.86
710.998	7630.55
711.342	7618.12
711.687	7631.45
712.031	7622.86
712.375	7551.23
712.719	7646.59
713.063	7604.79
713.407	7579.48
713.75	7559.82
714.094	7612.7
714.438	7536.31
714.782	7517.33
715.125	7471.68
715.469	7521.17
715.812	7465.58
716.156	7433.72
716.499	7461.74
716.843	7421.06
717.186	7445.02
717.53	7472.36
717.873	7424.23
718.216	7431.23
718.559	7402.08
718.902	7375.41
719.246	7416.54
719.589	7302.2
719.932	7339.71
720.275	7404.57
720.617	7385.81
720.96	7345.36
721.303	7308.97
721.646	7347.62
721.989	7249.09
722.331	7346.94
722.674	7235.3
723.016	7349.88
723.359	7271.69
723.701	7344.23
724.044	7249.54
724.386	7278.92
724.729	7252.93
725.071	7254.06
725.413	7238.02
725.755	7249.54
726.097	7255.87
726.439	7229.43
726.782	7211.58
727.124	7285.47
727.465	7184.68
727.807	7207.96
728.149	7215.42
728.491	7215.19
728.833	7193.95
729.175	7209.32
729.516	7229.43
729.858	7226.72
730.199	7241.86
730.541	7207.28
730.882	7200.73
731.224	7205.02
731.565	7164.8
731.906	7136.78
732.248	7183.33
732.589	7143.1
732.93	7148.75
733.271	7161.86
733.612	7168.41
733.953	7190.11
734.294	7150.79
734.635	7135.65
734.976	7140.84
735.317	7140.39
735.658	7158.02
735.999	7128.41
736.339	7077.12
736.68	7130.67
737.021	7123.89
737.361	7098.13
737.702	7191.46
738.042	7024.69
738.383	7067.85
738.723	7112.6
739.063	7137.23
739.404	7121.18
739.744	7139.49
740.084	7124.57
740.424	7119.37
740.764	7120.73
741.104	7175.64
741.444	7082.31
741.784	7110.79
742.124	7099.49
742.464	7130
742.804	7111.01
743.143	7097.23
743.483	7091.35
743.823	7007.97
744.162	7065.14
744.502	7079.38
744.841	7056.55
745.181	7107.62
745.52	7079.15
745.86	7124.57
746.199	7080.96
746.538	7121.86
746.877	7113.73
747.216	7086.38
747.556	7065.37
747.895	7025.14
748.234	7036.67
748.573	7009.32
748.911	7068.08
749.25	7090.68
749.589	7038.02
749.928	7061.07
750.267	7060.62
750.605	7076.21
750.944	7048.42
751.283	7025.14
751.621	7057.68
751.96	6948.53
752.298	7070.11
752.636	7019.72
752.975	6953.96
753.313	6968.87
753.651	6973.16
753.989	6948.08
754.327	6957.35
754.666	6891.81
755.004	6955.54
755.342	6936.1
755.679	6898.59
756.017	6916.22
756.355	6928.42
756.693	6857.69
757.031	6903.34
757.368	6888.42
757.706	6814.75
758.044	6831.47
758.381	6865.14
758.719	6800.74
759.056	6738.14
759.394	6786.05
759.731	6828.76
760.068	6792.38
760.405	6708.31
760.743	6709.22
761.08	6697.92
761.417	6717.35
761.754	6620.86
762.091	6652.72
762.428	6671.48
762.765	6623.79
763.102	6700.18
763.438	6587.19
763.775	6585.38
764.112	6565.72
764.449	6615.43
764.785	6563.01
765.122	6548.77
765.458	6460.18
765.795	6502.44
766.131	6499.96
766.467	6419.28
766.804	6398.72
767.14	6351.71
767.476	6404.59
767.812	6351.71
768.148	6393.97
768.485	6353.97
768.821	6246.4
769.157	6276.01
