Data from mousepad_grey_FLMS001491_00001.txt Node
Date: Wed Feb 08 14:28:53 GMT 2017
User: dcchb
Spectrometer: FLMS00149
Trigger mode: 0
Integration Time (sec): 2.000000E-2
Scans to average: 10
Electric dark correction enabled: true
Nonlinearity correction enabled: false
Boxcar width: 0
XAxis mode: Wavelengths
Number of Pixels in Spectrum: 2048
>>>>>Begin Spectral Data<<<<<
341.393	-5.14
341.776	-5.14
342.16	-5.14
342.543	-39.49
342.927	-61.18
343.31	-74.07
343.693	-69.09
344.077	-70.22
344.46	-57.57
344.843	-55.31
345.226	-48.53
345.61	-28.64
345.993	-11.47
346.376	-1.53
346.759	5.25
347.142	40.73
347.525	42.54
347.908	52.48
348.291	63.78
348.674	92.94
349.057	118.7
349.44	113.27
349.823	115.76
350.206	138.36
350.588	178.36
350.971	175.19
351.354	204.57
351.737	221.29
352.119	223.33
352.502	243.44
352.884	257.68
353.267	272.59
353.65	280.5
354.032	251.58
354.414	277.79
354.797	290.44
355.179	308.07
355.562	308.75
355.944	292.48
356.326	294.29
356.709	305.81
357.091	306.04
357.473	320.05
357.855	323.21
358.238	325.92
358.62	324.57
359.002	316.21
359.384	306.49
359.766	311.91
360.148	300.39
360.53	322.31
360.912	327.51
361.294	325.92
361.676	328.86
362.057	309.88
362.439	312.36
362.821	298.35
363.203	307.17
363.584	297.68
363.966	318.69
364.348	291.12
364.729	308.75
365.111	291.12
365.493	287.73
365.874	294.51
366.256	277.56
366.637	307.17
367.019	286.83
367.4	313.72
367.781	293.16
368.163	296.32
368.544	294.06
368.925	283.66
369.306	308.3
369.688	276.66
370.069	317.79
370.45	295.42
370.831	304.91
371.212	287.05
371.593	266.94
371.974	298.35
372.355	294.96
372.736	305.13
373.117	287.96
373.498	304
373.879	302.42
374.26	269.88
374.641	289.54
375.021	284.57
375.402	306.72
375.783	303.1
376.163	305.36
376.544	304.91
376.925	326.38
377.305	305.36
377.686	291.12
378.066	311.01
378.447	304.23
378.827	312.82
379.208	301.52
379.588	305.81
379.968	308.07
380.349	324.57
380.729	323.66
381.109	297
381.489	294.51
381.87	319.37
382.25	312.14
382.63	301.74
383.01	310.78
383.39	338.58
383.77	331.8
384.15	311.69
384.53	319.37
384.91	311.23
385.29	321.4
385.67	321.18
386.049	326.38
386.429	328.86
386.809	339.93
387.189	337
387.568	329.31
387.948	328.64
388.328	355.75
388.707	349.2
389.087	346.26
389.466	327.28
389.846	325.47
390.225	330.44
390.605	329.99
390.984	341.06
391.363	350.56
391.743	360.27
392.122	341.74
392.501	357.34
392.881	348.52
393.26	336.32
393.639	352.14
394.018	339.71
394.397	358.92
394.776	355.3
395.155	362.08
395.534	341.74
395.913	338.8
396.292	357.79
396.671	361.63
397.05	380.84
397.429	366.37
397.808	372.7
398.186	366.6
398.565	353.27
398.944	352.36
399.323	361.63
399.701	372.93
400.08	369.54
400.458	391.91
400.837	367.73
401.215	384
401.594	363.21
401.972	362.08
402.351	390.55
402.729	373.15
403.107	385.81
403.486	375.19
403.864	376.77
404.242	407.73
404.62	387.39
404.999	387.62
405.377	372.7
405.755	409.76
406.133	384.23
406.511	407.73
406.889	402.53
407.267	411.57
407.645	386.26
408.023	417.67
408.401	402.98
408.779	425.58
409.156	417.22
409.534	412.02
409.912	424.45
410.29	421.29
410.667	414.51
411.045	431.01
411.422	440.72
411.8	428.29
412.178	447.28
412.555	460.61
412.933	439.59
413.31	454.96
413.687	451.12
414.065	456.09
414.442	439.37
414.819	444.79
415.197	471.68
415.574	477.33
415.951	462.87
416.328	472.36
416.705	468.97
417.082	460.38
417.46	464.45
417.837	472.59
418.214	468.29
418.591	480.27
418.967	485.02
419.344	492.7
419.721	475.75
420.098	501.29
420.475	482.98
420.852	499.25
421.228	496.09
421.605	487.95
421.982	506.48
422.358	513.49
422.735	521.17
423.111	514.17
423.488	522.98
423.864	534.96
424.241	514.17
424.617	523.88
424.994	540.61
425.37	534.73
425.746	548.29
426.123	527.73
426.499	521.17
426.875	549.42
427.251	566.37
427.627	567.05
428.003	575.63
428.379	567.05
428.756	546.03
429.132	586.93
429.507	590.32
429.883	557.56
430.259	572.92
430.635	602.07
431.011	588.52
431.387	598.68
431.763	620.83
432.138	610.66
432.514	614.96
432.89	615.86
433.265	625.12
433.641	629.64
434.016	628.51
434.392	640.49
434.767	629.42
435.143	662.64
435.518	658.57
435.894	651.79
436.269	659.7
436.644	651.34
437.02	664.9
437.395	653.82
437.77	675.74
438.145	691.56
438.52	690.89
438.895	696.76
439.271	705.57
439.646	733.37
440.021	730.88
440.395	725.69
440.77	708.96
441.145	711.68
441.52	720.72
441.895	750.77
442.27	723.88
442.645	731.11
443.019	738.57
443.394	760.71
443.769	753.26
444.143	741.73
444.518	754.84
444.892	713.94
445.267	766.82
445.641	774.5
446.016	779.92
446.39	793.03
446.764	798
447.139	772.92
447.513	771.34
447.887	765.01
448.262	800.49
448.636	774.73
449.01	821.96
449.384	825.35
449.758	812.01
450.132	825.35
450.506	807.49
450.88	844.55
451.254	833.25
451.628	823.09
452.002	849.53
452.376	803.88
452.75	860.37
453.123	886.59
453.497	873.71
453.871	859.24
454.244	872.58
454.618	892.91
454.992	891.11
455.365	896.3
455.739	924.55
456.112	946.25
456.486	930.88
456.859	936.53
457.232	934.5
457.606	933.14
457.979	981.73
458.352	976.3
458.725	972.69
459.099	1014.95
459.472	1025.11
459.845	1021.95
460.218	1030.31
460.591	1018.56
460.964	1028.28
461.337	1070.08
461.71	1046.81
462.083	1082.97
462.456	1080.48
462.829	1098.33
463.201	1106.47
463.574	1101.04
463.947	1121.16
464.32	1118.45
464.692	1127.71
465.065	1104.21
465.438	1175.84
465.81	1172.23
466.183	1182.17
466.555	1181.49
466.928	1212.68
467.3	1200.93
467.672	1223.3
468.045	1208.39
468.417	1243.19
468.789	1263.3
469.161	1243.64
469.534	1306.91
469.906	1328.84
470.278	1292.9
470.65	1291.1
471.022	1332.22
471.394	1384.2
471.766	1363.18
472.138	1386.23
472.51	1412.9
472.882	1413.58
473.253	1403.86
473.625	1477.76
473.997	1489.28
474.369	1496.51
474.74	1511.43
475.112	1523.18
475.484	1534.93
475.855	1595.04
476.227	1555.27
476.598	1612.67
476.97	1623.97
477.341	1651.31
477.713	1710.52
478.084	1670.75
478.455	1723.18
478.827	1710.52
479.198	1806.56
479.569	1776.51
479.94	1821.48
480.311	1839.56
480.682	1853.12
481.053	1874.81
481.424	1960.46
481.795	1948.03
482.166	1976.05
482.537	1989.83
482.908	2025.77
483.279	2060.34
483.65	2057.63
484.021	2132.2
484.391	2134.01
484.762	2140.79
485.133	2197.74
485.503	2192.09
485.874	2218.76
486.244	2251.3
486.615	2301.69
486.985	2313.44
487.356	2352.99
487.726	2377.17
488.097	2400.45
488.467	2404.29
488.837	2469.6
489.207	2529.03
489.578	2535.13
489.948	2549.82
490.318	2550.72
490.688	2565.64
491.058	2618.52
491.428	2653.55
491.798	2682.7
492.168	2704.17
492.538	2725.18
492.908	2765.41
493.278	2784.39
493.648	2774.22
494.017	2814.9
494.387	2838.85
494.757	2910.71
495.126	2921.11
495.496	2845.86
495.866	2929.92
496.235	2951.39
496.605	2990.26
496.974	3018.73
497.344	3035
497.713	3051.73
498.082	3068
498.452	3060.54
498.821	3095.57
499.19	3127.43
499.559	3139.86
499.928	3163.14
500.298	3184.61
500.667	3203.14
501.036	3206.98
501.405	3245.17
501.774	3283.59
502.143	3276.35
502.512	3303.92
502.88	3352.06
503.249	3296.47
503.618	3353.19
503.987	3400.19
504.356	3407.65
504.724	3387.54
505.093	3412.4
505.462	3423.47
505.83	3434.32
506.199	3474.99
506.567	3503.24
506.936	3524.71
507.304	3571.49
507.672	3561.09
508.041	3632.05
508.409	3627.08
508.777	3623.69
509.145	3687.42
509.514	3688.32
509.882	3736.23
510.25	3705.72
510.618	3729
510.986	3741.88
511.354	3771.26
511.722	3837.92
512.09	3840.86
512.458	3860.97
512.826	3880.41
513.193	3910.24
513.561	3933.74
513.929	3965.6
514.297	3976.45
514.664	4039.27
515.032	4044.02
515.4	4038.82
515.767	4081.98
516.135	4089.89
516.502	4072.49
516.869	4177.12
517.237	4210.12
517.604	4170.34
517.972	4204.92
518.339	4249.44
518.706	4252.83
519.073	4284.69
519.44	4303.45
519.808	4331.47
520.175	4355.42
520.542	4390
520.909	4444.91
521.276	4437
521.643	4429.09
522.009	4513.38
522.376	4528.75
522.743	4569.43
523.11	4557.68
523.477	4589.99
523.843	4672.93
524.21	4735.75
524.577	4728.52
524.943	4733.94
525.31	4774.39
525.676	4856.43
526.043	4834.73
526.409	4815.52
526.776	4888.52
527.142	4928.74
527.508	4949.08
527.874	4999.02
528.241	5019.13
528.607	5027.72
528.973	5057.78
529.339	5075.63
529.705	5095.52
530.071	5169.19
530.437	5202.86
530.803	5183.65
531.169	5247.15
531.535	5258.68
531.901	5305.45
532.267	5305.91
532.632	5297.54
532.998	5361.05
533.364	5367.15
533.73	5423.87
534.095	5499.8
534.461	5493.02
534.826	5492.12
535.192	5498.44
535.557	5559.68
535.923	5575.5
536.288	5560.81
536.653	5616.41
537.019	5559.46
537.384	5623.19
537.749	5691.43
538.114	5696.63
538.479	5706.57
538.845	5762.39
539.21	5746.35
539.575	5779.34
539.94	5832.22
540.305	5830.19
540.67	5786.8
541.034	5903.86
541.399	5911.77
541.764	5927.58
542.129	5992.44
542.494	5978.2
542.858	5994.7
543.223	6036.73
543.587	6025.66
543.952	6086.22
544.316	6087.35
544.681	6051.42
545.045	6162.15
545.41	6168.26
545.774	6151.08
546.138	6173.45
546.503	6275.6
546.867	6236.95
547.231	6340.45
547.595	6304.75
547.959	6330.29
548.324	6336.61
548.688	6380.91
549.052	6402.6
549.416	6415.71
549.779	6483.5
550.143	6439.44
550.507	6517.17
550.871	6519.21
551.235	6504.97
551.599	6589.94
551.962	6594.69
552.326	6657.28
552.689	6663.16
553.053	6650.5
553.417	6674.91
553.78	6739.31
554.143	6755.81
554.507	6773.21
554.87	6768.01
555.234	6900.21
555.597	6868.58
555.96	6897.5
556.323	6901.12
556.686	6916.03
557.05	6933.89
557.413	6978.18
557.776	6961.46
558.139	7016.82
558.502	6984.28
558.865	7067.67
559.228	7068.57
559.59	7136.37
559.953	7184.73
560.316	7288.23
560.679	7232.18
561.041	7243.71
561.404	7289.13
561.767	7358.51
562.129	7361.9
562.492	7403.7
562.854	7399.18
563.217	7438.5
563.579	7450.03
563.941	7494.1
564.304	7538.62
564.666	7568.45
565.028	7589.01
565.39	7606.18
565.753	7638.73
566.115	7642.34
566.477	7732.73
566.839	7774.99
567.201	7750.36
567.563	7744.94
567.925	7809.79
568.287	7860.41
568.648	7852.73
569.01	8001.2
569.372	7939.06
569.734	7948.32
570.095	8035.55
570.457	8035.55
570.819	8033.07
571.18	8054.08
571.542	8068.09
571.903	8163.68
572.265	8157.13
572.626	8147.86
572.987	8155.55
573.349	8209.56
573.71	8257.01
574.071	8258.14
574.432	8270.8
574.794	8338.82
575.155	8350.8
575.516	8372.49
575.877	8430.8
576.238	8366.39
576.599	8439.61
576.96	8457.69
577.32	8468.76
577.681	8459.04
578.042	8507.18
578.403	8516.44
578.763	8497.46
579.124	8599.38
579.485	8560.06
579.845	8615.2
580.206	8591.24
580.566	8581.98
580.927	8578.14
581.287	8618.81
581.648	8597.8
582.008	8615.2
582.368	8665.59
582.728	8644.57
583.089	8622.43
583.449	8652.71
583.809	8660.62
584.169	8628.98
584.529	8707.17
584.889	8743.78
585.249	8671.92
585.609	8701.97
585.969	8705.82
586.329	8710.79
586.688	8712.37
587.048	8720.96
587.408	8699.49
587.768	8733.84
588.127	8720.05
588.487	8674.18
588.846	8760.73
589.206	8702.43
589.565	8739.49
589.925	8780.62
590.284	8743.33
590.643	8750.11
591.003	8790.11
591.362	8844.12
591.721	8778.58
592.08	8736.1
592.44	8784.46
592.799	8790.11
593.158	8868.3
593.517	8819.71
593.876	8765.7
594.235	8811.35
594.593	8815.87
594.952	8840.95
595.311	8741.75
595.67	8840.95
596.029	8853.83
596.387	8889.09
596.746	8869.88
597.104	8801.86
597.463	8781.75
597.822	8854.74
598.18	8843.67
598.538	8839.15
598.897	8910.33
599.255	8882.31
599.613	8918.47
599.972	8928.18
600.33	8935.19
600.688	8838.69
601.046	8939.03
601.404	8918.92
601.762	8893.16
602.12	8932.93
602.478	8928.18
602.836	8902.87
603.194	8938.35
603.552	8960.27
603.91	8875.3
604.268	8955.53
604.625	8980.39
604.983	9016.09
605.341	8969.76
605.698	8950.78
606.056	9010.89
606.413	8983.55
606.771	9028.29
607.128	9071
607.485	9031.23
607.843	9045.24
608.2	9041.4
608.557	9064.68
608.914	9093.38
609.272	9099.7
609.629	9141.51
609.986	9155.52
610.343	9105.35
610.7	9136.54
611.057	9147.16
611.414	9148.52
611.771	9108.29
612.127	9169.76
612.484	9123.43
612.841	9176.76
613.198	9159.59
613.554	9229.19
613.911	9249.53
614.267	9238.68
614.624	9202.07
614.98	9270.1
615.337	9253.15
615.693	9282.98
616.05	9200.27
616.406	9282.75
616.762	9318.68
617.118	9277.78
617.475	9228.51
617.831	9323.2
618.187	9362.07
618.543	9345.12
618.899	9308.29
619.255	9348.06
619.611	9322.75
619.967	9361.84
620.323	9368.85
620.678	9328.62
621.034	9332.69
621.39	9344.22
621.746	9273.26
622.101	9440.94
622.457	9336.53
622.812	9331.79
623.168	9326.59
623.523	9414.27
623.879	9382.86
624.234	9360.71
624.589	9419.7
624.945	9438.9
625.3	9423.31
625.655	9376.76
626.01	9425.35
626.365	9375.4
626.72	9432.35
627.075	9367.27
627.43	9400.94
627.785	9382.86
628.14	9406.59
628.495	9409.75
628.85	9393.26
629.205	9365.69
629.559	9401.39
629.914	9429.41
630.269	9412.92
630.623	9370.21
630.978	9319.36
631.332	9390.77
631.687	9387.61
632.041	9319.59
632.396	9419.7
632.75	9388.51
633.104	9372.47
633.459	9318
633.813	9303.09
634.167	9341.51
634.521	9308.96
634.875	9330.88
635.229	9316.87
635.583	9320.49
635.937	9279.13
636.291	9240.04
636.645	9321.17
636.999	9302.41
637.352	9368.85
637.706	9211.34
638.06	9321.85
638.413	9252.92
638.767	9295.63
639.121	9234.39
639.474	9218.35
639.828	9212.47
640.181	9204.56
640.534	9248.85
640.888	9210.89
641.241	9153.49
641.594	9189.65
641.947	9240.04
642.301	9179.7
642.654	9185.8
643.007	9209.31
643.36	9182.64
643.713	9141.96
644.066	9197.33
644.419	9169.08
644.771	9105.35
645.124	9043.21
645.477	9002.98
645.83	8908.52
646.182	8989.65
646.535	8889.77
646.888	8887.96
647.24	8904.68
647.593	8921.63
647.945	8871.01
648.298	8901.07
648.65	8864.46
649.002	8800.05
649.355	8869.2
649.707	8848.19
650.059	8882.76
650.411	9008.18
650.763	9059.03
651.115	9103.09
651.467	9125.47
651.819	9151.45
652.171	9101.06
652.523	9057.67
652.875	9070.33
653.227	9053.83
653.578	9083.21
653.93	9101.29
654.282	9019.48
654.633	8935.87
654.985	9081.17
655.337	9059.25
655.688	9014.06
656.039	9032.36
656.391	9091.34
656.742	9047.73
657.094	9099.48
657.445	9090.21
657.796	9036.43
658.147	9006.83
658.498	9035.75
658.849	9030.78
659.2	9099.03
659.551	8994.62
659.902	9128.86
660.253	9100.16
660.604	9089.54
660.955	9033.94
661.306	9075.98
661.656	9065.13
662.007	9012.93
662.358	9047.28
662.708	9037.56
663.059	9009.31
663.409	9031.91
663.76	8972.7
664.11	9090.66
664.461	9012.7
664.811	9065.13
665.161	9020.38
665.511	9042.3
665.862	9027.39
666.212	9071.46
666.562	9047.95
666.912	9027.84
667.262	9023.77
667.612	8997.11
667.962	9078.24
668.312	8966.83
668.662	9066.26
669.011	9040.27
669.361	9006.15
669.711	9019.93
670.06	9012.25
670.41	8961.4
670.76	8972.7
671.109	8971.8
671.459	8995.53
671.808	8974.06
672.157	8993.72
672.507	8948.97
672.856	8948.97
673.205	8968.86
673.554	9009.99
673.904	8928.41
674.253	9043.89
674.602	8979.48
674.951	8807.96
675.3	8809.77
675.649	8973.83
675.998	8971.8
676.346	8909.88
676.695	8935.19
677.044	8856.09
677.393	8934.51
677.741	8901.29
678.09	8875.08
678.438	8848.19
678.787	8871.24
679.135	8923.66
679.484	8822.65
679.832	8843.21
680.181	8758.47
680.529	8890.22
680.877	8755.76
681.225	8784.68
681.573	8807.96
681.922	8716.44
682.27	8680.96
682.618	8704.01
682.966	8720.96
683.314	8758.7
683.661	8695.87
684.009	8661.98
684.357	8673.73
684.705	8667.17
685.053	8628.98
685.4	8685.25
685.748	8572.26
686.095	8559.15
686.443	8546.72
686.79	8558.02
687.138	8529.1
687.485	8576.33
687.832	8531.81
688.18	8501.53
688.527	8530.45
688.874	8482.32
689.221	8434.86
689.568	8385.6
689.915	8366.84
690.262	8426.73
690.609	8439.38
690.956	8359.38
691.303	8319.61
691.65	8312.61
691.997	8363.9
692.344	8250.69
692.69	8214.76
693.037	8237.58
693.383	8109
693.73	8173.85
694.077	8110.58
694.423	8140.41
694.769	8140.86
695.116	8107.87
695.462	8099.96
695.808	8024.93
696.155	8038.26
696.501	8020.64
696.847	7992.16
697.193	7973.63
697.539	7981.32
697.885	7968.89
698.231	7869.45
698.577	7860.19
698.923	7843.24
699.269	7823.58
699.614	7786.29
699.96	7729.57
700.306	7738.61
700.651	7675.33
700.997	7655.9
701.342	7722.79
701.688	7675.56
702.033	7603.92
702.379	7626.3
702.724	7588.78
703.069	7555.56
703.415	7500.88
703.76	7579.29
704.105	7458.84
704.45	7552.4
704.795	7461.33
705.14	7382.24
705.485	7383.37
705.83	7396.47
706.175	7378.62
706.52	7334.78
706.865	7304.72
707.209	7313.76
707.554	7309.24
707.899	7271.96
708.243	7212.97
708.588	7233.09
708.932	7197.83
709.277	7218.85
709.621	7213.2
709.966	7167.33
710.31	7185.18
710.654	7090.72
710.998	7142.92
711.342	7181.56
711.687	7184.27
712.031	7105.18
712.375	7085.29
712.719	7123.49
713.063	7058.18
713.407	7026.76
713.75	7028.8
714.094	7013.66
714.438	6978.63
714.782	7012.3
715.125	6997.84
715.469	7011.4
715.812	6997.61
716.156	6956.71
716.499	7006.65
716.843	6923.04
717.186	6958.29
717.53	6907.9
717.873	6977.95
718.216	6966.88
718.559	6944.73
718.902	6845.3
719.246	6897.28
719.589	6856.37
719.932	6869.71
720.275	6852.31
720.617	6819.99
720.96	6859.54
721.303	6895.69
721.646	6863.15
721.989	6829.71
722.331	6835.58
722.674	6791.97
723.016	6852.31
723.359	6847.79
723.701	6787
724.044	6825.19
724.386	6758.52
724.729	6698.64
725.071	6777.73
725.413	6768.24
725.755	6763.04
726.097	6744.74
726.439	6706.77
726.782	6745.87
727.124	6770.05
727.465	6707
727.807	6713.55
728.149	6705.42
728.491	6749.26
728.833	6690.28
729.175	6708.13
729.516	6724.17
729.858	6731.4
730.199	6709.94
730.541	6716.49
730.882	6784.74
731.224	6668.58
731.565	6662.71
731.906	6676.04
732.248	6684.17
732.589	6699.32
732.93	6669.26
733.271	6664.74
733.612	6739.09
733.953	6661.8
734.294	6675.81
734.635	6617.06
734.976	6605.98
735.317	6616.38
735.658	6687.56
735.999	6696.83
736.339	6647.57
736.68	6663.61
737.021	6699.09
737.361	6603.05
737.702	6651.41
738.042	6617.51
738.383	6630.62
738.723	6650.73
739.063	6624.29
739.404	6659.32
739.744	6642.14
740.084	6649.15
740.424	6648.24
740.764	6657.28
741.104	6664.06
741.444	6585.65
741.784	6667.9
742.124	6612.54
742.464	6619.09
742.804	6637.17
743.143	6599.43
743.483	6640.11
743.823	6603.05
744.162	6623.39
744.502	6649.15
744.841	6544.97
745.181	6650.5
745.52	6593.33
745.86	6662.25
746.199	6621.35
746.538	6622.93
746.877	6657.51
747.216	6638.3
747.556	6586.32
747.895	6587
748.234	6597.4
748.573	6565.53
748.911	6622.71
749.25	6634.01
749.589	6593.1
749.928	6531.64
750.267	6583.61
750.605	6587.68
750.944	6546.78
751.283	6614.12
751.621	6582.71
751.96	6518.98
752.298	6547.23
752.636	6493.67
752.975	6539.55
753.313	6496.61
753.651	6508.81
753.989	6476.72
754.327	6493.45
754.666	6479.43
755.004	6495.93
755.342	6446.67
755.679	6405.76
756.017	6478.3
756.355	6453.45
756.693	6432.66
757.031	6399.66
757.368	6380.45
757.706	6436.5
758.044	6391.07
758.381	6426.1
758.719	6384.97
759.056	6383.84
759.394	6333.45
759.731	6290.74
760.068	6315.14
760.405	6337.97
760.743	6311.98
761.08	6309.5
761.417	6219.78
761.754	6240.57
762.091	6229.72
762.428	6212.32
762.765	6148.6
763.102	6203.06
763.438	6189.95
763.775	6128.03
764.112	6098.88
764.449	6125.77
764.785	6110.18
765.122	6130.52
765.458	6086.9
765.795	6081.48
766.131	6068.37
766.467	6012.78
766.804	5995.61
767.14	5962.84
767.476	5950.41
767.812	5979.79
768.148	5970.75
768.485	5926.23
768.821	5925.32
769.157	5882.61
769.492	5861.15
769.828	5857.53
770.164	5880.58
770.5	5831.54
770.836	5825.89
771.171	5765.33
