Data from mousepad_grey_FLMS001491_00022.txt Node
Date: Wed Feb 08 14:29:11 GMT 2017
User: dcchb
Spectrometer: FLMS00149
Trigger mode: 0
Integration Time (sec): 2.000000E-2
Scans to average: 10
Electric dark correction enabled: true
Nonlinearity correction enabled: false
Boxcar width: 0
XAxis mode: Wavelengths
Number of Pixels in Spectrum: 2048
>>>>>Begin Spectral Data<<<<<
341.393	-19.04
341.776	-19.04
342.16	-19.04
342.543	-57
342.927	-52.03
343.31	-70.11
343.693	-90.68
344.077	-69.89
344.46	-68.08
344.843	-26.95
345.226	-48.42
345.61	-28.3
345.993	-25.59
346.376	0.62
346.759	1.98
347.142	17.34
347.525	43.56
347.908	58.93
348.291	77.91
348.674	105.93
349.057	121.75
349.44	126.49
349.823	124.91
350.206	159.49
350.588	182.99
350.971	191.8
351.354	217.34
351.737	211.46
352.119	241.75
352.502	252.59
352.884	245.81
353.267	266.83
353.65	291.01
354.032	288.52
354.414	294.85
354.797	306.38
355.179	298.01
355.562	306.6
355.944	302.08
356.326	329.65
356.709	318.35
357.091	310.22
357.473	340.5
357.855	307.28
358.238	302.08
358.62	317.68
359.002	328.75
359.384	332.36
359.766	329.65
360.148	319.26
360.53	316.32
360.912	317.45
361.294	300.27
361.676	306.38
362.057	330.56
362.439	305.47
362.821	307.96
363.203	302.08
363.584	315.64
363.966	320.16
364.348	282.87
364.729	305.25
365.111	312.48
365.493	302.53
365.874	293.95
366.256	300.95
366.637	290.78
367.019	286.49
367.4	305.02
367.781	296.21
368.163	291.46
368.544	271.35
368.925	311.8
369.306	326.49
369.688	286.26
370.069	276.77
370.45	292.59
370.831	312.7
371.212	304.12
371.593	300.73
371.974	295.98
372.355	301.18
372.736	310.9
373.117	291.24
373.498	305.7
373.879	297.34
374.26	282.65
374.641	297.34
375.021	290.33
375.402	294.63
375.783	294.4
376.163	297.11
376.544	302.08
376.925	282.87
377.305	285.13
377.686	260.73
378.066	287.17
378.447	286.49
378.827	315.64
379.208	291.91
379.588	309.54
379.968	331.01
380.349	304.34
380.729	320.84
381.109	297.79
381.489	315.87
381.87	311.12
382.25	313.38
382.63	321.97
383.01	320.84
383.39	322.19
383.77	327.17
384.15	304.57
384.53	309.31
384.91	332.59
385.29	319.94
385.67	313.16
386.049	322.19
386.429	316.77
386.809	352.7
387.189	347.5
387.568	328.07
387.948	319.26
388.328	319.71
388.707	340.27
389.087	320.16
389.466	328.97
389.846	344.79
390.225	348.86
390.605	342.08
390.984	337.56
391.363	326.71
391.743	339.37
392.122	342.99
392.501	343.66
392.881	341.18
393.26	335.08
393.639	349.09
394.018	349.76
394.397	346.38
394.776	353.61
395.155	361.06
395.534	352.25
395.913	369.43
396.292	352.7
396.671	362.87
397.05	373.04
397.429	356.32
397.808	364.68
398.186	359.03
398.565	371.46
398.944	350.89
399.323	374.4
399.701	370.78
400.08	368.52
400.458	359.03
400.837	392.7
401.215	396.54
401.594	366.49
401.972	392.48
402.351	375.3
402.729	387.5
403.107	380.27
403.486	367.62
403.864	373.94
404.242	379.82
404.62	370.56
404.999	394.96
405.377	390.67
405.755	425.92
406.133	401.06
406.511	388.86
406.889	408.97
407.267	416.2
407.645	411.46
408.023	405.81
408.401	406.49
408.779	422.76
409.156	407.62
409.534	409.2
409.912	418.01
410.29	422.08
410.667	433.6
411.045	417.56
411.422	434.06
411.8	444.45
412.178	434.96
412.555	439.03
412.933	443.77
413.31	443.77
413.687	477.9
414.065	456.43
414.442	433.38
414.819	472.02
415.197	460.95
415.574	475.86
415.951	438.58
416.328	464.79
416.705	467.28
417.082	487.84
417.46	477.45
417.837	501.4
418.214	477.67
418.591	478.8
418.967	493.72
419.344	476.99
419.721	519.7
420.098	503.66
420.475	508.4
420.852	509.53
421.228	501.63
421.605	528.29
421.982	513.15
422.358	502.76
422.735	526.71
423.111	519.48
423.488	529.87
423.864	533.94
424.241	514.05
424.617	535.07
424.994	526.71
425.37	556.99
425.746	531.23
426.123	554.51
426.499	539.14
426.875	558.35
427.251	544.79
427.627	562.64
428.003	571.23
428.379	566.03
428.756	545.01
429.132	571.68
429.507	605.13
429.883	584.11
430.259	605.35
430.635	599.7
431.011	596.99
431.387	607.61
431.763	636.54
432.138	598.57
432.514	627.95
432.89	607.84
433.265	651.45
433.641	631.11
434.016	619.14
434.392	648.51
434.767	670.21
435.143	639.25
435.518	672.47
435.894	651.9
436.269	683.32
436.644	667.72
437.02	700.72
437.395	691.22
437.77	700.49
438.145	687.84
438.52	686.48
438.895	688.96
439.271	695.52
439.646	711.56
440.021	712.24
440.395	725.35
440.77	726.93
441.145	734.39
441.52	746.82
441.895	726.93
442.27	722.41
442.645	751.11
443.019	730.32
443.394	768.74
443.769	760.38
444.143	745.23
444.518	742.52
444.892	775.52
445.267	773.48
445.641	781.84
446.016	761.51
446.39	809.41
446.764	789.08
447.139	783.65
447.513	803.31
447.887	811.22
448.262	802.18
448.636	798.79
449.01	793.82
449.384	812.8
449.758	826.14
450.132	819.58
450.506	832.92
450.88	845.57
451.254	822.97
451.628	850.54
452.002	863.2
452.376	856.64
452.75	885.12
453.123	880.82
453.497	901.16
453.871	879.69
454.244	905.91
454.618	889.86
454.992	909.52
455.365	890.09
455.739	932.8
456.112	944.33
456.486	935.74
456.859	966.47
457.232	964.44
457.606	964.44
457.979	980.26
458.352	985
458.725	992.46
459.099	1003.53
459.472	1020.48
459.845	1008.05
460.218	1041.5
460.591	1033.14
460.964	1038.11
461.337	1065.9
461.71	1083.3
462.083	1081.72
462.456	1074.27
462.829	1071.78
463.201	1122.85
463.574	1107.03
463.947	1121.5
464.32	1135.96
464.692	1154.49
465.065	1150.65
465.438	1176.86
465.81	1185.45
466.183	1219.35
466.555	1221.61
466.928	1248.05
467.3	1203.53
467.672	1243.3
468.045	1238.78
468.417	1250.31
468.789	1259.8
469.161	1280.81
469.534	1296.86
469.906	1325.33
470.278	1320.13
470.65	1366.24
471.022	1365.78
471.394	1374.6
471.766	1392.9
472.138	1406.69
472.51	1423.86
472.882	1412.11
473.253	1444.43
473.625	1482.39
473.997	1495.05
474.369	1505.21
474.74	1521.49
475.112	1546.57
475.484	1555.83
475.855	1564.42
476.227	1568.72
476.598	1622.5
476.97	1641.03
477.341	1657.53
477.713	1693.68
478.084	1724.42
478.455	1798.09
478.827	1741.37
479.198	1777.98
479.569	1813.68
479.94	1854.13
480.311	1853.45
480.682	1855.04
481.053	1918.09
481.424	1955.6
481.795	1918.09
482.166	1997.63
482.537	2017.97
482.908	2060.45
483.279	2057.06
483.65	2063.39
484.021	2122.6
484.391	2169.15
484.762	2148.59
485.133	2186.1
485.503	2216.83
485.874	2267
486.244	2277.85
486.615	2306.55
486.985	2327.11
487.356	2386.32
487.726	2388.13
488.097	2444.17
488.467	2444.85
488.837	2493.89
489.207	2499.76
489.578	2522.59
489.948	2529.14
490.318	2582.25
490.688	2575.47
491.058	2642.81
491.428	2682.81
491.798	2681
492.168	2689.14
492.538	2720.1
492.908	2755.58
493.278	2824.73
493.648	2805.29
494.017	2837.16
494.387	2861.11
494.757	2883.03
495.126	2885.07
495.496	2955.57
495.866	2976.14
496.235	2959.19
496.605	2988.79
496.974	3011.62
497.344	3053.2
497.713	3006.19
498.082	3050.03
498.452	3095
498.821	3150.82
499.19	3144.27
499.559	3168.67
499.928	3181.78
500.298	3156.02
500.667	3200.76
501.036	3238.05
501.405	3255.68
501.774	3237.37
502.143	3269.46
502.512	3287.54
502.88	3331.61
503.249	3319.4
503.618	3332.06
503.987	3330.25
504.356	3398.05
504.724	3424.94
505.093	3471.94
505.462	3490.7
505.83	3451.6
506.199	3486.18
506.567	3509.91
506.936	3555.78
507.304	3570.02
507.672	3591.94
508.041	3634.2
508.409	3601.88
508.777	3660.64
509.145	3659.51
509.514	3699.28
509.882	3698.6
510.25	3730.01
510.618	3745.83
510.986	3781.99
511.354	3791.48
511.722	3814.53
512.09	3882.55
512.458	3853.63
512.826	3897.69
513.193	3873.29
513.561	3897.92
513.929	3954.42
514.297	3957.81
514.664	3985.38
515.032	4003
515.4	4021.53
515.767	4061.31
516.135	4111.47
516.502	4072.6
516.869	4119.84
517.237	4121.19
517.604	4131.36
517.972	4159.16
518.339	4172.72
518.706	4204.35
519.073	4272.83
519.44	4244.13
519.808	4306.04
520.175	4355.99
520.542	4383.11
520.909	4401.41
521.276	4412.93
521.643	4449.32
522.009	4466.72
522.376	4498.58
522.743	4499.71
523.11	4572.03
523.477	4602.08
523.843	4608.41
524.21	4614.29
524.577	4751.68
524.943	4732.93
525.31	4762.3
525.676	4797.78
526.043	4810.44
526.409	4837.56
526.776	4913.26
527.142	4896.54
527.508	4898.12
527.874	4987.16
528.241	4986.25
528.607	4986.03
528.973	5100.15
529.339	4978.57
529.705	5076.42
530.071	5134.27
530.437	5155.97
530.803	5198.9
531.169	5228.05
531.535	5208.62
531.901	5211.11
532.267	5270.77
532.632	5303.08
532.998	5273.48
533.364	5394.15
533.73	5341.05
534.095	5406.36
534.461	5369.29
534.826	5464.21
535.192	5488.16
535.557	5504.66
535.923	5510.76
536.288	5550.08
536.653	5588.95
537.019	5585.56
537.384	5622.17
537.749	5617.2
538.114	5689.74
538.479	5686.57
538.845	5714.82
539.21	5719.57
539.575	5704.65
539.94	5750.07
540.305	5811.77
540.67	5802.05
541.034	5825.1
541.399	5866.23
541.764	5887.02
542.129	5863.07
542.494	5948.49
542.858	5931.54
543.223	5982.84
543.587	6002.5
543.952	5996.85
544.316	6022.16
544.681	6063.06
545.045	6063.96
545.41	6120.46
545.774	6125.88
546.138	6135.83
546.503	6143.96
546.867	6169.05
547.231	6202.94
547.595	6229.16
547.959	6216.5
548.324	6287.01
548.688	6315.26
549.052	6356.61
549.416	6361.81
549.779	6395.48
550.143	6380.11
550.507	6393.22
550.871	6409.72
551.235	6455.14
551.599	6503.28
551.962	6499.66
552.326	6551.41
552.689	6521.58
553.053	6514.12
553.417	6602.26
553.78	6682.93
554.143	6616.49
554.507	6668.92
554.87	6692.2
555.234	6713.44
555.597	6693.1
555.96	6762.93
556.323	6813.1
556.686	6780.33
557.05	6880.44
557.413	6874.79
557.776	6887.9
558.139	6946.88
558.502	7002.25
558.865	7000.89
559.228	7003.38
559.59	7048.8
559.953	7028.69
560.316	7150.26
560.679	7150.04
561.041	7166.08
561.404	7234.56
561.767	7269.58
562.129	7197.95
562.492	7296.93
562.854	7200.66
563.217	7313.2
563.579	7301.45
563.941	7440.65
564.304	7421.22
564.666	7422.8
565.028	7425.51
565.39	7514.32
565.753	7568.33
566.115	7633.87
566.477	7620.31
566.839	7695.79
567.201	7667.31
567.563	7640.65
567.925	7756.58
568.287	7768.55
568.648	7759.97
569.01	7823.69
569.372	7870.02
569.734	7831.6
570.095	7913.86
570.457	7923.58
570.819	7951.37
571.18	7924.48
571.542	7939.4
571.903	7968.32
572.265	8038.38
572.626	8069.79
572.987	8065.72
573.349	8069.56
573.71	8147.3
574.071	8149.56
574.432	8207.64
574.794	8250.35
575.155	8240.4
575.516	8216.45
575.877	8283.12
576.238	8230.46
576.599	8366.05
576.96	8286.73
577.32	8326.5
577.681	8315.66
578.042	8346.39
578.403	8361.31
578.763	8381.42
579.124	8428.65
579.485	8418.03
579.845	8428.65
580.206	8419.84
580.566	8481.53
580.927	8463
581.287	8473.17
581.648	8482.88
582.008	8517.69
582.368	8588.64
582.728	8543.67
583.089	8540.51
583.449	8551.58
583.809	8523.11
584.169	8567.63
584.529	8590.23
584.889	8622.77
585.249	8548.42
585.609	8516.33
585.969	8591.13
586.329	8570.79
586.688	8627.06
587.048	8527.4
587.408	8581.41
587.768	8605.82
588.127	8583.22
588.487	8616.67
588.846	8680.62
589.206	8573.05
589.565	8635.87
589.925	8699.6
590.284	8651.92
590.643	8629.32
591.003	8595.42
591.362	8634.97
591.721	8663.22
592.08	8605.59
592.44	8662.31
592.799	8641.07
593.158	8593.16
593.517	8654.18
593.876	8710
594.235	8609.89
594.593	8697.34
594.952	8683.78
595.311	8655.54
595.67	8624.12
596.029	8682.2
596.387	8706.38
596.746	8757.68
597.104	8669.09
597.463	8599.49
597.822	8743.44
598.18	8678.13
598.538	8677.23
598.897	8684.46
599.255	8648.76
599.613	8839.26
599.972	8732.37
600.33	8721.97
600.688	8700.05
601.046	8684.01
601.404	8818.47
601.762	8782.99
602.12	8789.99
602.478	8783.89
602.836	8753.39
603.194	8750.67
603.552	8752.93
603.91	8802.88
604.268	8737.34
604.625	8766.72
604.983	8772.37
605.341	8836.77
605.698	8824.57
606.056	8849.65
606.413	8848.75
606.771	8853.5
607.128	8806.72
607.485	8805.14
607.843	8812.59
608.2	8870.44
608.557	8903.44
608.914	8879.94
609.272	8943.44
609.629	8944.34
609.986	8931.23
610.343	8894.17
610.7	8912.25
611.057	8926.04
611.414	8891.91
611.771	8951.57
612.127	8989.99
612.484	8925.36
612.841	9010.78
613.198	8999.71
613.554	8985.24
613.911	9022.76
614.267	9030.67
614.624	9014.62
614.98	9074.28
615.337	9117.9
615.693	9005.36
616.05	9025.02
616.406	9072.7
616.762	9059.37
617.118	9062.76
617.475	9108.86
617.831	9140.49
618.187	9112.25
618.543	9178.69
618.899	9163.09
619.255	9120.83
619.611	9142.98
619.967	9182.98
620.323	9190.44
620.678	9216.65
621.034	9203.77
621.39	9116.99
621.746	9127.39
622.101	9216.42
622.457	9096.88
622.812	9213.94
623.168	9188.63
623.523	9166.71
623.879	9204.45
624.234	9168.29
624.589	9186.59
624.945	9164.45
625.3	9184.56
625.655	9208.74
626.01	9202.41
626.365	9185.69
626.72	9222.53
627.075	9216.65
627.43	9218.91
627.785	9221.17
628.14	9132.13
628.495	9213.49
628.85	9192.7
629.205	9186.14
629.559	9201.51
629.914	9156.09
630.269	9167.16
630.623	9230.89
630.978	9109.76
631.332	9124.68
631.687	9154.73
632.041	9080.16
632.396	9174.17
632.75	9135.52
633.104	9115.86
633.459	9133.04
633.813	9111.34
634.167	9111.12
634.521	9093.04
634.875	9059.14
635.229	9147.27
635.583	9088.74
635.937	9100.04
636.291	9046.71
636.645	9047.16
636.999	8967.39
637.352	9110.21
637.706	9037.22
638.06	9077.44
638.413	9068.41
638.767	9024.34
639.121	9045.36
639.474	9011.68
639.828	9028.41
640.181	9069.54
640.534	9011.23
640.888	8954.06
641.241	8912.03
641.594	8996.32
641.947	9004.9
642.301	8963.32
642.654	8971.91
643.007	9024.56
643.36	8983.21
643.713	8957
644.066	8982.31
644.419	8936.43
644.771	8837.23
645.124	8754.97
645.477	8764.23
645.83	8731.47
646.182	8660.96
646.535	8696.21
646.888	8749.77
647.24	8658.7
647.593	8716.78
647.945	8702.99
648.298	8651.24
648.65	8655.08
649.002	8611.24
649.355	8734.4
649.707	8681.3
650.059	8709.77
650.411	8742.54
650.763	8837.23
651.115	8851.01
651.467	8876.32
651.819	8858.02
652.171	8851.69
652.523	8849.2
652.875	8878.13
653.227	8783.67
653.578	8847.39
653.93	8789.09
654.282	8834.51
654.633	8771.24
654.985	8888.07
655.337	8858.92
655.688	8809.66
656.039	8886.04
656.391	8752.71
656.742	8845.13
657.094	8854.63
657.445	8766.04
657.796	8823.89
658.147	8851.01
658.498	8789.54
658.849	8848.07
659.2	8805.81
659.551	8782.31
659.902	8865.7
660.253	8840.16
660.604	8851.69
660.955	8811.46
661.306	8801.29
661.656	8780.96
662.007	8849.88
662.358	8840.39
662.708	8876.77
663.059	8776.89
663.409	8789.99
663.76	8809.2
664.11	8794.97
664.461	8850.78
664.811	8872.48
665.161	8846.26
665.511	8771.01
665.862	8843.33
666.212	8828.86
666.562	8805.59
666.912	8823.44
667.262	8792.71
667.612	8794.06
667.962	8827.06
668.312	8814.63
668.662	8896.66
669.011	8912.03
669.361	8801.97
669.711	8753.39
670.06	8771.24
670.41	8789.09
670.76	8746.38
671.109	8792.48
671.459	8813.27
671.808	8740.73
672.157	8807.4
672.507	8715.42
672.856	8725.59
673.205	8750.9
673.554	8768.07
673.904	8792.03
674.253	8742.76
674.602	8735.31
674.951	8644.46
675.3	8537.57
675.649	8737.11
675.998	8661.86
676.346	8678.36
676.695	8739.37
677.044	8657.57
677.393	8669.32
677.741	8684.01
678.09	8653.73
678.438	8621.19
678.787	8665.7
679.135	8658.7
679.484	8608.53
679.832	8658.47
680.181	8581.41
680.529	8575.54
680.877	8608.3
681.225	8558.81
681.573	8679.72
681.922	8586.16
682.27	8472.04
682.618	8512.26
682.966	8505.26
683.314	8522.43
683.661	8492.83
684.009	8495.09
684.357	8424.81
684.705	8363.11
685.053	8483.56
685.4	8401.08
685.748	8460.74
686.095	8389.33
686.443	8331.48
686.79	8383.68
687.138	8286.51
687.485	8339.84
687.832	8309.56
688.18	8259.39
688.527	8229.56
688.874	8160.41
689.221	8195.89
689.568	8216
689.915	8183.46
690.262	8191.82
690.609	8115.66
690.956	8080.18
691.303	8072.73
691.65	8065.27
691.997	8088.09
692.344	8019.39
692.69	8006.96
693.037	8022.78
693.383	7909.11
693.73	8017.36
694.077	7899.62
694.423	7894.43
694.769	7845.16
695.116	7936.46
695.462	7803.81
695.808	7827.76
696.155	7784.82
696.501	7777.59
696.847	7766.97
697.193	7707.99
697.539	7740.08
697.885	7662.79
698.231	7595.9
698.577	7618.27
698.923	7650.82
699.269	7574.89
699.614	7539.18
699.96	7585.05
700.306	7479.75
700.651	7455.11
700.997	7427.77
701.342	7445.85
701.688	7365.63
702.033	7356.13
702.379	7425.06
702.724	7320.88
703.069	7414.44
703.415	7259.87
703.76	7278.85
704.105	7226.65
704.45	7227.32
704.795	7219.87
705.14	7201.34
705.485	7170.38
705.83	7105.07
706.175	7161.34
706.52	7095.8
706.865	7134.67
707.209	7107.33
707.554	7109.81
707.899	7089.02
708.243	7025.52
708.588	7064.39
708.932	6955.47
709.277	7002.02
709.621	6934.45
709.966	6954.11
710.31	6946.88
710.654	6902.59
710.998	6891.97
711.342	6916.6
711.687	6896.94
712.031	6872.31
712.375	6847.67
712.719	6859.2
713.063	6859.2
713.407	6894
713.75	6826.43
714.094	6803.15
714.438	6759.54
714.782	6854.9
715.125	6747.11
715.469	6800.44
715.812	6778.75
716.156	6703.04
716.499	6743.27
716.843	6748.47
717.186	6735.13
717.53	6740.78
717.873	6720.44
718.216	6705.3
718.559	6681.8
718.902	6675.7
719.246	6679.54
719.589	6642.48
719.932	6617.17
720.275	6612.65
720.617	6627.34
720.96	6649.26
721.303	6625.76
721.646	6699.65
721.989	6613.55
722.331	6582.6
722.674	6509.83
723.016	6629.37
723.359	6659.66
723.701	6620.33
724.044	6568.36
724.386	6548.7
724.729	6535.59
725.071	6582.82
725.413	6569.94
725.755	6566.32
726.097	6535.82
726.439	6526.55
726.782	6513.9
727.124	6550.96
727.465	6519.55
727.807	6529.72
728.149	6538.98
728.491	6536.04
728.833	6559.09
729.175	6532.43
729.516	6551.86
729.858	6518.19
730.199	6523.39
730.541	6510.28
730.882	6535.82
731.224	6563.39
731.565	6480.45
731.906	6449.04
732.248	6512.77
732.589	6563.61
732.93	6474.12
733.271	6489.94
733.612	6506.67
733.953	6430.28
734.294	6437.97
734.635	6430.96
734.976	6505.54
735.317	6489.94
735.658	6456.27
735.999	6495.14
736.339	6455.59
736.68	6480.23
737.021	6474.58
737.361	6458.53
737.702	6508.47
738.042	6455.14
738.383	6488.13
738.723	6456.27
739.063	6475.48
739.404	6459.66
739.744	6490.85
740.084	6405.42
740.424	6466.67
740.764	6449.49
741.104	6469.6
741.444	6445.2
741.784	6444.75
742.124	6451.75
742.464	6433.22
742.804	6452.88
743.143	6424.41
743.483	6449.72
743.823	6380.57
744.162	6412.66
744.502	6491.07
744.841	6444.97
745.181	6444.07
745.52	6364.3
745.86	6448.59
746.199	6481.58
746.538	6442.49
746.877	6442.94
747.216	6498.3
747.556	6391.87
747.895	6429.15
748.234	6365.43
748.573	6359.78
748.911	6323.85
749.25	6416.05
749.589	6371.3
749.928	6384.41
750.267	6401.36
750.605	6421.47
750.944	6401.13
751.283	6363.39
751.621	6419.44
751.96	6367.23
752.298	6340.57
752.636	6406.55
752.975	6357.74
753.313	6347.12
753.651	6351.19
753.989	6268.48
754.327	6291.76
754.666	6277.52
755.004	6364.3
755.342	6309.38
755.679	6308.25
756.017	6278.87
756.355	6277.97
756.693	6233.23
757.031	6256.95
757.368	6229.16
757.706	6261.47
758.044	6249.5
758.381	6225.09
758.719	6231.87
759.056	6188.71
759.394	6203.85
759.731	6167.01
760.068	6149.39
760.405	6123.85
760.743	6095.15
761.08	6138.09
761.417	6097.41
761.754	6064.87
762.091	6031.65
762.428	6044.76
762.765	6122.04
763.102	6043.4
763.438	5997.3
763.775	5959.56
764.112	6056.51
764.449	5981.71
764.785	5944.87
765.122	5951.88
765.458	5892.22
765.795	5933.12
766.131	5886.34
766.467	5924.76
766.804	5833.24
767.14	5857.42
767.476	5827.81
767.812	5805.67
768.148	5753.69
768.485	5799.79
768.821	5768.83
769.157	5780.81
769.492	5755.72
769.828	5715.5
770.164	5648.16
770.5	5666.91
770.836	5715.27
771.171	5595.28
