Data from mousepad_grey_FLMS001491_00023.txt Node
Date: Wed Feb 08 14:29:12 GMT 2017
User: dcchb
Spectrometer: FLMS00149
Trigger mode: 0
Integration Time (sec): 2.000000E-2
Scans to average: 10
Electric dark correction enabled: true
Nonlinearity correction enabled: false
Boxcar width: 0
XAxis mode: Wavelengths
Number of Pixels in Spectrum: 2048
>>>>>Begin Spectral Data<<<<<
341.393	-9.66
341.776	-9.66
342.16	-9.66
342.543	-60.05
342.927	-76.1
343.31	-72.26
343.693	-67.51
344.077	-65.03
344.46	-49.89
344.843	-46.95
345.226	-44.24
345.61	-31.58
345.993	-29.32
346.376	-9.21
346.759	26.5
347.142	21.98
347.525	29.66
347.908	55.87
348.291	69.21
348.674	96.78
349.057	115.99
349.44	125.25
349.823	145.36
350.206	159.15
350.588	173.39
350.971	188.53
351.354	209.09
351.737	213.84
352.119	243.21
352.502	241.86
352.884	258.58
353.267	271.24
353.65	277.34
354.032	282.08
354.414	286.38
354.797	302.87
355.179	298.81
355.562	311.91
355.944	308.52
356.326	303.55
356.709	316.88
357.091	328.64
357.473	317.56
357.855	321.18
358.238	321.86
358.62	297.9
359.002	306.49
359.384	316.88
359.766	319.14
360.148	344.45
360.53	316.21
360.912	325.47
361.294	298.13
361.676	317.11
362.057	318.69
362.439	293.16
362.821	319.6
363.203	306.49
363.584	299.94
363.966	308.75
364.348	306.04
364.729	287.05
365.111	299.94
365.493	310.1
365.874	305.36
366.256	277.56
366.637	286.38
367.019	289.31
367.4	292.03
367.781	284.57
368.163	290.9
368.544	298.58
368.925	317.79
369.306	275.98
369.688	305.59
370.069	298.13
370.45	275.53
370.831	313.95
371.212	286.6
371.593	297.68
371.974	303.55
372.355	289.09
372.736	295.42
373.117	306.49
373.498	289.77
373.879	288.64
374.26	302.42
374.641	309.2
375.021	303.78
375.402	299.26
375.783	315.3
376.163	296.32
376.544	307.85
376.925	304.23
377.305	286.6
377.686	322.53
378.066	291.12
378.447	297
378.827	309.43
379.208	305.13
379.588	307.39
379.968	306.72
380.349	309.88
380.729	313.27
381.109	308.52
381.489	325.47
381.87	303.33
382.25	320.27
382.63	303.55
383.01	318.92
383.39	318.24
383.77	318.01
384.15	336.32
384.53	315.53
384.91	343.78
385.29	321.86
385.67	308.75
386.049	321.86
386.429	325.25
386.809	327.51
387.189	323.44
387.568	323.89
387.948	315.75
388.328	318.01
388.707	341.29
389.087	338.8
389.466	332.48
389.846	326.38
390.225	343.32
390.605	355.08
390.984	340.39
391.363	344
391.743	339.03
392.122	352.36
392.501	359.82
392.881	342.42
393.26	350.1
393.639	344.68
394.018	342.87
394.397	355.3
394.776	341.74
395.155	332.25
395.534	367.5
395.913	366.37
396.292	347.39
396.671	356.43
397.05	356.66
397.429	360.95
397.808	363.66
398.186	369.09
398.565	366.83
398.944	379.93
399.323	361.4
399.701	380.61
400.08	378.35
400.458	369.31
400.837	388.07
401.215	374.28
401.594	399.82
401.972	382.87
402.351	348.3
402.729	372.02
403.107	384.23
403.486	375.19
403.864	374.96
404.242	402.76
404.62	385.13
404.999	378.35
405.377	391.01
405.755	401.63
406.133	360.05
406.511	393.27
406.889	392.59
407.267	406.15
407.645	415.64
408.023	419.93
408.401	414.51
408.779	424
409.156	430.78
409.534	422.42
409.912	409.99
410.29	440.27
410.667	457.9
411.045	422.64
411.422	429.65
411.8	459.71
412.178	429.42
412.555	448.18
412.933	428.75
413.31	438.46
413.687	458.58
414.065	433.94
414.442	455.64
414.819	464.45
415.197	466.26
415.574	464
415.951	506.71
416.328	477.33
416.705	495.86
417.082	482.3
417.46	490.67
417.837	486.37
418.214	491.57
418.591	475.3
418.967	500.38
419.344	482.53
419.721	477.33
420.098	489.31
420.475	501.06
420.852	499.25
421.228	485.02
421.605	496.09
421.982	502.87
422.358	520.27
422.735	507.39
423.111	520.04
423.488	516.65
423.864	531.12
424.241	544.67
424.617	533.38
424.994	529.31
425.37	534.96
425.746	520.27
426.123	539.03
426.499	565.01
426.875	546.71
427.251	549.42
427.627	550.78
428.003	579.02
428.379	556.88
428.756	571.57
429.132	579.02
429.507	558.69
429.883	589.19
430.259	586.93
430.635	614.96
431.011	596.88
431.387	620.83
431.763	607.72
432.138	610.21
432.514	618.35
432.89	635.75
433.265	632.13
433.641	654.95
434.016	597.78
434.392	627.38
434.767	667.16
435.143	639.59
435.518	657.89
435.894	685.24
436.269	663.99
436.644	652.69
437.02	672.81
437.395	698.12
437.77	711.68
438.145	715.29
438.52	715.07
438.895	706.93
439.271	698.12
439.646	703.09
440.021	727.95
440.395	729.98
440.77	720.94
441.145	711.22
441.52	731.34
441.895	718
442.27	738.79
442.645	746.7
443.019	749.19
443.394	749.87
443.769	771.56
444.143	758.68
444.518	746.03
444.892	763.43
445.267	749.87
445.641	792.8
446.016	780.6
446.39	774.5
446.764	779.25
447.139	803.2
447.513	783.54
447.887	798.23
448.262	787.38
448.636	790.09
449.01	812.24
449.384	848.17
449.758	809.75
450.132	809.98
450.506	834.16
450.88	829.19
451.254	849.07
451.628	839.36
452.002	860.82
452.376	850.43
452.75	875.97
453.123	866.25
453.497	860.15
453.871	884.55
454.244	903.31
454.618	905.8
454.992	914.16
455.365	903.76
455.739	943.99
456.112	952.57
456.486	905.12
456.859	957.77
457.232	967.04
457.606	978.11
457.979	976.75
458.352	973.82
458.725	992.35
459.099	993.7
459.472	995.28
459.845	1012.46
460.218	1032.57
460.591	1043.42
460.964	1014.49
461.337	1042.51
461.71	1079.8
462.083	1082.29
462.456	1065.57
462.829	1107.15
463.201	1077.09
463.574	1104.43
463.947	1129.52
464.32	1136.98
464.692	1148.73
465.065	1131.33
465.438	1145.56
465.81	1161.61
466.183	1184.88
466.555	1232.79
466.928	1220.82
467.3	1220.82
467.672	1203.64
468.045	1248.39
468.417	1259.46
468.789	1262.4
469.161	1281.38
469.534	1305.11
469.906	1318.89
470.278	1343.98
470.65	1344.88
471.022	1348.72
471.394	1380.81
471.766	1380.13
472.138	1418.78
472.51	1416.52
472.882	1424.88
473.253	1457.87
473.625	1487.7
473.997	1485.67
474.369	1479.79
474.74	1527.93
475.112	1555.5
475.484	1553.46
475.855	1601.37
476.227	1602.05
476.598	1619.45
476.97	1645.44
477.341	1664.87
477.713	1694.25
478.084	1690.63
478.455	1727.02
478.827	1720.46
479.198	1786.9
479.569	1775.38
479.94	1829.84
480.311	1851.08
480.682	1855.6
481.053	1913.9
481.424	1950.29
481.795	1947.58
482.166	2004.98
482.537	1985.99
482.908	2060.79
483.279	2040.68
483.65	2084.75
484.021	2127.01
484.391	2157.06
484.762	2174.69
485.133	2151.86
485.503	2197.29
485.874	2246.33
486.244	2259.21
486.615	2324.06
486.985	2300.79
487.356	2366.32
487.726	2359.99
488.097	2414.68
488.467	2410.16
488.837	2479.09
489.207	2519.99
489.578	2511.18
489.948	2555.47
490.318	2583.94
490.688	2573.32
491.058	2614.23
491.428	2684.51
491.798	2679.31
492.168	2729.48
492.538	2728.12
492.908	2757.27
493.278	2776.25
493.648	2803.37
494.017	2815.8
494.387	2887.66
494.757	2876.82
495.126	2900.32
495.496	2938.06
495.866	2947.78
496.235	2997.27
496.605	2989.58
496.974	2984.38
497.344	3023.03
497.713	3029.58
498.082	3076.81
498.452	3115
498.821	3086.08
499.19	3099.86
499.559	3154.32
499.928	3163.36
500.298	3203.36
500.667	3213.08
501.036	3228.45
501.405	3239.29
501.774	3280.42
502.143	3268.67
502.512	3287.65
502.88	3321.55
503.249	3334.88
503.618	3374.43
503.987	3396.8
504.356	3388.89
504.724	3413.98
505.093	3465.95
505.462	3425.73
505.83	3439.97
506.199	3496.91
506.567	3484.71
506.936	3506.63
507.304	3547.76
507.672	3576.23
508.041	3567.19
508.409	3647.19
508.777	3654.88
509.145	3647.19
509.514	3679.06
509.882	3719.96
510.25	3721.77
510.618	3787.75
510.986	3703.69
511.354	3818.71
511.722	3834.31
512.09	3844.93
512.458	3849.9
512.826	3865.27
513.193	3889.45
513.561	3926.28
513.929	3946.17
514.297	3955.21
514.664	4046.5
515.032	4027.07
515.4	4018.48
515.767	4043.79
516.135	4097.35
516.502	4090.12
516.869	4125.82
517.237	4168.31
517.604	4140.06
517.972	4193.62
518.339	4243.33
518.706	4208.76
519.073	4245.59
519.44	4281.98
519.808	4317.46
520.175	4319.49
520.542	4364.01
520.909	4416.66
521.276	4380.05
521.643	4410.56
522.009	4441.75
522.376	4446.04
522.743	4538.92
523.11	4517.23
523.477	4586.38
523.843	4578.24
524.21	4644.45
524.577	4714.96
524.943	4715.41
525.31	4731.91
525.676	4779.14
526.043	4783.43
526.409	4868.4
526.776	4860.27
527.142	4905.92
527.508	4893.49
527.874	4915.18
528.241	4992.92
528.607	4979.36
528.973	5015.52
529.339	5035.63
529.705	5132.8
530.071	5136.19
530.437	5121.05
530.803	5225
531.169	5202.41
531.535	5224.33
531.901	5220.94
532.267	5272.69
532.632	5303.42
532.998	5331.44
533.364	5345.45
533.73	5396.3
534.095	5464.32
534.461	5415.73
534.826	5429.97
535.192	5471.78
535.557	5499.12
535.923	5521.27
536.288	5551.1
536.653	5563.07
537.019	5563.07
537.384	5608.04
537.749	5634.26
538.114	5633.13
538.479	5662.96
538.845	5735.27
539.21	5641.49
539.575	5706.12
539.94	5749.74
540.305	5756.74
540.67	5811.66
541.034	5853.46
541.399	5854.59
541.764	5829.96
542.129	5879.9
542.494	5912.67
542.858	5975.94
543.223	5923.06
543.587	5953.8
543.952	5992.89
544.316	6008.49
544.681	6013.46
545.045	6100.24
545.41	6109.5
545.774	6092.1
546.138	6141.59
546.503	6151.76
546.867	6130.97
547.231	6224.53
547.595	6285.54
547.959	6260.91
548.324	6265.88
548.688	6326.67
549.052	6320.34
549.416	6351.98
549.779	6310.4
550.143	6402.15
550.507	6382.71
550.871	6457.51
551.235	6479.43
551.599	6509.49
551.962	6517.85
552.326	6467.46
552.689	6610.73
553.053	6531.86
553.417	6599.66
553.78	6668.13
554.143	6685.98
554.507	6691.41
554.87	6708.35
555.234	6753.33
555.597	6673.1
555.96	6740.67
556.323	6764.17
556.686	6860.22
557.05	6871.74
557.413	6865.41
557.776	6903.6
558.139	6954.22
558.502	6960.55
558.865	6989.25
559.228	7050.49
559.59	7052.07
559.953	7116.71
560.316	7142.92
560.679	7155.8
561.041	7206.42
561.404	7182.24
561.767	7240.77
562.129	7238.96
562.492	7270.6
562.854	7275.12
563.217	7292.75
563.579	7396.47
563.941	7406.42
564.304	7385.85
564.666	7444.61
565.028	7471.72
565.39	7569.8
565.753	7543.13
566.115	7590.37
566.477	7611.61
566.839	7595.34
567.201	7721.66
567.563	7706.52
567.925	7750.14
568.287	7730.02
568.648	7722.34
569.01	7835.33
569.372	7867.19
569.734	7853.64
570.095	7851.38
570.457	7928.44
570.819	7942.67
571.18	7907.42
571.542	8001.65
571.903	8004.37
572.265	8057.92
572.626	8098.83
572.987	8051.37
573.349	8103.12
573.71	8187.19
574.071	8147.64
574.432	8235.32
574.794	8266.05
575.155	8269.22
575.516	8186.28
575.877	8275.55
576.238	8264.25
576.599	8296.56
576.96	8293.62
577.32	8297.24
577.681	8338.82
578.042	8403
578.403	8412.49
578.763	8391.47
579.124	8447.52
579.485	8410.46
579.845	8492.04
580.206	8433.06
580.566	8470.12
580.927	8445.26
581.287	8522.09
581.648	8465.82
582.008	8546.5
582.368	8542.66
582.728	8532.71
583.089	8489.1
583.449	8517.8
583.809	8544.24
584.169	8632.37
584.529	8550.11
584.889	8633.28
585.249	8545.14
585.609	8521.41
585.969	8602.99
586.329	8513.05
586.688	8627.63
587.048	8649.77
587.408	8586.95
587.768	8608.64
588.127	8572.71
588.487	8615.65
588.846	8598.7
589.206	8605.25
589.565	8590.57
589.925	8649.09
590.284	8557.12
590.643	8618.81
591.003	8649.09
591.362	8663.11
591.721	8642.54
592.08	8661.75
592.44	8670.11
592.799	8625.14
593.158	8646.83
593.517	8635.31
593.876	8627.4
594.235	8635.54
594.593	8664.91
594.952	8706.27
595.311	8646.16
595.67	8642.32
596.029	8709.43
596.387	8727.51
596.746	8791.01
597.104	8674.4
597.463	8711.69
597.822	8702.2
598.18	8764.57
598.538	8692.71
598.897	8742.2
599.255	8709.43
599.613	8756.44
599.972	8687.51
600.33	8788.07
600.688	8710.79
601.046	8741.75
601.404	8763.89
601.762	8762.09
602.12	8786.94
602.478	8773.61
602.836	8819.26
603.194	8770
603.552	8735.87
603.91	8747.62
604.268	8739.04
604.625	8750.33
604.983	8854.06
605.341	8761.18
605.698	8797.11
606.056	8806.15
606.413	8796.89
606.771	8812.03
607.128	8846.6
607.485	8785.59
607.843	8790.11
608.2	8844.8
608.557	8928.41
608.914	8871.91
609.272	8907.84
609.629	8884.79
609.986	8961.85
610.343	8850.9
610.7	8986.94
611.057	8929.54
611.414	8958.47
611.771	8960.72
612.127	9038.91
612.484	8933.83
612.841	8984.68
613.198	8993.49
613.554	8986.03
613.911	9021.51
614.267	8989.42
614.624	8974.51
614.98	9068.74
615.337	9112.81
615.693	8985.13
616.05	9061.74
616.406	9085.69
616.762	9024.68
617.118	9085.47
617.475	9084.56
617.831	9100.16
618.187	9122.75
618.543	9139.48
618.899	9135.64
619.255	9164.34
619.611	9095.64
619.967	9151.68
620.323	9168.63
620.678	9186.48
621.034	9192.13
621.39	9089.99
621.746	9135.18
622.101	9167.95
622.457	9076.88
622.812	9147.84
623.168	9214.05
623.523	9192.58
623.879	9180.83
624.234	9153.94
624.589	9201.62
624.945	9182.19
625.3	9207.05
625.655	9207.27
626.01	9177.22
626.365	9213.83
626.72	9172.24
627.075	9184.67
627.43	9200.94
627.785	9185.35
628.14	9188.52
628.495	9216.76
628.85	9151.45
629.205	9211.34
629.559	9256.31
629.914	9144.22
630.269	9168.4
630.623	9146.26
630.978	9125.01
631.332	9214.96
631.687	9195.52
632.041	9156.2
632.396	9156.2
632.75	9169.31
633.104	9138.35
633.459	9073.72
633.813	9061.29
634.167	9120.95
634.521	9111.68
634.875	9071
635.229	9101.74
635.583	9041.4
635.937	9045.24
636.291	9036.43
636.645	9037.33
636.999	9044.79
637.352	9025.81
637.706	8998.46
638.06	9042.76
638.413	9007.73
638.767	9021.29
639.121	8990.78
639.474	8931.57
639.828	8953.72
640.181	9027.84
640.534	9057.22
640.888	9005.92
641.241	8987.84
641.594	8985.36
641.947	8984.23
642.301	8995.75
642.654	8937.22
643.007	8959.82
643.36	8977.45
643.713	8969.54
644.066	9042.08
644.419	8933.83
644.771	8864.68
645.124	8761.41
645.477	8771.58
645.83	8770.9
646.182	8628.3
646.535	8707.17
646.888	8742.65
647.24	8581.07
647.593	8722.09
647.945	8712.82
648.298	8635.54
648.65	8684.12
649.002	8610
649.355	8730
649.707	8629.21
650.059	8694.07
650.411	8740.62
650.763	8796.44
651.115	8926.38
651.467	8818.81
651.819	8927.96
652.171	8822.88
652.523	8895.42
652.875	8860.61
653.227	8839.37
653.578	8853.61
653.93	8884.34
654.282	8851.8
654.633	8788.98
654.985	8831.46
655.337	8862.87
655.688	8843.44
656.039	8865.81
656.391	8796.89
656.742	8749.2
657.094	8818.13
657.445	8887.05
657.796	8814.06
658.147	8811.12
658.498	8812.71
658.849	8838.47
659.2	8824.01
659.551	8834.4
659.902	8844.8
660.253	8817.45
660.604	8910.78
660.955	8798.02
661.306	8849.99
661.656	8764.57
662.007	8866.26
662.358	8809.09
662.708	8857
663.059	8776.32
663.409	8786.27
663.76	8838.92
664.11	8839.37
664.461	8859.48
664.811	8766.38
665.161	8834.17
665.511	8798.02
665.862	8831.46
666.212	8848.19
666.562	8808.64
666.912	8781.75
667.262	8797.79
667.612	8827.62
667.962	8808.41
668.312	8844.34
668.662	8868.07
669.011	8785.14
669.361	8827.85
669.711	8769.32
670.06	8755.53
670.41	8813.38
670.76	8799.6
671.109	8765.93
671.459	8765.7
671.808	8795.76
672.157	8791.01
672.507	8708.53
672.856	8737.91
673.205	8746.27
673.554	8765.7
673.904	8721.86
674.253	8765.48
674.602	8698.36
674.951	8648.42
675.3	8574.07
675.649	8724.12
675.998	8702.43
676.346	8714.86
676.695	8728.87
677.044	8655.65
677.393	8664.69
677.741	8678.7
678.09	8596.21
678.438	8684.8
678.787	8628.3
679.135	8678.7
679.484	8618.59
679.832	8642.09
680.181	8548.08
680.529	8635.08
680.877	8581.75
681.225	8575.2
681.573	8631.69
681.922	8558.02
682.27	8494.97
682.618	8525.93
682.966	8527.74
683.314	8569.1
683.661	8450.91
684.009	8470.34
684.357	8424.24
684.705	8431.93
685.053	8403.68
685.4	8409.55
685.748	8426.05
686.095	8348.31
686.443	8337.92
686.79	8297.24
687.138	8314.87
687.485	8325.26
687.832	8249.11
688.18	8318.93
688.527	8224.02
688.874	8223.34
689.221	8204.59
689.568	8217.69
689.915	8179.73
690.262	8151.48
690.609	8104.48
690.956	8138.83
691.303	8089.56
691.65	8093.18
691.997	8040.52
692.344	8026.29
692.69	8006.17
693.037	8022.9
693.383	7956.68
693.73	7992.61
694.077	7877.36
694.423	7905.61
694.769	7869
695.116	7867.19
695.462	7837.14
695.808	7754.2
696.155	7826.97
696.501	7780.87
696.847	7779.96
697.193	7698.16
697.539	7765.73
697.885	7674.88
698.231	7646.86
698.577	7648.22
698.923	7635.79
699.269	7551.72
699.614	7516.24
699.96	7475.34
700.306	7449.8
700.651	7448.22
700.997	7485.28
701.342	7423.82
701.688	7454.55
702.033	7385.85
702.379	7351.28
702.724	7348.56
703.069	7348.11
703.415	7302.24
703.76	7271.5
704.105	7306.53
704.45	7234.44
704.795	7204.61
705.14	7155.12
705.485	7191.73
705.83	7119.42
706.175	7135.01
706.52	7082.36
706.865	7034
707.209	7085.75
707.554	7090.72
707.899	7129.36
708.243	7066.99
708.588	6992.64
708.932	6964.85
709.277	6996.26
709.621	6999.42
709.966	6965.75
710.31	6984.28
710.654	6911.51
710.998	6939.99
711.342	6916.48
711.687	6944.28
712.031	6885.07
712.375	6845.75
712.719	6862.47
713.063	6812.98
713.407	6915.13
713.75	6822.93
714.094	6825.87
714.438	6767.11
714.782	6810.05
715.125	6789.93
715.469	6746.77
715.812	6721.24
716.156	6743.16
716.499	6735.92
716.843	6717.62
717.186	6697.96
717.53	6707.9
717.873	6733.44
718.216	6725.3
718.559	6685.76
718.902	6599.43
719.246	6675.59
719.589	6645.76
719.932	6643.95
720.275	6646.44
720.617	6649.83
720.96	6626.32
721.303	6606.89
721.646	6664.74
721.989	6573.89
722.331	6628.58
722.674	6551.3
723.016	6576.83
723.359	6611.41
723.701	6588.36
724.044	6614.35
724.386	6582.71
724.729	6594.46
725.071	6536.61
725.413	6609.83
725.755	6564.86
726.097	6525.31
726.439	6510.62
726.782	6559.21
727.124	6570.28
727.465	6530.96
727.807	6530.05
728.149	6530.28
728.491	6507.23
728.833	6526.44
729.175	6555.14
729.516	6499.55
729.858	6498.64
730.199	6517.63
730.541	6534.57
730.882	6512.65
731.224	6538.87
731.565	6446.67
731.906	6487.12
732.248	6542.26
732.589	6488.7
732.93	6505.42
733.271	6474.46
733.612	6506.33
733.953	6513.33
734.294	6468.59
734.635	6501.58
734.976	6500.45
735.317	6446.44
735.658	6488.02
735.999	6462.26
736.339	6464.75
736.68	6474.69
737.021	6457.51
737.361	6452.32
737.702	6493.67
738.042	6471.75
738.383	6462.49
738.723	6491.41
739.063	6457.29
739.404	6448.25
739.744	6499.32
740.084	6390.62
740.424	6403.05
740.764	6478.76
741.104	6424.97
741.444	6435.14
741.784	6456.61
742.124	6444.18
742.464	6408.93
742.804	6502.26
743.143	6438.53
743.483	6417.06
743.823	6405.31
744.162	6403.5
744.502	6448.7
744.841	6442.82
745.181	6451.19
745.52	6403.05
745.86	6456.84
746.199	6411.87
746.538	6421.81
746.877	6444.18
747.216	6480.79
747.556	6406.67
747.895	6481.02
748.234	6433.79
748.573	6391.07
748.911	6357.18
749.25	6369.83
749.589	6418.87
749.928	6387.01
750.267	6402.83
750.605	6371.87
750.944	6429.49
751.283	6377.74
751.621	6413.45
751.96	6359.44
752.298	6293
752.636	6384.52
752.975	6340.91
753.313	6321.92
753.651	6347.69
753.989	6325.77
754.327	6286.22
754.666	6345.2
755.004	6333.45
755.342	6300.91
755.679	6325.54
756.017	6330.29
756.355	6307.01
756.693	6314.92
757.031	6246.22
757.368	6220.23
757.706	6235.15
758.044	6186.33
758.381	6170.06
758.719	6155.37
759.056	6170.52
759.394	6220.23
759.731	6144.53
760.068	6130.74
760.405	6160.57
760.743	6109.05
761.08	6060.01
761.417	6062.72
761.754	6155.15
762.091	6079.9
762.428	6033.57
762.765	6071.76
763.102	6040.58
763.438	6034.93
763.775	5959.67
764.112	5990.86
764.449	5968.94
764.785	5967.58
765.122	5942.05
765.458	5875.61
765.795	5881.71
766.131	5905.89
766.467	5949.5
766.804	5880.81
767.14	5857.76
767.476	5855.95
767.812	5857.3
768.148	5810.53
768.485	5755.39
768.821	5780.24
769.157	5725.78
769.492	5724.43
769.828	5735.5
770.164	5684.43
770.5	5665.67
770.836	5683.3
771.171	5596.97
