Data from mousepad_grey_FLMS001491_00062.txt Node
Date: Wed Feb 08 14:29:45 GMT 2017
User: dcchb
Spectrometer: FLMS00149
Trigger mode: 0
Integration Time (sec): 2.000000E-2
Scans to average: 10
Electric dark correction enabled: true
Nonlinearity correction enabled: false
Boxcar width: 0
XAxis mode: Wavelengths
Number of Pixels in Spectrum: 2048
>>>>>Begin Spectral Data<<<<<
341.393	-17.08
341.776	-17.08
342.16	-17.08
342.543	-78.09
342.927	-82.38
343.31	-69.96
343.693	-52.56
344.077	-48.26
344.46	-56.62
344.843	-64.31
345.226	-43.74
345.61	-40.8
345.993	-18.88
346.376	-0.81
346.759	26.31
347.142	22.92
347.525	40.78
347.908	54.79
348.291	64.05
348.674	84.62
349.057	102.47
349.44	113.09
349.823	138.85
350.206	141.79
350.588	190.15
350.971	184.05
351.354	204.16
351.737	214.33
352.119	238.51
352.502	244.84
352.884	246.19
353.267	254.1
353.65	254.1
354.032	273.99
354.414	273.76
354.797	276.25
355.179	293.2
355.562	318.06
355.944	309.24
356.326	320.09
356.709	308.79
357.091	304.27
357.473	317.6
357.855	337.94
358.238	329.58
358.62	313.31
359.002	298.17
359.384	306.53
359.766	311.05
360.148	302.24
360.53	332.97
360.912	335.01
361.294	309.02
361.676	304.5
362.057	313.08
362.439	313.54
362.821	303.59
363.203	314.67
363.584	291.39
363.966	296.14
364.348	291.62
364.729	315.8
365.111	312.63
365.493	311.05
365.874	311.28
366.256	301.79
366.637	305.18
367.019	301.33
367.4	303.82
367.781	290.26
368.163	276.25
368.544	289.36
368.925	269.7
369.306	290.26
369.688	312.41
370.069	294.78
370.45	277.83
370.831	292.97
371.212	279.87
371.593	299.98
371.974	288
372.355	292.75
372.736	312.86
373.117	288
373.498	294.1
373.879	292.07
374.26	296.14
374.641	297.04
375.021	294.78
375.402	305.63
375.783	310.37
376.163	318.73
376.544	297.72
376.925	294.33
377.305	309.02
377.686	288.9
378.066	308.34
378.447	303.59
378.827	291.39
379.208	316.02
379.588	307.44
379.968	310.15
380.349	298.85
380.729	288.23
381.109	316.25
381.489	310.6
381.87	322.8
382.25	302.92
382.63	332.29
383.01	309.92
383.39	337.27
383.77	320.09
384.15	310.37
384.53	312.86
384.91	339.3
385.29	305.85
385.67	328
386.049	338.4
386.429	315.12
386.809	341.33
387.189	336.59
387.568	328.23
387.948	330.26
388.328	330.26
388.707	336.81
389.087	366.87
389.466	385.4
389.846	328.68
390.225	336.59
390.605	337.04
390.984	351.73
391.363	326.19
391.743	339.98
392.122	351.28
392.501	349.47
392.881	354.89
393.26	372.29
393.639	374.78
394.018	376.36
394.397	344.95
394.776	372.74
395.155	375
395.534	386.08
395.913	346.76
396.292	355.12
396.671	376.13
397.05	368
397.429	372.07
397.808	365.74
398.186	377.94
398.565	383.37
398.944	376.59
399.323	379.3
399.701	377.04
400.08	377.26
400.458	391.5
400.837	375
401.215	386.98
401.594	418.84
401.972	377.04
402.351	400.77
402.729	410.71
403.107	403.03
403.486	393.76
403.864	401.9
404.242	409.35
404.62	399.18
404.999	414.55
405.377	402.8
405.755	409.81
406.133	424.04
406.511	414.1
406.889	409.13
407.267	422.23
407.645	433.99
408.023	417.72
408.401	428.79
408.779	410.48
409.156	445.06
409.534	452.29
409.912	435.57
410.29	446.41
410.667	461.33
411.045	452.97
411.422	463.14
411.8	444.15
412.178	477.6
412.555	454.32
412.933	459.75
413.31	473.31
413.687	492.97
414.065	477.6
414.442	480.09
414.819	493.19
415.197	486.64
415.574	495
415.951	510.82
416.328	490.03
416.705	502.46
417.082	514.89
417.46	484.83
417.837	518.96
418.214	528.67
418.591	499.07
418.967	515.79
419.344	533.64
419.721	542.46
420.098	515.34
420.475	536.36
420.852	526.86
421.228	532.29
421.605	539.97
421.982	549.46
422.358	544.04
422.735	536.58
423.111	571.61
423.488	544.72
423.864	562.34
424.241	546.07
424.617	561.67
424.994	578.39
425.37	556.47
425.746	582.91
426.123	580.65
426.499	593.76
426.875	602.79
427.251	585.39
427.627	596.69
428.003	602.12
428.379	608.44
428.756	611.16
429.132	614.09
429.507	632.62
429.883	609.8
430.259	627.88
430.635	637.37
431.011	655.67
431.387	647.77
431.763	652.06
432.138	660.42
432.514	671.95
432.89	688.67
433.265	689.12
433.641	706.97
434.016	683.02
434.392	682.11
434.767	707.65
435.143	709.68
435.518	685.05
435.894	748.78
436.269	713.98
436.644	738.61
437.02	754.88
437.395	758.27
437.77	762.79
438.145	742.23
438.52	798.95
438.895	764.15
439.271	764.6
439.646	773.41
440.021	782.23
440.395	794.88
440.77	800.3
441.145	792.39
441.52	808.89
441.895	798.5
442.27	821.55
442.645	831.94
443.019	843.24
443.394	838.49
443.769	841.43
444.143	848.89
444.518	837.36
444.892	826.52
445.267	835.56
445.641	857.48
446.016	870.81
446.39	854.31
446.764	885.5
447.139	887.76
447.513	863.58
447.887	905.16
448.262	903.58
448.636	906.74
449.01	899.74
449.384	902.9
449.758	926.18
450.132	932.96
450.506	926.85
450.88	938.83
451.254	916.23
451.628	927.76
452.002	947.87
452.376	931.83
452.75	965.27
453.123	957.81
453.497	993.75
453.871	996.46
454.244	979.96
454.618	1003.69
454.992	1012.95
455.365	1001.43
455.739	1045.72
456.112	1039.39
456.486	1036.91
456.859	1070.13
457.232	1091.14
457.606	1079.17
457.979	1100.18
458.352	1100.86
458.725	1125.04
459.099	1134.98
459.472	1167.98
459.845	1174.76
460.218	1183.8
460.591	1160.97
460.964	1177.02
461.337	1189.22
461.71	1206.39
462.083	1225.38
462.456	1235.77
462.829	1200.52
463.201	1259.05
463.574	1255.43
463.947	1271.93
464.32	1270.35
464.692	1316.9
465.065	1330.69
465.438	1325.04
465.81	1326.84
466.183	1353.96
466.555	1394.64
466.928	1357.13
467.3	1384.02
467.672	1405.03
468.045	1424.69
468.417	1421.08
468.789	1438.48
469.161	1459.5
469.534	1492.49
469.906	1501.75
470.278	1504.69
470.65	1528.65
471.022	1550.79
471.394	1580.4
471.766	1579.49
472.138	1628.98
472.51	1620.85
472.882	1652.48
473.253	1650.68
473.625	1672.37
473.997	1745.59
474.369	1737.68
474.74	1763.22
475.112	1776.32
475.484	1797.34
475.855	1811.58
476.227	1832.14
476.598	1896.55
476.97	1882.99
477.341	1940.84
477.713	1946.71
478.084	1977.45
478.455	2024.9
478.827	2046.6
479.198	2082.98
479.569	2093.83
479.94	2124.56
480.311	2167.73
480.682	2171.57
481.053	2224.9
481.424	2273.94
481.795	2278.01
482.166	2336.31
482.537	2336.99
482.908	2376.08
483.279	2397.78
483.65	2461.5
484.021	2475.51
484.391	2508.73
484.762	2522.29
485.133	2529.75
485.503	2562.52
485.874	2608.39
486.244	2669.41
486.615	2678.45
486.985	2737.2
487.356	2784.43
487.726	2808.39
488.097	2826.01
488.467	2818.33
488.837	2915.73
489.207	2931.55
489.578	2952.34
489.948	2992.79
490.318	3043.41
490.688	3055.16
491.058	3095.16
491.428	3100.13
491.798	3200.69
492.168	3182.84
492.538	3229.17
492.908	3244.53
493.278	3337.86
493.648	3312.55
494.017	3354.36
494.387	3367.24
494.757	3404.08
495.126	3433.68
495.496	3468.26
495.866	3475.04
496.235	3488.14
496.605	3504.64
496.974	3532.44
497.344	3606.56
497.713	3654.92
498.082	3598.87
498.452	3649.04
498.821	3713.67
499.19	3707.35
499.559	3752.54
499.928	3745.54
500.298	3786.21
500.667	3831.18
501.036	3791.19
501.405	3816.95
501.774	3874.57
502.143	3897.85
502.512	3931.29
502.88	3930.17
503.249	3933.33
503.618	3980.33
503.987	4015.36
504.356	4021.91
504.724	4070.73
505.093	4096.71
505.462	4130.16
505.83	4087
506.199	4189.82
506.567	4210.61
506.936	4189.82
507.304	4226.88
507.672	4236.37
508.041	4274.56
508.409	4299.42
508.777	4341.68
509.145	4436.14
509.514	4391.4
509.882	4423.49
510.25	4436.14
510.618	4426.2
510.986	4490.38
511.354	4533.54
511.722	4551.62
512.09	4576.48
512.458	4555.91
512.826	4648.11
513.193	4677.94
513.561	4683.59
513.929	4719.97
514.297	4782.8
514.664	4796.81
515.032	4788
515.4	4853.76
515.767	4883.59
516.135	4897.82
516.502	4896.47
516.869	4983.47
517.237	4999.52
517.604	4985.96
517.972	5045.39
518.339	5089.68
518.706	5064.82
519.073	5108.67
519.44	5175.78
519.808	5184.37
520.175	5172.17
520.542	5225.5
520.909	5297.36
521.276	5301.43
521.643	5364.7
522.009	5401.54
522.376	5419.17
522.743	5475.44
523.11	5539.61
523.477	5537.58
523.843	5573.29
524.21	5674.07
524.577	5694.19
524.943	5698.93
525.31	5722.89
525.676	5780.29
526.043	5779.83
526.409	5836.1
526.776	5908.42
527.142	5924.91
527.508	5943.67
527.874	5982.09
528.241	6039.04
528.607	6049.66
528.973	6112.48
529.339	6116.55
529.705	6164
530.071	6210.78
530.437	6225.25
530.803	6297.79
531.169	6383.89
531.535	6331.23
531.901	6331.46
532.267	6343.21
532.632	6463.88
532.998	6467.73
533.364	6488.97
533.73	6486.48
534.095	6601.51
534.461	6593.6
534.826	6635.18
535.192	6664.78
535.557	6694.61
535.923	6697.78
536.288	6746.81
536.653	6821.84
537.019	6810.99
537.384	6848.96
537.749	6821.61
538.114	6877.43
538.479	6910.88
538.845	6948.62
539.21	6962.63
539.575	7005.79
539.94	7029.74
540.305	7063.87
540.67	7088.05
541.034	7064.55
541.399	7103.41
541.764	7167.82
542.129	7153.36
542.494	7187.03
542.858	7194.94
543.223	7241.94
543.587	7287.82
543.952	7298.21
544.316	7369.62
544.681	7331.21
545.045	7387.7
545.41	7384.76
545.774	7456.85
546.138	7549.28
546.503	7468.38
546.867	7500.92
547.231	7598.32
547.595	7620.69
547.959	7703.17
548.324	7664.53
548.688	7627.02
549.052	7745.43
549.416	7754.7
549.779	7778.2
550.143	7821.14
550.507	7833.11
550.871	7901.81
551.235	7923.96
551.599	7935.71
551.962	7936.39
552.326	8027.23
552.689	8041.02
553.053	7987.23
553.417	8045.76
553.78	8147.68
554.143	8152.88
554.507	8209.6
554.87	8248.24
555.234	8298.86
555.597	8262.48
555.96	8296.15
556.323	8345.42
556.686	8362.36
557.05	8418.63
557.413	8462.02
557.776	8514
558.139	8566.88
558.502	8514.45
558.865	8559.65
559.228	8574.56
559.59	8620.89
559.953	8676.71
560.316	8742.24
560.679	8733.88
561.041	8850.71
561.404	8853.2
561.767	8897.04
562.129	8865.18
562.492	8973.2
562.854	8923.93
563.217	8923.25
563.579	9025.4
563.941	9082.35
564.304	9094.1
564.666	9155.11
565.028	9203.47
565.39	9171.84
565.753	9297.26
566.115	9350.81
566.477	9327.76
566.839	9351.27
567.201	9373.86
567.563	9430.13
567.925	9569.56
568.287	9548.32
568.648	9493.63
569.01	9660.41
569.372	9703.12
569.734	9690.24
570.095	9682.1
570.457	9720.75
570.819	9802.1
571.18	9776.34
571.542	9873.51
571.903	9842.33
572.265	9805.94
572.626	9889.1
572.987	9948.76
573.349	9961.42
573.71	10020.4
574.071	9999.84
574.432	10096.1
574.794	10129.78
575.155	10144.92
575.516	10089.1
575.877	10134.07
576.238	10181.53
576.599	10130.23
576.96	10265.59
577.32	10298.81
577.681	10304.46
578.042	10283.22
578.403	10300.39
578.763	10319.6
579.124	10422.65
579.485	10419.71
579.845	10406.6
580.206	10391.46
580.566	10455.64
580.927	10442.99
581.287	10488.41
581.648	10502.65
582.008	10495.64
582.368	10535.42
582.728	10542.19
583.089	10501.52
583.449	10499.03
583.809	10558.24
584.169	10610.44
584.529	10507.39
584.889	10609.54
585.249	10547.39
585.609	10522.53
585.969	10600.05
586.329	10550.1
586.688	10573.15
587.048	10644.56
587.408	10606.83
587.768	10563.66
588.127	10562.53
588.487	10548.75
588.846	10645.02
589.206	10625.13
589.565	10584.68
589.925	10711.46
590.284	10564.79
590.643	10659.03
591.003	10624.45
591.362	10742.64
591.721	10587.62
592.08	10595.07
592.44	10711.91
592.799	10675.75
593.158	10689.76
593.517	10612.93
593.876	10722.53
594.235	10668.29
594.593	10712.13
594.952	10698.35
595.311	10640.05
595.67	10706.71
596.029	10728.18
596.387	10722.3
596.746	10796.65
597.104	10750.32
597.463	10668.07
597.822	10767.73
598.18	10720.04
598.538	10696.99
598.897	10758.46
599.255	10698.35
599.613	10854.5
599.972	10790.32
600.33	10827.38
600.688	10786.71
601.046	10798.68
601.404	10893.37
601.762	10888.17
602.12	10884.56
602.478	10906.25
602.836	10829.42
603.194	10838.46
603.552	10832.81
603.91	10776.31
604.268	10822.41
604.625	10840.49
604.983	10884.33
605.341	10798.91
605.698	10874.84
606.056	10991.9
606.413	10849.53
606.771	10931.11
607.128	10958.45
607.485	10899.02
607.843	10875.07
608.2	11000.71
608.557	11045.23
608.914	10986.25
609.272	11118
609.629	11063.08
609.986	11116.64
610.343	11007.95
610.7	11088.62
611.057	11081.39
611.414	11040.49
611.771	11098.79
612.127	11111.45
612.484	11145.12
612.841	11156.42
613.198	11132.46
613.554	11157.32
613.911	11196.19
614.267	11149.18
614.624	11181.5
614.98	11244.55
615.337	11242.06
615.693	11205.23
616.05	11190.09
616.406	11256.53
616.762	11329.07
617.118	11232.57
617.475	11320.71
617.831	11309.41
618.187	11266.02
618.543	11330.65
618.899	11345.79
619.255	11305.11
619.611	11327.48
619.967	11297.65
620.323	11410.19
620.678	11232.12
621.034	11366.81
621.39	11352.57
621.746	11288.84
622.101	11472.34
622.457	11370.42
622.812	11340.82
623.168	11422.4
623.523	11421.49
623.879	11413.81
624.234	11381.49
624.589	11386.92
624.945	11353.02
625.3	11524.77
625.655	11451.32
626.01	11436.63
626.365	11422.62
626.72	11420.14
627.075	11468.05
627.43	11480.47
627.785	11361.38
628.14	11403.41
628.495	11446.13
628.85	11410.42
629.205	11326.58
629.559	11485.22
629.914	11367.26
630.269	11415.62
630.623	11413.58
630.978	11344.21
631.332	11387.82
631.687	11442.74
632.041	11369.97
632.396	11396.18
632.75	11244.77
633.104	11292.01
633.459	11316.19
633.813	11276.19
634.167	11279.35
634.521	11232.8
634.875	11373.59
635.229	11316.41
635.583	11227.83
635.937	11245
636.291	11243.19
636.645	11182.4
636.999	11252.23
637.352	11256.53
637.706	11168.39
638.06	11252.23
638.413	11177.43
638.767	11207.49
639.121	11155.74
639.474	11120.03
639.828	11141.5
640.181	11192.35
640.534	11204.78
640.888	11107.83
641.241	11101.73
641.594	11049.98
641.947	11115.29
642.301	11117.32
642.654	11070.77
643.007	11062.86
643.36	11022.18
643.713	11083.42
644.066	11095.4
644.419	11078.9
644.771	10997.32
645.124	10879.13
645.477	10810.66
645.83	10798.01
646.182	10729.31
646.535	10755.75
646.888	10751.23
647.24	10696.31
647.593	10730.66
647.945	10745.58
648.298	10707.84
648.65	10682.53
649.002	10682.98
649.355	10680.27
649.707	10709.65
650.059	10831.23
650.411	10888.85
650.763	10828.74
651.115	10943.31
651.467	10942.18
651.819	10911.9
652.171	11004.33
652.523	10898.57
652.875	10963.65
653.227	10918.46
653.578	11021.73
653.93	10882.3
654.282	10901.73
654.633	10885.01
654.985	10960.26
655.337	10851.56
655.688	10874.16
656.039	10930.21
656.391	10834.84
656.742	10883.2
657.094	10890.66
657.445	10909.64
657.796	10897.89
658.147	10932.92
658.498	10913.94
658.849	10862.64
659.2	10831.45
659.551	10865.35
659.902	10901.06
660.253	10831.23
660.604	10892.24
660.955	10819.25
661.306	10921.62
661.656	10889.76
662.007	10849.53
662.358	10847.5
662.708	10906.7
663.059	10898.34
663.409	10802.98
663.76	10914.84
664.11	10925.91
664.461	10896.54
664.811	10871.9
665.161	10816.31
665.511	10853.82
665.862	10890.43
666.212	10907.16
666.562	10917.78
666.912	10872.36
667.262	10897.21
667.612	10816.09
667.962	10936.53
668.312	10973.14
668.662	10835.52
669.011	10866.25
669.361	10869.64
669.711	10831.45
670.06	10762.3
670.41	10815.86
670.76	10806.14
671.109	10866.93
671.459	10820.15
671.808	10742.87
672.157	10817.89
672.507	10774.96
672.856	10755.3
673.205	10758.46
673.554	10729.76
673.904	10709.42
674.253	10784.67
674.602	10809.31
674.951	10594.17
675.3	10568.41
675.649	10707.16
675.998	10716.65
676.346	10694.05
676.695	10770.66
677.044	10609.99
677.393	10672.36
677.741	10763.21
678.09	10628.52
678.438	10680.5
678.787	10673.04
679.135	10612.48
679.484	10554.85
679.832	10658.12
680.181	10564.34
680.529	10537.9
680.877	10593.94
681.225	10492.48
681.573	10678.01
681.922	10464
682.27	10554.4
682.618	10530.44
682.966	10432.14
683.314	10512.82
683.661	10428.75
684.009	10426.94
684.357	10360.28
684.705	10344.69
685.053	10309.43
685.4	10336.78
685.748	10357.34
686.095	10281.86
686.443	10319.15
686.79	10273.95
687.138	10283.22
687.485	10269.21
687.832	10165.93
688.18	10208.87
688.527	10158.93
688.874	10200.96
689.221	10112.83
689.568	10164.58
689.915	10076.67
690.262	10028.08
690.609	9997.35
690.956	10023.79
691.303	9971.36
691.65	9966.62
691.997	9954.41
692.344	9914.87
692.69	9878.26
693.037	9874.19
693.383	9800.07
693.73	9809.56
694.077	9811.37
694.423	9744.25
694.769	9735.44
695.116	9660.64
695.462	9750.8
695.808	9634.42
696.155	9700.63
696.501	9630.81
696.847	9605.5
697.193	9509.23
697.539	9538.38
697.885	9400.3
698.231	9460.19
698.577	9452.96
698.923	9367.76
699.269	9370.7
699.614	9266.97
699.96	9330.48
700.306	9356.91
700.651	9301.78
700.997	9221.55
701.342	9201.66
701.688	9109.01
702.033	9175.68
702.379	9186.3
702.724	9158.5
703.069	9122.8
703.415	9023.36
703.76	9049.13
704.105	9069.46
704.45	9042.12
704.795	8973.2
705.14	8932.97
705.485	8948.11
705.83	8918.51
706.175	8897.49
706.52	8859.07
706.865	8812.52
707.209	8836.25
707.554	8823.14
707.899	8816.82
708.243	8769.59
708.588	8743.82
708.932	8664.96
709.277	8672.64
709.621	8709.7
709.966	8581.12
710.31	8646.43
710.654	8618.63
710.998	8571.85
711.342	8578.86
711.687	8528.69
712.031	8476.49
712.375	8542.7
712.719	8502.47
713.063	8486.2
713.407	8563.49
713.75	8443.04
714.094	8527.78
714.438	8425.41
714.782	8439.88
715.125	8453.89
715.469	8466.54
715.812	8407.79
716.156	8361.69
716.499	8348.81
716.843	8368.01
717.186	8299.32
717.53	8292.99
717.873	8372.76
718.216	8354
718.559	8274.91
718.902	8221.58
719.246	8257.06
719.589	8225.87
719.932	8271.52
720.275	8241.24
720.617	8256.38
720.96	8197.4
721.303	8215.25
721.646	8249.83
721.989	8157.4
722.331	8156.72
722.674	8079.66
723.016	8234.91
723.359	8215.93
723.701	8186.1
724.044	8151.97
724.386	8064.07
724.729	8158.98
725.071	8188.58
725.413	8114.46
725.755	8165.76
726.097	8096.16
726.439	8043.05
726.782	8143.39
727.124	8102.26
727.465	8102.71
727.807	8070.85
728.149	8012.77
728.491	8060.9
728.833	8042.15
729.175	7999.21
729.516	8006.89
729.858	8050.73
730.199	8012.32
730.541	8010.51
730.882	8077.17
731.224	8062.94
731.565	8002.37
731.906	8045.54
732.248	8027.46
732.589	7952.43
732.93	7941.36
733.271	7986.78
733.612	7933.22
733.953	7933.45
734.294	7912.43
734.635	7913.34
734.976	8004.86
735.317	7971.64
735.658	7943.84
735.999	7973
736.339	7902.04
736.68	7926.67
737.021	7989.72
737.361	7887.35
737.702	7958.31
738.042	7934.35
738.383	7906.11
738.723	7902.26
739.063	7921.7
739.404	7923.05
739.744	7892.55
740.084	7916.05
740.424	7903.85
740.764	7844.86
741.104	7925.99
741.444	7878.99
741.784	7863.62
742.124	7888.25
742.464	7876.05
742.804	7839.89
743.143	7806.67
743.483	7862.27
743.823	7821.81
744.162	7850.29
744.502	7839.89
744.841	7815.26
745.181	7867.46
745.52	7817.07
745.86	7838.31
746.199	7782.95
746.538	7800.12
746.877	7872.66
747.216	7855.03
747.556	7833.34
747.895	7794.47
748.234	7807.13
748.573	7775.71
748.911	7814.13
749.25	7741.14
749.589	7790.85
749.928	7798.54
750.267	7791.31
750.605	7712.66
750.944	7776.84
751.283	7712.44
751.621	7780.01
751.96	7710.4
752.298	7700.91
752.636	7683.96
752.975	7712.66
753.313	7646
753.651	7711.99
753.989	7622.27
754.327	7646.9
754.666	7621.37
755.004	7614.59
755.342	7629.73
755.679	7667.69
756.017	7513.35
756.355	7570.75
756.693	7566
757.031	7626.79
757.368	7517.87
757.706	7500.01
758.044	7493.24
758.381	7463.86
758.719	7460.02
759.056	7425.89
759.394	7453.91
759.731	7441.49
760.068	7418.89
760.405	7407.81
760.743	7290.53
761.08	7366.23
761.417	7329.62
761.754	7303.41
762.091	7350.19
762.428	7301.15
762.765	7260.47
763.102	7312.22
763.438	7241.94
763.775	7175.28
764.112	7253.69
764.449	7218.89
