Data from No_light_on_white_reflection_standard_FLMS001491_002.txt Node
Date: Tue Feb 07 10:32:52 GMT 2017
User: dcchb
Spectrometer: FLMS00149
Trigger mode: 0
Integration Time (sec): 2.000000E-2
Scans to average: 10
Electric dark correction enabled: true
Nonlinearity correction enabled: false
Boxcar width: 0
XAxis mode: Wavelengths
Number of Pixels in Spectrum: 2048
>>>>>Begin Spectral Data<<<<<
341.393	1.65
341.776	1.65
342.16	1.65
342.543	-60.49
342.927	-67.05
343.31	-73.15
343.693	-79.7
344.077	-74.96
344.46	-51.68
344.843	-52.58
345.226	-34.05
345.61	-32.24
345.993	-25.69
346.376	-5.35
346.759	33.29
347.142	20.41
347.525	28.77
347.908	54.98
348.291	64.25
348.674	88.88
349.057	138.82
349.44	137.02
349.823	131.59
350.206	134.53
350.588	177.69
350.971	178.15
351.354	188.31
351.737	167.98
352.119	219.27
352.502	236.9
352.884	242.78
353.267	245.26
353.65	243.68
354.032	252.49
354.414	280.74
354.797	283.9
355.179	288.65
355.562	297.69
355.944	301.98
356.326	294.98
356.709	311.7
357.091	309.89
357.473	306.5
357.855	318.48
358.238	314.64
358.62	315.54
359.002	300.4
359.384	314.41
359.766	323
360.148	288.42
360.53	310.8
360.912	296.11
361.294	291.59
361.676	290.23
362.057	303.11
362.439	281.19
362.821	301.98
363.203	292.72
363.584	305.83
363.966	295.2
364.348	299.95
364.729	290.01
365.111	292.27
365.493	303.79
365.874	262.21
366.256	299.95
366.637	282.55
367.019	287.75
367.4	267.41
367.781	284.36
368.163	260.4
368.544	291.14
368.925	271.48
369.306	291.14
369.688	261.98
370.069	273.96
370.45	255.88
370.831	260.18
371.212	276
371.593	265.15
371.974	280.29
372.355	263.79
372.736	273.28
373.117	283.68
373.498	279.84
373.879	272.15
374.26	264.02
374.641	270.57
375.021	295.88
375.402	275.32
375.783	257.92
376.163	279.61
376.544	272.61
376.925	267.63
377.305	300.63
377.686	271.02
378.066	285.71
378.447	302.89
378.827	294.07
379.208	286.39
379.588	272.61
379.968	293.85
380.349	270.8
380.729	281.87
381.109	285.03
381.489	297.46
381.87	310.12
382.25	289.78
382.63	278.48
383.01	292.04
383.39	282.1
383.77	293.17
384.15	295.88
384.53	276
384.91	283.68
385.29	301.08
385.67	289.78
386.049	276.67
386.429	284.13
386.809	266.05
387.189	290.91
387.568	290.23
387.948	278.26
388.328	283.45
388.707	276.67
389.087	303.34
389.466	284.81
389.846	292.27
390.225	271.7
390.605	297.46
390.984	266.96
391.363	294.53
391.743	295.88
392.122	287.52
392.501	316.45
392.881	283
393.26	304.47
393.639	289.33
394.018	291.14
394.397	287.52
394.776	275.77
395.155	286.16
395.534	311.47
395.913	274.41
396.292	282.32
396.671	295.66
397.05	295.88
397.429	288.42
397.808	303.11
398.186	283.45
398.565	298.59
398.944	291.81
399.323	285.94
399.701	315.54
400.08	287.97
400.458	289.78
400.837	302.89
401.215	302.89
401.594	300.63
401.972	281.42
402.351	312.6
402.729	320.51
403.107	286.84
403.486	264.24
403.864	290.46
404.242	297.24
404.62	298.37
404.999	291.36
405.377	297.01
405.755	309.22
406.133	293.4
406.511	283.9
406.889	314.64
407.267	303.11
407.645	283
408.023	286.16
408.401	318.71
408.779	293.85
409.156	299.95
409.534	298.59
409.912	309.44
410.29	292.04
410.667	289.33
411.045	323.45
411.422	308.54
411.8	290.01
412.178	306.5
412.555	311.7
412.933	309.22
413.31	308.54
413.687	306.96
414.065	301.31
414.442	278.93
414.819	315.77
415.197	283.23
415.574	303.79
415.951	298.14
416.328	290.91
416.705	290.68
417.082	310.8
417.46	315.99
417.837	308.31
418.214	330.91
418.591	301.98
418.967	302.44
419.344	316.67
419.721	310.12
420.098	321.42
420.475	292.94
420.852	294.98
421.228	328.2
421.605	310.12
421.982	301.08
422.358	303.79
422.735	302.89
423.111	320.06
423.488	314.41
423.864	314.41
424.241	315.77
424.617	305.83
424.994	316.22
425.37	314.86
425.746	320.51
426.123	318.93
426.499	311.47
426.875	319.84
427.251	308.09
427.627	319.61
428.003	313.06
428.379	310.8
428.756	313.73
429.132	323.23
429.507	308.99
429.883	317.12
430.259	313.73
430.635	341.98
431.011	325.26
431.387	324.81
431.763	339.5
432.138	311.93
432.514	309.22
432.89	303.57
433.265	310.8
433.641	291.36
434.016	327.75
434.392	313.96
434.767	321.42
435.143	301.98
435.518	335.66
435.894	312.6
436.269	313.96
436.644	321.19
437.02	312.15
437.395	318.71
437.77	309.89
438.145	320.51
438.52	326.16
438.895	339.27
439.271	322.55
439.646	331.36
440.021	350.34
440.395	330.91
440.77	330.46
441.145	346.28
441.52	337.69
441.895	330.01
442.27	342.21
442.645	341.98
443.019	353.96
443.394	323
443.769	328.42
444.143	375.65
444.518	334.07
444.892	362.77
445.267	357.35
445.641	355.77
446.016	355.09
446.39	356.22
446.764	357.58
447.139	351.93
447.513	376.11
447.887	368.42
448.262	362.09
448.636	356.22
449.01	377.69
449.384	373.17
449.758	364.13
450.132	335.66
450.506	372.72
450.88	365.71
451.254	378.14
451.628	372.04
452.002	381.3
452.376	384.02
452.75	356.67
453.123	374.52
453.497	351.25
453.871	380.4
454.244	354.19
454.618	390.12
454.992	362.77
455.365	371.81
455.739	371.81
456.112	360.06
456.486	367.52
456.859	391.25
457.232	353.51
457.606	364.81
457.979	344.47
458.352	375.43
458.725	345.15
459.099	360.74
459.472	366.39
459.845	357.12
460.218	355.32
460.591	352.83
460.964	342.43
461.337	351.02
461.71	358.93
462.083	364.81
462.456	346.5
462.829	343.79
463.201	365.48
463.574	357.8
463.947	345.37
464.32	349.21
464.692	364.35
465.065	345.6
465.438	372.49
465.81	331.14
466.183	338.59
466.555	377.91
466.928	359.38
467.3	376.33
467.672	365.03
468.045	368.42
468.417	351.02
468.789	353.73
469.161	356.22
469.534	347.18
469.906	343.56
470.278	353.96
470.65	362.77
471.022	349.44
471.394	340.85
471.766	333.85
472.138	358.93
472.51	353.73
472.882	353.51
473.253	371.13
473.625	363.45
473.997	363.9
474.369	325.03
474.74	344.69
475.112	364.35
475.484	358.93
475.855	347.18
476.227	347.86
476.598	362.77
476.97	346.5
477.341	345.6
477.713	340.85
478.084	350.8
478.455	337.91
478.827	336.78
479.198	336.56
479.569	353.73
479.94	360.06
480.311	364.58
480.682	352.15
481.053	363.9
481.424	341.98
481.795	358.48
482.166	368.65
482.537	355.99
482.908	353.96
483.279	369.55
483.65	365.03
484.021	356.22
484.391	352.15
484.762	358.03
485.133	364.35
485.503	376.78
485.874	340.85
486.244	378.82
486.615	378.14
486.985	365.94
487.356	363
487.726	362.32
488.097	353.96
488.467	378.59
488.837	386.05
489.207	370.68
489.578	366.39
489.948	349.21
490.318	379.72
490.688	379.04
491.058	370.91
491.428	395.77
491.798	371.36
492.168	360.06
492.538	363.9
492.908	395.54
493.278	371.81
493.648	355.77
494.017	384.92
494.387	367.29
494.757	389.44
495.126	376.56
495.496	380.4
495.866	384.02
496.235	389.66
496.605	390.57
496.974	406.39
497.344	400.29
497.713	414.75
498.082	391.02
498.452	403.45
498.821	393.05
499.19	396.67
499.559	396.9
499.928	389.44
500.298	388.53
500.667	410
501.036	411.81
501.405	392.15
501.774	403
502.143	406.39
502.512	403.45
502.88	422.21
503.249	416.78
503.618	403.45
503.987	406.16
504.356	412.49
504.724	411.36
505.093	410.91
505.462	423.56
505.83	412.72
506.199	423.34
506.567	421.08
506.936	421.53
507.304	430.34
507.672	405.94
508.041	410.23
508.409	428.31
508.777	427.4
509.145	434.86
509.514	424.69
509.882	438.48
510.25	454.97
510.618	430.57
510.986	447.97
511.354	430.57
511.722	433.28
512.09	427.63
512.458	440.74
512.826	443
513.193	444.8
513.561	451.13
513.929	440.51
514.297	450.23
514.664	430.79
515.032	458.36
515.4	444.8
515.767	430.79
516.135	444.58
516.502	450.68
516.869	428.53
517.237	432.15
517.604	440.96
517.972	458.36
518.339	447.97
518.706	447.74
519.073	440.06
519.44	440.06
519.808	463.56
520.175	464.92
520.542	449.32
520.909	466.5
521.276	455.88
521.643	483
522.009	478.25
522.376	482.09
522.743	469.89
523.11	461.08
523.477	478.48
523.843	478.02
524.21	469.66
524.577	447.29
524.943	481.19
525.31	475.99
525.676	466.05
526.043	480.74
526.409	477.12
526.776	478.02
527.142	465.14
527.508	495.42
527.874	497.46
528.241	477.12
528.607	485.48
528.973	470.11
529.339	493.39
529.705	488.65
530.071	480.28
530.437	483.45
530.803	494.29
531.169	479.83
531.535	479.83
531.901	491.58
532.267	501.53
532.632	501.53
532.998	490.68
533.364	496.55
533.73	482.32
534.095	498.36
534.461	505.37
534.826	506.72
535.192	499.04
535.557	531.13
535.923	486.61
536.288	487.29
536.653	511.02
537.019	506.72
537.384	527.74
537.749	490.68
538.114	498.59
538.479	506.5
538.845	482.77
539.21	501.07
539.575	527.74
539.94	512.37
540.305	529.55
540.67	506.05
541.034	514.63
541.399	519.15
541.764	513.5
542.129	505.14
542.494	521.19
542.858	489.78
543.223	500.85
543.587	508.31
543.952	524.35
544.316	492.94
544.681	513.5
545.045	513.05
545.41	533.84
545.774	520.96
546.138	523.67
546.503	509.66
546.867	513.5
547.231	496.78
547.595	515.09
547.959	507.63
548.324	518.25
548.688	532.26
549.052	514.63
549.416	525.93
549.779	517.57
550.143	495.65
550.507	524.35
550.871	515.31
551.235	515.76
551.599	516.22
551.962	510.34
552.326	542.43
552.689	542.43
553.053	546.27
553.417	553.73
553.78	539.27
554.143	537.46
554.507	530.68
554.87	550.11
555.234	559.15
555.597	543.56
555.96	535.42
556.323	556.89
556.686	531.36
557.05	532.49
557.413	541.3
557.776	537.01
558.139	539.04
558.502	540.62
558.865	545.82
559.228	552.82
559.59	558.02
559.953	527.29
560.316	555.31
560.679	556.21
561.041	539.27
561.404	541.75
561.767	553.05
562.129	563.67
562.492	568.87
562.854	558.02
563.217	565.25
563.579	532.94
563.941	536.1
564.304	555.76
564.666	550.79
565.028	541.98
565.39	553.73
565.753	562.32
566.115	540.62
566.477	537.01
566.839	575.87
567.201	554.18
567.563	542.43
567.925	571.13
568.287	567.29
568.648	574.29
569.01	571.81
569.372	544.92
569.734	573.84
570.095	572.94
570.457	565.71
570.819	576.1
571.18	574.97
571.542	579.49
571.903	573.16
572.265	594.18
572.626	560.06
572.987	574.29
573.349	590.34
573.71	583.11
574.071	562.09
574.432	572.94
574.794	570.23
575.155	600.05
575.516	590.56
575.877	580.39
576.238	570.23
576.599	585.37
576.96	554.63
577.32	570.45
577.681	589.21
578.042	565.48
578.403	584.69
578.763	584.24
579.124	578.13
579.485	575.42
579.845	584.46
580.206	571.81
580.566	577.46
580.927	595.31
581.287	587.17
581.648	577.46
582.008	578.81
582.368	587.17
582.728	602.99
583.089	564.35
583.449	576.55
583.809	594.86
584.169	585.14
584.529	585.37
584.889	559.38
585.249	588.98
585.609	589.89
585.969	595.08
586.329	575.87
586.688	591.92
587.048	595.99
587.408	594.41
587.768	579.49
588.127	590.56
588.487	556.44
588.846	563.9
589.206	599.15
589.565	569.77
589.925	599.38
590.284	588.76
590.643	571.36
591.003	569.77
591.362	568.19
591.721	580.62
592.08	564.8
592.44	562.77
592.799	587.17
593.158	587.63
593.517	576.55
593.876	558.47
594.235	579.26
594.593	560.51
594.952	553.05
595.311	572.03
595.67	601.18
596.029	587.4
596.387	572.48
596.746	567.74
597.104	564.8
597.463	574.07
597.822	555.54
598.18	549.43
598.538	601.18
598.897	585.82
599.255	553.73
599.613	569.1
599.972	564.35
600.33	571.13
600.688	577.23
601.046	567.29
601.404	574.97
601.762	564.12
602.12	557.8
602.478	570
602.836	570.68
603.194	546.72
603.552	563.9
603.91	563.9
604.268	541.3
604.625	553.95
604.983	559.83
605.341	546.95
605.698	554.86
606.056	562.54
606.413	577.46
606.771	543.11
607.128	546.5
607.485	562.09
607.843	541.53
608.2	541.53
608.557	539.49
608.914	556.44
609.272	560.51
609.629	556.67
609.986	562.99
610.343	563.45
610.7	573.16
611.057	551.02
611.414	527.51
611.771	558.93
612.127	544.01
612.484	557.57
612.841	535.88
613.198	537.01
613.554	552.15
613.911	552.15
614.267	513.5
614.624	550.79
614.98	540.62
615.337	530.9
615.693	532.03
616.05	539.94
616.406	550.79
616.762	523.22
617.118	530
617.475	545.82
617.831	532.03
618.187	527.97
618.543	527.97
618.899	517.12
619.255	505.37
619.611	532.94
619.967	518.93
620.323	538.36
620.678	518.25
621.034	522.54
621.39	500.62
621.746	521.41
622.101	514.18
622.457	511.92
622.812	504.01
623.168	504.01
623.523	535.65
623.879	512.15
624.234	528.19
624.589	527.51
624.945	503.33
625.3	502.88
625.655	542.43
626.01	491.81
626.365	505.37
626.72	517.8
627.075	509.66
627.43	503.33
627.785	486.16
628.14	512.83
628.495	509.89
628.85	493.39
629.205	504.92
629.559	493.84
629.914	486.39
630.269	500.62
630.623	480.51
630.978	491.36
631.332	491.36
631.687	494.75
632.041	520.28
632.396	488.87
632.75	481.41
633.104	480.74
633.459	485.26
633.813	489.1
634.167	471.47
634.521	481.41
634.875	485.48
635.229	482.32
635.583	468.98
635.937	477.12
636.291	468.76
636.645	476.67
636.999	457.01
637.352	495.42
637.706	452.94
638.06	487.74
638.413	478.25
638.767	465.37
639.121	459.27
639.474	457.01
639.828	470.79
640.181	466.5
640.534	443.9
640.888	461.08
641.241	453.62
641.594	475.31
641.947	443.9
642.301	456.1
642.654	450.91
643.007	452.26
643.36	456.1
643.713	459.72
644.066	457.69
644.419	441.87
644.771	441.64
645.124	457.23
645.477	443
645.83	449.1
646.182	441.87
646.535	441.19
646.888	437.8
647.24	439.61
647.593	439.61
647.945	441.41
648.298	424.69
648.65	442.09
649.002	428.08
649.355	430.34
649.707	410.68
650.059	463.34
650.411	445.93
650.763	436.22
651.115	416.1
651.467	412.72
651.819	429.66
652.171	456.1
652.523	431.02
652.875	434.64
653.227	409.1
653.578	423.56
653.93	424.69
654.282	422.88
654.633	426.05
654.985	421.53
655.337	440.29
655.688	417.01
656.039	424.24
656.391	431.7
656.742	405.94
657.094	395.54
657.445	418.14
657.796	397.12
658.147	406.84
658.498	420.85
658.849	406.84
659.2	406.84
659.551	420.4
659.902	427.63
660.253	412.72
660.604	403
660.955	413.39
661.306	411.81
661.656	403.9
662.007	403.68
662.358	394.64
662.708	403.9
663.059	400.51
663.409	392.6
663.76	381.76
664.11	396.22
664.461	404.58
664.811	415.43
665.161	406.16
665.511	403.68
665.862	397.12
666.212	407.07
666.562	400.96
666.912	403.9
667.262	404.35
667.612	394.41
667.962	408.87
668.312	386.05
668.662	394.18
669.011	396.22
669.361	387.18
669.711	392.83
670.06	400.29
670.41	404.35
670.76	367.29
671.109	395.09
671.459	407.07
671.808	402.32
672.157	391.02
672.507	408.65
672.856	407.07
673.205	383.56
673.554	396.9
673.904	367.74
674.253	377.69
674.602	388.53
674.951	363.22
675.3	391.47
675.649	388.53
675.998	368.87
676.346	372.04
676.695	378.14
677.044	379.72
677.393	381.3
677.741	400.74
678.09	365.03
678.438	372.94
678.787	380.17
679.135	398.48
679.484	387.41
679.832	394.41
680.181	381.53
680.529	379.27
680.877	374.3
681.225	373.62
681.573	369.1
681.922	366.39
682.27	372.94
682.618	367.29
682.966	376.56
683.314	357.35
683.661	358.93
684.009	365.94
684.357	362.77
684.705	376.33
685.053	360.29
685.4	361.42
685.748	370.68
686.095	377.01
686.443	384.69
686.79	360.97
687.138	370.46
687.485	346.73
687.832	360.29
688.18	365.94
688.527	368.87
688.874	358.48
689.221	358.93
689.568	379.27
689.915	372.49
690.262	360.06
690.609	373.39
690.956	352.15
691.303	341.76
691.65	348.08
691.997	354.19
692.344	363
692.69	350.8
693.037	358.71
693.383	364.35
693.73	358.25
694.077	355.32
694.423	353.51
694.769	346.73
695.116	357.8
695.462	359.38
695.808	368.65
696.155	358.71
696.501	356.45
696.847	360.74
697.193	349.21
697.539	365.03
697.885	364.81
698.231	360.97
698.577	361.87
698.923	345.37
699.269	344.69
699.614	350.34
699.96	346.5
700.306	365.03
700.651	332.49
700.997	341.98
701.342	353.96
701.688	364.81
702.033	341.98
702.379	371.59
702.724	349.44
703.069	359.61
703.415	352.6
703.76	360.97
704.105	363
704.45	370.68
704.795	357.35
705.14	346.95
705.485	344.24
705.83	351.02
706.175	336.11
706.52	339.27
706.865	340.63
707.209	346.73
707.554	338.59
707.899	321.64
708.243	347.18
708.588	358.25
708.932	337.69
709.277	349.44
709.621	330.68
709.966	329.78
710.31	337.91
710.654	342.89
710.998	342.43
711.342	351.7
711.687	362.55
712.031	332.94
712.375	363.68
712.719	351.7
713.063	342.66
713.407	352.38
713.75	336.11
714.094	353.28
714.438	333.4
714.782	321.42
715.125	332.72
715.469	336.56
715.812	355.09
716.156	342.21
716.499	345.37
716.843	338.82
717.186	353.28
717.53	344.02
717.873	338.14
718.216	322.1
718.559	329.33
718.902	328.2
719.246	353.06
719.589	332.49
719.932	322.32
720.275	344.24
720.617	325.94
720.96	330.23
721.303	348.99
721.646	356.22
721.989	322.55
722.331	321.42
722.674	342.66
723.016	339.27
723.359	350.34
723.701	345.6
724.044	352.6
724.386	338.82
724.729	335.88
725.071	320.74
725.413	344.92
725.755	326.16
726.097	343.11
726.439	342.43
726.782	328.65
727.124	329.33
727.465	313.51
727.807	325.94
728.149	330.01
728.491	339.04
728.833	356.22
729.175	341.53
729.516	346.95
729.858	351.93
730.199	340.63
730.541	347.86
730.882	353.73
731.224	347.18
731.565	343.56
731.906	326.84
732.248	347.18
732.589	340.85
732.93	341.3
733.271	341.3
733.612	329.1
733.953	335.43
734.294	339.04
734.635	341.76
734.976	356.9
735.317	342.43
735.658	335.88
735.999	328.2
736.339	316.22
736.68	334.07
737.021	340.85
737.361	342.21
737.702	347.41
738.042	341.08
738.383	328.42
738.723	334.98
739.063	352.6
739.404	348.08
739.744	352.83
740.084	332.49
740.424	343.34
740.764	341.98
741.104	316.67
741.444	332.49
741.784	325.71
742.124	332.94
742.464	340.4
742.804	337.24
743.143	330.68
743.483	334.53
743.823	337.01
744.162	351.93
744.502	344.24
744.841	336.78
745.181	318.25
745.52	331.81
745.86	317.8
746.199	335.88
746.538	338.14
746.877	313.73
747.216	337.69
747.556	346.73
747.895	345.82
748.234	316.22
748.573	329.78
748.911	326.62
749.25	336.11
749.589	323.45
749.928	353.51
750.267	348.08
750.605	332.04
750.944	327.52
751.283	335.88
751.621	324.81
751.96	334.98
752.298	330.91
752.636	358.03
752.975	319.16
753.313	335.2
753.651	338.37
753.989	347.86
754.327	334.75
754.666	338.82
755.004	320.74
755.342	335.2
755.679	343.56
756.017	334.98
756.355	332.72
756.693	353.28
757.031	347.86
757.368	325.03
757.706	329.1
758.044	327.07
758.381	329.55
758.719	363.68
759.056	325.71
759.394	338.14
759.731	330.68
760.068	324.58
760.405	338.82
760.743	337.24
761.08	330.91
761.417	317.35
761.754	337.01
762.091	341.53
762.428	329.33
762.765	331.59
763.102	325.49
763.438	336.78
763.775	349.44
764.112	316.9
764.449	339.5
764.785	314.86
765.122	330.91
765.458	317.12
765.795	329.78
766.131	315.54
766.467	328.88
766.804	313.96
767.14	322.1
767.476	324.13
767.812	320.51
768.148	315.54
768.485	340.17
768.821	340.4
769.157	334.07
769.492	330.91
769.828	328.2
770.164	335.2
770.5	341.76
770.836	330.01
771.171	339.5
771.507	327.07
771.842	337.46
772.178	320.51
772.513	332.94
772.849	345.37
773.184	319.84
773.519	340.63
773.855	328.42
774.19	324.36
774.525	334.53
774.86	329.55
775.195	318.71
775.53	345.37
775.865	330.46
776.2	325.26
776.535	335.2
776.87	340.85
777.205	333.85
777.539	328.65
777.874	313.06
778.209	327.52
778.543	308.76
778.878	317.35
779.212	337.24
779.547	332.04
779.881	311.25
780.215	318.71
780.55	328.65
780.884	313.06
781.218	359.84
781.552	305.83
781.886	336.33
782.22	319.61
782.554	322.77
782.888	323
783.222	334.75
783.556	320.51
783.889	333.17
784.223	325.26
784.557	326.16
784.89	307.86
785.224	339.95
785.557	323.9
785.891	326.16
786.224	309.22
786.558	345.82
786.891	325.94
787.224	327.29
787.557	326.16
787.891	328.65
788.224	326.16
788.557	333.4
788.89	346.28
789.223	334.98
789.556	336.11
789.888	348.99
