Data from No_light_on_white_reflection_standard_FLMS001491_075.txt Node
Date: Tue Feb 07 10:33:07 GMT 2017
User: dcchb
Spectrometer: FLMS00149
Trigger mode: 0
Integration Time (sec): 2.000000E-2
Scans to average: 10
Electric dark correction enabled: true
Nonlinearity correction enabled: false
Boxcar width: 0
XAxis mode: Wavelengths
Number of Pixels in Spectrum: 2048
>>>>>Begin Spectral Data<<<<<
341.393	-17.43
341.776	-17.43
342.16	-17.43
342.543	-64.89
342.927	-66.92
343.31	-75.05
343.693	-63.3
344.077	-68.95
344.46	-50.2
344.843	-58.78
345.226	-45.68
345.61	-29.41
345.993	-18.33
346.376	19.41
346.759	9.24
347.142	24.38
347.525	34.55
347.908	38.16
348.291	73.87
348.674	88.56
349.057	121.55
349.44	122.45
349.823	139.63
350.206	157.03
350.588	181.44
350.971	174.2
351.354	209.46
351.737	206.75
352.119	216.92
352.502	237.25
352.884	220.76
353.267	260.98
353.65	258.04
354.032	249.68
354.414	285.16
354.797	290.81
355.179	279.29
355.562	292.39
355.944	296.46
356.326	291.72
356.709	319.51
357.091	302.34
357.473	299.62
357.855	310.02
358.238	319.29
358.62	299.17
359.002	311.83
359.384	305.5
359.766	294.43
360.148	298.49
360.53	317.7
360.912	297.82
361.294	314.77
361.676	313.18
362.057	287.65
362.439	289
362.821	304.6
363.203	287.87
363.584	282.45
363.966	291.26
364.348	279.74
364.729	305.95
365.111	275.44
365.493	294.88
365.874	285.16
366.256	304.82
366.637	265.28
367.019	294.43
367.4	257.82
367.781	278.83
368.163	267.99
368.544	263.47
368.925	287.2
369.306	294.65
369.688	272.28
370.069	291.72
370.45	282
370.831	263.69
371.212	280.42
371.593	288.78
371.974	271.15
372.355	284.26
372.736	270.93
373.117	276.35
373.498	270.47
373.879	273.41
374.26	268.67
374.641	241.55
375.021	258.04
375.402	281.09
375.783	267.31
376.163	268.67
376.544	300.53
376.925	272.05
377.305	284.71
377.686	282.22
378.066	279.74
378.447	272.28
378.827	270.02
379.208	272.73
379.588	272.73
379.968	263.24
380.349	278.38
380.729	255.33
381.109	282.45
381.489	291.94
381.87	275.22
382.25	278.83
382.63	270.47
383.01	271.83
383.39	313.41
383.77	280.19
384.15	273.18
384.53	291.94
384.91	288.1
385.29	271.6
385.67	275.22
386.049	272.51
386.429	294.43
386.809	305.95
387.189	278.61
387.568	293.75
387.948	298.04
388.328	307.08
388.707	299.62
389.087	268.44
389.466	296.91
389.846	300.3
390.225	281.32
390.605	293.07
390.984	304.6
391.363	287.42
391.743	269.8
392.122	270.25
392.501	272.28
392.881	289.68
393.26	277.93
393.639	290.13
394.018	296.24
394.397	291.49
394.776	283.81
395.155	287.65
395.534	281.55
395.913	268.89
396.292	283.81
396.671	280.42
397.05	289
397.429	276.57
397.808	299.17
398.186	281.55
398.565	292.39
398.944	287.87
399.323	282
399.701	290.13
400.08	288.33
400.458	283.58
400.837	305.95
401.215	294.43
401.594	289.91
401.972	293.3
402.351	291.04
402.729	286.29
403.107	290.36
403.486	292.62
403.864	301.66
404.242	285.84
404.62	278.38
404.999	287.42
405.377	302.79
405.755	305.27
406.133	307.31
406.511	291.04
406.889	298.49
407.267	291.26
407.645	288.1
408.023	323.35
408.401	286.74
408.779	316.35
409.156	296.69
409.534	292.39
409.912	306.63
410.29	293.52
410.667	306.4
411.045	313.41
411.422	307.31
411.8	279.29
412.178	287.2
412.555	284.03
412.933	304.6
413.31	304.14
413.687	285.61
414.065	315.9
414.442	304.82
414.819	281.32
415.197	295.33
415.574	300.08
415.951	322.22
416.328	289
416.705	299.85
417.082	296.91
417.46	292.17
417.837	307.31
418.214	295.56
418.591	312.51
418.967	303.92
419.344	293.98
419.721	297.82
420.098	305.73
420.475	313.86
420.852	291.94
421.228	306.18
421.605	286.07
421.982	308.66
422.358	320.64
422.735	309.57
423.111	303.69
423.488	304.6
423.864	304.14
424.241	315.44
424.617	287.2
424.994	294.2
425.37	291.72
425.746	289.46
426.123	322.68
426.499	302.11
426.875	321.09
427.251	305.5
427.627	307.31
428.003	312.28
428.379	305.73
428.756	309.34
429.132	305.73
429.507	310.25
429.883	292.39
430.259	331.49
430.635	312.96
431.011	301.21
431.387	298.04
431.763	338.04
432.138	306.63
432.514	294.43
432.89	302.34
433.265	336.91
433.641	329.91
434.016	317.03
434.392	345.5
434.767	337.82
435.143	317.03
435.518	302.56
435.894	321.32
436.269	306.4
436.644	324.03
437.02	319.06
437.395	307.31
437.77	317.48
438.145	326.29
438.52	287.65
438.895	333.3
439.271	320.42
439.646	314.77
440.021	302.79
440.395	336.01
440.77	329.23
441.145	321.55
441.52	334.65
441.895	310.92
442.27	334.88
442.645	354.99
443.019	321.32
443.394	340.98
443.769	332.39
444.143	343.47
444.518	343.01
444.892	347.08
445.267	333.3
445.641	331.04
446.016	333.52
446.39	348.21
446.764	341.21
447.139	340.08
447.513	349.12
447.887	350.47
448.262	349.34
448.636	360.64
449.01	326.06
449.384	359.74
449.758	348.66
450.132	358.38
450.506	374.2
450.88	358.61
451.254	347.31
451.628	370.58
452.002	392.5
452.376	374.43
452.75	373.3
453.123	357.02
453.497	360.64
453.871	375.1
454.244	349.12
454.618	358.15
454.992	376.91
455.365	377.36
455.739	374.43
456.112	361.09
456.486	365.16
456.859	372.84
457.232	341.43
457.606	378.49
457.979	371.49
458.352	357.48
458.725	367.65
459.099	348.21
459.472	366.97
459.845	378.04
460.218	354.99
460.591	326.52
460.964	345.05
461.337	343.92
461.71	357.48
462.083	351.83
462.456	346.18
462.829	371.94
463.201	330.13
463.574	333.07
463.947	373.07
464.32	347.76
464.692	350.02
465.065	332.62
465.438	342.11
465.81	345.73
466.183	378.49
466.555	366.06
466.928	347.76
467.3	348.44
467.672	348.21
468.045	341.43
468.417	363.13
468.789	355.22
469.161	362.67
469.534	358.38
469.906	369.68
470.278	329.23
470.65	336.46
471.022	355.89
471.394	342.34
471.766	331.94
472.138	335.33
472.51	354.09
472.882	345.73
473.253	343.47
473.625	318.16
473.997	340.3
474.369	357.02
474.74	341.88
475.112	355.67
475.484	349.34
475.855	353.86
476.227	332.39
476.598	354.31
476.97	373.75
477.341	337.36
477.713	359.74
478.084	350.92
478.455	340.53
478.827	350.7
479.198	348.89
479.569	364.48
479.94	332.84
480.311	358.38
480.682	368.55
481.053	338.95
481.424	363.13
481.795	351.15
482.166	355.89
482.537	350.92
482.908	358.38
483.279	356.8
483.65	358.61
484.021	373.75
484.391	350.7
484.762	359.96
485.133	355.89
485.503	356.35
485.874	358.61
486.244	354.31
486.615	348.21
486.985	366.29
487.356	363.35
487.726	370.81
488.097	361.09
488.467	366.74
488.837	350.47
489.207	357.48
489.578	367.42
489.948	371.94
490.318	364.26
490.688	347.76
491.058	375.33
491.428	377.59
491.798	372.62
492.168	369
492.538	375.1
492.908	369.45
493.278	395.89
493.648	384.14
494.017	364.93
494.387	376.01
494.757	398.83
495.126	382.11
495.496	392.96
495.866	394.76
496.235	389.11
496.605	394.54
496.974	374.43
497.344	376.69
497.713	402.22
498.082	413.97
498.452	380.75
498.821	400.41
499.19	385.95
499.559	390.47
499.928	385.72
500.298	401.54
500.667	413.07
501.036	362.67
501.405	404.93
501.774	418.27
502.143	405.16
502.512	391.6
502.88	412.62
503.249	406.06
503.618	418.49
503.987	436.34
504.356	409.9
504.724	394.99
505.093	413.29
505.462	432.95
505.83	424.14
506.199	407.64
506.567	405.16
506.936	407.87
507.304	421.43
507.672	411.71
508.041	427.08
508.409	440.64
508.777	418.27
509.145	446.29
509.514	415.78
509.882	416.23
510.25	424.14
510.618	435.67
510.986	432.5
511.354	439.96
511.722	447.42
512.09	421.2
512.458	439.73
512.826	451.26
513.193	454.42
513.561	443.12
513.929	434.76
514.297	446.51
514.664	450.58
515.032	426.4
515.4	447.87
515.767	446.97
516.135	442.9
516.502	437.02
516.869	440.19
517.237	423.92
517.604	449.45
517.972	437.93
518.339	440.86
518.706	442.22
519.073	453.07
519.44	449.45
519.808	450.81
520.175	471.6
520.542	456.91
520.909	469.11
521.276	456.91
521.643	470.47
522.009	461.88
522.376	470.47
522.743	463.24
523.11	477.7
523.477	473.41
523.843	442.22
524.21	460.98
524.577	470.24
524.943	490.58
525.31	469.79
525.676	469.11
526.043	477.02
526.409	474.54
526.776	489.22
527.142	482.22
527.508	500.52
527.874	491.94
528.241	489.68
528.607	499.85
528.973	491.26
529.339	479.51
529.705	485.16
530.071	488.77
530.437	486.96
530.803	489.22
531.169	489.68
531.535	500.75
531.901	493.97
532.267	473.86
532.632	481.54
532.998	512.27
533.364	481.77
533.73	499.85
534.095	481.99
534.461	505.27
534.826	498.94
535.192	507.98
535.557	491.26
535.923	485.16
536.288	511.6
536.653	511.6
537.019	502.11
537.384	505.27
537.749	484.48
538.114	495.33
538.479	498.04
538.845	503.24
539.21	505.5
539.575	503.01
539.94	492.61
540.305	527.64
540.67	500.75
541.034	512.05
541.399	500.3
541.764	493.52
542.129	512.73
542.494	513.18
542.858	549.34
543.223	521.99
543.587	528.09
543.952	518.83
544.316	512.27
544.681	507.3
545.045	533.29
545.41	512.73
545.774	519.51
546.138	507.76
546.503	504.59
546.867	510.69
547.231	519.73
547.595	518.6
547.959	508.43
548.324	516.34
548.688	519.51
549.052	534.42
549.416	523.35
549.779	505.04
550.143	519.73
550.507	522.9
550.871	568.09
551.235	515.21
551.599	527.19
551.962	522.9
552.326	545.95
552.689	533.97
553.053	532.16
553.417	555.66
553.78	543.91
554.143	541.43
554.507	548.43
554.87	543.69
555.234	525.61
555.597	542.56
555.96	544.82
556.323	540.97
556.686	525.38
557.05	559.05
557.413	541.43
557.776	538.94
558.139	523.8
558.502	545.72
558.865	535.1
559.228	538.94
559.59	551.37
559.953	531.26
560.316	555.66
560.679	547.98
561.041	569
561.404	555.44
561.767	568.32
562.129	574.87
562.492	568.77
562.854	550.92
563.217	565.61
563.579	559.28
563.941	563.57
564.304	573.29
564.666	550.69
565.028	555.89
565.39	555.21
565.753	576
566.115	573.29
566.477	547.3
566.839	570.35
567.201	564.93
567.563	570.35
567.925	562.67
568.287	562.89
568.648	573.52
569.01	578.04
569.372	575.78
569.734	555.66
570.095	580.97
570.457	563.57
570.819	583.46
571.18	569.9
571.542	562.44
571.903	591.37
572.265	603.12
572.626	589.56
572.987	573.29
573.349	568.77
573.71	589.56
574.071	569.9
574.432	570.35
574.794	587.98
575.155	567.64
575.516	579.17
575.877	595.44
576.238	574.87
576.599	593.63
576.96	587.3
577.32	592.95
577.681	568.54
578.042	586.17
578.403	605.83
578.763	607.41
579.124	583.01
579.485	578.94
579.845	589.33
580.206	588.43
580.566	580.07
580.927	580.97
581.287	574.65
581.648	576.91
582.008	602.89
582.368	597.47
582.728	571.71
583.089	572.84
583.449	587.98
583.809	599.73
584.169	593.63
584.529	582.33
584.889	611.26
585.249	589.11
585.609	592.05
585.969	569
586.329	578.94
586.688	574.19
587.048	590.01
587.408	587.07
587.768	578.71
588.127	606.74
588.487	574.42
588.846	586.17
589.206	581.2
589.565	592.72
589.925	568.09
590.284	579.39
590.643	576.23
591.003	566.74
591.362	570.58
591.721	577.81
592.08	569.22
592.44	579.39
592.799	573.06
593.158	583.23
593.517	588.43
593.876	565.83
594.235	577.58
594.593	584.82
594.952	573.97
595.311	556.12
595.67	561.54
596.029	570.58
596.387	576.91
596.746	564.48
597.104	577.13
597.463	598.83
597.822	578.26
598.18	577.36
598.538	566.74
598.897	546.17
599.255	549.56
599.613	596.11
599.972	569.45
600.33	559.96
600.688	565.38
601.046	559.73
601.404	579.62
601.762	582.33
602.12	584.36
602.478	565.61
602.836	563.35
603.194	557.25
603.552	563.12
603.91	581.65
604.268	560.63
604.625	559.96
604.983	558.6
605.341	559.05
605.698	550.92
606.056	553.18
606.413	567.87
606.771	558.38
607.128	550.92
607.485	545.72
607.843	561.76
608.2	540.3
608.557	558.38
608.914	568.09
609.272	550.01
609.629	564.93
609.986	573.06
610.343	561.99
610.7	566.51
611.057	538.94
611.414	544.59
611.771	544.59
612.127	532.84
612.484	557.02
612.841	557.92
613.198	560.86
613.554	555.66
613.911	534.42
614.267	541.43
614.624	541.43
614.98	553.86
615.337	545.72
615.693	531.48
616.05	536.45
616.406	533.97
616.762	556.12
617.118	538.71
617.475	532.39
617.831	523.12
618.187	524.7
618.543	549.56
618.899	550.01
619.255	519.28
619.611	526.06
619.967	530.13
620.323	529.68
620.678	532.39
621.034	505.5
621.39	521.31
621.746	523.57
622.101	533.97
622.457	518.83
622.812	494.65
623.168	522.9
623.523	510.92
623.879	517.02
624.234	525.83
624.589	521.99
624.945	544.36
625.3	502.56
625.655	516.34
626.01	510.47
626.365	526.29
626.72	518.38
627.075	497.36
627.43	515.89
627.785	498.26
628.14	504.59
628.495	511.37
628.85	499.39
629.205	500.75
629.559	483.12
629.914	497.36
630.269	495.78
630.623	478.38
630.978	479.96
631.332	494.87
631.687	498.04
632.041	473.63
632.396	502.56
632.75	496.23
633.104	483.57
633.459	471.82
633.813	492.84
634.167	459.17
634.521	493.07
634.875	473.41
635.229	477.02
635.583	464.59
635.937	457.13
636.291	470.24
636.645	477.25
636.999	467.76
637.352	472.28
637.706	484.48
638.06	492.39
638.413	467.3
638.767	466.85
639.121	470.69
639.474	450.58
639.828	471.6
640.181	452.62
640.534	465.27
640.888	453.52
641.241	450.36
641.594	448.32
641.947	477.47
642.301	454.42
642.654	474.31
643.007	473.63
643.36	449.9
643.713	448.1
644.066	436.8
644.419	450.36
644.771	455.55
645.124	453.75
645.477	442.22
645.83	429.34
646.182	453.07
646.535	442.22
646.888	456.23
647.24	439.51
647.593	433.86
647.945	428.66
648.298	441.99
648.65	434.08
649.002	446.29
649.355	431.15
649.707	424.14
650.059	400.64
650.411	435.67
650.763	446.51
651.115	439.06
651.467	437.25
651.819	413.07
652.171	457.59
652.523	406.29
652.875	440.19
653.227	426.4
653.578	419.17
653.93	420.3
654.282	414.65
654.633	430.24
654.985	407.87
655.337	410.81
655.688	421.43
656.039	418.49
656.391	412.16
656.742	413.75
657.094	411.03
657.445	411.49
657.796	413.75
658.147	414.2
658.498	418.49
658.849	406.06
659.2	432.95
659.551	419.17
659.902	400.64
660.253	394.54
660.604	434.54
660.955	430.92
661.306	380.07
661.656	396.57
662.007	423.69
662.358	408.55
662.708	414.88
663.059	402.22
663.409	410.81
663.76	418.49
664.11	377.14
664.461	409.23
664.811	397.25
665.161	401.32
665.511	423.24
665.862	401.54
666.212	382.79
666.562	400.64
666.912	393.63
667.262	369.23
667.612	389.34
667.962	387.98
668.312	394.76
668.662	373.07
669.011	385.27
669.361	381.66
669.711	379.85
670.06	386.18
670.41	378.27
670.76	376.91
671.109	374.43
671.459	405.61
671.808	380.53
672.157	407.64
672.507	384.82
672.856	366.06
673.205	393.41
673.554	382.33
673.904	403.8
674.253	388.44
674.602	397.25
674.951	386.18
675.3	382.56
675.649	379.62
675.998	387.31
676.346	361.32
676.695	368.1
677.044	360.87
677.393	373.97
677.741	378.94
678.09	366.06
678.438	373.75
678.787	373.07
679.135	377.81
679.484	355.89
679.832	394.99
680.181	368.55
680.529	380.3
680.877	356.12
681.225	373.75
681.573	357.02
681.922	389.79
682.27	368.1
682.618	360.41
682.966	383.01
683.314	399.28
683.661	357.48
684.009	349.12
684.357	361.54
684.705	343.92
685.053	360.41
685.4	377.14
685.748	362
686.095	351.6
686.443	352.28
686.79	347.76
687.138	352.5
687.485	356.57
687.832	332.17
688.18	339.62
688.527	345.05
688.874	366.52
689.221	355.22
689.568	353.86
689.915	349.79
690.262	334.88
690.609	350.47
690.956	349.12
691.303	365.61
691.65	361.77
691.997	364.71
692.344	354.09
692.69	346.4
693.037	365.16
693.383	353.18
693.73	361.54
694.077	338.72
694.423	357.93
694.769	347.31
695.116	355.22
695.462	357.02
695.808	351.6
696.155	358.83
696.501	344.6
696.847	345.73
697.193	358.83
697.539	360.87
697.885	362.67
698.231	347.53
698.577	329
698.923	350.02
699.269	371.71
699.614	347.53
699.96	338.95
700.306	361.77
700.651	348.66
700.997	364.93
701.342	347.08
701.688	359.28
702.033	342.11
702.379	331.26
702.724	343.47
703.069	356.8
703.415	357.48
703.76	364.48
704.105	354.31
704.45	351.83
704.795	352.73
705.14	352.73
705.485	332.17
705.83	363.13
706.175	343.92
706.52	353.63
706.865	339.85
707.209	351.83
707.554	323.58
707.899	340.98
708.243	355.22
708.588	352.5
708.932	342.56
709.277	327.19
709.621	326.74
709.966	328.78
710.31	340.53
710.654	347.08
710.998	343.69
711.342	332.62
711.687	345.27
712.031	361.54
712.375	346.4
712.719	339.85
713.063	344.37
713.407	334.2
713.75	341.21
714.094	349.79
714.438	324.48
714.782	346.63
715.125	325.39
715.469	335.33
715.812	328.1
716.156	343.24
716.499	307.31
716.843	340.53
717.186	341.88
717.53	338.04
717.873	344.82
718.216	338.72
718.559	355.89
718.902	327.19
719.246	339.17
719.589	325.39
719.932	319.06
720.275	328.78
720.617	341.43
720.96	333.3
721.303	333.75
721.646	336.46
721.989	347.99
722.331	334.2
722.674	338.72
723.016	346.4
723.359	330.13
723.701	335.33
724.044	318.83
724.386	333.97
724.729	327.42
725.071	317.03
725.413	323.58
725.755	326.97
726.097	348.89
726.439	346.4
726.782	332.84
727.124	337.59
727.465	346.4
727.807	322.9
728.149	352.5
728.491	350.7
728.833	346.4
729.175	331.94
729.516	332.62
729.858	343.69
730.199	335.1
730.541	347.08
730.882	327.42
731.224	335.78
731.565	340.98
731.906	333.52
732.248	330.81
732.589	331.04
732.93	341.43
733.271	339.62
733.612	319.96
733.953	325.39
734.294	331.94
734.635	343.69
734.976	323.35
735.317	339.17
735.658	328.32
735.999	328.55
736.339	321.09
736.68	334.88
737.021	321.09
737.361	315.22
737.702	320.64
738.042	329.23
738.383	312.96
738.723	342.11
739.063	331.26
739.404	340.3
739.744	335.56
740.084	315.22
740.424	346.63
740.764	338.95
741.104	337.14
741.444	343.92
741.784	338.72
742.124	333.97
742.464	324.93
742.804	350.47
743.143	303.01
743.483	338.95
743.823	350.92
744.162	352.05
744.502	344.37
744.841	300.75
745.181	313.18
745.52	315.67
745.86	336.01
746.199	343.47
746.538	321.77
746.877	328.55
747.216	335.78
747.556	336.23
747.895	307.08
748.234	319.96
748.573	328.1
748.911	328.78
749.25	336.69
749.589	325.61
749.928	336.01
750.267	340.98
750.605	323.13
750.944	315.67
751.283	317.03
751.621	318.16
751.96	332.39
752.298	322.9
752.636	308.89
752.975	310.02
753.313	322.9
753.651	313.41
753.989	319.06
754.327	346.18
754.666	330.58
755.004	325.16
755.342	313.64
755.679	329.23
756.017	328.32
756.355	333.3
756.693	307.53
757.031	336.69
757.368	340.53
757.706	338.04
758.044	340.75
758.381	325.61
758.719	327.42
759.056	331.49
759.394	320.64
759.731	317.48
760.068	331.26
760.405	324.03
760.743	328.78
761.08	318.83
761.417	326.97
761.754	324.93
762.091	332.39
762.428	312.73
762.765	335.1
763.102	322.45
763.438	310.25
763.775	296.91
764.112	327.87
764.449	302.34
764.785	320.19
765.122	341.21
765.458	322.45
765.795	322.9
766.131	320.42
766.467	328.1
766.804	319.74
767.14	345.5
767.476	329
767.812	317.7
768.148	320.64
768.485	312.28
768.821	326.74
769.157	316.35
769.492	330.58
769.828	324.93
770.164	317.25
770.5	340.53
770.836	320.87
771.171	334.88
771.507	313.86
771.842	308.21
772.178	318.16
772.513	327.19
772.849	326.74
773.184	323.35
773.519	330.13
773.855	324.93
774.19	322
774.525	326.29
774.86	302.11
775.195	339.85
775.53	308.89
775.865	318.83
776.2	332.39
776.535	320.42
776.87	334.88
777.205	325.16
777.539	332.39
777.874	319.29
778.209	314.31
778.543	310.25
778.878	340.53
779.212	336.46
779.547	317.03
779.881	323.58
780.215	316.12
780.55	333.52
780.884	315.44
781.218	325.16
781.552	329.68
781.886	320.42
782.22	312.73
782.554	319.06
782.888	303.24
783.222	330.13
783.556	315.9
783.889	319.51
784.223	329.45
784.557	306.18
784.89	340.3
785.224	343.01
785.557	325.61
785.891	333.3
786.224	325.61
786.558	318.38
786.891	286.29
787.224	305.05
787.557	314.77
787.891	323.58
788.224	326.52
788.557	306.63
788.89	314.99
789.223	318.38
