Data from No_light_on_white_reflection_standard_FLMS001491_076.txt Node
Date: Tue Feb 07 10:33:07 GMT 2017
User: dcchb
Spectrometer: FLMS00149
Trigger mode: 0
Integration Time (sec): 2.000000E-2
Scans to average: 10
Electric dark correction enabled: true
Nonlinearity correction enabled: false
Boxcar width: 0
XAxis mode: Wavelengths
Number of Pixels in Spectrum: 2048
>>>>>Begin Spectral Data<<<<<
341.393	19.42
341.776	19.42
342.16	19.42
342.543	-86.34
342.927	-74.36
343.31	-72.55
343.693	-62.39
344.077	-65.1
344.46	-40.92
344.843	-47.47
345.226	-26.45
345.61	-41.82
345.993	-2.5
346.376	-13.12
346.759	-2.27
347.142	37.72
347.525	32.08
347.908	45.63
348.291	60.1
348.674	87.44
349.057	111.62
349.44	133.77
349.823	138.06
350.206	139.42
350.588	169.02
350.971	188
351.354	177.38
351.737	213.99
352.119	216.03
352.502	227.55
352.884	240.43
353.267	258.51
353.65	256.02
354.032	240.88
354.414	253.76
354.797	258.74
355.179	284.05
355.562	293.31
355.944	302.35
356.326	294.67
356.709	310.26
357.091	304.84
357.473	336.25
357.855	314.1
358.238	310.49
358.62	311.62
359.002	311.39
359.384	315.68
359.766	321.79
360.148	305.29
360.53	288.34
360.912	301.45
361.294	297.15
361.676	309.58
362.057	286.53
362.439	299.64
362.821	307.1
363.203	296.48
363.584	293.54
363.966	298.51
364.348	287.66
364.729	285.4
365.111	284.95
365.493	286.76
365.874	280.66
366.256	286.31
366.637	277.27
367.019	263.71
367.4	278.4
367.781	276.36
368.163	283.59
368.544	269.13
368.925	269.13
369.306	281.11
369.688	291.5
370.069	267.55
370.45	289.24
370.831	271.39
371.212	282.69
371.593	263.03
371.974	266.87
372.355	268.91
372.736	274.55
373.117	265.74
373.498	286.53
373.879	266.65
374.26	270.49
374.641	265.29
375.021	277.94
375.402	278.17
375.783	262.35
376.163	282.46
376.544	265.74
376.925	274.1
377.305	283.82
377.686	289.47
378.066	288.11
378.447	285.4
378.827	284.27
379.208	275.91
379.588	280.43
379.968	286.08
380.349	299.19
380.729	301.67
381.109	267.32
381.489	295.8
381.87	274.33
382.25	295.8
382.63	283.59
383.01	278.85
383.39	291.5
383.77	297.38
384.15	293.09
384.53	294.67
384.91	287.66
385.29	294.67
385.67	278.4
386.049	298.96
386.429	282.46
386.809	290.37
387.189	297.15
387.568	286.98
387.948	299.19
388.328	291.05
388.707	294.44
389.087	281.56
389.466	296.7
389.846	306.64
390.225	287.21
390.605	310.94
390.984	292.86
391.363	291.05
391.743	301.67
392.122	295.8
392.501	298.51
392.881	301.45
393.26	284.5
393.639	283.14
394.018	293.76
394.397	273.88
394.776	310.49
395.155	284.5
395.534	309.13
395.913	306.87
396.292	293.99
396.671	312.97
397.05	308.45
397.429	284.72
397.808	282.69
398.186	318.17
398.565	282.24
398.944	308
399.323	315.23
399.701	309.81
400.08	304.84
400.458	291.28
400.837	308.9
401.215	295.8
401.594	322.69
401.972	292.41
402.351	292.86
402.729	298.06
403.107	292.18
403.486	306.19
403.864	291.5
404.242	283.37
404.62	320.88
404.999	289.92
405.377	288.11
405.755	329.24
406.133	296.02
406.511	274.55
406.889	309.36
407.267	305.06
407.645	322.46
408.023	321.33
408.401	282.46
408.779	280.66
409.156	295.12
409.534	293.76
409.912	312.97
410.29	314.78
410.667	303.48
411.045	319.3
411.422	295.8
411.8	307.55
412.178	291.73
412.555	309.81
412.933	298.96
413.31	309.36
413.687	305.74
414.065	280.43
414.442	303.48
414.819	314.55
415.197	297.38
415.574	297.38
415.951	305.51
416.328	308
416.705	304.16
417.082	304.84
417.46	293.76
417.837	293.31
418.214	316.14
418.591	316.59
418.967	311.16
419.344	308.68
419.721	306.87
420.098	292.41
420.475	305.97
420.852	303.71
421.228	287.44
421.605	309.13
421.982	296.93
422.358	288.79
422.735	300.54
423.111	309.81
423.488	297.61
423.864	318.4
424.241	298.28
424.617	316.14
424.994	296.02
425.37	318.85
425.746	323.37
426.123	317.27
426.499	294.67
426.875	341.9
427.251	312.52
427.627	325.18
428.003	315.23
428.379	315.23
428.756	304.16
429.132	310.49
429.507	325.4
429.883	307.77
430.259	309.58
430.635	329.47
431.011	329.02
431.387	330.6
431.763	329.24
432.138	314.78
432.514	337.83
432.89	309.13
433.265	308.45
433.641	332.86
434.016	309.13
434.392	323.14
434.767	339.19
435.143	306.42
435.518	340.99
435.894	326.98
436.269	329.92
436.644	317.27
437.02	310.71
437.395	340.54
437.77	314.78
438.145	351.16
438.52	349.36
438.895	325.4
439.271	318.62
439.646	326.98
440.021	328.79
440.395	318.85
440.77	324.5
441.145	338.28
441.52	339.86
441.895	348.9
442.27	340.32
442.645	351.84
443.019	344.84
443.394	343.93
443.769	358.17
444.143	331.28
444.518	346.64
444.892	347.32
445.267	340.77
445.641	364.5
446.016	355.46
446.39	345.51
446.764	357.72
447.139	364.5
447.513	354.33
447.887	355.46
448.262	345.97
448.636	342.8
449.01	355.91
449.384	363.37
449.758	380.31
450.132	344.84
450.506	373.99
450.88	378.51
451.254	372.86
451.628	376.93
452.002	356.59
452.376	371.5
452.75	366.98
453.123	366.08
453.497	358.39
453.871	373.54
454.244	355.68
454.618	369.02
454.992	400.43
455.365	367.43
455.739	375.34
456.112	354.78
456.486	358.39
456.859	353.65
457.232	357.04
457.606	373.54
457.979	358.39
458.352	349.13
458.725	353.2
459.099	378.73
459.472	355.68
459.845	352.74
460.218	391.16
460.591	361.11
460.964	350.71
461.337	351.16
461.71	340.32
462.083	376.7
462.456	376.02
462.829	371.28
463.201	345.51
463.574	361.56
463.947	365.63
464.32	338.06
464.692	337.6
465.065	337.15
465.438	362.01
465.81	373.99
466.183	362.24
466.555	360.88
466.928	368.34
467.3	369.24
467.672	339.64
468.045	354.33
468.417	357.72
468.789	349.81
469.161	341.45
469.534	365.4
469.906	362.46
470.278	366.3
470.65	346.64
471.022	351.84
471.394	363.37
471.766	340.32
472.138	393.42
472.51	367.66
472.882	342.58
473.253	351.62
473.625	359.3
473.997	335.12
474.369	333.76
474.74	360.88
475.112	369.02
475.484	344.16
475.855	345.29
476.227	367.89
476.598	350.49
476.97	355.91
477.341	366.76
477.713	376.47
478.084	365.63
478.455	349.81
478.827	350.94
479.198	353.2
479.569	365.4
479.94	362.91
480.311	343.03
480.682	361.33
481.053	346.64
481.424	362.69
481.795	352.74
482.166	375.8
482.537	355.91
482.908	354.1
483.279	348.45
483.65	358.39
484.021	363.59
484.391	373.99
484.762	342.58
485.133	362.24
485.503	371.73
485.874	364.5
486.244	358.17
486.615	361.33
486.985	371.28
487.356	366.76
487.726	339.19
488.097	376.25
488.467	380.77
488.837	379.64
489.207	357.94
489.578	379.41
489.948	362.01
490.318	369.92
490.688	370.6
491.058	385.51
491.428	370.37
491.798	374.44
492.168	375.57
492.538	381.67
492.908	359.75
493.278	376.02
493.648	358.39
494.017	380.31
494.387	396.81
494.757	388.22
495.126	397.72
495.496	390.03
495.866	409.47
496.235	393.65
496.605	401.33
496.974	400.2
497.344	388.9
497.713	386.87
498.082	399.52
498.452	378.96
498.821	399.75
499.19	413.08
499.559	413.99
499.928	394.78
500.298	418.96
500.667	403.14
501.036	405.17
501.405	407.21
501.774	405.62
502.143	405.62
502.512	412.18
502.88	416.25
503.249	410.14
503.618	406.3
503.987	399.52
504.356	412.18
504.724	418.05
505.093	413.31
505.462	396.13
505.83	399.52
506.199	436.81
506.567	400.43
506.936	412.86
507.304	420.31
507.672	415.57
508.041	433.87
508.409	416.7
508.777	420.77
509.145	415.79
509.514	419.86
509.882	435.45
510.25	435.23
510.618	423.93
510.986	426.42
511.354	419.86
511.722	451.95
512.09	437.94
512.458	423.7
512.826	425.74
513.193	445.85
513.561	454.44
513.929	430.26
514.297	430.71
514.664	458.05
515.032	452.18
515.4	446.75
515.767	453.08
516.135	460.76
516.502	451.5
516.869	433.65
517.237	453.76
517.604	435.23
517.972	450.82
518.339	442.01
518.706	451.95
519.073	438.84
519.44	456.92
519.808	451.95
520.175	435
520.542	452.63
520.909	463.7
521.276	460.31
521.643	458.73
522.009	486.3
522.376	451.73
522.743	464.61
523.11	455.79
523.477	485.17
523.843	465.06
524.21	465.51
524.577	482.91
524.943	490.82
525.31	469.35
525.676	492.63
526.043	483.59
526.409	482.23
526.776	488.11
527.142	460.76
527.508	480.88
527.874	475
528.241	476.13
528.607	495.11
528.973	502.12
529.339	510.25
529.705	477.49
530.071	487.2
530.437	494.44
530.803	489.01
531.169	514.55
531.535	505.74
531.901	511.61
532.267	509.58
532.632	502.12
532.998	495.79
533.364	505.51
533.73	506.87
534.095	496.7
534.461	515.45
534.826	509.35
535.192	510.48
535.557	527.88
535.923	503.93
536.288	507.09
536.653	515
537.019	512.51
537.384	535.34
537.749	510.25
538.114	501.22
538.479	508
538.845	510.93
539.21	512.74
539.575	506.19
539.94	509.35
540.305	524.27
540.67	522.46
541.034	510.71
541.399	496.24
541.764	491.95
542.129	511.61
542.494	505.74
542.858	537.15
543.223	519.52
543.587	504.61
543.952	495.34
544.316	516.36
544.681	505.51
545.045	543.7
545.41	528.56
545.774	504.61
546.138	538.28
546.503	517.26
546.867	538.05
547.231	524.94
547.595	493.98
547.959	519.52
548.324	516.36
548.688	536.02
549.052	544.6
549.416	533.31
549.779	519.52
550.143	534.66
550.507	513.42
550.871	518.84
551.235	525.4
551.599	550.25
551.962	532.18
552.326	529.69
552.689	531.5
553.053	549.58
553.417	534.66
553.78	532.4
554.143	543.7
554.507	539.18
554.87	555.45
555.234	533.98
555.597	543.93
555.96	529.69
556.323	537.37
556.686	541.44
557.05	549.8
557.413	552.51
557.776	538.5
558.139	538.73
558.502	523.36
558.865	547.09
559.228	529.01
559.59	536.24
559.953	566.52
560.316	545.73
560.679	552.06
561.041	541.21
561.404	561.78
561.767	540.99
562.129	561.78
562.492	571.27
562.854	545.06
563.217	562
563.579	566.52
563.941	574.43
564.304	573.76
564.666	576.47
565.028	569.69
565.39	566.07
565.753	562
566.115	567.43
566.477	571.04
566.839	572.63
567.201	585.51
567.563	591.83
567.925	568.11
568.287	571.72
568.648	569.91
569.01	564.94
569.372	596.81
569.734	602.68
570.095	585.06
570.457	577.15
570.819	577.15
571.18	587.77
571.542	576.02
571.903	586.64
572.265	584.83
572.626	595.22
572.987	586.86
573.349	573.53
573.71	606.07
574.071	599.74
574.432	587.09
574.794	595.45
575.155	587.54
575.516	589.35
575.877	604.26
576.238	576.02
576.599	595.9
576.96	588.9
577.32	587.32
577.681	598.61
578.042	590.93
578.403	599.97
578.763	600.87
579.124	589.35
579.485	600.87
579.845	578.05
580.206	575.11
580.566	600.87
580.927	600.42
581.287	586.64
581.648	600.2
582.008	575.56
582.368	600.65
582.728	580.54
583.089	588.9
583.449	592.51
583.809	595.9
584.169	590.03
584.529	580.08
584.889	602.91
585.249	594.77
585.609	605.62
585.969	590.03
586.329	580.31
586.688	573.53
587.048	579.63
587.408	591.16
587.768	599.97
588.127	596.35
588.487	593.42
588.846	590.48
589.206	595
589.565	588.67
589.925	585.28
590.284	583.93
590.643	587.77
591.003	564.72
591.362	578.05
591.721	592.51
592.08	588.67
592.44	576.92
592.799	571.5
593.158	569.69
593.517	562
593.876	587.32
594.235	590.25
594.593	581.21
594.952	585.73
595.311	564.49
595.67	576.02
596.029	582.12
596.387	589.35
596.746	577.6
597.104	568.11
597.463	563.81
597.822	590.93
598.18	586.41
598.538	584.83
598.897	569.24
599.255	573.98
599.613	578.73
599.972	574.89
600.33	599.97
600.688	587.32
601.046	588.44
601.404	578.05
601.762	565.39
602.12	561.55
602.478	590.48
602.836	582.8
603.194	559.07
603.552	593.64
603.91	563.59
604.268	573.08
604.625	565.17
604.983	559.97
605.341	562.46
605.698	554.77
606.056	554.32
606.413	562
606.771	557.26
607.128	581.89
607.485	537.6
607.843	582.8
608.2	562.91
608.557	547.32
608.914	565.39
609.272	550.25
609.629	572.85
609.986	562.46
610.343	548.45
610.7	583.7
611.057	549.8
611.414	569.46
611.771	576.02
612.127	547.32
612.484	554.1
612.841	569.01
613.198	559.29
613.554	542.8
613.911	559.75
614.267	540.08
614.624	552.06
614.98	554.1
615.337	557.71
615.693	531.27
616.05	536.47
616.406	555.23
616.762	566.98
617.118	542.8
617.475	538.5
617.831	530.37
618.187	536.92
618.543	535.11
618.899	533.76
619.255	555.23
619.611	526.07
619.967	552.51
620.323	526.53
620.678	536.69
621.034	533.08
621.39	518.84
621.746	555.68
622.101	552.51
622.457	505.06
622.812	534.89
623.168	550.48
623.523	520.65
623.879	514.77
624.234	538.95
624.589	543.25
624.945	512.06
625.3	536.47
625.655	531.95
626.01	511.16
626.365	507.77
626.72	518.16
627.075	524.49
627.43	528.33
627.785	513.64
628.14	517.26
628.495	516.81
628.85	512.97
629.205	502.57
629.559	510.71
629.914	507.09
630.269	518.62
630.623	497.15
630.978	507.32
631.332	500.54
631.687	500.99
632.041	520.88
632.396	502.57
632.75	499.86
633.104	507.32
633.459	478.17
633.813	493.08
634.167	495.11
634.521	493.76
634.875	482.91
635.229	473.87
635.583	486.75
635.937	484.94
636.291	487.43
636.645	472.52
636.999	465.28
637.352	483.36
637.706	475.91
638.06	482.01
638.413	472.29
638.767	493.31
639.121	476.36
639.474	474.78
639.828	490.37
640.181	477.94
640.534	485.17
640.888	479.07
641.241	465.96
641.594	447.88
641.947	455.12
642.301	436.36
642.654	459.86
643.007	465.51
643.36	443.14
643.713	443.59
644.066	457.37
644.419	463.48
644.771	448.11
645.124	464.15
645.477	451.73
645.83	447.43
646.182	437.71
646.535	448.56
646.888	457.6
647.24	439.97
647.593	445.85
647.945	438.62
648.298	436.58
648.65	434.32
649.002	445.4
649.355	445.4
649.707	428.9
650.059	447.21
650.411	450.37
650.763	440.65
651.115	423.03
651.467	439.3
651.819	431.16
652.171	441.56
652.523	436.13
652.875	419.41
653.227	426.64
653.578	426.87
653.93	416.02
654.282	410.82
654.633	419.64
654.985	434.32
655.337	434.32
655.688	416.25
656.039	405.62
656.391	421.9
656.742	412.63
657.094	400.65
657.445	415.79
657.796	422.57
658.147	418.05
658.498	448.34
658.849	438.17
659.2	408.79
659.551	429.81
659.902	437.49
660.253	428.9
660.604	417.15
660.955	418.05
661.306	409.24
661.656	381.22
662.007	403.14
662.358	406.3
662.708	420.09
663.059	413.08
663.409	420.54
663.76	421.9
664.11	404.27
664.461	399.07
664.811	413.99
665.161	406.98
665.511	394.55
665.862	401.56
666.212	389.58
666.562	397.49
666.912	403.82
667.262	410.37
667.612	420.09
667.962	391.16
668.312	395.46
668.662	395
669.011	393.42
669.361	383.93
669.711	380.99
670.06	391.61
670.41	387.32
670.76	398.17
671.109	402.91
671.459	404.04
671.808	393.42
672.157	390.26
672.507	384.83
672.856	399.98
673.205	402.69
673.554	389.35
673.904	395.68
674.253	370.82
674.602	379.64
674.951	395.46
675.3	401.33
675.649	370.6
675.998	368.34
676.346	371.73
676.695	371.05
677.044	380.77
677.393	397.72
677.741	364.72
678.09	373.54
678.438	361.11
678.787	388.68
679.135	386.87
679.484	367.21
679.832	370.15
680.181	387.55
680.529	369.47
680.877	374.89
681.225	371.95
681.573	391.61
681.922	388
682.27	373.08
682.618	365.4
682.966	367.21
683.314	374.21
683.661	355.23
684.009	384.83
684.357	368.79
684.705	373.08
685.053	386.19
685.4	384.61
685.748	370.15
686.095	368.79
686.443	373.76
686.79	377.15
687.138	367.21
687.485	358.39
687.832	386.19
688.18	368.34
688.527	371.73
688.874	382.12
689.221	368.34
689.568	358.85
689.915	361.78
690.262	371.5
690.609	364.72
690.956	368.11
691.303	364.95
691.65	332.63
691.997	365.17
692.344	372.18
692.69	356.59
693.037	347.1
693.383	351.84
693.73	363.14
694.077	341.22
694.423	341.9
694.769	350.03
695.116	357.94
695.462	361.11
695.808	350.03
696.155	378.96
696.501	349.36
696.847	376.47
697.193	356.81
697.539	351.16
697.885	357.49
698.231	354.33
698.577	360.65
698.923	336.93
699.269	330.82
699.614	370.37
699.96	368.34
700.306	338.96
700.651	355.23
700.997	366.08
701.342	356.36
701.688	367.43
702.033	357.04
702.379	328.11
702.724	350.71
703.069	344.61
703.415	340.77
703.76	342.8
704.105	363.82
704.45	359.52
704.795	337.6
705.14	340.32
705.485	329.47
705.83	345.51
706.175	338.51
706.52	336.02
706.865	360.65
707.209	340.99
707.554	349.13
707.899	345.29
708.243	352.29
708.588	360.65
708.932	352.29
709.277	334.44
709.621	339.86
709.966	338.73
710.31	338.06
710.654	353.65
710.998	348
711.342	346.42
711.687	355.91
712.031	344.61
712.375	339.19
712.719	341.67
713.063	351.39
713.407	342.35
713.75	339.41
714.094	349.58
714.438	339.64
714.782	333.76
715.125	349.81
715.469	387.77
715.812	362.46
716.156	355.46
716.499	329.24
716.843	355.46
717.186	350.71
717.53	333.99
717.873	327.66
718.216	346.42
718.559	336.93
718.902	345.51
719.246	344.84
719.589	335.12
719.932	357.94
720.275	340.54
720.617	341.22
720.96	346.19
721.303	343.93
721.646	337.6
721.989	349.36
722.331	339.64
722.674	331.05
723.016	348.68
723.359	312.97
723.701	349.13
724.044	360.88
724.386	340.54
724.729	355.46
725.071	336.47
725.413	333.31
725.755	339.64
726.097	332.86
726.439	326.98
726.782	341.45
727.124	342.58
727.465	341.9
727.807	347.77
728.149	336.47
728.491	333.99
728.833	346.42
729.175	340.32
729.516	333.08
729.858	336.02
730.199	334.21
730.541	346.42
730.882	350.26
731.224	352.07
731.565	353.87
731.906	333.99
732.248	331.73
732.589	315.91
732.93	336.7
733.271	335.34
733.612	332.63
733.953	314.55
734.294	329.92
734.635	322.46
734.976	327.21
735.317	327.66
735.658	348.23
735.999	337.38
736.339	357.04
736.68	336.93
737.021	351.16
737.361	335.8
737.702	333.76
738.042	347.32
738.383	340.99
738.723	333.31
739.063	345.06
739.404	328.56
739.744	346.19
740.084	338.96
740.424	340.32
740.764	343.03
741.104	339.41
741.444	332.18
741.784	318.17
742.124	352.29
742.464	340.32
742.804	353.87
743.143	342.58
743.483	318.4
743.823	329.92
744.162	347.1
744.502	340.09
744.841	329.02
745.181	315.91
745.52	343.25
745.86	322.92
746.199	358.85
746.538	346.19
746.877	325.18
747.216	325.63
747.556	356.81
747.895	311.39
748.234	333.99
748.573	333.08
748.911	330.37
749.25	335.8
749.589	335.12
749.928	328.11
750.267	341.22
750.605	356.81
750.944	345.06
751.283	329.47
751.621	340.77
751.96	352.97
752.298	341.67
752.636	332.18
752.975	333.08
753.313	332.86
753.651	338.06
753.989	331.5
754.327	343.03
754.666	313.42
755.004	341.9
755.342	327.89
755.679	344.61
756.017	322.92
756.355	342.58
756.693	345.74
757.031	340.09
757.368	315.91
757.706	341.67
758.044	319.53
758.381	322.46
758.719	325.4
759.056	336.93
759.394	337.83
759.731	338.06
760.068	342.58
760.405	340.32
760.743	340.54
761.08	312.75
761.417	338.73
761.754	330.15
762.091	321.11
762.428	307.32
762.765	330.6
763.102	338.51
763.438	314.1
763.775	344.61
764.112	335.12
764.449	324.5
764.785	333.54
765.122	312.75
765.458	326.53
765.795	340.54
766.131	330.37
766.467	301.67
766.804	338.06
767.14	320.43
767.476	313.88
767.812	308
768.148	314.33
768.485	324.95
768.821	336.02
769.157	316.81
769.492	316.59
769.828	309.81
770.164	316.81
770.5	353.65
770.836	320.43
771.171	314.55
771.507	332.86
771.842	325.85
772.178	327.89
772.513	340.09
772.849	339.19
773.184	325.18
773.519	332.18
773.855	307.77
774.19	327.43
774.525	315.01
774.86	348.45
775.195	324.72
775.53	357.72
775.865	340.54
776.2	325.85
776.535	320.66
776.87	329.24
777.205	319.53
777.539	329.92
777.874	325.85
778.209	326.53
778.543	342.12
778.878	339.86
779.212	328.56
779.547	333.31
779.881	316.36
780.215	311.62
780.55	332.63
780.884	334.67
781.218	317.49
781.552	324.05
781.886	355.23
782.22	330.82
782.554	338.06
782.888	336.47
783.222	314.78
783.556	306.64
783.889	326.3
784.223	346.64
784.557	343.93
784.89	308.45
785.224	337.83
785.557	326.53
785.891	328.56
786.224	328.56
786.558	318.85
786.891	345.06
787.224	319.53
787.557	316.14
787.891	331.05
788.224	317.49
788.557	319.53
788.89	327.21
789.223	344.61
789.556	347.32
