Data from No_light_on_white_reflection_standard_FLMS001491_057.txt Node
Date: Tue Feb 07 10:33:03 GMT 2017
User: dcchb
Spectrometer: FLMS00149
Trigger mode: 0
Integration Time (sec): 2.000000E-2
Scans to average: 10
Electric dark correction enabled: true
Nonlinearity correction enabled: false
Boxcar width: 0
XAxis mode: Wavelengths
Number of Pixels in Spectrum: 2048
>>>>>Begin Spectral Data<<<<<
341.393	-37.13
341.776	-37.13
342.16	-37.13
342.543	-52.5
342.927	-74.87
343.31	-65.83
343.693	-61.54
344.077	-59.05
344.46	-52.5
344.843	-42.56
345.226	-46.62
345.61	-40.97
345.993	-25.61
346.376	-17.25
346.759	16.43
347.142	40.83
347.525	36.31
347.908	71.34
348.291	58.46
348.674	86.71
349.057	101.85
349.44	107.5
349.823	136.42
350.206	169.42
350.588	163.09
350.971	178.46
351.354	201.28
351.737	196.53
352.119	222.3
352.502	245.8
352.884	227.04
353.267	239.92
353.65	260.49
354.032	260.49
354.414	279.02
354.797	267.94
355.179	286.02
355.562	278.79
355.944	281.28
356.326	304.78
356.709	285.12
357.091	307.49
357.473	302.52
357.855	299.81
358.238	295.51
358.62	306.59
359.002	295.06
359.384	319.02
359.766	311.11
360.148	287.38
360.53	293.26
360.912	310.66
361.294	298.9
361.676	285.57
362.057	301.62
362.439	291.9
362.821	293.48
363.203	300.71
363.584	280.83
363.966	291.67
364.348	279.47
364.729	272.69
365.111	305.01
365.493	283.76
365.874	282.41
366.256	295.74
366.637	282.63
367.019	290.09
367.4	281.28
367.781	262.52
368.163	268.4
368.544	249.87
368.925	276.08
369.306	276.98
369.688	283.09
370.069	263.43
370.45	276.98
370.831	278.57
371.212	270.88
371.593	282.41
371.974	274.05
372.355	285.57
372.736	281.96
373.117	266.14
373.498	267.27
373.879	264.1
374.26	277.66
374.641	286.25
375.021	283.54
375.402	275.63
375.783	257.1
376.163	283.99
376.544	276.98
376.925	294.38
377.305	289.64
377.686	288.28
378.066	273.14
378.447	281.5
378.827	298.23
379.208	285.12
379.588	274.95
379.968	292.35
380.349	277.44
380.729	281.28
381.109	286.48
381.489	283.09
381.87	271.79
382.25	301.62
382.63	280.37
383.01	281.96
383.39	287.38
383.77	298
384.15	295.29
384.53	297.77
384.91	292.35
385.29	295.29
385.67	273.59
386.049	294.16
386.429	288.28
386.809	305.01
387.189	294.16
387.568	295.29
387.948	294.38
388.328	305.01
388.707	301.39
389.087	279.7
389.466	308.17
389.846	288.06
390.225	312.69
390.605	280.37
390.984	282.41
391.363	290.77
391.743	300.71
392.122	286.02
392.501	290.32
392.881	288.74
393.26	300.71
393.639	294.61
394.018	283.09
394.397	295.97
394.776	300.26
395.155	286.25
395.534	297.77
395.913	276.31
396.292	286.25
396.671	302.29
397.05	282.63
397.429	292.58
397.808	297.77
398.186	298.9
398.565	280.15
398.944	289.41
399.323	286.7
399.701	300.26
400.08	298.23
400.458	297.77
400.837	282.86
401.215	298
401.594	304.33
401.972	296.19
402.351	298.9
402.729	304.33
403.107	304.78
403.486	300.94
403.864	296.42
404.242	273.82
404.62	300.49
404.999	287.83
405.377	290.54
405.755	290.54
406.133	304.1
406.511	298.23
406.889	294.38
407.267	310.2
407.645	309.98
408.023	290.32
408.401	301.16
408.779	289.41
409.156	309.3
409.534	303.88
409.912	299.81
410.29	309.75
410.667	299.58
411.045	291.9
411.422	298.23
411.8	315.63
412.178	313.82
412.555	319.69
412.933	311.79
413.31	318.11
413.687	317.66
414.065	318.57
414.442	294.61
414.819	290.09
415.197	297.55
415.574	299.81
415.951	315.85
416.328	315.4
416.705	313.59
417.082	314.27
417.46	332.58
417.837	314.95
418.214	312.69
418.591	327.6
418.967	321.05
419.344	316.08
419.721	321.5
420.098	311.11
420.475	330.99
420.852	305.23
421.228	321.05
421.605	312.92
421.982	321.05
422.358	305.46
422.735	291.9
423.111	302.29
423.488	311.56
423.864	309.75
424.241	338.9
424.617	294.84
424.994	311.11
425.37	330.54
425.746	325.8
426.123	314.05
426.499	311.11
426.875	317.21
427.251	312.01
427.627	301.62
428.003	336.87
428.379	298.23
428.756	302.75
429.132	319.47
429.507	316.31
429.883	319.92
430.259	295.97
430.635	326.93
431.011	305.23
431.387	290.32
431.763	335.97
432.138	314.72
432.514	322.63
432.89	313.14
433.265	328.96
433.641	324.67
434.016	329.64
434.392	340.03
434.767	338.9
435.143	318.11
435.518	317.89
435.894	328.06
436.269	313.82
436.644	319.24
437.02	325.12
437.395	331.45
437.77	335.29
438.145	347.49
438.52	315.4
438.895	327.83
439.271	316.53
439.646	350.43
440.021	346.59
440.395	325.34
440.77	330.09
441.145	315.63
441.52	315.63
441.895	349.98
442.27	345.01
442.645	346.36
443.019	315.18
443.394	342.29
443.769	361.05
444.143	324.89
444.518	345.46
444.892	360.15
445.267	335.06
445.641	350.65
446.016	335.06
446.39	367.6
446.764	349.52
447.139	367.15
447.513	354.95
447.887	340.94
448.262	350.43
448.636	360.37
449.01	362.86
449.384	342.29
449.758	340.94
450.132	346.13
450.506	375.96
450.88	371.9
451.254	355.63
451.628	357.89
452.002	373.93
452.376	363.08
452.75	387.72
453.123	370.09
453.497	382.97
453.871	387.04
454.244	372.57
454.618	395.85
454.992	368.96
455.365	369.19
455.739	379.13
456.112	372.35
456.486	353.82
456.859	346.59
457.232	380.26
457.606	351.11
457.979	380.48
458.352	367.38
458.725	363.99
459.099	370.77
459.472	361.5
459.845	342.52
460.218	368.96
460.591	363.54
460.964	371.45
461.337	366.25
461.71	362.41
462.083	359.47
462.456	364.89
462.829	360.37
463.201	368.73
463.574	356.3
463.947	366.47
464.32	337.32
464.692	347.94
465.065	368.73
465.438	358.11
465.81	350.65
466.183	356.53
466.555	358.11
466.928	342.29
467.3	353.14
467.672	338.9
468.045	359.92
468.417	350.65
468.789	353.14
469.161	361.05
469.534	339.81
469.906	333.71
470.278	361.28
470.65	344.78
471.022	341.84
471.394	360.37
471.766	341.16
472.138	353.59
472.51	356.76
472.882	363.54
473.253	358.79
473.625	370.99
473.997	357.89
474.369	353.37
474.74	362.86
475.112	339.13
475.484	340.94
475.855	355.4
476.227	334.84
476.598	344.1
476.97	361.73
477.341	330.09
477.713	352.46
478.084	358.79
478.455	372.57
478.827	354.27
479.198	344.33
479.569	366.47
479.94	349.75
480.311	351.11
480.682	354.72
481.053	326.93
481.424	347.72
481.795	358.56
482.166	339.13
482.537	360.15
482.908	365.57
483.279	371.67
483.65	345.01
484.021	349.07
484.391	373.48
484.762	370.99
485.133	351.11
485.503	347.26
485.874	343.65
486.244	372.57
486.615	345.23
486.985	348.85
487.356	367.38
487.726	373.93
488.097	369.64
488.467	359.24
488.837	363.76
489.207	379.35
489.578	352.24
489.948	369.86
490.318	356.53
490.688	406.47
491.058	385.23
491.428	380.94
491.798	373.93
492.168	385.23
492.538	389.98
492.908	386.59
493.278	366.7
493.648	388.62
494.017	364.44
494.387	381.16
494.757	407.38
495.126	386.13
495.496	380.26
495.866	391.11
496.235	408.05
496.605	399.47
496.974	378.9
497.344	390.65
497.713	396.08
498.082	409.18
498.452	381.61
498.821	385
499.19	400.37
499.559	404.89
499.928	390.43
500.298	394.95
500.667	399.01
501.036	384.55
501.405	411.22
501.774	407.6
502.143	397.66
502.512	418.9
502.88	418.68
503.249	421.16
503.618	395.4
503.987	436.08
504.356	431.78
504.724	383.87
505.093	419.35
505.462	425.45
505.83	419.58
506.199	419.35
506.567	422.52
506.936	410.54
507.304	446.7
507.672	419.13
508.041	423.87
508.409	431.56
508.777	435.62
509.145	423.42
509.514	426.58
509.882	433.36
510.25	423.42
510.618	423.42
510.986	421.39
511.354	420.26
511.722	450.99
512.09	427.71
512.458	442.63
512.826	444.89
513.193	436.98
513.561	460.03
513.929	439.24
514.297	428.39
514.664	438.11
515.032	451.89
515.4	450.31
515.767	434.49
516.135	461.61
516.502	436.75
516.869	453.02
517.237	466.81
517.604	483.53
517.972	450.99
518.339	449.64
518.706	459.58
519.073	436.3
519.44	470.43
519.808	454.15
520.175	469.97
520.542	453.02
520.909	444.44
521.276	456.19
521.643	468.84
522.009	466.13
522.376	475.4
522.743	451.67
523.11	481.72
523.477	467.49
523.843	473.59
524.21	458.9
524.577	474.49
524.943	480.82
525.31	475.62
525.676	497.32
526.043	482.4
526.409	494.83
526.776	488.5
527.142	469.75
527.508	475.4
527.874	471.78
528.241	503.64
528.607	492.35
528.973	500.93
529.339	481.5
529.705	496.19
530.071	497.54
530.437	498.22
530.803	506.13
531.169	512.68
531.535	508.62
531.901	483.76
532.267	489.18
532.632	494.61
532.998	498.9
533.364	493.02
533.73	512.68
534.095	517.2
534.461	511.78
534.826	503.64
535.192	540.93
535.557	500.71
535.923	512.01
536.288	499.8
536.653	504.1
537.019	502.74
537.384	516.98
537.749	498.22
538.114	513.14
538.479	501.61
538.845	526.02
539.21	495.51
539.575	503.42
539.94	523.53
540.305	530.99
540.67	517.43
541.034	511.33
541.399	505
541.764	519.24
542.129	510.42
542.494	512.23
542.858	507.49
543.223	488.73
543.587	524.89
543.952	519.01
544.316	507.03
544.681	530.76
545.045	514.04
545.41	529.63
545.774	522.4
546.138	511.1
546.503	535.06
546.867	528.5
547.231	530.99
547.595	491.67
547.959	523.08
548.324	514.94
548.688	545.45
549.052	524.66
549.416	538.9
549.779	549.07
550.143	521.5
550.507	524.21
550.871	522.85
551.235	549.07
551.599	536.86
551.962	544.32
552.326	554.72
552.689	542.29
553.053	544.1
553.417	542.74
553.78	551.55
554.143	531.67
554.507	541.84
554.87	531.67
555.234	535.96
555.597	520.59
555.96	536.86
556.323	534.38
556.686	559.91
557.05	530.76
557.413	529.18
557.776	546.81
558.139	561.27
558.502	541.16
558.865	548.62
559.228	547.26
559.59	557.65
559.953	576.41
560.316	566.02
560.679	548.16
561.041	554.72
561.404	556.98
561.767	547.94
562.129	556.52
562.492	555.4
562.854	570.76
563.217	570.08
563.579	567.6
563.941	580.48
564.304	561.5
564.666	572.12
565.028	559.24
565.39	581.83
565.753	567.15
566.115	557.88
566.477	579.58
566.839	574.83
567.201	579.8
567.563	578.22
567.925	583.19
568.287	578.67
568.648	584.32
569.01	579.35
569.372	571.67
569.734	600.82
570.095	564.43
570.457	571.44
570.819	579.58
571.18	571.67
571.542	579.35
571.903	583.64
572.265	583.42
572.626	563.08
572.987	572.12
573.349	584.32
573.71	571.67
574.071	569.41
574.432	570.76
574.794	589.29
575.155	580.93
575.516	589.29
575.877	586.35
576.238	575.51
576.599	593.13
576.96	596.75
577.32	580.93
577.681	596.3
578.042	582.06
578.403	590.42
578.763	619.57
579.124	622.74
579.485	602.63
579.845	583.87
580.206	577.54
580.566	582.51
580.927	596.3
581.287	608.73
581.648	567.6
582.008	611.89
582.368	592.46
582.728	599.69
583.089	577.32
583.449	582.06
583.809	594.94
584.169	588.84
584.529	593.13
584.889	597.43
585.249	603.76
585.609	592.91
585.969	601.27
586.329	606.02
586.688	582.74
587.048	592.91
587.408	593.36
587.768	584.77
588.127	585.22
588.487	575.51
588.846	597.65
589.206	569.86
589.565	573.02
589.925	605.79
590.284	580.25
590.643	570.31
591.003	591.78
591.362	589.74
591.721	584.09
592.08	595.39
592.44	577.77
592.799	568.28
593.158	576.64
593.517	592.23
593.876	583.64
594.235	587.48
594.593	585.9
594.952	577.77
595.311	581.61
595.67	586.81
596.029	572.12
596.387	583.64
596.746	585.45
597.104	587.03
597.463	599.46
597.822	580.71
598.18	596.07
598.538	582.06
598.897	590.65
599.255	555.85
599.613	579.12
599.972	563.53
600.33	587.26
600.688	561.27
601.046	569.63
601.404	571.67
601.762	587.48
602.12	582.96
602.478	584.77
602.836	565.79
603.194	578.9
603.552	564.43
603.91	559.24
604.268	586.35
604.625	586.13
604.983	596.07
605.341	566.24
605.698	577.77
606.056	556.75
606.413	580.48
606.771	554.49
607.128	593.36
607.485	556.52
607.843	559.01
608.2	554.27
608.557	572.34
608.914	567.37
609.272	574.6
609.629	552.23
609.986	572.8
610.343	544.1
610.7	559.91
611.057	568.95
611.414	563.08
611.771	559.24
612.127	564.21
612.484	569.86
612.841	531.21
613.198	573.25
613.554	548.84
613.911	547.71
614.267	564.21
614.624	547.94
614.98	540.03
615.337	561.72
615.693	540.93
616.05	543.42
616.406	545
616.762	538.45
617.118	542.29
617.475	546.13
617.831	515.62
618.187	535.28
618.543	540.03
618.899	528.05
619.255	525.11
619.611	517.66
619.967	534.38
620.323	541.84
620.678	552.23
621.034	545.9
621.39	519.92
621.746	533.93
622.101	530.54
622.457	521.5
622.812	524.66
623.168	525.34
623.523	516.3
623.879	522.63
624.234	526.92
624.589	541.16
624.945	528.96
625.3	517.2
625.655	524.44
626.01	534.38
626.365	517.2
626.72	519.92
627.075	501.84
627.43	520.82
627.785	506.13
628.14	526.47
628.495	514.94
628.85	514.04
629.205	507.26
629.559	513.59
629.914	490.31
630.269	490.54
630.623	499.58
630.978	490.54
631.332	505.45
631.687	505
632.041	480.14
632.396	488.05
632.75	498
633.104	511.33
633.459	509.29
633.813	473.59
634.167	499.35
634.521	482.18
634.875	494.38
635.229	479.46
635.583	486.47
635.937	481.05
636.291	483.98
636.645	484.21
636.999	487.83
637.352	494.83
637.706	473.82
638.06	492.12
638.413	473.59
638.767	474.72
639.121	479.46
639.474	443.31
639.828	467.26
640.181	454.38
640.534	478.33
640.888	458.22
641.241	480.37
641.594	459.13
641.947	464.32
642.301	467.26
642.654	441.05
643.007	474.49
643.36	447.6
643.713	448.51
644.066	435.62
644.419	457.32
644.771	467.71
645.124	459.13
645.477	451.44
645.83	451.22
646.182	474.49
646.535	411.67
646.888	475.85
647.24	441.95
647.593	424.55
647.945	461.61
648.298	445.79
648.65	466.81
649.002	429.52
649.355	445.34
649.707	431.33
650.059	435.17
650.411	442.86
650.763	431.78
651.115	427.71
651.467	431.78
651.819	447.38
652.171	438.56
652.523	438.56
652.875	418.9
653.227	418
653.578	439.01
653.93	438.34
654.282	430.65
654.633	416.42
654.985	434.72
655.337	424.1
655.688	417.77
656.039	421.39
656.391	402.86
656.742	426.58
657.094	416.64
657.445	434.95
657.796	412.8
658.147	411.9
658.498	407.15
658.849	416.42
659.2	406.02
659.551	410.99
659.902	418.45
660.253	415.29
660.604	426.58
660.955	408.28
661.306	411.67
661.656	405.79
662.007	400.37
662.358	399.92
662.708	423.87
663.059	393.37
663.409	420.71
663.76	378.9
664.11	399.92
664.461	412.35
664.811	414.61
665.161	409.86
665.511	413.7
665.862	402.4
666.212	406.92
666.562	394.04
666.912	406.25
667.262	419.58
667.612	409.64
667.962	401.05
668.312	395.17
668.662	384.78
669.011	394.5
669.361	381.84
669.711	392.91
670.06	389.52
670.41	411.22
670.76	397.43
671.109	396.3
671.459	388.39
671.808	394.72
672.157	390.65
672.507	380.48
672.856	392.24
673.205	395.4
673.554	392.69
673.904	389.3
674.253	399.69
674.602	402.4
674.951	399.92
675.3	378.9
675.649	390.2
675.998	386.81
676.346	388.62
676.695	373.48
677.044	376.19
677.393	377.32
677.741	394.04
678.09	366.47
678.438	395.85
678.787	401.27
679.135	392.46
679.484	394.04
679.832	378.9
680.181	403.76
680.529	372.12
680.877	396.08
681.225	380.94
681.573	371.67
681.922	384.78
682.27	397.89
682.618	369.86
682.966	381.39
683.314	384.55
683.661	362.86
684.009	366.25
684.357	365.12
684.705	375.74
685.053	364.21
685.4	362.18
685.748	359.47
686.095	370.99
686.443	364.67
686.79	367.6
687.138	351.56
687.485	351.33
687.832	352.01
688.18	364.89
688.527	388.17
688.874	369.41
689.221	377.32
689.568	366.02
689.915	359.47
690.262	356.98
690.609	366.25
690.956	369.86
691.303	351.33
691.65	365.34
691.997	357.43
692.344	354.5
692.69	338.23
693.037	353.14
693.383	375.96
693.73	365.12
694.077	359.92
694.423	366.02
694.769	356.98
695.116	370.32
695.462	347.26
695.808	351.78
696.155	361.28
696.501	359.47
696.847	363.54
697.193	368.73
697.539	356.53
697.885	362.41
698.231	362.18
698.577	362.41
698.923	368.06
699.269	352.01
699.614	376.19
699.96	377.77
700.306	344.78
700.651	359.02
700.997	358.56
701.342	363.08
701.688	367.38
702.033	349.3
702.379	352.46
702.724	350.65
703.069	363.08
703.415	361.73
703.76	347.49
704.105	363.31
704.45	358.34
704.795	337.77
705.14	346.81
705.485	357.66
705.83	362.63
706.175	350.65
706.52	356.3
706.865	345.91
707.209	373.93
707.554	366.25
707.899	340.71
708.243	350.65
708.588	366.25
708.932	354.5
709.277	341.39
709.621	354.5
709.966	351.33
710.31	329.86
710.654	357.21
710.998	362.18
711.342	349.3
711.687	342.75
712.031	346.36
712.375	335.06
712.719	355.85
713.063	351.78
713.407	376.42
713.75	354.95
714.094	337.1
714.438	345.23
714.782	347.26
715.125	348.39
715.469	347.26
715.812	365.34
716.156	358.34
716.499	337.32
716.843	327.83
717.186	361.95
717.53	331.67
717.873	331.9
718.216	352.01
718.559	333.48
718.902	343.42
719.246	338
719.589	328.51
719.932	340.94
720.275	363.76
720.617	340.26
720.96	331.45
721.303	360.15
721.646	342.75
721.989	324.89
722.331	333.48
722.674	334.84
723.016	336.87
723.359	338
723.701	327.15
724.044	345.68
724.386	353.37
724.729	337.55
725.071	355.85
725.413	340.26
725.755	340.71
726.097	337.1
726.439	346.81
726.782	328.06
727.124	320.82
727.465	339.58
727.807	333.48
728.149	332.12
728.491	317.66
728.833	334.84
729.175	331.45
729.516	333.25
729.858	340.26
730.199	334.16
730.541	343.2
730.882	319.47
731.224	349.3
731.565	357.66
731.906	328.96
732.248	349.3
732.589	330.09
732.93	338.45
733.271	329.41
733.612	349.07
733.953	312.92
734.294	342.97
734.635	330.77
734.976	338.9
735.317	338.45
735.658	339.36
735.999	336.42
736.339	334.84
736.68	352.69
737.021	300.26
737.361	333.03
737.702	340.71
738.042	336.64
738.383	330.32
738.723	347.26
739.063	348.85
739.404	342.07
739.744	352.46
740.084	347.94
740.424	329.41
740.764	352.91
741.104	323.54
741.444	359.92
741.784	325.8
742.124	315.63
742.464	342.29
742.804	334.38
743.143	353.37
743.483	342.29
743.823	327.15
744.162	334.61
744.502	325.8
744.841	345.68
745.181	333.25
745.52	336.87
745.86	346.59
746.199	347.26
746.538	348.39
746.877	330.32
747.216	316.98
747.556	324.89
747.895	341.16
748.234	321.73
748.573	333.93
748.911	309.75
749.25	333.03
749.589	352.24
749.928	330.32
750.267	323.08
750.605	340.94
750.944	329.86
751.283	351.11
751.621	319.69
751.96	334.61
752.298	321.73
752.636	352.46
752.975	322.41
753.313	348.39
753.651	338.9
753.989	348.62
754.327	327.6
754.666	318.57
755.004	352.01
755.342	326.25
755.679	338.68
756.017	338.45
756.355	330.09
756.693	344.78
757.031	351.33
757.368	334.16
757.706	344.33
758.044	321.73
758.381	333.03
758.719	318.57
759.056	325.8
759.394	330.54
759.731	333.03
760.068	317.44
760.405	320.82
760.743	339.81
761.08	319.92
761.417	319.02
761.754	310.43
762.091	324.89
762.428	314.27
762.765	337.55
763.102	349.98
763.438	331.22
763.775	330.09
764.112	325.57
764.449	310.66
764.785	339.36
765.122	325.8
765.458	328.28
765.795	327.83
766.131	336.19
766.467	330.32
766.804	326.93
767.14	316.31
767.476	326.47
767.812	345.01
768.148	314.95
768.485	330.09
768.821	332.58
769.157	315.4
769.492	343.88
769.828	333.71
770.164	330.77
770.5	330.54
770.836	327.83
771.171	327.83
771.507	341.62
771.842	313.82
772.178	309.75
772.513	346.36
772.849	321.73
773.184	328.28
773.519	340.71
773.855	329.64
774.19	323.99
774.525	339.81
774.86	329.64
775.195	330.32
775.53	319.47
775.865	333.48
776.2	332.35
776.535	316.76
776.87	326.47
777.205	324.67
777.539	323.54
777.874	339.58
778.209	333.93
778.543	338.23
778.878	329.19
779.212	327.15
779.547	331.22
779.881	335.97
780.215	313.37
780.55	319.47
780.884	326.02
781.218	307.94
781.552	342.75
781.886	328.96
782.22	339.36
782.554	328.96
782.888	334.84
783.222	338.68
783.556	316.98
783.889	321.73
784.223	324.67
784.557	343.88
784.89	326.7
785.224	339.81
785.557	345.01
785.891	312.01
786.224	330.77
786.558	319.92
786.891	327.38
787.224	315.4
787.557	319.69
787.891	325.34
788.224	339.81
788.557	308.62
788.89	329.19
789.223	318.34
