Data from No_light_on_white_reflection_standard_FLMS001491_017.txt Node
Date: Tue Feb 07 10:32:55 GMT 2017
User: dcchb
Spectrometer: FLMS00149
Trigger mode: 0
Integration Time (sec): 2.000000E-2
Scans to average: 10
Electric dark correction enabled: true
Nonlinearity correction enabled: false
Boxcar width: 0
XAxis mode: Wavelengths
Number of Pixels in Spectrum: 2048
>>>>>Begin Spectral Data<<<<<
341.393	-24.45
341.776	-24.45
342.16	-24.45
342.543	-58.57
342.927	-63.54
343.31	-57.89
343.693	-53.15
344.077	-66.71
344.46	-44.56
344.843	-52.92
345.226	-32.58
345.61	-45.01
345.993	-36.2
346.376	-9.99
346.759	12.16
347.142	36.79
347.525	15.78
347.908	63.01
348.291	56.68
348.674	99.62
349.057	114.98
349.44	112.27
349.823	121.31
350.206	138.49
350.588	160.41
350.971	176.68
351.354	205.6
351.737	205.6
352.119	228.88
352.502	232.49
352.884	276.56
353.267	255.77
353.65	255.77
354.032	251.48
354.414	272.72
354.797	287.18
355.179	286.5
355.562	298.25
355.944	304.81
356.326	284.7
356.709	300.74
357.091	293.74
357.473	307.07
357.855	307.07
358.238	303.9
358.62	312.04
359.002	304.13
359.384	299.16
359.766	304.13
360.148	296.67
360.53	293.74
360.912	291.02
361.294	326.5
361.676	284.24
362.057	298.25
362.439	286.96
362.821	315.88
363.203	280.63
363.584	289.22
363.966	281.98
364.348	306.16
364.729	284.47
365.111	298.71
365.493	277.92
365.874	275.2
366.256	274.53
366.637	269.78
367.019	281.76
367.4	269.33
367.781	268.88
368.163	267.07
368.544	272.94
368.925	272.72
369.306	262.32
369.688	288.99
370.069	282.66
370.45	275.43
370.831	255.77
371.212	265.04
371.593	288.09
371.974	266.84
372.355	276.79
372.736	286.5
373.117	272.49
373.498	284.92
373.879	274.75
374.26	283.34
374.641	281.08
375.021	280.4
375.402	275.2
375.783	256.22
376.163	277.24
376.544	258.93
376.925	283.11
377.305	271.14
377.686	295.54
378.066	270.68
378.447	297.12
378.827	282.66
379.208	278.37
379.588	263.23
379.968	288.09
380.349	296.9
380.729	272.27
381.109	265.71
381.489	281.98
381.87	288.54
382.25	282.21
382.63	278.14
383.01	268.88
383.39	288.76
383.77	275.43
384.15	298.03
384.53	276.79
384.91	292.15
385.29	288.76
385.67	272.49
386.049	303.45
386.429	286.05
386.809	292.38
387.189	283.79
387.568	285.83
387.948	266.84
388.328	276.79
388.707	251.48
389.087	283.57
389.466	304.58
389.846	291.7
390.225	285.37
390.605	305.49
390.984	263
391.363	298.25
391.743	277.92
392.122	301.64
392.501	300.51
392.881	289.22
393.26	311.59
393.639	275.2
394.018	308.65
394.397	284.47
394.776	290.35
395.155	283.57
395.534	281.98
395.913	299.61
396.292	270.23
396.671	297.35
397.05	280.4
397.429	278.59
397.808	286.05
398.186	290.8
398.565	279.95
398.944	293.96
399.323	294.19
399.701	277.92
400.08	292.15
400.458	293.28
400.837	285.37
401.215	296.67
401.594	287.18
401.972	324.24
402.351	292.61
402.729	309.78
403.107	303.23
403.486	297.8
403.864	307.75
404.242	297.8
404.62	297.35
404.999	296.22
405.377	287.86
405.755	301.42
406.133	277.24
406.511	300.29
406.889	293.96
407.267	288.31
407.645	281.98
408.023	295.54
408.401	298.93
408.779	312.94
409.156	305.03
409.534	302.1
409.912	290.57
410.29	311.59
410.667	293.96
411.045	305.26
411.422	296.45
411.8	298.71
412.178	302.77
412.555	307.97
412.933	309.78
413.31	309.55
413.687	284.92
414.065	306.16
414.442	306.16
414.819	290.57
415.197	298.71
415.574	298.71
415.951	286.5
416.328	306.39
416.705	306.39
417.082	290.12
417.46	279.95
417.837	312.04
418.214	298.71
418.591	314.07
418.967	277.24
419.344	284.7
419.721	283.79
420.098	298.71
420.475	313.62
420.852	289.67
421.228	312.27
421.605	300.74
421.982	303.9
422.358	293.51
422.735	291.02
423.111	294.64
423.488	285.6
423.864	327.18
424.241	303.45
424.617	301.19
424.994	304.36
425.37	312.94
425.746	305.03
426.123	317.24
426.499	301.64
426.875	327.18
427.251	321.08
427.627	298.93
428.003	315.2
428.379	316.33
428.756	319.27
429.132	310.68
429.507	296.22
429.883	302.32
430.259	322.66
430.635	320.85
431.011	308.2
431.387	315.43
431.763	313.17
432.138	333.28
432.514	300.51
432.89	303.68
433.265	320.4
433.641	319.72
434.016	320.4
434.392	299.16
434.767	327.41
435.143	302.55
435.518	312.27
435.894	349.1
436.269	330.34
436.644	333.96
437.02	331.02
437.395	332.83
437.77	322.21
438.145	326.28
438.52	324.47
438.895	337.58
439.271	340.51
439.646	348.65
440.021	335.09
440.395	353.39
440.77	331.93
441.145	346.84
441.52	338.93
441.895	343.45
442.27	324.69
442.645	326.95
443.019	324.24
443.394	337.12
443.769	321.08
444.143	341.87
444.518	318.59
444.892	333.28
445.267	365.82
445.641	351.59
446.016	354.52
446.39	347.07
446.764	347.97
447.139	335.54
447.513	344.36
447.887	347.52
448.262	372.38
448.636	353.39
449.01	345.49
449.384	342.32
449.758	364.92
450.132	375.54
450.506	379.38
450.88	363.79
451.254	345.26
451.628	361.53
452.002	359.04
452.376	364.02
452.75	364.92
453.123	363.11
453.497	364.47
453.871	359.95
454.244	341.87
454.618	347.52
454.992	369.44
455.365	360.4
455.739	367.63
456.112	352.72
456.486	338.93
456.859	372.6
457.232	368.31
457.606	378.7
457.979	367.41
458.352	346.62
458.725	355.88
459.099	358.82
459.472	358.14
459.845	338.93
460.218	357.01
460.591	340.74
460.964	367.41
461.337	354.07
461.71	359.5
462.083	345.03
462.456	345.49
462.829	345.71
463.201	355.43
463.574	349.55
463.947	342.1
464.32	370.34
464.692	336.22
465.065	354.98
465.438	342.55
465.81	335.09
466.183	334.41
466.555	358.59
466.928	366.5
467.3	337.8
467.672	340.29
468.045	354.3
468.417	351.81
468.789	352.49
469.161	360.4
469.534	348.42
469.906	347.97
470.278	344.36
470.65	360.4
471.022	352.49
471.394	371.25
471.766	353.17
472.138	364.92
472.51	352.72
472.882	324.92
473.253	350.23
473.625	333.96
473.997	344.81
474.369	348.42
474.74	346.16
475.112	346.62
475.484	341.19
475.855	348.42
476.227	326.05
476.598	344.13
476.97	363.56
477.341	343
477.713	351.13
478.084	351.36
478.455	362.43
478.827	336.22
479.198	359.04
479.569	346.16
479.94	337.8
480.311	342.55
480.682	351.81
481.053	333.51
481.424	329.44
481.795	343
482.166	346.39
482.537	359.5
482.908	361.76
483.279	359.04
483.65	351.81
484.021	317.92
484.391	350.68
484.762	353.85
485.133	371.47
485.503	335.32
485.874	356.11
486.244	356.78
486.615	372.15
486.985	346.84
487.356	348.2
487.726	364.92
488.097	363.79
488.467	361.08
488.837	381.42
489.207	351.59
489.578	371.7
489.948	366.95
490.318	365.6
490.688	348.88
491.058	364.69
491.428	372.6
491.798	384.35
492.168	368.08
492.538	369.67
492.908	408.08
493.278	366.05
493.648	373.96
494.017	369.89
494.387	375.99
494.757	366.5
495.126	395.43
495.496	382.55
495.866	384.81
496.235	378.25
496.605	376.44
496.974	377.8
497.344	390.23
497.713	375.09
498.082	367.18
498.452	395.65
498.821	399.5
499.19	395.65
499.559	394.98
499.928	401.3
500.298	413.05
500.667	382.32
501.036	418.48
501.405	380.51
501.774	427.97
502.143	392.72
502.512	383
502.88	441.08
503.249	427.07
503.618	407.18
503.987	404.92
504.356	397.91
504.724	389.55
505.093	402.66
505.462	419.83
505.83	406.05
506.199	424.35
506.567	414.18
506.936	416.9
507.304	411.47
507.672	406.27
508.041	419.61
508.409	414.41
508.777	412.83
509.145	425.94
509.514	420.96
509.882	408.76
510.25	419.16
510.618	431.13
510.986	460.28
511.354	444.01
511.722	416.67
512.09	432.71
512.458	437.46
512.826	437.69
513.193	427.29
513.561	429.78
513.929	425.26
514.297	457.57
514.664	416.22
515.032	436.33
515.4	451.02
515.767	438.36
516.135	452.6
516.502	437.01
516.869	429.32
517.237	445.82
517.604	435.65
517.972	434.52
518.339	459.83
518.706	472.26
519.073	444.92
519.44	454.41
519.808	463.45
520.175	450.34
520.542	453.28
520.909	449.66
521.276	447.18
521.643	460.74
522.009	459.15
522.376	440.4
522.743	453.96
523.11	446.95
523.477	470.45
523.843	463.45
524.21	452.15
524.577	468.42
524.943	458.93
525.31	470.23
525.676	486.05
526.043	454.63
526.409	490.11
526.776	470.23
527.142	473.84
527.508	464.35
527.874	476.33
528.241	484.24
528.607	466.84
528.973	484.01
529.339	474.75
529.705	465.03
530.071	491.92
530.437	468.42
530.803	479.72
531.169	494.63
531.535	496.67
531.901	478.82
532.267	471.36
532.632	474.97
532.998	481.98
533.364	493.28
533.73	475.65
534.095	493.5
534.461	508.19
534.826	503.67
535.192	503.9
535.557	487.85
535.923	513.39
536.288	504.58
536.653	503.9
537.019	492.83
537.384	503.67
537.749	484.69
538.114	479.04
538.479	495.09
538.845	496.67
539.21	499.15
539.575	514.29
539.94	497.35
540.305	525.14
540.67	509.1
541.034	509.1
541.399	485.37
541.764	511.13
542.129	509.32
542.494	497.8
542.858	494.63
543.223	498.25
543.587	508.64
543.952	509.77
544.316	506.16
544.681	521.07
545.045	510.68
545.41	524.46
545.774	518.36
546.138	517.46
546.503	501.41
546.867	508.87
547.231	499.38
547.595	527.4
547.959	517.01
548.324	518.81
548.688	517.01
549.052	496.44
549.416	499.15
549.779	521.53
550.143	492.15
550.507	517.01
550.871	495.76
551.235	541.86
551.599	528.98
551.962	517.46
552.326	526.5
552.689	534.63
553.053	520.85
553.417	525.14
553.78	514.97
554.143	536.67
554.507	519.49
554.87	497.8
555.234	528.08
555.597	533.28
555.96	522.2
556.323	526.27
556.686	540.28
557.05	539.15
557.413	539.15
557.776	555.65
558.139	520.17
558.502	540.96
558.865	549.32
559.228	517.68
559.59	535.08
559.953	522.2
560.316	530.79
560.679	554.07
561.041	520.62
561.404	549.77
561.767	553.16
562.129	546.16
562.492	525.14
562.854	548.87
563.217	554.75
563.579	541.41
563.941	557.46
564.304	544.8
564.666	550.45
565.028	572.6
565.39	544.12
565.753	554.29
566.115	571.47
566.477	542.99
566.839	566.95
567.201	548.64
567.563	532.15
567.925	564.24
568.287	581.41
568.648	547.97
569.01	567.17
569.372	561.52
569.734	556.55
570.095	560.85
570.457	558.14
570.819	556.78
571.18	562.88
571.542	570.56
571.903	555.65
572.265	561.52
572.626	566.04
572.987	552.71
573.349	570.34
573.71	592.48
574.071	579.38
574.432	565.37
574.794	587.29
575.155	568.08
575.516	556.1
575.877	585.48
576.238	577.12
576.599	572.37
576.96	573.05
577.32	580.96
577.681	570.11
578.042	562.43
578.403	565.37
578.763	591.13
579.124	559.04
579.485	581.64
579.845	578.93
580.206	564.24
580.566	591.35
580.927	587.96
581.287	575.31
581.648	563.11
582.008	569.66
582.368	576.89
582.728	580.28
583.089	572.37
583.449	582.99
583.809	547.97
584.169	573.73
584.529	572.37
584.889	563.56
585.249	538.7
585.609	574.63
585.969	558.14
586.329	572.6
586.688	573.5
587.048	569.89
587.408	571.92
587.768	585.93
588.127	560.39
588.487	569.43
588.846	563.33
589.206	554.97
589.565	575.31
589.925	579.83
590.284	569.89
590.643	571.92
591.003	577.34
591.362	578.93
591.721	565.37
592.08	573.73
592.44	578.47
592.799	575.76
593.158	570.79
593.517	580.06
593.876	565.59
594.235	554.29
594.593	574.41
594.952	547.97
595.311	564.91
595.67	572.6
596.029	557.91
596.387	590.68
596.746	562.88
597.104	558.36
597.463	583.22
597.822	551.36
598.18	550.23
598.538	588.42
598.897	545.93
599.255	564.69
599.613	555.88
599.972	558.81
600.33	532.6
600.688	544.35
601.046	543.67
601.404	575.76
601.762	562.65
602.12	557.68
602.478	568.53
602.836	557.46
603.194	553.16
603.552	542.54
603.91	547.97
604.268	553.84
604.625	582.99
604.983	554.29
605.341	540.51
605.698	555.88
606.056	549.32
606.413	549.55
606.771	539.38
607.128	549.32
607.485	547.06
607.843	564.46
608.2	559.26
608.557	555.42
608.914	570.34
609.272	533.73
609.629	559.49
609.986	545.71
610.343	539.38
610.7	552.26
611.057	557.91
611.414	560.39
611.771	542.99
612.127	551.36
612.484	542.32
612.841	522.66
613.198	521.53
613.554	531.24
613.911	513.62
614.267	553.84
614.624	537.34
614.98	553.84
615.337	535.08
615.693	545.93
616.05	525.82
616.406	550.45
616.762	532.15
617.118	528.31
617.475	528.53
617.831	518.36
618.187	535.99
618.543	525.37
618.899	537.57
619.255	530.11
619.611	511.13
619.967	525.14
620.323	505.03
620.678	524.46
621.034	518.14
621.39	494.86
621.746	507.29
622.101	512.03
622.457	492.15
622.812	513.16
623.168	525.59
623.523	490.11
623.879	515.42
624.234	528.08
624.589	512.49
624.945	535.08
625.3	511.13
625.655	507.97
626.01	521.3
626.365	501.41
626.72	507.97
627.075	502.77
627.43	500.74
627.785	511.13
628.14	497.12
628.495	485.82
628.85	505.26
629.205	494.41
629.559	499.15
629.914	467.74
630.269	473.84
630.623	471.13
630.978	463.45
631.332	489.89
631.687	482.88
632.041	489.44
632.396	485.37
632.75	494.41
633.104	475.88
633.459	469.32
633.813	485.82
634.167	479.49
634.521	487.4
634.875	479.72
635.229	480.85
635.583	466.16
635.937	471.81
636.291	470.68
636.645	467.52
636.999	469.78
637.352	465.93
637.706	471.58
638.06	453.28
638.413	466.61
638.767	460.51
639.121	461.41
639.474	469.32
639.828	461.41
640.181	444.01
640.534	465.93
640.888	476.1
641.241	436.1
641.594	445.37
641.947	446.73
642.301	458.93
642.654	446.95
643.007	444.01
643.36	456.67
643.713	443.34
644.066	446.5
644.419	462.09
644.771	437.01
645.124	441.08
645.477	449.44
645.83	433.84
646.182	438.82
646.535	441.53
646.888	430.45
647.24	430
647.593	440.85
647.945	425.26
648.298	425.71
648.65	432.94
649.002	428.42
649.355	460.51
649.707	408.31
650.059	416.22
650.411	421.19
650.763	428.65
651.115	435.43
651.467	399.27
651.819	432.04
652.171	446.27
652.523	421.42
652.875	410.12
653.227	406.95
653.578	415.99
653.93	428.19
654.282	432.04
654.633	411.7
654.985	414.41
655.337	425.26
655.688	408.53
656.039	399.04
656.391	415.31
656.742	421.42
657.094	425.48
657.445	415.77
657.796	413.73
658.147	422.32
658.498	387.52
658.849	427.97
659.2	427.97
659.551	416.67
659.902	420.96
660.253	401.98
660.604	397.69
660.955	393.85
661.306	404.24
661.656	409.21
662.007	401.75
662.358	412.15
662.708	385.03
663.059	399.27
663.409	394.3
663.76	363.11
664.11	396.56
664.461	392.26
664.811	402.21
665.161	405.14
665.511	412.38
665.862	396.56
666.212	360.17
666.562	389.1
666.912	394.98
667.262	388.2
667.612	390
667.962	386.39
668.312	396.11
668.662	409.66
669.011	373.06
669.361	399.04
669.711	404.92
670.06	393.17
670.41	391.81
670.76	381.87
671.109	391.81
671.459	397.69
671.808	379.38
672.157	401.3
672.507	380.06
672.856	381.64
673.205	402.66
673.554	383.22
673.904	368.31
674.253	360.17
674.602	371.47
674.951	397.01
675.3	389.33
675.649	383.9
675.998	369.67
676.346	372.38
676.695	376.9
677.044	399.95
677.393	380.06
677.741	371.93
678.09	375.77
678.438	370.8
678.787	383
679.135	376.22
679.484	360.17
679.832	372.15
680.181	377.57
680.529	363.56
680.877	364.47
681.225	361.76
681.573	376.9
681.922	380.29
682.27	362.21
682.618	371.47
682.966	376.9
683.314	353.39
683.661	381.87
684.009	371.47
684.357	370.57
684.705	378.03
685.053	338.25
685.4	372.6
685.748	345.71
686.095	353.85
686.443	386.39
686.79	365.37
687.138	344.36
687.485	359.04
687.832	361.76
688.18	352.94
688.527	331.93
688.874	344.58
689.221	357.91
689.568	350.46
689.915	364.92
690.262	371.7
690.609	372.38
690.956	341.19
691.303	378.93
691.65	362.21
691.997	342.32
692.344	356.11
692.69	366.05
693.037	347.97
693.383	348.88
693.73	359.27
694.077	347.97
694.423	367.41
694.769	347.75
695.116	349.33
695.462	345.03
695.808	370.34
696.155	341.42
696.501	358.59
696.847	354.98
697.193	332.83
697.539	370.34
697.885	367.86
698.231	371.93
698.577	379.16
698.923	354.98
699.269	346.16
699.614	333.06
699.96	357.91
700.306	359.27
700.651	349.78
700.997	342.32
701.342	352.26
701.688	341.87
702.033	334.64
702.379	346.16
702.724	340.51
703.069	338.48
703.415	327.86
703.76	350.68
704.105	331.02
704.45	360.4
704.795	358.14
705.14	377.57
705.485	343.9
705.83	348.42
706.175	342.55
706.52	347.07
706.865	342.77
707.209	331.02
707.554	364.69
707.899	346.84
708.243	334.64
708.588	328.08
708.932	332.6
709.277	338.93
709.621	347.29
709.966	352.49
710.31	339.61
710.654	351.13
710.998	347.07
711.342	358.82
711.687	361.08
712.031	357.69
712.375	331.7
712.719	356.78
713.063	336.22
713.407	343
713.75	344.36
714.094	330.12
714.438	339.84
714.782	355.65
715.125	336.45
715.469	332.38
715.812	338.25
716.156	359.04
716.499	342.55
716.843	337.12
717.186	353.39
717.53	344.13
717.873	329.89
718.216	334.86
718.559	341.87
718.902	363.34
719.246	335.54
719.589	322.21
719.932	320.63
720.275	361.08
720.617	355.65
720.96	326.5
721.303	343
721.646	335.77
721.989	325.6
722.331	347.29
722.674	330.12
723.016	334.86
723.359	318.59
723.701	316.56
724.044	326.28
724.386	317.69
724.729	332.15
725.071	338.48
725.413	336.9
725.755	333.28
726.097	351.81
726.439	344.13
726.782	334.41
727.124	328.08
727.465	333.96
727.807	328.54
728.149	336.45
728.491	307.97
728.833	327.41
729.175	318.37
729.516	343.68
729.858	344.36
730.199	333.51
730.541	320.85
730.882	335.77
731.224	325.6
731.565	332.83
731.906	321.98
732.248	338.93
732.589	309.78
732.93	331.25
733.271	336.67
733.612	341.64
733.953	336.9
734.294	321.76
734.635	335.32
734.976	315.43
735.317	317.01
735.658	349.33
735.999	347.97
736.339	329.44
736.68	339.61
737.021	320.18
737.361	324.92
737.702	333.51
738.042	314.53
738.383	335.54
738.723	328.99
739.063	331.25
739.404	345.71
739.744	331.7
740.084	327.86
740.424	310.91
740.764	326.05
741.104	315.88
741.444	310.46
741.784	333.28
742.124	329.67
742.464	323.11
742.804	341.19
743.143	331.47
743.483	322.44
743.823	357.91
744.162	307.75
744.502	330.8
744.841	307.07
745.181	333.51
745.52	348.88
745.86	334.41
746.199	340.97
746.538	347.29
746.877	335.32
747.216	323.79
747.556	328.08
747.895	331.93
748.234	329.44
748.573	340.74
748.911	327.41
749.25	342.32
749.589	338.03
749.928	322.44
750.267	340.29
750.605	304.36
750.944	334.41
751.283	326.95
751.621	328.99
751.96	320.85
752.298	321.76
752.636	312.94
752.975	333.28
753.313	333.06
753.651	330.34
753.989	342.55
754.327	325.15
754.666	316.56
755.004	316.33
755.342	332.15
755.679	313.17
756.017	345.03
756.355	330.57
756.693	326.73
757.031	326.05
757.368	319.27
757.706	309.1
758.044	334.41
758.381	330.34
758.719	326.73
759.056	343.45
759.394	308.42
759.731	309.1
760.068	328.54
760.405	324.02
760.743	330.12
761.08	321.76
761.417	315.43
761.754	324.47
762.091	303.68
762.428	336.45
762.765	326.28
763.102	330.34
763.438	333.06
763.775	325.37
764.112	321.53
764.449	338.71
764.785	334.19
765.122	315.66
765.458	331.7
765.795	304.13
766.131	306.16
766.467	325.6
766.804	333.06
767.14	321.98
767.476	311.14
767.812	302.32
768.148	337.12
768.485	327.86
768.821	333.73
769.157	345.26
769.492	322.44
769.828	322.66
770.164	335.09
770.5	341.87
770.836	337.12
771.171	294.87
771.507	342.55
771.842	317.24
772.178	336.67
772.513	337.35
772.849	331.25
773.184	306.39
773.519	317.92
773.855	338.93
774.19	327.86
774.525	319.72
774.86	334.64
775.195	327.41
775.53	334.86
775.865	326.95
776.2	315.43
776.535	315.66
776.87	330.12
777.205	333.06
777.539	326.28
777.874	317.46
778.209	322.89
778.543	294.41
778.878	334.41
779.212	328.31
779.547	327.63
779.881	335.32
780.215	318.82
780.55	307.52
780.884	312.49
781.218	318.37
781.552	324.02
781.886	321.08
782.22	345.71
782.554	345.94
782.888	316.79
783.222	331.02
783.556	322.66
783.889	326.73
784.223	327.86
784.557	331.93
784.89	310.91
785.224	311.14
785.557	333.51
785.891	316.33
786.224	320.85
786.558	316.11
786.891	331.7
787.224	328.31
787.557	336.9
787.891	319.5
788.224	311.36
788.557	310.68
788.89	323.11
