Data from No_light_on_white_reflection_standard_FLMS001491_009.txt Node
Date: Tue Feb 07 10:32:54 GMT 2017
User: dcchb
Spectrometer: FLMS00149
Trigger mode: 0
Integration Time (sec): 2.000000E-2
Scans to average: 10
Electric dark correction enabled: true
Nonlinearity correction enabled: false
Boxcar width: 0
XAxis mode: Wavelengths
Number of Pixels in Spectrum: 2048
>>>>>Begin Spectral Data<<<<<
341.393	-4.92
341.776	-4.92
342.16	-4.92
342.543	-51.02
342.927	-82.43
343.31	-65.93
343.693	-68.87
344.077	-50.79
344.46	-59.38
344.843	-41.07
345.226	-39.04
345.61	-37.46
345.993	-33.39
346.376	11.36
346.759	13.16
347.142	12.71
347.525	49.32
347.908	61.75
348.291	71.69
348.674	83.22
349.057	92.71
349.44	136.32
349.823	146.04
350.206	151.24
350.588	173.39
350.971	166.61
351.354	199.15
351.737	207.51
352.119	223.33
352.502	229.88
352.884	232.37
353.267	220.16
353.65	255.19
354.032	251.8
354.414	272.82
354.797	266.72
355.179	278.24
355.562	290.44
355.944	288.64
356.326	282.99
356.709	311.01
357.091	293.16
357.473	305.13
357.855	296.77
358.238	297.68
358.62	286.15
359.002	297.22
359.384	301.97
359.766	305.36
360.148	297.45
360.53	314.17
360.912	298.58
361.294	304.91
361.676	315.3
362.057	304.91
362.439	306.26
362.821	300.61
363.203	301.97
363.584	273.5
363.966	304
364.348	267.62
364.729	303.78
365.111	301.07
365.493	291.35
365.874	282.76
366.256	277.56
366.637	287.28
367.019	281.86
367.4	289.99
367.781	289.77
368.163	275.3
368.544	258.58
368.925	247.06
369.306	275.98
369.688	274.4
370.069	279.82
370.45	276.89
370.831	285.92
371.212	256.32
371.593	269.43
371.974	277.56
372.355	272.14
372.736	271.01
373.117	270.11
373.498	264
373.879	282.99
374.26	279.82
374.641	276.43
375.021	251.12
375.402	295.42
375.783	275.3
376.163	287.96
376.544	304.68
376.925	310.1
377.305	273.5
377.686	279.37
378.066	287.28
378.447	286.6
378.827	259.71
379.208	273.5
379.588	293.61
379.968	283.89
380.349	276.66
380.729	286.38
381.109	290.67
381.489	278.47
381.87	284.57
382.25	284.34
382.63	289.77
383.01	280.73
383.39	298.35
383.77	296.55
384.15	280.28
384.53	301.52
384.91	290.22
385.29	285.47
385.67	286.83
386.049	296.77
386.429	300.61
386.809	285.92
387.189	279.82
387.568	284.34
387.948	288.41
388.328	302.42
388.707	303.55
389.087	304.46
389.466	303.55
389.846	289.99
390.225	302.65
390.605	295.42
390.984	290.9
391.363	273.95
391.743	282.76
392.122	312.14
392.501	313.04
392.881	297.22
393.26	301.29
393.639	291.57
394.018	302.87
394.397	289.77
394.776	324.57
395.155	314.85
395.534	287.05
395.913	281.41
396.292	294.29
396.671	275.53
397.05	299.26
397.429	305.13
397.808	292.93
398.186	252.03
398.565	293.16
398.944	307.17
399.323	284.12
399.701	277.11
400.08	306.72
400.458	288.18
400.837	296.09
401.215	282.31
401.594	287.73
401.972	326.83
402.351	302.87
402.729	277.56
403.107	297.68
403.486	313.72
403.864	305.36
404.242	300.61
404.62	311.91
404.999	298.35
405.377	285.25
405.755	295.87
406.133	290.22
406.511	295.64
406.889	294.74
407.267	310.56
407.645	297.68
408.023	308.75
408.401	305.36
408.779	289.99
409.156	285.02
409.534	306.72
409.912	291.8
410.29	315.75
410.667	280.73
411.045	306.04
411.422	289.77
411.8	313.49
412.178	298.35
412.555	313.72
412.933	292.7
413.31	299.26
413.687	311.23
414.065	302.42
414.442	304.91
414.819	299.48
415.197	292.93
415.574	293.61
415.951	310.56
416.328	298.13
416.705	316.88
417.082	295.42
417.46	301.52
417.837	305.36
418.214	293.16
418.591	302.2
418.967	286.6
419.344	297.9
419.721	315.98
420.098	304.23
420.475	305.81
420.852	287.73
421.228	299.94
421.605	304
421.982	317.34
422.358	311.46
422.735	304.23
423.111	313.95
423.488	313.04
423.864	296.32
424.241	315.53
424.617	298.81
424.994	331.35
425.37	304.23
425.746	311.01
426.123	305.13
426.499	329.77
426.875	322.31
427.251	326.83
427.627	296.55
428.003	315.08
428.379	314.85
428.756	314.17
429.132	323.66
429.507	300.16
429.883	334.28
430.259	311.91
430.635	327.28
431.011	320.95
431.387	316.43
431.763	302.42
432.138	312.36
432.514	311.01
432.89	315.98
433.265	328.64
433.641	306.26
434.016	339.71
434.392	324.34
434.767	323.66
435.143	328.41
435.518	324.79
435.894	331.8
436.269	314.85
436.644	299.26
437.02	315.3
437.395	314.4
437.77	330.9
438.145	341.29
438.52	342.42
438.895	340.61
439.271	354.4
439.646	335.64
440.021	329.31
440.395	339.71
440.77	317.56
441.145	341.97
441.52	347.39
441.895	315.53
442.27	341.74
442.645	353.04
443.019	347.62
443.394	344.23
443.769	329.31
444.143	357.34
444.518	359.14
444.892	350.78
445.267	360.27
445.641	341.06
446.016	332.93
446.39	343.1
446.764	353.72
447.139	346.71
447.513	369.09
447.887	371.35
448.262	340.61
448.636	367.05
449.01	368.18
449.384	348.3
449.758	367.28
450.132	358.47
450.506	400.95
450.88	363.44
451.254	376.32
451.628	365.24
452.002	375.19
452.376	377.45
452.75	369.54
453.123	361.63
453.497	353.95
453.871	374.96
454.244	376.09
454.618	355.53
454.992	403.89
455.365	350.78
455.739	381.97
456.112	362.31
456.486	351.23
456.859	367.05
457.232	355.08
457.606	363.21
457.979	359.37
458.352	367.5
458.725	356.66
459.099	349.43
459.472	346.71
459.845	347.84
460.218	384
460.591	378.35
460.964	355.3
461.337	344.23
461.71	344.23
462.083	348.75
462.456	360.5
462.829	347.17
463.201	366.83
463.574	374.06
463.947	347.17
464.32	366.37
464.692	346.49
465.065	370.44
465.438	365.47
465.81	356.66
466.183	362.76
466.555	367.5
466.928	372.48
467.3	346.94
467.672	350.56
468.045	348.07
468.417	352.59
468.789	360.95
469.161	347.17
469.534	357.34
469.906	376.54
470.278	343.55
470.65	349.65
471.022	345.36
471.394	366.37
471.766	352.82
472.138	353.72
472.51	338.35
472.882	371.8
473.253	348.07
473.625	355.08
473.997	355.3
474.369	363.66
474.74	357.11
475.112	332.48
475.484	364.11
475.855	355.75
476.227	365.47
476.598	335.41
476.97	336.09
477.341	346.94
477.713	361.18
478.084	363.44
478.455	379.03
478.827	372.25
479.198	353.72
479.569	343.55
479.94	365.02
480.311	338.13
480.682	368.63
481.053	350.1
481.424	359.82
481.795	363.66
482.166	348.52
482.537	353.04
482.908	353.49
483.279	356.21
483.65	360.95
484.021	361.85
484.391	358.24
484.762	357.56
485.133	367.5
485.503	339.71
485.874	365.02
486.244	362.53
486.615	370.89
486.985	359.37
487.356	353.04
487.726	373.38
488.097	375.87
488.467	372.02
488.837	358.47
489.207	377.22
489.578	375.87
489.948	380.39
490.318	353.49
490.688	363.21
491.058	365.24
491.428	383.55
491.798	382.42
492.168	383.78
492.538	380.16
492.908	370.67
493.278	348.07
493.648	371.35
494.017	374.28
494.387	403.44
494.757	384
495.126	377.45
495.496	381.29
495.866	364.34
496.235	380.61
496.605	392.14
496.974	369.99
497.344	389.42
497.713	383.78
498.082	399.59
498.452	400.5
498.821	390.78
499.19	400.95
499.559	391.46
499.928	403.21
500.298	393.49
500.667	403.21
501.036	395.3
501.405	388.07
501.774	384.68
502.143	386.71
502.512	399.59
502.88	402.98
503.249	393.04
503.618	431.46
503.987	390.1
504.356	398.01
504.724	400.72
505.093	406.83
505.462	407.73
505.83	424.9
506.199	417.67
506.567	406.37
506.936	419.03
507.304	431.01
507.672	411.12
508.041	434.4
508.409	422.19
508.777	413.38
509.145	403.66
509.514	421.97
509.882	416.99
510.25	416.99
510.618	440.27
510.986	458.8
511.354	438.24
511.722	431.23
512.09	419.93
512.458	419.71
512.826	434.62
513.193	460.84
513.561	427.16
513.929	435.3
514.297	436.43
514.664	441.85
515.032	452.25
515.4	457.9
515.767	447.05
516.135	458.58
516.502	431.23
516.869	463.55
517.237	451.34
517.604	441.63
517.972	449.99
518.339	433.94
518.706	449.31
519.073	445.24
519.44	451.8
519.808	473.94
520.175	455.86
520.542	455.86
520.909	462.42
521.276	486.37
521.643	449.31
522.009	465.13
522.376	468.52
522.743	452.47
523.11	471
523.477	446.6
523.843	476.43
524.21	482.98
524.577	463.1
524.943	490.89
525.31	462.19
525.676	500.16
526.043	494.73
526.409	479.14
526.776	488.41
527.142	468.29
527.508	489.54
527.874	448.41
528.241	492.25
528.607	475.75
528.973	498.12
529.339	475.07
529.705	493.6
530.071	492.02
530.437	480.5
530.803	486.6
531.169	492.02
531.535	491.34
531.901	484.79
532.267	491.79
532.632	506.71
532.998	482.08
533.364	504.22
533.73	483.43
534.095	486.37
534.461	488.63
534.826	467.61
535.192	480.04
535.557	529.99
535.923	497.67
536.288	504.22
536.653	501.74
537.019	495.64
537.384	503.77
537.749	481.4
538.114	499.03
538.479	494.73
538.845	536.09
539.21	501.96
539.575	520.95
539.94	510.1
540.305	512.59
540.67	502.42
541.034	499.7
541.399	523.88
541.764	492.7
542.129	518.91
542.494	535.18
542.858	511
543.223	513.26
543.587	504.9
543.952	522.98
544.316	537.44
544.681	521.17
545.045	524.34
545.41	528.63
545.774	533.6
546.138	506.26
546.503	505.13
546.867	516.43
547.231	521.62
547.595	491.12
547.959	533.38
548.324	531.12
548.688	522.3
549.052	540.38
549.416	511.91
549.779	536.99
550.143	527.5
550.507	513.72
550.871	520.72
551.235	522.98
551.599	524.11
551.962	534.73
552.326	517.11
552.689	529.99
553.053	535.86
553.417	529.31
553.78	526.14
554.143	543.09
554.507	527.73
554.87	544.45
555.234	541.29
555.597	532.25
555.96	531.57
556.323	538.12
556.686	532.25
557.05	552.36
557.413	522.53
557.776	535.64
558.139	534.28
558.502	549.42
558.865	536.31
559.228	537.67
559.59	557.56
559.953	534.05
560.316	536.77
560.679	546.71
561.041	565.01
561.404	553.49
561.767	566.37
562.129	553.94
562.492	538.35
562.854	537.44
563.217	558.46
563.579	547.61
563.941	546.48
564.304	565.69
564.666	576.09
565.028	587.84
565.39	570.44
565.753	565.92
566.115	564.79
566.477	555.07
566.839	581.28
567.201	570.89
567.563	574.28
567.925	587.84
568.287	568.4
568.648	553.49
569.01	556.43
569.372	578.8
569.734	570.89
570.095	561.4
570.457	551.45
570.819	570.21
571.18	577.44
571.542	562.3
571.903	554.39
572.265	554.84
572.626	594.17
572.987	582.19
573.349	576.76
573.71	554.62
574.071	584.22
574.432	566.6
574.794	576.99
575.155	569.99
575.516	598.01
575.877	598.91
576.238	595.3
576.599	585.13
576.96	575.41
577.32	567.05
577.681	596.2
578.042	579.7
578.403	601.17
578.763	585.35
579.124	593.94
579.485	571.11
579.845	601.85
580.206	573.83
580.566	558.69
580.927	577.22
581.287	575.86
581.648	589.42
582.008	579.48
582.368	576.76
582.728	555.07
583.089	573.6
583.449	577.67
583.809	588.06
584.169	583.77
584.529	598.46
584.889	602.75
585.249	587.16
585.609	545.58
585.969	593.49
586.329	581.28
586.688	587.39
587.048	566.37
587.408	600.27
587.768	585.35
588.127	581.28
588.487	572.7
588.846	564.11
589.206	567.73
589.565	562.08
589.925	601.4
590.284	570.66
590.643	552.58
591.003	591
591.362	575.18
591.721	577.44
592.08	575.41
592.44	562.08
592.799	594.39
593.158	561.85
593.517	578.8
593.876	567.27
594.235	565.69
594.593	567.73
594.952	568.86
595.311	556.2
595.67	560.49
596.029	565.69
596.387	562.53
596.746	565.24
597.104	599.59
597.463	581.28
597.822	579.48
598.18	559.14
598.538	596.88
598.897	592.36
599.255	575.18
599.613	576.09
599.972	566.82
600.33	554.84
600.688	540.16
601.046	562.08
601.404	553.94
601.762	562.08
602.12	553.26
602.478	545.58
602.836	574.05
603.194	549.87
603.552	574.28
603.91	566.14
604.268	575.63
604.625	583.09
604.983	586.48
605.341	559.59
605.698	577.67
606.056	564.56
606.413	539.7
606.771	541.96
607.128	560.04
607.485	555.3
607.843	556.43
608.2	565.69
608.557	540.61
608.914	552.81
609.272	536.77
609.629	543.77
609.986	542.87
610.343	562.75
610.7	530.66
611.057	575.86
611.414	556.43
611.771	522.98
612.127	555.75
612.484	546.48
612.841	535.41
613.198	541.51
613.554	555.75
613.911	557.33
614.267	527.73
614.624	549.42
614.98	538.12
615.337	542.42
615.693	563.88
616.05	540.61
616.406	523.43
616.762	532.25
617.118	541.29
617.475	533.6
617.831	529.53
618.187	521.62
618.543	520.95
618.899	532.25
619.255	512.36
619.611	539.93
619.967	541.51
620.323	542.64
620.678	517.56
621.034	524.34
621.39	512.13
621.746	527.95
622.101	519.36
622.457	525.01
622.812	512.59
623.168	509.42
623.523	516.88
623.879	504.45
624.234	503.32
624.589	491.12
624.945	498.57
625.3	520.27
625.655	502.87
626.01	505.35
626.365	495.64
626.72	512.36
627.075	516.2
627.43	508.29
627.785	510.78
628.14	494.28
628.495	496.77
628.85	501.96
629.205	505.35
629.559	507.39
629.914	487.05
630.269	495.86
630.623	498.8
630.978	502.42
631.332	494.73
631.687	489.31
632.041	472.81
632.396	485.24
632.75	484.34
633.104	504.9
633.459	498.35
633.813	488.86
634.167	480.04
634.521	482.08
634.875	501.96
635.229	484.79
635.583	474.17
635.937	467.39
636.291	495.86
636.645	473.72
636.999	461.97
637.352	472.81
637.706	452.7
638.06	461.29
638.413	482.53
638.767	449.54
639.121	470.55
639.474	494.28
639.828	440.72
640.181	481.17
640.534	457.67
640.888	457.22
641.241	457.22
641.594	465.35
641.947	441.4
642.301	469.87
642.654	455.41
643.007	467.39
643.36	445.24
643.713	438.92
644.066	447.05
644.419	442.3
644.771	462.64
645.124	448.18
645.477	442.08
645.83	444.34
646.182	453.38
646.535	434.62
646.888	457.45
647.24	443.21
647.593	438.92
647.945	440.27
648.298	438.69
648.65	436.66
649.002	422.42
649.355	431.01
649.707	419.25
650.059	432.81
650.411	438.24
650.763	409.09
651.115	441.17
651.467	434.4
651.819	436.43
652.171	438.92
652.523	413.6
652.875	455.64
653.227	426.26
653.578	427.16
653.93	431.68
654.282	429.42
654.633	427.39
654.985	420.84
655.337	404.57
655.688	413.38
656.039	413.38
656.391	410.67
656.742	417.22
657.094	412.02
657.445	398.69
657.796	437.79
658.147	404.79
658.498	417.22
658.849	390.55
659.2	430.33
659.551	400.5
659.902	400.72
660.253	412.48
660.604	419.03
660.955	398.01
661.306	404.79
661.656	411.57
662.007	400.27
662.358	416.77
662.708	393.94
663.059	407.96
663.409	412.93
663.76	399.14
664.11	395.98
664.461	422.64
664.811	405.7
665.161	405.92
665.511	395.53
665.862	407.5
666.212	393.04
666.562	400.5
666.912	411.35
667.262	383.1
667.612	401.4
667.962	399.14
668.312	399.37
668.662	405.24
669.011	399.82
669.361	395.98
669.711	386.26
670.06	400.95
670.41	396.2
670.76	399.37
671.109	391.91
671.459	379.71
671.808	404.11
672.157	372.02
672.507	404.57
672.856	384.91
673.205	379.03
673.554	383.55
673.904	388.29
674.253	394.85
674.602	399.14
674.951	395.3
675.3	377.22
675.649	384.91
675.998	388.52
676.346	392.36
676.695	392.36
677.044	373.38
677.393	372.7
677.741	378.8
678.09	370.22
678.438	369.09
678.787	386.26
679.135	406.37
679.484	373.38
679.832	363.21
680.181	375.41
680.529	388.29
680.877	380.61
681.225	388.29
681.573	393.72
681.922	363.66
682.27	366.15
682.618	373.83
682.966	369.09
683.314	366.15
683.661	368.18
684.009	363.44
684.357	375.64
684.705	382.87
685.053	371.12
685.4	379.03
685.748	379.48
686.095	380.39
686.443	369.76
686.79	357.79
687.138	354.4
687.485	366.83
687.832	353.95
688.18	357.34
688.527	372.93
688.874	336.77
689.221	359.6
689.568	366.6
689.915	362.76
690.262	382.65
690.609	379.03
690.956	361.85
691.303	367.5
691.65	352.59
691.997	369.09
692.344	379.71
692.69	378.13
693.037	374.28
693.383	360.27
693.73	364.79
694.077	360.27
694.423	362.76
694.769	356.21
695.116	368.41
695.462	347.62
695.808	363.44
696.155	327.28
696.501	355.98
696.847	327.96
697.193	357.79
697.539	350.78
697.885	371.8
698.231	349.43
698.577	369.09
698.923	356.66
699.269	372.48
699.614	353.27
699.96	346.04
700.306	341.29
700.651	358.47
700.997	361.4
701.342	371.12
701.688	351.46
702.033	353.04
702.379	341.06
702.724	358.24
703.069	371.12
703.415	356.88
703.76	356.43
704.105	358.01
704.45	367.96
704.795	343.1
705.14	352.59
705.485	337.9
705.83	363.44
706.175	345.81
706.52	340.39
706.865	345.58
707.209	336.54
707.554	348.52
707.899	338.8
708.243	348.97
708.588	346.94
708.932	356.43
709.277	342.65
709.621	350.33
709.966	339.48
710.31	356.88
710.654	352.36
710.998	333.83
711.342	342.42
711.687	322.99
712.031	346.26
712.375	346.26
712.719	358.24
713.063	339.48
713.407	345.13
713.75	343.32
714.094	362.98
714.438	330.9
714.782	344.91
715.125	348.3
715.469	336.09
715.812	353.04
716.156	342.19
716.499	336.09
716.843	346.94
717.186	334.96
717.53	327.28
717.873	337.22
718.216	311.01
718.559	328.18
718.902	355.08
719.246	336.09
719.589	340.39
719.932	345.36
720.275	332.48
720.617	344.23
720.96	353.95
721.303	349.2
721.646	313.95
721.989	335.41
722.331	346.71
722.674	344.45
723.016	354.85
723.359	329.77
723.701	339.48
724.044	337
724.386	336.77
724.729	325.7
725.071	329.54
725.413	357.11
725.755	340.61
726.097	313.04
726.439	352.14
726.782	333.61
727.124	364.57
727.465	339.48
727.807	341.52
728.149	329.99
728.491	346.94
728.833	350.56
729.175	334.28
729.516	306.72
729.858	331.8
730.199	352.14
730.541	330.67
730.882	343.55
731.224	322.99
731.565	339.48
731.906	339.93
732.248	358.47
732.589	320.95
732.93	332.48
733.271	316.66
733.612	344.91
733.953	316.21
734.294	325.92
734.635	320.73
734.976	336.09
735.317	330.44
735.658	328.64
735.999	344.91
736.339	341.97
736.68	336.77
737.021	333.83
737.361	348.52
737.702	340.39
738.042	324.34
738.383	340.16
738.723	343.55
739.063	320.95
739.404	340.61
739.744	355.75
740.084	344.23
740.424	321.4
740.764	336.32
741.104	350.56
741.444	341.06
741.784	358.01
742.124	340.39
742.464	325.7
742.804	340.61
743.143	341.29
743.483	327.73
743.823	353.49
744.162	341.97
744.502	337.67
744.841	346.71
745.181	329.31
745.52	341.06
745.86	320.95
746.199	337.9
746.538	335.41
746.877	346.94
747.216	328.41
747.556	331.8
747.895	322.31
748.234	320.73
748.573	339.26
748.911	337.22
749.25	340.16
749.589	351.69
749.928	335.64
750.267	349.88
750.605	322.08
750.944	342.65
751.283	329.09
751.621	313.27
751.96	324.34
752.298	331.12
752.636	346.04
752.975	347.62
753.313	335.19
753.651	354.17
753.989	342.19
754.327	319.14
754.666	326.6
755.004	348.3
755.342	311.01
755.679	317.11
756.017	335.87
756.355	327.51
756.693	330.22
757.031	337.22
757.368	303.33
757.706	351.23
758.044	342.19
758.381	331.35
758.719	333.83
759.056	331.8
759.394	337.22
759.731	330.9
760.068	318.24
760.405	318.24
760.743	329.77
761.08	328.86
761.417	325.25
761.754	334.96
762.091	336.09
762.428	337.22
762.765	317.11
763.102	312.14
763.438	329.99
763.775	335.41
764.112	327.51
764.449	316.66
764.785	343.55
765.122	326.38
765.458	337
765.795	329.77
766.131	332.7
766.467	325.7
766.804	327.96
767.14	333.61
767.476	322.08
767.812	337
768.148	310.56
768.485	319.6
768.821	323.66
769.157	341.29
769.492	322.08
769.828	328.64
770.164	332.25
770.5	328.41
770.836	323.89
771.171	331.35
771.507	336.09
771.842	325.92
772.178	328.86
772.513	336.77
772.849	339.26
773.184	325.02
773.519	318.92
773.855	346.94
774.19	335.64
774.525	335.19
774.86	337
775.195	348.75
775.53	315.75
775.865	308.75
776.2	346.71
776.535	309.43
776.87	318.24
777.205	310.33
777.539	349.2
777.874	325.7
778.209	313.72
778.543	344.23
778.878	314.85
779.212	327.73
779.547	332.25
779.881	311.01
780.215	348.07
780.55	333.16
780.884	338.13
781.218	316.66
781.552	344.45
781.886	329.31
782.22	342.42
782.554	337
782.888	316.66
783.222	325.92
783.556	326.38
783.889	328.41
784.223	331.12
784.557	331.35
784.89	332.48
785.224	325.02
785.557	337.22
785.891	332.03
786.224	327.05
786.558	317.56
786.891	318.24
787.224	334.96
787.557	323.44
787.891	341.06
788.224	331.12
788.557	327.28
788.89	323.89
789.223	355.75
789.556	341.97
