Data from No_light_on_white_reflection_standard_FLMS001491_059.txt Node
Date: Tue Feb 07 10:33:04 GMT 2017
User: dcchb
Spectrometer: FLMS00149
Trigger mode: 0
Integration Time (sec): 2.000000E-2
Scans to average: 10
Electric dark correction enabled: true
Nonlinearity correction enabled: false
Boxcar width: 0
XAxis mode: Wavelengths
Number of Pixels in Spectrum: 2048
>>>>>Begin Spectral Data<<<<<
341.393	-7.82
341.776	-7.82
342.16	-7.82
342.543	-66.81
342.927	-69.29
343.31	-72.46
343.693	-72.91
344.077	-53.7
344.46	-83.53
344.843	-50.08
345.226	-41.5
345.61	-44.43
345.993	-8.95
346.376	0.08
346.759	9.35
347.142	28.11
347.525	38.95
347.908	70.59
348.291	62.68
348.674	96.81
349.057	120.99
349.44	123.25
349.823	134.32
350.206	141.1
350.588	175
350.971	189.01
351.354	178.16
351.737	221.32
352.119	230.14
352.502	233.3
352.884	230.14
353.267	248.21
353.65	242.11
354.032	271.72
354.414	288.21
354.797	271.49
355.179	282.34
355.562	280.98
355.944	285.95
356.326	273.52
356.709	293.86
357.091	303.13
357.473	310.59
357.855	292.28
358.238	309.46
358.62	299.29
359.002	301.55
359.384	284.15
359.766	300.87
360.148	292.51
360.53	279.63
360.912	297.7
361.294	314.2
361.676	295.9
362.057	299.74
362.439	301.77
362.821	285.73
363.203	288.66
363.584	283.92
363.966	264.71
364.348	280.08
364.729	289.79
365.111	291.15
365.493	286.86
365.874	283.69
366.256	270.81
366.637	297.25
367.019	283.69
367.4	289.34
367.781	266.52
368.163	293.41
368.544	268.33
368.925	265.16
369.306	272.39
369.688	292.28
370.069	284.15
370.45	283.92
370.831	240.98
371.212	265.39
371.593	257.71
371.974	267.65
372.355	263.13
372.736	270.13
373.117	276.01
373.498	267.2
373.879	266.97
374.26	258.16
374.641	284.6
375.021	267.87
375.402	291.83
375.783	288.21
376.163	283.69
376.544	271.26
376.925	291.15
377.305	274.65
377.686	278.04
378.066	276.91
378.447	278.72
378.827	293.86
379.208	266.74
379.588	269
379.968	259.74
380.349	267.87
380.729	260.19
381.109	284.82
381.489	265.39
381.87	290.02
382.25	273.3
382.63	282.11
383.01	288.89
383.39	304.03
383.77	283.02
384.15	276.46
384.53	292.73
384.91	283.92
385.29	290.7
385.67	287.31
386.049	307.2
386.429	293.41
386.809	295.44
387.189	301.32
387.568	277.14
387.948	293.41
388.328	283.47
388.707	286.18
389.087	260.42
389.466	283.92
389.846	287.08
390.225	293.64
390.605	302.45
390.984	290.02
391.363	285.27
391.743	278.27
392.122	279.63
392.501	291.15
392.881	285.95
393.26	285.5
393.639	278.95
394.018	278.27
394.397	285.73
394.776	281.43
395.155	286.86
395.534	280.53
395.913	279.63
396.292	283.92
396.671	306.52
397.05	292.73
397.429	276.01
397.808	289.57
398.186	282.34
398.565	291.6
398.944	283.24
399.323	283.47
399.701	293.41
400.08	273.07
400.458	282.79
400.837	293.18
401.215	287.76
401.594	290.02
401.972	295.44
402.351	316.23
402.729	277.59
403.107	284.82
403.486	282.79
403.864	285.27
404.242	298.16
404.62	295.67
404.999	290.7
405.377	268.78
405.755	277.14
406.133	286.18
406.511	282.34
406.889	286.63
407.267	299.96
407.645	311.04
408.023	288.21
408.401	312.39
408.779	287.53
409.156	286.63
409.534	306.07
409.912	283.69
410.29	288.21
410.667	294.54
411.045	302.45
411.422	291.15
411.8	295.9
412.178	312.17
412.555	288.89
412.933	290.25
413.31	306.74
413.687	317.59
414.065	299.06
414.442	282.34
414.819	285.05
415.197	300.87
415.574	310.13
415.951	287.99
416.328	284.37
416.705	290.25
417.082	297.7
417.46	314.2
417.837	290.02
418.214	296.57
418.591	309.23
418.967	288.44
419.344	287.08
419.721	306.07
420.098	307.2
420.475	288.44
420.852	305.84
421.228	273.98
421.605	294.99
421.982	281.21
422.358	314.65
422.735	293.64
423.111	301.32
423.488	312.62
423.864	321.43
424.241	309.23
424.617	299.74
424.994	310.36
425.37	305.16
425.746	303.58
426.123	308.33
426.499	290.7
426.875	307.65
427.251	313.3
427.627	313.97
428.003	296.8
428.379	299.29
428.756	303.13
429.132	293.41
429.507	312.39
429.883	305.16
430.259	317.82
430.635	312.17
431.011	294.99
431.387	313.75
431.763	329.12
432.138	305.16
432.514	302.45
432.89	322.79
433.265	292.96
433.641	315.78
434.016	314.65
434.392	308.33
434.767	322.56
435.143	320.3
435.518	336.57
435.894	326.4
436.269	316.23
436.644	307.65
437.02	315.33
437.395	308.78
437.77	320.75
438.145	321.88
438.52	327.53
438.895	308.33
439.271	330.92
439.646	344.71
440.021	335.44
440.395	355.78
440.77	321.21
441.145	324.37
441.52	336.12
441.895	329.12
442.27	329.79
442.645	331.6
443.019	351.04
443.394	341.77
443.769	333.18
444.143	322.79
444.518	349.68
444.892	346.06
445.267	354.43
445.641	337.7
446.016	346.52
446.39	344.48
446.764	363.01
447.139	330.02
447.513	332.96
447.887	360.08
448.262	346.06
448.636	362.34
449.01	336.57
449.384	344.48
449.758	378.83
450.132	359.85
450.506	365.05
450.88	358.27
451.254	366.63
451.628	369.34
452.002	361.21
452.376	367.98
452.75	360.3
453.123	358.49
453.497	357.36
453.871	357.14
454.244	363.69
454.618	368.21
454.992	374.09
455.365	385.16
455.739	375.22
456.112	364.37
456.486	345.39
456.859	370.92
457.232	356.01
457.606	359.4
457.979	372.05
458.352	352.17
458.725	370.7
459.099	360.75
459.472	362.79
459.845	365.27
460.218	354.43
460.591	348.78
460.964	361.43
461.337	342.9
461.71	356.69
462.083	348.32
462.456	350.36
462.829	354.2
463.201	358.49
463.574	344.48
463.947	344.93
464.32	320.53
464.692	335.67
465.065	367.98
465.438	366.18
465.81	352.39
466.183	331.83
466.555	334.99
466.928	351.04
467.3	339.28
467.672	346.29
468.045	347.42
468.417	341.54
468.789	352.84
469.161	350.81
469.534	353.07
469.906	335.9
470.278	359.62
470.65	330.02
471.022	343.13
471.394	338.61
471.766	366.85
472.138	366.18
472.51	332.96
472.882	363.01
473.253	332.51
473.625	351.94
473.997	336.12
474.369	351.49
474.74	352.84
475.112	350.58
475.484	355.78
475.855	360.98
476.227	357.36
476.598	357.82
476.97	350.81
477.341	362.56
477.713	351.71
478.084	357.14
478.455	358.04
478.827	336.57
479.198	338.83
479.569	353.07
479.94	362.11
480.311	330.7
480.682	342.67
481.053	334.09
481.424	343.13
481.795	344.26
482.166	362.56
482.537	350.58
482.908	360.08
483.279	350.13
483.65	354.88
484.021	360.08
484.391	384.93
484.762	356.69
485.133	375.22
485.503	368.44
485.874	368.44
486.244	372.28
486.615	365.95
486.985	366.63
487.356	350.81
487.726	353.3
488.097	380.64
488.467	380.87
488.837	360.08
489.207	346.52
489.578	360.75
489.948	363.01
490.318	363.69
490.688	365.27
491.058	389
491.428	369.79
491.798	372.5
492.168	378.15
492.538	351.49
492.908	373.63
493.278	370.7
493.648	391.94
494.017	393.52
494.387	373.86
494.757	391.49
495.126	376.35
495.496	378.83
495.866	393.97
496.235	385.39
496.605	377.93
496.974	385.84
497.344	374.31
497.713	391.03
498.082	390.13
498.452	389.91
498.821	398.04
499.19	391.49
499.559	396.01
499.928	393.97
500.298	382.67
500.667	397.36
501.036	382.9
501.405	382.45
501.774	398.27
502.143	403.92
502.512	385.39
502.88	424.71
503.249	401.2
503.618	393.52
503.987	408.21
504.356	398.94
504.724	412.05
505.093	427.87
505.462	404.59
505.83	427.87
506.199	411.37
506.567	425.84
506.936	425.38
507.304	406.18
507.672	385.16
508.041	434.65
508.409	414.54
508.777	444.14
509.145	439.4
509.514	436.68
509.882	416.57
510.25	428.55
510.618	414.09
510.986	433.07
511.354	421.99
511.722	449.56
512.09	421.32
512.458	413.86
512.826	446.4
513.193	421.77
513.561	450.24
513.929	442.33
514.297	451.15
514.664	440.98
515.032	453.86
515.4	432.62
515.767	450.92
516.135	446.17
516.502	450.69
516.869	445.27
517.237	466.97
517.604	456.34
517.972	466.29
518.339	443.69
518.706	444.14
519.073	427.64
519.44	431.71
519.808	454.31
520.175	454.54
520.542	476.23
520.909	464.03
521.276	459.06
521.643	466.06
522.009	450.02
522.376	449.56
522.743	476
523.11	465.16
523.477	460.86
523.843	446.4
524.21	487.53
524.577	491.6
524.943	466.51
525.31	472.61
525.676	497.25
526.043	484.59
526.409	482.33
526.776	471.26
527.142	481.88
527.508	460.19
527.874	507.64
528.241	466.97
528.607	481.88
528.973	472.39
529.339	467.64
529.705	500.86
530.071	480.3
530.437	485.72
530.803	488.89
531.169	483.24
531.535	487.53
531.901	491.82
532.267	501.31
532.632	496.57
532.998	498.6
533.364	498.83
533.73	494.99
534.095	507.42
534.461	497.25
534.826	504.93
535.192	481.65
535.557	509.22
535.923	495.44
536.288	489.34
536.653	520.98
537.019	493.41
537.384	494.08
537.749	523.69
538.114	502.22
538.479	516.91
538.845	496.79
539.21	507.64
539.575	516.46
539.94	504.93
540.305	514.65
540.67	515.1
541.034	516
541.399	513.52
541.764	512.16
542.129	494.54
542.494	532.05
542.858	491.15
543.223	506.06
543.587	520.75
543.952	501.54
544.316	514.65
544.681	526.85
545.045	530.24
545.41	525.27
545.774	536.79
546.138	522.56
546.503	498.6
546.867	520.75
547.231	507.87
547.595	508.77
547.959	520.07
548.324	518.94
548.688	504.7
549.052	533.4
549.416	522.56
549.779	512.16
550.143	509
550.507	534.08
550.871	513.52
551.235	533.4
551.599	514.2
551.962	515.1
552.326	532.73
552.689	527.53
553.053	530.69
553.417	526.17
553.78	529.11
554.143	540.41
554.507	538.15
554.87	531.6
555.234	523.91
555.597	537.02
555.96	539.28
556.323	520.3
556.686	525.95
557.05	540.64
557.413	552.16
557.776	537.02
558.139	547.19
558.502	534.76
558.865	539.51
559.228	534.99
559.59	533.63
559.953	548.77
560.316	547.41
560.679	552.84
561.041	560.97
561.404	542.9
561.767	564.59
562.129	558.71
562.492	550.13
562.854	546.96
563.217	570.01
563.579	527.98
563.941	547.19
564.304	558.49
564.666	560.52
565.028	561.2
565.39	560.52
565.753	549.22
566.115	568.21
566.477	549.67
566.839	587.19
567.201	581.99
567.563	553.74
567.925	581.31
568.287	587.19
568.648	570.01
569.01	558.04
569.372	570.69
569.734	604.14
570.095	584.7
570.457	569.34
570.819	572.95
571.18	584.25
571.542	579.28
571.903	566.85
572.265	587.19
572.626	579.73
572.987	608.2
573.349	589.45
573.71	561.2
574.071	560.97
574.432	583.8
574.794	585.15
575.155	579.05
575.516	580.18
575.877	592.84
576.238	584.02
576.599	591.03
576.96	597.58
577.32	579.96
577.681	582.67
578.042	616.79
578.403	568.43
578.763	591.03
579.124	596.91
579.485	588.77
579.845	579.96
580.206	597.13
580.566	586.96
580.927	574.53
581.287	589.67
581.648	583.35
582.008	598.04
582.368	620.63
582.728	598.26
583.089	573.85
583.449	581.99
583.809	601.42
584.169	591.93
584.529	585.15
584.889	594.87
585.249	573.4
585.609	580.86
585.969	591.71
586.329	597.13
586.688	580.41
587.048	582.44
587.408	617.7
587.768	586.28
588.127	603.46
588.487	582.89
588.846	571.14
589.206	589.9
589.565	585.61
589.925	583.35
590.284	569.11
590.643	564.82
591.003	570.01
591.362	589.9
591.721	563.91
592.08	545.38
592.44	578.37
592.799	563.23
593.158	578.83
593.517	588.09
593.876	576.11
594.235	542.9
594.593	568.43
594.952	570.01
595.311	568.21
595.67	572.05
596.029	568.66
596.387	554.87
596.746	578.6
597.104	557.13
597.463	582.44
597.822	554.42
598.18	574.31
598.538	580.18
598.897	574.08
599.255	569.34
599.613	586.51
599.972	581.31
600.33	574.98
600.688	571.82
601.046	581.99
601.404	576.34
601.762	577.7
602.12	578.6
602.478	571.82
602.836	570.01
603.194	578.83
603.552	559.84
603.91	558.94
604.268	577.24
604.625	574.08
604.983	570.92
605.341	558.94
605.698	551.03
606.056	547.64
606.413	586.96
606.771	542.44
607.128	562.56
607.485	569.34
607.843	558.04
608.2	552.39
608.557	547.87
608.914	551.03
609.272	571.6
609.629	561.2
609.986	554.19
610.343	530.92
610.7	553.52
611.057	541.99
611.414	550.13
611.771	561.43
612.127	571.37
612.484	559.62
612.841	544.25
613.198	541.99
613.554	541.31
613.911	567.75
614.267	552.61
614.624	556.68
614.98	525.04
615.337	548.09
615.693	534.31
616.05	556.91
616.406	538.38
616.762	543.35
617.118	523.46
617.475	533.4
617.831	545.38
618.187	522.33
618.543	525.04
618.899	529.11
619.255	542.44
619.611	545.61
619.967	555.32
620.323	529.11
620.678	523.23
621.034	531.37
621.39	526.62
621.746	490.24
622.101	517.59
622.457	494.31
622.812	535.66
623.168	520.52
623.523	541.99
623.879	528.43
624.234	525.27
624.589	506.51
624.945	513.29
625.3	531.82
625.655	496.34
626.01	503.57
626.365	513.07
626.72	510.13
627.075	491.82
627.43	513.52
627.785	503.35
628.14	532.05
628.495	499.05
628.85	490.24
629.205	515.33
629.559	526.4
629.914	497.7
630.269	506.29
630.623	486.4
630.978	482.78
631.332	502.67
631.687	495.66
632.041	510.81
632.396	508.09
632.75	488.21
633.104	504.03
633.459	496.34
633.813	486.85
634.167	487.76
634.521	467.87
634.875	477.13
635.229	482.11
635.583	484.82
635.937	481.2
636.291	463.58
636.645	454.99
636.999	458.15
637.352	479.62
637.706	481.88
638.06	445.5
638.413	469.68
638.767	450.47
639.121	471.26
639.474	473.74
639.828	457.25
640.181	485.27
640.534	450.24
640.888	482.11
641.241	458.6
641.594	455.89
641.947	464.48
642.301	453.18
642.654	451.6
643.007	441.66
643.36	433.07
643.713	473.07
644.066	442.78
644.419	447.76
644.771	446.85
645.124	440.3
645.477	461.54
645.83	439.17
646.182	445.5
646.535	446.17
646.888	421.09
647.24	429.23
647.593	431.49
647.945	452.28
648.298	457.25
648.65	436.46
649.002	435.55
649.355	441.2
649.707	439.62
650.059	438.27
650.411	436.23
650.763	442.56
651.115	443.91
651.467	410.92
651.819	424.93
652.171	440.3
652.523	425.61
652.875	422.67
653.227	427.64
653.578	401.2
653.93	422.22
654.282	403.92
654.633	412.96
654.985	430.13
655.337	422.22
655.688	418.83
656.039	430.58
656.391	427.42
656.742	440.53
657.094	407.31
657.445	416.12
657.796	404.82
658.147	418.83
658.498	410.92
658.849	428.55
659.2	411.6
659.551	416.57
659.902	392.62
660.253	418.15
660.604	404.37
660.955	411.15
661.306	413.86
661.656	399.4
662.007	411.37
662.358	399.4
662.708	405.95
663.059	393.29
663.409	402.11
663.76	403.01
664.11	387.42
664.461	414.76
664.811	401.88
665.161	392.16
665.511	384.93
665.862	392.84
666.212	379.28
666.562	429.45
666.912	388.1
667.262	369.34
667.612	391.94
667.962	384.26
668.312	387.65
668.662	394.42
669.011	401.43
669.361	393.52
669.711	417.7
670.06	395.78
670.41	384.71
670.76	380.41
671.109	399.85
671.459	374.76
671.808	362.79
672.157	382.67
672.507	382.45
672.856	390.13
673.205	378.61
673.554	370.47
673.904	382
674.253	392.84
674.602	363.92
674.951	371.37
675.3	382.67
675.649	379.74
675.998	375.67
676.346	382
676.695	403.92
677.044	387.65
677.393	391.03
677.741	359.85
678.09	378.83
678.438	377.93
678.787	356.91
679.135	388.1
679.484	365.95
679.832	365.05
680.181	361.88
680.529	388.32
680.877	377.25
681.225	380.19
681.573	376.35
681.922	381.54
682.27	371.15
682.618	360.75
682.966	366.18
683.314	368.66
683.661	362.56
684.009	372.5
684.357	364.82
684.705	352.17
685.053	384.48
685.4	352.17
685.748	369.34
686.095	367.31
686.443	385.61
686.79	358.04
687.138	355.78
687.485	347.87
687.832	352.84
688.18	363.92
688.527	360.08
688.874	359.85
689.221	358.49
689.568	359.4
689.915	359.17
690.262	377.02
690.609	355.56
690.956	354.43
691.303	356.01
691.65	346.97
691.997	349.91
692.344	351.04
692.69	361.66
693.037	337.48
693.383	355.1
693.73	347.42
694.077	352.84
694.423	336.57
694.769	353.52
695.116	355.78
695.462	340.87
695.808	346.97
696.155	359.62
696.501	354.88
696.847	352.39
697.193	354.43
697.539	350.81
697.885	351.94
698.231	355.33
698.577	356.69
698.923	347.19
699.269	346.52
699.614	366.4
699.96	334.77
700.306	323.69
700.651	330.92
700.997	342
701.342	354.43
701.688	358.27
702.033	362.34
702.379	334.99
702.724	323.24
703.069	359.4
703.415	361.66
703.76	352.62
704.105	350.13
704.45	357.36
704.795	330.02
705.14	345.16
705.485	351.94
705.83	337.93
706.175	353.75
706.52	334.09
706.865	357.14
707.209	346.74
707.554	359.85
707.899	358.04
708.243	333.18
708.588	338.38
708.932	348.78
709.277	348.55
709.621	327.08
709.966	351.94
710.31	337.7
710.654	356.23
710.998	341.54
711.342	349.23
711.687	331.83
712.031	345.84
712.375	330.7
712.719	321.21
713.063	334.31
713.407	342.22
713.75	313.07
714.094	349.45
714.438	340.87
714.782	340.87
715.125	349.68
715.469	315.78
715.812	314.88
716.156	337.7
716.499	347.19
716.843	335.67
717.186	316.23
717.53	315.78
717.873	349.23
718.216	338.61
718.559	328.89
718.902	346.29
719.246	337.93
719.589	328.21
719.932	329.79
720.275	334.99
720.617	310.13
720.96	321.88
721.303	338.38
721.646	339.51
721.989	322.56
722.331	330.92
722.674	340.41
723.016	346.29
723.359	337.25
723.701	330.92
724.044	337.25
724.386	327.99
724.729	326.86
725.071	321.43
725.413	328.89
725.755	325.5
726.097	331.15
726.439	342.22
726.782	330.02
727.124	327.76
727.465	338.15
727.807	323.69
728.149	323.47
728.491	312.39
728.833	318.27
729.175	335.67
729.516	333.18
729.858	344.48
730.199	315.78
730.541	342.22
730.882	316.23
731.224	310.81
731.565	330.7
731.906	330.02
732.248	343.35
732.589	317.14
732.93	329.79
733.271	324.82
733.612	330.02
733.953	349
734.294	343.35
734.635	334.54
734.976	332.96
735.317	335.67
735.658	325.5
735.999	330.7
736.339	332.51
736.68	325.73
737.021	335.22
737.361	322.11
737.702	330.25
738.042	328.44
738.383	320.08
738.723	340.64
739.063	327.31
739.404	327.31
739.744	350.13
740.084	322.11
740.424	311.04
740.764	351.49
741.104	337.25
741.444	334.99
741.784	300.42
742.124	333.41
742.464	313.75
742.804	316.69
743.143	323.47
743.483	338.38
743.823	344.26
744.162	325.5
744.502	335.22
744.841	316.23
745.181	331.15
745.52	337.48
745.86	334.99
746.199	334.77
746.538	338.61
746.877	329.34
747.216	303.58
747.556	332.28
747.895	348.32
748.234	350.13
748.573	329.57
748.911	332.51
749.25	336.12
749.589	319.62
749.928	328.89
750.267	333.41
750.605	330.7
750.944	330.47
751.283	336.12
751.621	317.36
751.96	319.85
752.298	324.82
752.636	332.73
752.975	333.86
753.313	337.7
753.651	339.74
753.989	333.18
754.327	314.65
754.666	322.56
755.004	311.26
755.342	337.48
755.679	338.38
756.017	317.59
756.355	333.86
756.693	323.01
757.031	330.7
757.368	330.7
757.706	339.28
758.044	339.06
758.381	339.96
758.719	326.63
759.056	325.95
759.394	318.27
759.731	313.07
760.068	332.51
760.405	325.73
760.743	320.08
761.08	326.86
761.417	341.77
761.754	326.18
762.091	302.68
762.428	305.61
762.765	326.4
763.102	299.51
763.438	322.11
763.775	327.99
764.112	323.01
764.449	333.41
764.785	315.78
765.122	312.17
765.458	329.57
765.795	324.6
766.131	310.36
766.467	327.99
766.804	313.52
767.14	327.53
767.476	330.92
767.812	332.73
768.148	324.6
768.485	330.92
768.821	320.08
769.157	318.72
769.492	320.53
769.828	345.61
770.164	322.79
770.5	344.26
770.836	310.59
771.171	316.01
771.507	340.64
771.842	324.82
772.178	326.63
772.513	321.66
772.849	330.02
773.184	322.34
773.519	333.41
773.855	318.27
774.19	326.86
774.525	334.31
774.86	332.28
775.195	330.02
775.53	312.39
775.865	329.34
776.2	338.38
776.535	334.31
776.87	325.73
777.205	317.82
777.539	330.7
777.874	320.08
778.209	310.13
778.543	351.04
778.878	322.56
779.212	303.35
779.547	313.75
779.881	328.44
780.215	320.98
780.55	306.52
780.884	322.11
781.218	317.59
781.552	342.45
781.886	313.52
782.22	326.18
782.554	293.18
782.888	316.46
783.222	321.88
783.556	352.17
783.889	353.07
784.223	325.73
784.557	319.17
784.89	318.04
785.224	309.68
785.557	325.27
785.891	330.7
786.224	331.38
786.558	332.05
786.891	342.67
787.224	307.2
787.557	317.59
787.891	315.33
788.224	326.63
788.557	333.18
788.89	309.68
789.223	301.32
