Data from No_light_on_white_reflection_standard_FLMS001491_038.txt Node
Date: Tue Feb 07 10:32:59 GMT 2017
User: dcchb
Spectrometer: FLMS00149
Trigger mode: 0
Integration Time (sec): 2.000000E-2
Scans to average: 10
Electric dark correction enabled: true
Nonlinearity correction enabled: false
Boxcar width: 0
XAxis mode: Wavelengths
Number of Pixels in Spectrum: 2048
>>>>>Begin Spectral Data<<<<<
341.393	2.09
341.776	2.09
342.16	2.09
342.543	-69.55
342.927	-79.49
343.31	-66.83
343.693	-70.9
344.077	-60.73
344.46	-75.2
344.843	-76.33
345.226	-79.72
345.61	-18.25
345.993	-1.75
346.376	3.45
346.759	0.06
347.142	34.63
347.525	58.81
347.908	46.38
348.291	90.9
348.674	104.91
349.057	110.56
349.44	141.52
349.823	141.07
350.206	156.66
350.588	154.4
350.971	171.13
351.354	183.1
351.737	203.67
352.119	203.44
352.502	235.76
352.884	252.48
353.267	236.89
353.65	250.45
354.032	261.29
354.414	259.48
354.797	277.11
355.179	318.47
355.562	266.49
355.944	290.9
356.326	280.05
356.709	298.13
357.091	326.83
357.473	286.6
357.855	306.04
358.238	304.23
358.62	310.1
359.002	315.3
359.384	305.36
359.766	307.17
360.148	303.33
360.53	287.73
360.912	310.78
361.294	298.35
361.676	291.12
362.057	306.72
362.439	299.48
362.821	280.28
363.203	302.42
363.584	283.21
363.966	287.73
364.348	305.36
364.729	282.08
365.111	287.96
365.493	278.69
365.874	289.09
366.256	281.41
366.637	292.93
367.019	266.26
367.4	276.43
367.781	273.72
368.163	296.77
368.544	281.41
368.925	277.11
369.306	301.52
369.688	269.88
370.069	250.22
370.45	270.78
370.831	266.49
371.212	253.61
371.593	273.27
371.974	267.17
372.355	274.63
372.736	259.26
373.117	280.5
373.498	284.57
373.879	282.08
374.26	271.91
374.641	275.98
375.021	270.11
375.402	274.63
375.783	259.48
376.163	277.34
376.544	261.52
376.925	285.25
377.305	253.84
377.686	284.57
378.066	275.53
378.447	287.28
378.827	302.42
379.208	287.73
379.588	289.09
379.968	286.83
380.349	294.06
380.729	268.75
381.109	285.25
381.489	282.76
381.87	282.08
382.25	284.12
382.63	255.42
383.01	288.86
383.39	286.83
383.77	287.51
384.15	279.15
384.53	294.29
384.91	292.48
385.29	299.71
385.67	281.18
386.049	278.92
386.429	284.12
386.809	288.41
387.189	267.39
387.568	288.41
387.948	297.9
388.328	288.18
388.707	280.28
389.087	295.19
389.466	287.28
389.846	286.15
390.225	278.24
390.605	294.06
390.984	288.18
391.363	288.41
391.743	301.97
392.122	296.09
392.501	299.03
392.881	308.07
393.26	294.74
393.639	285.47
394.018	272.14
394.397	284.79
394.776	269.65
395.155	297.45
395.534	272.82
395.913	301.74
396.292	285.25
396.671	300.61
397.05	283.44
397.429	285.7
397.808	297.9
398.186	304.23
398.565	299.48
398.944	296.09
399.323	281.41
399.701	293.16
400.08	298.58
400.458	309.88
400.837	279.6
401.215	290.44
401.594	294.74
401.972	266.26
402.351	280.5
402.729	295.64
403.107	297.45
403.486	292.03
403.864	312.59
404.242	284.34
404.62	292.03
404.999	296.77
405.377	285.02
405.755	312.36
406.133	307.39
406.511	287.05
406.889	302.2
407.267	315.98
407.645	308.97
408.023	290.67
408.401	308.97
408.779	308.75
409.156	285.25
409.534	288.86
409.912	291.35
410.29	313.95
410.667	305.59
411.045	291.12
411.422	305.13
411.8	321.63
412.178	304
412.555	320.05
412.933	323.21
413.31	310.56
413.687	290.44
414.065	306.94
414.442	299.03
414.819	300.39
415.197	310.78
415.574	306.49
415.951	313.49
416.328	307.62
416.705	313.04
417.082	298.13
417.46	300.16
417.837	305.81
418.214	295.42
418.591	314.85
418.967	297.9
419.344	291.35
419.721	289.09
420.098	318.47
420.475	303.55
420.852	321.86
421.228	308.52
421.605	316.21
421.982	297.22
422.358	315.53
422.735	306.72
423.111	308.3
423.488	323.44
423.864	317.56
424.241	297.9
424.617	316.88
424.994	322.99
425.37	324.12
425.746	319.37
426.123	309.65
426.499	327.73
426.875	308.07
427.251	332.48
427.627	310.1
428.003	310.1
428.379	299.94
428.756	319.14
429.132	299.03
429.507	325.47
429.883	298.81
430.259	320.27
430.635	314.4
431.011	315.08
431.387	318.47
431.763	322.08
432.138	319.6
432.514	311.46
432.89	315.75
433.265	306.04
433.641	314.17
434.016	309.88
434.392	313.49
434.767	316.88
435.143	320.05
435.518	321.18
435.894	310.1
436.269	330.22
436.644	315.53
437.02	320.05
437.395	329.31
437.77	327.51
438.145	332.7
438.52	323.66
438.895	331.12
439.271	329.99
439.646	340.39
440.021	329.09
440.395	342.65
440.77	332.48
441.145	341.29
441.52	321.86
441.895	331.35
442.27	352.14
442.645	338.8
443.019	346.71
443.394	354.17
443.769	347.62
444.143	335.87
444.518	354.17
444.892	339.26
445.267	363.44
445.641	341.29
446.016	349.2
446.39	359.82
446.764	332.03
447.139	353.95
447.513	363.89
447.887	339.93
448.262	356.43
448.636	361.63
449.01	343.32
449.384	344
449.758	360.27
450.132	343.78
450.506	391.91
450.88	370.89
451.254	359.82
451.628	356.43
452.002	361.4
452.376	372.48
452.75	352.59
453.123	356.88
453.497	368.86
453.871	380.84
454.244	372.93
454.618	374.74
454.992	356.88
455.365	383.55
455.739	359.82
456.112	373.15
456.486	374.06
456.859	375.19
457.232	362.76
457.606	364.57
457.979	350.33
458.352	356.21
458.725	335.87
459.099	348.75
459.472	357.79
459.845	374.51
460.218	354.4
460.591	352.14
460.964	376.32
461.337	357.56
461.71	346.26
462.083	357.79
462.456	360.95
462.829	355.3
463.201	355.3
463.574	359.14
463.947	342.19
464.32	357.56
464.692	346.26
465.065	351.69
465.438	351.69
465.81	359.82
466.183	355.3
466.555	360.95
466.928	358.24
467.3	360.95
467.672	338.8
468.045	371.8
468.417	351.01
468.789	350.56
469.161	358.01
469.534	337.22
469.906	353.04
470.278	358.92
470.65	334.74
471.022	337.22
471.394	344.68
471.766	361.63
472.138	324.57
472.51	353.04
472.882	363.66
473.253	341.29
473.625	343.1
473.997	366.15
474.369	349.88
474.74	355.53
475.112	368.18
475.484	352.36
475.855	347.62
476.227	336.32
476.598	352.59
476.97	341.29
477.341	340.16
477.713	371.35
478.084	335.64
478.455	348.97
478.827	346.94
479.198	348.52
479.569	347.84
479.94	351.46
480.311	352.59
480.682	332.93
481.053	322.99
481.424	368.86
481.795	362.08
482.166	373.15
482.537	358.01
482.908	360.05
483.279	346.49
483.65	348.3
484.021	352.36
484.391	369.09
484.762	359.6
485.133	330.44
485.503	357.79
485.874	363.66
486.244	346.94
486.615	353.27
486.985	360.27
487.356	350.1
487.726	365.02
488.097	359.82
488.467	362.98
488.837	363.89
489.207	357.11
489.578	379.71
489.948	369.54
490.318	362.08
490.688	355.3
491.058	369.09
491.428	385.58
491.798	387.62
492.168	373.38
492.538	366.15
492.908	395.53
493.278	387.62
493.648	387.84
494.017	382.42
494.387	380.84
494.757	367.05
495.126	378.58
495.496	380.61
495.866	385.13
496.235	365.24
496.605	401.63
496.974	387.62
497.344	367.5
497.713	391.46
498.082	400.27
498.452	379.26
498.821	390.1
499.19	401.4
499.559	407.73
499.928	391.68
500.298	406.15
500.667	394.62
501.036	388.97
501.405	384
501.774	396.88
502.143	395.53
502.512	401.85
502.88	409.09
503.249	391.68
503.618	406.6
503.987	399.59
504.356	412.02
504.724	396.66
505.093	413.38
505.462	421.29
505.83	412.48
506.199	420.38
506.567	399.59
506.936	405.92
507.304	417.45
507.672	427.16
508.041	437.79
508.409	407.96
508.777	418.58
509.145	418.12
509.514	442.98
509.882	427.62
510.25	431.01
510.618	450.89
510.986	441.17
511.354	425.13
511.722	422.42
512.09	441.63
512.458	434.85
512.826	433.04
513.193	457.22
513.561	438.24
513.929	426.26
514.297	427.84
514.664	440.72
515.032	440.95
515.4	445.02
515.767	442.08
516.135	431.46
516.502	441.63
516.869	445.24
517.237	427.39
517.604	440.04
517.972	438.46
518.339	439.14
518.706	470.78
519.073	460.61
519.44	443.43
519.808	452.93
520.175	446.15
520.542	461.74
520.909	451.8
521.276	469.87
521.643	438.24
522.009	486.37
522.376	475.07
522.743	473.94
523.11	466.71
523.477	463.32
523.843	466.48
524.21	478.69
524.577	488.86
524.943	476.88
525.31	491.34
525.676	480.27
526.043	469.65
526.409	460.16
526.776	465.13
527.142	471.46
527.508	468.07
527.874	495.64
528.241	490.44
528.607	489.31
528.973	468.52
529.339	478.46
529.705	495.86
530.071	475.3
530.437	485.24
530.803	477.33
531.169	484.34
531.535	469.2
531.901	515.07
532.267	491.12
532.632	495.64
532.998	480.95
533.364	478.69
533.73	499.03
534.095	515.75
534.461	450.21
534.826	481.17
535.192	499.03
535.557	501.51
535.923	488.41
536.288	500.38
536.653	505.81
537.019	513.04
537.384	491.12
537.749	492.02
538.114	499.48
538.479	514.39
538.845	512.59
539.21	504
539.575	508.29
539.94	503.77
540.305	484.11
540.67	506.94
541.034	506.03
541.399	507.39
541.764	502.87
542.129	501.29
542.494	532.47
542.858	500.16
543.223	486.82
543.587	510.55
543.952	513.94
544.316	508.52
544.681	502.42
545.045	491.57
545.41	496.09
545.774	531.34
546.138	503.09
546.503	501.06
546.867	506.48
547.231	513.49
547.595	528.63
547.959	510.1
548.324	516.65
548.688	520.72
549.052	496.77
549.416	530.44
549.779	493.15
550.143	498.35
550.507	536.31
550.871	542.42
551.235	515.3
551.599	522.75
551.962	515.98
552.326	526.14
552.689	514.85
553.053	530.44
553.417	525.92
553.78	527.5
554.143	518.69
554.507	537.44
554.87	531.57
555.234	541.96
555.597	526.14
555.96	532.47
556.323	542.87
556.686	529.99
557.05	534.05
557.413	542.19
557.776	524.34
558.139	541.74
558.502	540.16
558.865	527.95
559.228	532.25
559.59	536.09
559.953	556.2
560.316	543.77
560.679	538.57
561.041	554.17
561.404	551.68
561.767	551.45
562.129	548.74
562.492	548.52
562.854	541.51
563.217	536.31
563.579	567.27
563.941	546.03
564.304	533.38
564.666	555.75
565.028	560.27
565.39	563.43
565.753	573.83
566.115	544.67
566.477	554.39
566.839	542.42
567.201	564.11
567.563	568.63
567.925	558.46
568.287	541.29
568.648	571.11
569.01	574.73
569.372	575.63
569.734	561.62
570.095	576.31
570.457	583.54
570.819	571.79
571.18	535.41
571.542	580.15
571.903	571.79
572.265	586.03
572.626	588.74
572.987	580.15
573.349	586.93
573.71	585.35
574.071	592.36
574.432	588.97
574.794	595.07
575.155	578.57
575.516	575.18
575.877	586.93
576.238	561.17
576.599	584.22
576.96	596.65
577.32	575.86
577.681	575.86
578.042	587.84
578.403	582.41
578.763	581.06
579.124	590.1
579.485	575.63
579.845	577.67
580.206	579.48
580.566	602.07
580.927	575.18
581.287	594.39
581.648	589.19
582.008	579.48
582.368	584.22
582.728	573.83
583.089	588.29
583.449	572.02
583.809	554.17
584.169	586.93
584.529	593.49
584.889	579.25
585.249	588.74
585.609	565.24
585.969	576.99
586.329	602.75
586.688	569.31
587.048	581.74
587.408	575.86
587.768	586.48
588.127	575.63
588.487	583.32
588.846	573.83
589.206	581.28
589.565	595.07
589.925	569.31
590.284	590.55
590.643	570.89
591.003	583.32
591.362	585.35
591.721	550.32
592.08	581.28
592.44	581.06
592.799	571.11
593.158	548.29
593.517	582.41
593.876	566.37
594.235	570.89
594.593	550.1
594.952	604.56
595.311	576.99
595.67	578.12
596.029	583.77
596.387	576.99
596.746	564.56
597.104	555.3
597.463	558.69
597.822	569.99
598.18	571.57
598.538	579.25
598.897	566.82
599.255	557.56
599.613	565.24
599.972	549.42
600.33	566.14
600.688	572.7
601.046	606.14
601.404	564.11
601.762	572.47
602.12	575.41
602.478	558.01
602.836	573.37
603.194	561.62
603.552	550.55
603.91	576.76
604.268	546.48
604.625	547.84
604.983	570.89
605.341	556.65
605.698	559.14
606.056	560.95
606.413	573.83
606.771	539.7
607.128	538.35
607.485	590.78
607.843	548.06
608.2	557.33
608.557	560.27
608.914	543.09
609.272	551.23
609.629	556.2
609.986	549.19
610.343	524.56
610.7	530.66
611.057	548.52
611.414	541.29
611.771	525.47
612.127	534.51
612.484	548.29
612.841	562.75
613.198	539.93
613.554	524.79
613.911	539.25
614.267	521.62
614.624	507.61
614.98	541.96
615.337	536.31
615.693	537.22
616.05	529.76
616.406	540.38
616.762	558.69
617.118	548.97
617.475	545.13
617.831	536.77
618.187	537.44
618.543	536.31
618.899	537.67
619.255	513.49
619.611	534.51
619.967	551
620.323	524.11
620.678	530.44
621.034	510.33
621.39	521.17
621.746	512.59
622.101	506.94
622.457	508.07
622.812	527.95
623.168	505.58
623.523	518.69
623.879	512.13
624.234	490.44
624.589	506.03
624.945	492.47
625.3	534.05
625.655	510.55
626.01	522.3
626.365	482.08
626.72	517.11
627.075	528.86
627.43	485.47
627.785	498.8
628.14	515.07
628.495	500.83
628.85	517.56
629.205	514.17
629.559	501.51
629.914	491.57
630.269	492.7
630.623	508.07
630.978	505.81
631.332	487.95
631.687	506.71
632.041	499.25
632.396	487.28
632.75	491.57
633.104	478.46
633.459	501.74
633.813	466.03
634.167	468.74
634.521	484.34
634.875	460.38
635.229	455.86
635.583	474.39
635.937	455.41
636.291	477.78
636.645	481.17
636.999	467.39
637.352	461.29
637.706	474.39
638.06	467.61
638.413	464
638.767	462.64
639.121	463.55
639.474	462.87
639.828	452.25
640.181	453.15
640.534	438.69
640.888	450.21
641.241	475.52
641.594	445.02
641.947	449.08
642.301	451.34
642.654	426.49
643.007	460.38
643.36	449.31
643.713	449.31
644.066	460.84
644.419	456.99
644.771	437.79
645.124	462.19
645.477	443.43
645.83	464
646.182	422.64
646.535	453.38
646.888	430.33
647.24	442.76
647.593	439.37
647.945	453.83
648.298	445.47
648.65	442.76
649.002	450.89
649.355	450.21
649.707	437.33
650.059	420.61
650.411	400.05
650.763	417.67
651.115	435.53
651.467	423.77
651.819	432.14
652.171	414.51
652.523	415.64
652.875	414.06
653.227	430.78
653.578	429.88
653.93	421.51
654.282	433.94
654.633	421.51
654.985	419.71
655.337	422.19
655.688	419.48
656.039	425.36
656.391	412.93
656.742	405.24
657.094	412.93
657.445	395.98
657.796	430.33
658.147	418.58
658.498	405.7
658.849	415.41
659.2	397.11
659.551	402.31
659.902	415.19
660.253	418.12
660.604	425.36
660.955	428.52
661.306	404.34
661.656	392.59
662.007	416.77
662.358	401.63
662.708	399.59
663.059	398.24
663.409	390.33
663.76	398.46
664.11	412.02
664.461	403.89
664.811	391.68
665.161	408.86
665.511	410.67
665.862	393.49
666.212	384.45
666.562	391.91
666.912	388.97
667.262	401.18
667.612	376.32
667.962	400.27
668.312	393.27
668.662	394.4
669.011	392.14
669.361	415.64
669.711	408.63
670.06	386.04
670.41	386.26
670.76	383.78
671.109	379.71
671.459	401.63
671.808	409.31
672.157	386.04
672.507	381.97
672.856	376.09
673.205	390.55
673.554	394.62
673.904	375.64
674.253	387.16
674.602	384.23
674.951	371.57
675.3	369.09
675.649	353.49
675.998	384.45
676.346	362.53
676.695	404.11
677.044	386.26
677.393	371.35
677.741	375.41
678.09	368.41
678.438	380.16
678.787	352.59
679.135	391.46
679.484	395.3
679.832	388.29
680.181	373.15
680.529	384.45
680.877	381.06
681.225	372.48
681.573	377.45
681.922	366.37
682.27	360.72
682.618	362.53
682.966	367.96
683.314	372.48
683.661	377.67
684.009	348.3
684.357	350.78
684.705	344
685.053	391.23
685.4	358.69
685.748	367.73
686.095	390.78
686.443	360.05
686.79	371.57
687.138	361.4
687.485	358.01
687.832	364.11
688.18	358.92
688.527	371.57
688.874	375.41
689.221	351.91
689.568	364.57
689.915	344
690.262	366.6
690.609	360.05
690.956	360.27
691.303	371.35
691.65	345.58
691.997	372.02
692.344	365.92
692.69	357.56
693.037	354.62
693.383	373.15
693.73	376.09
694.077	351.23
694.423	366.83
694.769	376.54
695.116	352.82
695.462	347.39
695.808	373.61
696.155	336.32
696.501	357.56
696.847	361.85
697.193	356.88
697.539	343.78
697.885	355.98
698.231	337.67
698.577	349.88
698.923	333.83
699.269	346.26
699.614	362.08
699.96	327.28
700.306	337.9
700.651	336.54
700.997	350.78
701.342	344.45
701.688	374.06
702.033	337.67
702.379	341.74
702.724	336.54
703.069	359.37
703.415	360.5
703.76	337
704.105	331.57
704.45	348.07
704.795	340.61
705.14	344.23
705.485	348.52
705.83	341.97
706.175	347.84
706.52	357.11
706.865	362.08
707.209	358.47
707.554	336.09
707.899	352.82
708.243	337.45
708.588	357.11
708.932	343.78
709.277	330.9
709.621	335.87
709.966	335.41
710.31	348.52
710.654	341.74
710.998	323.89
711.342	347.62
711.687	319.82
712.031	332.03
712.375	354.85
712.719	347.62
713.063	345.36
713.407	347.17
713.75	350.33
714.094	361.63
714.438	333.38
714.782	332.93
715.125	346.04
715.469	341.52
715.812	353.27
716.156	328.41
716.499	332.25
716.843	336.54
717.186	343.55
717.53	335.64
717.873	351.69
718.216	333.16
718.559	343.32
718.902	354.85
719.246	329.77
719.589	354.4
719.932	348.52
720.275	326.15
720.617	336.54
720.96	342.65
721.303	325.47
721.646	323.66
721.989	332.03
722.331	319.82
722.674	324.34
723.016	341.29
723.359	328.18
723.701	321.4
724.044	348.3
724.386	345.36
724.729	332.93
725.071	313.49
725.413	340.61
725.755	328.64
726.097	346.71
726.439	324.57
726.782	339.26
727.124	333.83
727.465	337.22
727.807	335.41
728.149	338.8
728.491	321.86
728.833	333.83
729.175	343.78
729.516	337.9
729.858	327.96
730.199	334.74
730.541	351.91
730.882	342.87
731.224	333.83
731.565	329.31
731.906	345.36
732.248	345.13
732.589	320.5
732.93	342.87
733.271	337.9
733.612	337
733.953	335.64
734.294	349.2
734.635	330.67
734.976	344.91
735.317	352.36
735.658	336.77
735.999	357.56
736.339	341.97
736.68	339.03
737.021	338.8
737.361	336.77
737.702	327.28
738.042	339.48
738.383	323.21
738.723	322.76
739.063	339.93
739.404	343.32
739.744	334.06
740.084	308.07
740.424	345.13
740.764	337.22
741.104	311.69
741.444	344.91
741.784	333.16
742.124	337.22
742.464	335.64
742.804	344
743.143	333.83
743.483	334.51
743.823	320.05
744.162	332.7
744.502	322.53
744.841	320.27
745.181	341.74
745.52	342.42
745.86	321.4
746.199	325.47
746.538	326.38
746.877	353.27
747.216	329.09
747.556	329.77
747.895	311.46
748.234	336.77
748.573	321.4
748.911	347.39
749.25	339.03
749.589	326.6
749.928	331.57
750.267	327.28
750.605	332.93
750.944	307.62
751.283	312.82
751.621	337
751.96	315.3
752.298	337
752.636	322.31
752.975	334.51
753.313	338.35
753.651	326.83
753.989	357.34
754.327	343.78
754.666	338.58
755.004	307.62
755.342	341.06
755.679	318.69
756.017	315.3
756.355	338.35
756.693	333.61
757.031	327.51
757.368	323.21
757.706	339.48
758.044	334.06
758.381	327.73
758.719	336.32
759.056	333.16
759.394	321.4
759.731	313.04
760.068	320.27
760.405	330.22
760.743	324.57
761.08	329.54
761.417	331.12
761.754	333.61
762.091	326.38
762.428	342.65
762.765	329.99
763.102	320.05
763.438	317.34
763.775	316.43
764.112	331.35
764.449	328.18
764.785	300.39
765.122	328.64
765.458	331.57
765.795	322.76
766.131	319.6
766.467	312.36
766.804	319.14
767.14	321.63
767.476	324.79
767.812	319.82
768.148	314.4
768.485	323.44
768.821	334.51
769.157	324.57
769.492	350.33
769.828	324.79
770.164	325.02
770.5	340.84
770.836	315.98
771.171	330.44
771.507	317.34
771.842	346.71
772.178	331.12
772.513	319.14
772.849	320.73
773.184	335.64
773.519	338.58
773.855	334.28
774.19	330.9
774.525	349.65
774.86	340.61
775.195	332.48
775.53	325.02
775.865	329.09
776.2	342.42
776.535	318.47
776.87	302.2
777.205	334.28
777.539	332.7
777.874	322.31
778.209	321.18
778.543	332.25
778.878	339.48
779.212	323.21
779.547	338.8
779.881	333.16
780.215	311.23
780.55	326.38
780.884	322.76
781.218	325.92
781.552	335.19
781.886	320.27
782.22	320.95
782.554	328.41
782.888	334.28
783.222	326.15
783.556	334.51
783.889	329.77
784.223	335.64
784.557	325.47
784.89	324.79
785.224	343.78
785.557	320.05
785.891	311.46
786.224	320.05
786.558	332.48
786.891	324.34
787.224	302.42
787.557	318.47
787.891	322.99
788.224	329.99
788.557	326.6
788.89	326.6
789.223	332.03
