Data from No_light_on_white_reflection_standard_FLMS001491_089.txt Node
Date: Tue Feb 07 10:33:10 GMT 2017
User: dcchb
Spectrometer: FLMS00149
Trigger mode: 0
Integration Time (sec): 2.000000E-2
Scans to average: 10
Electric dark correction enabled: true
Nonlinearity correction enabled: false
Boxcar width: 0
XAxis mode: Wavelengths
Number of Pixels in Spectrum: 2048
>>>>>Begin Spectral Data<<<<<
341.393	-9.32
341.776	-9.32
342.16	-9.32
342.543	-54.52
342.927	-85.93
343.31	-66.04
343.693	-79.38
344.077	-83.44
344.46	-59.94
344.843	-44.12
345.226	-38.7
345.61	-29.43
345.993	-29.21
346.376	6.05
346.759	25.25
347.142	28.19
347.525	47.17
347.908	49.66
348.291	64.8
348.674	98.25
349.057	110.9
349.44	123.56
349.823	143.67
350.206	148.19
350.588	167.17
350.971	177.57
351.354	181.41
351.737	190
352.119	204.68
352.502	234.29
352.884	259.6
353.267	245.36
353.65	247.62
354.032	265.47
354.414	281.07
354.797	282.87
355.179	295.08
355.562	305.92
355.944	289.65
356.326	291.46
356.709	299.6
357.091	294.17
357.473	307.05
357.855	296.43
358.238	310.67
358.62	311.12
359.002	304.34
359.384	322.65
359.766	297.56
360.148	298.47
360.53	305.92
360.912	299.6
361.294	290.11
361.676	295.98
362.057	284.46
362.439	318.13
362.821	296.88
363.203	281.97
363.584	274.51
363.966	267.96
364.348	278.81
364.729	294.63
365.111	288.75
365.493	284.23
365.874	292.59
366.256	283.78
366.637	282.65
367.019	273.83
367.4	251.46
367.781	282.65
368.163	262.54
368.544	277.9
368.925	275.19
369.306	274.06
369.688	289.43
370.069	286.94
370.45	261.86
370.831	258.47
371.212	258.02
371.593	263.21
371.974	271.35
372.355	265.7
372.736	274.29
373.117	262.31
373.498	260.28
373.879	270.67
374.26	278.58
374.641	275.19
375.021	261.41
375.402	288.07
375.783	258.69
376.163	272.93
376.544	290.56
376.925	284
377.305	285.36
377.686	273.61
378.066	292.59
378.447	283.78
378.827	262.54
379.208	300.27
379.588	281.52
379.968	263.44
380.349	282.2
380.729	288.3
381.109	297.11
381.489	267.51
381.87	270.67
382.25	290.56
382.63	253.04
383.01	264.8
383.39	309.77
383.77	296.43
384.15	284.46
384.53	307.51
384.91	280.39
385.29	298.24
385.67	279.94
386.049	277.68
386.429	282.42
386.809	274.51
387.189	297.56
387.568	288.3
387.948	295.53
388.328	291.01
388.707	294.63
389.087	274.74
389.466	300.73
389.846	288.52
390.225	305.02
390.605	276.32
390.984	304.12
391.363	271.12
391.743	278.13
392.122	282.42
392.501	301.63
392.881	283.78
393.26	305.25
393.639	301.63
394.018	287.39
394.397	297.79
394.776	297.79
395.155	283.78
395.534	284.23
395.913	301.86
396.292	300.27
396.671	287.62
397.05	293.27
397.429	295.53
397.808	278.58
398.186	289.88
398.565	276.55
398.944	289.2
399.323	289.43
399.701	309.54
400.08	285.13
400.458	285.13
400.837	287.62
401.215	297.11
401.594	293.04
401.972	286.49
402.351	297.34
402.729	297.56
403.107	298.47
403.486	301.4
403.864	304.12
404.242	293.72
404.62	302.08
404.999	324.68
405.377	292.37
405.755	293.5
406.133	321.29
406.511	299.37
406.889	298.69
407.267	322.87
407.645	314.96
408.023	295.08
408.401	299.6
408.779	307.51
409.156	318.81
409.534	293.95
409.912	286.26
410.29	289.43
410.667	298.47
411.045	294.17
411.422	307.05
411.8	324
412.178	300.73
412.555	321.97
412.933	324.68
413.31	288.52
413.687	282.87
414.065	293.72
414.442	301.18
414.819	299.82
415.197	315.19
415.574	293.5
415.951	296.66
416.328	295.98
416.705	298.01
417.082	296.66
417.46	312.93
417.837	302.08
418.214	299.6
418.591	302.76
418.967	305.92
419.344	321.97
419.721	291.01
420.098	285.36
420.475	300.27
420.852	300.95
421.228	305.7
421.605	305.92
421.982	311.57
422.358	314.29
422.735	309.09
423.111	316.55
423.488	312.03
423.864	307.28
424.241	302.76
424.617	308.86
424.994	315.87
425.37	308.18
425.746	327.39
426.123	317.68
426.499	307.96
426.875	322.42
427.251	302.08
427.627	307.96
428.003	316.32
428.379	321.97
428.756	303.21
429.132	307.73
429.507	307.28
429.883	314.74
430.259	317
430.635	307.73
431.011	316.77
431.387	327.17
431.763	330.33
432.138	286.49
432.514	317.45
432.89	309.99
433.265	311.35
433.641	325.81
434.016	300.95
434.392	316.77
434.767	323.32
435.143	329.88
435.518	331.01
435.894	308.18
436.269	334.17
436.644	339.82
437.02	306.15
437.395	324.91
437.77	322.42
438.145	326.49
438.52	322.42
438.895	335.3
439.271	316.09
439.646	312.48
440.021	330.33
440.395	343.89
440.77	345.47
441.145	313.61
441.52	352.93
441.895	354.51
442.27	336.66
442.645	343.44
443.019	328.3
443.394	334.4
443.769	326.94
444.143	339.6
444.518	340.5
444.892	341.4
445.267	341.86
445.641	341.4
446.016	349.54
446.39	360.16
446.764	349.99
447.139	334.62
447.513	338.92
447.887	341.18
448.262	352.02
448.636	357.67
449.01	365.58
449.384	367.39
449.758	341.63
450.132	350.22
450.506	362.87
450.88	385.02
451.254	354.74
451.628	353.83
452.002	368.52
452.376	368.3
452.75	362.65
453.123	340.27
453.497	370.56
453.871	354.74
454.244	350.22
454.618	366.26
454.992	363.78
455.365	373.27
455.739	366.04
456.112	385.7
456.486	363.55
456.859	344.57
457.232	361.97
457.606	364.23
457.979	360.84
458.352	348.41
458.725	357
459.099	362.87
459.472	376.88
459.845	359.71
460.218	345.02
460.591	354.74
460.964	343.66
461.337	344.12
461.71	348.86
462.083	378.92
462.456	361.52
462.829	354.06
463.201	353.83
463.574	339.82
463.947	351.35
464.32	371.23
464.692	359.03
465.065	346.83
465.438	347.28
465.81	364.91
466.183	349.31
466.555	352.48
466.928	360.16
467.3	342.76
467.672	352.93
468.045	338.01
468.417	332.82
468.789	372.82
469.161	346.83
469.534	346.6
469.906	344.34
470.278	346.15
470.65	344.12
471.022	352.7
471.394	365.81
471.766	369.2
472.138	346.6
472.51	354.96
472.882	369.88
473.253	337.56
473.625	357
473.997	352.48
474.369	335.98
474.74	362.19
475.112	345.02
475.484	323.78
475.855	352.48
476.227	335.3
476.598	365.13
476.97	346.15
477.341	354.06
477.713	358.58
478.084	335.75
478.455	333.72
478.827	349.54
479.198	375.3
479.569	347.73
479.94	354.96
480.311	368.07
480.682	345.25
481.053	359.03
481.424	330.33
481.795	359.48
482.166	354.96
482.537	345.92
482.908	355.41
483.279	339.6
483.65	338.47
484.021	345.02
484.391	370.33
484.762	355.87
485.133	358.8
485.503	355.41
485.874	349.09
486.244	369.65
486.615	361.52
486.985	360.16
487.356	363.55
487.726	361.52
488.097	375.07
488.467	356.54
488.837	366.71
489.207	372.82
489.578	376.2
489.948	387.5
490.318	385.47
490.688	366.71
491.058	372.36
491.428	342.99
491.798	368.97
492.168	365.58
492.538	368.3
492.908	390.67
493.278	382.53
493.648	396.32
494.017	366.94
494.387	386.37
494.757	392.02
495.126	379.82
495.496	375.75
495.866	378.24
496.235	399.48
496.605	384.34
496.974	382.53
497.344	394.51
497.713	402.42
498.082	373.27
498.452	380.5
498.821	393.61
499.19	392.48
499.559	392.25
499.928	387.73
500.298	393.15
500.667	411.23
501.036	400.84
501.405	392.48
501.774	384.11
502.143	392.48
502.512	405.58
502.88	417.79
503.249	399.26
503.618	414.62
503.987	401.97
504.356	420.95
504.724	421.63
505.093	424.57
505.462	417.11
505.83	415.3
506.199	449.42
506.567	433.83
506.936	413.72
507.304	440.38
507.672	416.66
508.041	427.05
508.409	429.08
508.777	431.57
509.145	421.63
509.514	412.81
509.882	437.9
510.25	418.69
510.618	403.1
510.986	437.22
511.354	429.31
511.722	429.76
512.09	448.29
512.458	439.71
512.826	427.73
513.193	426.15
513.561	432.25
513.929	432.02
514.297	440.16
514.664	413.94
515.032	436.77
515.4	447.84
515.767	450.1
516.135	462.53
516.502	452.36
516.869	456.88
517.237	464.11
517.604	443.77
517.972	463.21
518.339	447.16
518.706	446.71
519.073	439.48
519.44	453.94
519.808	485.35
520.175	467.5
520.542	467.73
520.909	468.41
521.276	460.95
521.643	472.93
522.009	472.02
522.376	472.25
522.743	458.01
523.11	486.48
523.477	471.8
523.843	482.64
524.21	488.52
524.577	469.08
524.943	491.23
525.31	486.48
525.676	484.9
526.043	491.23
526.409	478.35
526.776	479.25
527.142	458.91
527.508	484
527.874	489.65
528.241	495.3
528.607	486.03
528.973	487.84
529.339	494.17
529.705	501.4
530.071	493.49
530.437	507.05
530.803	496.2
531.169	513.83
531.535	494.85
531.901	487.39
532.267	491.91
532.632	494.39
532.998	479.93
533.364	488.74
533.73	501.17
534.095	484
534.461	498.01
534.826	476.09
535.192	504.56
535.557	509.53
535.923	497.11
536.288	520.83
536.653	522.19
537.019	502.53
537.384	497.33
537.749	488.52
538.114	497.78
538.479	501.85
538.845	500.95
539.21	523.32
539.575	529.65
539.94	504.11
540.305	523.55
540.67	489.42
541.034	512.7
541.399	524.22
541.764	484.45
542.129	524.68
542.494	495.07
542.858	519.03
543.223	524.9
543.587	524.45
543.952	513.6
544.316	516.54
544.681	520.16
545.045	523.77
545.41	524.68
545.774	520.83
546.138	524.9
546.503	523.32
546.867	536.65
547.231	507.27
547.595	522.64
547.959	513.38
548.324	532.13
548.688	530.1
549.052	517.9
549.416	522.19
549.779	541.4
550.143	522.19
550.507	516.77
550.871	539.82
551.235	527.16
551.599	534.62
551.962	538.23
552.326	533.04
552.689	539.36
553.053	531.23
553.417	533.26
553.78	526.26
554.143	544.79
554.507	545.47
554.87	520.61
555.234	549.08
555.597	518.12
555.96	543.88
556.323	539.59
556.686	527.61
557.05	552.7
557.413	544.56
557.776	543.21
558.139	555.64
558.502	533.26
558.865	520.38
559.228	560.83
559.59	573.71
559.953	542.53
560.316	562.64
560.679	523.55
561.041	540.27
561.404	557.44
561.767	543.21
562.129	544.56
562.492	540.95
562.854	564.67
563.217	560.15
563.579	572.81
563.941	545.24
564.304	565.35
564.666	587.95
565.028	566.48
565.39	559.48
565.753	573.71
566.115	568.29
566.477	573.04
566.839	575.52
567.201	566.03
567.563	588.63
567.925	570.78
568.287	553.6
568.648	564.45
569.01	573.94
569.372	568.29
569.734	571
570.095	579.14
570.457	561.96
570.819	572.36
571.18	571
571.542	562.41
571.903	563.54
572.265	584.56
572.626	591.34
572.987	596.99
573.349	564.45
573.71	609.42
574.071	584.33
574.432	589.31
574.794	605.58
575.155	568.52
575.516	591.79
575.877	594.5
576.238	568.29
576.599	571.91
576.96	589.31
577.32	620.27
577.681	579.59
578.042	598.12
578.403	601.96
578.763	579.82
579.124	590.21
579.485	582.08
579.845	589.98
580.206	584.33
580.566	589.76
580.927	594.73
581.287	586.37
581.648	597.89
582.008	601.51
582.368	594.73
582.728	592.24
583.089	579.36
583.449	612.58
583.809	599.02
584.169	590.44
584.529	597.89
584.889	608.52
585.249	587.95
585.609	606.93
585.969	594.96
586.329	603.09
586.688	591.79
587.048	602.19
587.408	590.21
587.768	577.78
588.127	586.59
588.487	596.09
588.846	582.3
589.206	579.59
589.565	576.2
589.925	582.98
590.284	578.23
590.643	585.92
591.003	589.76
591.362	578.69
591.721	583.88
592.08	579.14
592.44	604.45
592.799	567.61
593.158	576.43
593.517	586.59
593.876	579.36
594.235	580.95
594.593	580.49
594.952	588.4
595.311	613.03
595.67	583.43
596.029	597.67
596.387	561.28
596.746	596.99
597.104	579.14
597.463	584.79
597.822	587.72
598.18	575.3
598.538	593.15
598.897	584.79
599.255	568.97
599.613	556.54
599.972	587.27
600.33	566.26
600.688	579.82
601.046	591.11
601.404	569.65
601.762	579.36
602.12	568.52
602.478	549.31
602.836	565.8
603.194	569.42
603.552	584.11
603.91	570.55
604.268	572.81
604.625	556.77
604.983	575.75
605.341	572.13
605.698	583.66
606.056	590.89
606.413	576.88
606.771	573.71
607.128	575.3
607.485	559.02
607.843	553.38
608.2	551.34
608.557	570.1
608.914	577.33
609.272	565.13
609.629	542.3
609.986	569.87
610.343	541.4
610.7	576.2
611.057	582.08
611.414	565.35
611.771	557.44
612.127	534.39
612.484	556.54
612.841	530.78
613.198	566.48
613.554	535.75
613.911	545.69
614.267	538.01
614.624	557.22
614.98	533.94
615.337	543.88
615.693	549.08
616.05	557.22
616.406	551.12
616.762	554.05
617.118	554.73
617.475	506.37
617.831	524
618.187	533.04
618.543	543.66
618.899	526.94
619.255	545.92
619.611	533.49
619.967	532.13
620.323	525.35
620.678	509.31
621.034	530.1
621.39	522.42
621.746	533.71
622.101	511.57
622.457	530.33
622.812	514.73
623.168	516.09
623.523	517.44
623.879	524.9
624.234	520.61
624.589	516.54
624.945	520.83
625.3	532.81
625.655	528.07
626.01	515.18
626.365	526.26
626.72	501.4
627.075	509.08
627.43	510.89
627.785	502.3
628.14	499.59
628.495	512.25
628.85	519.48
629.205	499.14
629.559	509.76
629.914	505.24
630.269	493.72
630.623	515.64
630.978	493.49
631.332	516.77
631.687	524.9
632.041	502.53
632.396	488.07
632.75	489.87
633.104	483.09
633.459	505.01
633.813	510.44
634.167	485.58
634.521	479.03
634.875	495.07
635.229	485.81
635.583	481.29
635.937	464.11
636.291	477.67
636.645	492.13
636.999	473.6
637.352	484.22
637.706	494.62
638.06	486.26
638.413	472.25
638.767	448.75
639.121	460.04
639.474	473.38
639.828	472.25
640.181	458.01
640.534	470.67
640.888	468.18
641.241	468.41
641.594	467.05
641.947	482.87
642.301	462.53
642.654	449.2
643.007	486.03
643.36	475.86
643.713	450.78
644.066	441.97
644.419	453.26
644.771	447.84
645.124	433.15
645.477	450.33
645.83	441.06
646.182	442.19
646.535	428.63
646.888	444.68
647.24	434.06
647.593	430.67
647.945	438.12
648.298	423.89
648.65	431.12
649.002	434.28
649.355	456.88
649.707	440.38
650.059	421.63
650.411	417.33
650.763	436.54
651.115	419.59
651.467	420.5
651.819	434.96
652.171	440.61
652.523	433.15
652.875	431.8
653.227	427.73
653.578	404
653.93	440.61
654.282	436.99
654.633	424.79
654.985	429.76
655.337	437.67
655.688	426.37
656.039	441.74
656.391	398.13
656.742	426.82
657.094	433.38
657.445	408.75
657.796	415.3
658.147	405.58
658.498	413.27
658.849	405.13
659.2	407.16
659.551	402.42
659.902	409.65
660.253	432.02
660.604	397.67
660.955	396.09
661.306	399.26
661.656	410.55
662.007	417.33
662.358	398.58
662.708	400.38
663.059	408.75
663.409	397.9
663.76	412.81
664.11	404.68
664.461	408.52
664.811	396.54
665.161	393.83
665.511	391.12
665.862	400.16
666.212	404.9
666.562	408.29
666.912	385.7
667.262	394.51
667.612	423.44
667.962	392.25
668.312	414.17
668.662	384.57
669.011	420.5
669.361	379.37
669.711	404.45
670.06	382.53
670.41	406.94
670.76	386.37
671.109	385.7
671.459	392.48
671.808	404
672.157	364.91
672.507	379.14
672.856	375.98
673.205	373.49
673.554	372.36
673.904	382.53
674.253	382.31
674.602	386.37
674.951	354.74
675.3	391.57
675.649	376.2
675.998	373.04
676.346	381.4
676.695	392.02
677.044	391.35
677.393	393.15
677.741	403.55
678.09	365.58
678.438	387.73
678.787	384.57
679.135	380.05
679.484	366.04
679.832	373.72
680.181	389.76
680.529	394.51
680.877	382.31
681.225	353.38
681.573	349.54
681.922	375.3
682.27	373.72
682.618	373.94
682.966	371.23
683.314	367.62
683.661	368.07
684.009	359.48
684.357	369.65
684.705	365.81
685.053	380.95
685.4	349.54
685.748	377.79
686.095	371.01
686.443	370.1
686.79	374.62
687.138	358.35
687.485	353.38
687.832	364.45
688.18	365.13
688.527	350.22
688.874	364.45
689.221	352.7
689.568	352.25
689.915	375.07
690.262	359.26
690.609	359.26
690.956	372.59
691.303	357.45
691.65	345.25
691.997	364.91
692.344	352.93
692.69	345.02
693.037	361.29
693.383	349.09
693.73	349.76
694.077	344.57
694.423	349.76
694.769	361.06
695.116	364.68
695.462	343.66
695.808	347.5
696.155	342.53
696.501	364.68
696.847	340.05
697.193	364
697.539	349.99
697.885	364
698.231	364
698.577	335.53
698.923	374.17
699.269	357.9
699.614	367.84
699.96	342.08
700.306	328.3
700.651	336.66
700.997	367.17
701.342	349.99
701.688	347.96
702.033	363.55
702.379	339.37
702.724	351.35
703.069	367.62
703.415	337.11
703.76	352.02
704.105	374.4
704.45	359.03
704.795	339.6
705.14	365.81
705.485	352.02
705.83	333.49
706.175	378.69
706.52	358.58
706.865	339.14
707.209	357.22
707.554	335.75
707.899	346.38
708.243	343.44
708.588	364.45
708.932	338.47
709.277	372.82
709.621	340.73
709.966	326.94
710.31	337.34
710.654	337.11
710.998	357.45
711.342	339.6
711.687	354.74
712.031	351.8
712.375	329.2
712.719	352.93
713.063	345.02
713.407	324.68
713.75	321.07
714.094	345.47
714.438	326.49
714.782	352.7
715.125	341.4
715.469	350.22
715.812	347.73
716.156	329.2
716.499	344.12
716.843	348.86
717.186	317.9
717.53	358.13
717.873	334.17
718.216	316.77
718.559	365.81
718.902	324.91
719.246	322.19
719.589	328.3
719.932	346.15
720.275	323.1
720.617	347.96
720.96	329.43
721.303	330.1
721.646	327.62
721.989	328.97
722.331	342.08
722.674	336.66
723.016	343.66
723.359	334.85
723.701	330.33
724.044	348.18
724.386	335.53
724.729	341.18
725.071	299.6
725.413	334.17
725.755	330.56
726.097	334.85
726.439	319.71
726.782	339.82
727.124	333.95
727.465	340.27
727.807	324
728.149	340.5
728.491	332.14
728.833	331.01
729.175	323.1
729.516	333.49
729.858	327.84
730.199	352.93
730.541	321.97
730.882	338.47
731.224	347.96
731.565	330.33
731.906	331.01
732.248	352.02
732.589	327.84
732.93	350.22
733.271	326.04
733.612	351.57
733.953	319.94
734.294	328.75
734.635	324
734.976	317.45
735.317	318.58
735.658	334.17
735.999	338.47
736.339	344.12
736.68	331.46
737.021	335.3
737.361	335.75
737.702	335.3
738.042	307.96
738.383	346.83
738.723	314.06
739.063	325.58
739.404	334.17
739.744	341.18
740.084	344.57
740.424	333.72
740.764	332.82
741.104	325.58
741.444	316.32
741.784	336.21
742.124	341.63
742.464	332.82
742.804	336.88
743.143	311.57
743.483	321.97
743.823	332.36
744.162	331.23
744.502	329.43
744.841	312.93
745.181	335.08
745.52	335.53
745.86	318.81
746.199	332.59
746.538	321.29
746.877	340.27
747.216	322.19
747.556	322.65
747.895	340.27
748.234	330.56
748.573	349.31
748.911	309.77
749.25	338.69
749.589	315.64
749.928	340.95
750.267	345.02
750.605	319.71
750.944	324
751.283	341.18
751.621	327.84
751.96	332.82
752.298	316.32
752.636	298.47
752.975	333.27
753.313	322.19
753.651	312.48
753.989	331.91
754.327	334.62
754.666	341.18
755.004	343.89
755.342	324.91
755.679	324.68
756.017	333.04
756.355	334.17
756.693	335.3
757.031	321.07
757.368	349.31
757.706	344.34
758.044	321.29
758.381	335.53
758.719	338.69
759.056	329.88
759.394	332.36
759.731	317.68
760.068	326.71
760.405	332.59
760.743	330.78
761.08	326.71
761.417	326.71
761.754	338.69
762.091	321.97
762.428	339.6
762.765	333.27
763.102	335.98
763.438	327.17
763.775	339.14
764.112	314.74
764.449	318.81
764.785	335.53
765.122	323.55
765.458	326.94
765.795	341.4
766.131	329.65
766.467	319.48
766.804	309.99
767.14	338.69
767.476	321.74
767.812	330.1
768.148	315.87
768.485	343.89
768.821	325.81
769.157	325.58
769.492	331.01
769.828	328.3
770.164	324
770.5	331.69
770.836	325.13
771.171	345.25
771.507	328.07
771.842	347.73
772.178	308.18
772.513	326.49
772.849	325.81
773.184	316.77
773.519	319.26
773.855	319.71
774.19	309.77
774.525	298.24
774.86	344.79
775.195	312.48
775.53	340.05
775.865	339.37
776.2	316.09
776.535	319.26
776.87	338.69
777.205	311.57
777.539	314.74
777.874	326.04
778.209	325.81
778.543	309.54
778.878	327.62
779.212	313.61
779.547	333.49
779.881	320.61
780.215	317.9
780.55	338.01
780.884	324.91
781.218	317.9
781.552	316.55
781.886	321.07
782.22	312.93
782.554	328.07
782.888	287.62
783.222	324
783.556	307.28
783.889	306.38
784.223	331.91
784.557	340.27
784.89	322.65
785.224	330.33
785.557	314.29
785.891	306.6
786.224	324.23
786.558	330.33
786.891	320.84
787.224	337.34
787.557	319.71
787.891	344.79
788.224	343.21
788.557	340.27
788.89	334.62
789.223	334.62
789.556	320.39
789.888	313.38
