Data from No_light_on_white_reflection_standard_FLMS001491_005.txt Node
Date: Tue Feb 07 10:32:53 GMT 2017
User: dcchb
Spectrometer: FLMS00149
Trigger mode: 0
Integration Time (sec): 2.000000E-2
Scans to average: 10
Electric dark correction enabled: true
Nonlinearity correction enabled: false
Boxcar width: 0
XAxis mode: Wavelengths
Number of Pixels in Spectrum: 2048
>>>>>Begin Spectral Data<<<<<
341.393	-21.96
341.776	-21.96
342.16	-21.96
342.543	-50.21
342.927	-69.19
343.31	-67.16
343.693	-56.31
344.077	-35.52
344.46	-79.36
344.843	-47.5
345.226	-37.78
345.61	-28.06
345.993	-19.48
346.376	-45.69
346.759	2.44
347.142	35.89
347.525	29.56
347.908	44.93
348.291	96.45
348.674	96.68
349.057	110.92
349.44	118.82
349.823	121.76
350.206	162.89
350.588	167.18
350.971	194.3
351.354	193.4
351.737	182.33
352.119	206.05
352.502	199.73
352.884	239.27
353.267	233.17
353.65	258.26
354.032	262.1
354.414	263.68
354.797	269.33
355.179	277.01
355.562	286.96
355.944	292.83
356.326	283.11
356.709	308.88
357.091	294.64
357.473	303.45
357.855	288.31
358.238	316.79
358.62	319.72
359.002	321.08
359.384	293.74
359.766	299.61
360.148	311.36
360.53	307.52
360.912	295.77
361.294	311.59
361.676	313.4
362.057	279.27
362.439	295.54
362.821	293.28
363.203	288.31
363.584	309.78
363.966	297.35
364.348	293.96
364.729	277.01
365.111	275.2
365.493	288.99
365.874	265.94
366.256	282.89
366.637	274.07
367.019	274.98
367.4	274.3
367.781	273.17
368.163	272.04
368.544	271.14
368.925	276.11
369.306	287.86
369.688	265.71
370.069	241.99
370.45	266.62
370.831	263.45
371.212	281.08
371.593	276.33
371.974	263
372.355	278.59
372.736	270.68
373.117	285.15
373.498	282.21
373.879	260.52
374.26	283.79
374.641	278.14
375.021	284.02
375.402	295.77
375.783	227.97
376.163	271.81
376.544	272.49
376.925	293.51
377.305	279.72
377.686	284.92
378.066	288.54
378.447	276.56
378.827	264.58
379.208	294.87
379.588	278.37
379.968	265.71
380.349	294.41
380.729	288.31
381.109	300.06
381.489	278.59
381.87	285.37
382.25	274.3
382.63	263.68
383.01	268.2
383.39	277.24
383.77	291.48
384.15	279.5
384.53	270.46
384.91	274.75
385.29	275.88
385.67	263.91
386.049	272.49
386.429	302.55
386.809	273.17
387.189	284.02
387.568	306.62
387.948	303.45
388.328	276.56
388.707	305.71
389.087	285.83
389.466	277.24
389.846	306.62
390.225	316.33
390.605	288.99
390.984	288.09
391.363	293.96
391.743	278.82
392.122	275.66
392.501	278.14
392.881	295.32
393.26	292.61
393.639	284.02
394.018	274.75
394.397	291.7
394.776	299.38
395.155	304.13
395.534	300.97
395.913	283.11
396.292	292.61
396.671	285.6
397.05	272.27
397.429	296.67
397.808	281.53
398.186	281.31
398.565	296.9
398.944	290.8
399.323	291.25
399.701	298.25
400.08	299.61
400.458	283.34
400.837	270.01
401.215	289.67
401.594	301.87
401.972	297.58
402.351	318.14
402.729	295.32
403.107	304.81
403.486	290.35
403.864	298.25
404.242	291.25
404.62	258.48
404.999	303
405.377	295.32
405.755	295.32
406.133	306.16
406.511	300.29
406.889	307.29
407.267	323.11
407.645	297.12
408.023	298.93
408.401	306.39
408.779	303.68
409.156	289.22
409.534	293.96
409.912	279.95
410.29	293.51
410.667	279.5
411.045	300.06
411.422	292.15
411.8	292.83
412.178	283.79
412.555	298.03
412.933	298.25
413.31	290.57
413.687	306.62
414.065	294.19
414.442	309.33
414.819	296.67
415.197	291.93
415.574	286.5
415.951	310.68
416.328	311.36
416.705	311.59
417.082	304.13
417.46	299.61
417.837	305.03
418.214	316.79
418.591	273.4
418.967	297.12
419.344	298.71
419.721	301.64
420.098	285.15
420.475	307.97
420.852	302.55
421.228	284.02
421.605	300.29
421.982	330.12
422.358	312.94
422.735	308.2
423.111	296.22
423.488	315.2
423.864	291.02
424.241	305.71
424.617	310.68
424.994	309.55
425.37	315.88
425.746	290.35
426.123	307.29
426.499	324.24
426.875	300.29
427.251	321.76
427.627	298.48
428.003	300.06
428.379	322.66
428.756	307.29
429.132	304.36
429.507	305.94
429.883	315.2
430.259	300.29
430.635	312.94
431.011	311.36
431.387	304.36
431.763	305.26
432.138	295.77
432.514	298.93
432.89	320.18
433.265	315.66
433.641	297.8
434.016	320.18
434.392	319.72
434.767	319.5
435.143	315.66
435.518	329.21
435.894	323.34
436.269	303.68
436.644	310.23
437.02	302.77
437.395	325.82
437.77	326.95
438.145	317.69
438.52	328.31
438.895	302.32
439.271	322.21
439.646	346.39
440.021	322.44
440.395	306.39
440.77	331.47
441.145	332.83
441.52	331.02
441.895	329.89
442.27	337.8
442.645	325.6
443.019	337.35
443.394	359.95
443.769	342.77
444.143	337.58
444.518	328.54
444.892	337.8
445.267	329.44
445.641	335.99
446.016	362.66
446.39	337.35
446.764	342.1
447.139	364.69
447.513	356.78
447.887	351.81
448.262	349.78
448.636	359.95
449.01	350
449.384	356.78
449.758	346.16
450.132	356.11
450.506	374.41
450.88	394.75
451.254	375.09
451.628	363.56
452.002	358.59
452.376	374.19
452.75	358.37
453.123	373.51
453.497	370.8
453.871	345.26
454.244	378.03
454.618	352.94
454.992	374.64
455.365	357.91
455.739	373.51
456.112	348.88
456.486	379.83
456.859	372.6
457.232	365.37
457.606	349.78
457.979	345.26
458.352	361.98
458.725	366.73
459.099	365.15
459.472	339.61
459.845	373.96
460.218	345.03
460.591	373.06
460.964	347.97
461.337	358.14
461.71	354.75
462.083	346.84
462.456	343.68
462.829	365.6
463.201	346.39
463.574	359.27
463.947	342.1
464.32	349.1
464.692	349.78
465.065	348.65
465.438	340.74
465.81	354.75
466.183	343.9
466.555	339.84
466.928	366.5
467.3	353.17
467.672	349.78
468.045	369.44
468.417	334.86
468.789	360.4
469.161	347.52
469.534	368.08
469.906	359.27
470.278	351.59
470.65	350
471.022	333.73
471.394	343.68
471.766	317.24
472.138	330.57
472.51	326.95
472.882	339.16
473.253	360.63
473.625	338.03
473.997	344.13
474.369	344.36
474.74	321.98
475.112	347.75
475.484	355.65
475.855	337.35
476.227	341.64
476.598	342.1
476.97	334.86
477.341	329.44
477.713	340.74
478.084	341.64
478.455	340.51
478.827	351.81
479.198	330.34
479.569	358.82
479.94	344.81
480.311	331.93
480.682	356.33
481.053	349.33
481.424	376.9
481.795	345.71
482.166	333.73
482.537	333.73
482.908	343
483.279	361.76
483.65	372.15
484.021	345.94
484.391	348.42
484.762	368.54
485.133	336.67
485.503	352.72
485.874	361.3
486.244	363.56
486.615	381.42
486.985	346.62
487.356	359.95
487.726	359.72
488.097	379.16
488.467	376.44
488.837	347.07
489.207	389.33
489.578	393.17
489.948	365.15
490.318	381.42
490.688	361.08
491.058	366.73
491.428	383.45
491.798	371.7
492.168	355.2
492.538	381.87
492.908	365.37
493.278	373.28
493.648	357.01
494.017	362.21
494.387	377.8
494.757	390.91
495.126	370.12
495.496	388.87
495.866	380.29
496.235	373.96
496.605	387.74
496.974	386.61
497.344	393.17
497.713	374.86
498.082	386.16
498.452	399.04
498.821	386.61
499.19	387.29
499.559	381.42
499.928	381.87
500.298	402.21
500.667	409.89
501.036	385.26
501.405	389.33
501.774	381.19
502.143	399.72
502.512	398.82
502.88	407.86
503.249	413.96
503.618	421.64
503.987	399.95
504.356	404.01
504.724	398.14
505.093	401.08
505.462	418.93
505.83	415.31
506.199	404.24
506.567	401.98
506.936	406.05
507.304	421.64
507.672	403.79
508.041	392.26
508.409	434.97
508.777	416.9
509.145	409.44
509.514	394.07
509.882	421.64
510.25	426.84
510.618	408.76
510.986	406.95
511.354	415.77
511.722	430.23
512.09	415.77
512.458	440.85
512.826	406.95
513.193	441.98
513.561	435.43
513.929	424.13
514.297	442.66
514.664	430.68
515.032	436.56
515.4	434.75
515.767	444.47
516.135	421.64
516.502	425.71
516.869	431.81
517.237	434.07
517.604	442.43
517.972	444.24
518.339	426.16
518.706	438.36
519.073	451.47
519.44	465.48
519.808	463.22
520.175	452.83
520.542	460.51
520.909	455.54
521.276	435.88
521.643	450.79
522.009	463
522.376	465.48
522.743	470.91
523.11	462.32
523.477	478.14
523.843	485.82
524.21	468.42
524.577	470.68
524.943	478.82
525.31	465.03
525.676	474.75
526.043	479.95
526.409	474.97
526.776	465.26
527.142	455.31
527.508	477.91
527.874	463
528.241	467.52
528.607	483.33
528.973	479.72
529.339	493.96
529.705	476.78
530.071	479.95
530.437	482.2
530.803	481.75
531.169	474.07
531.535	505.48
531.901	492.83
532.267	502.09
532.632	495.76
532.998	478.59
533.364	488.08
533.73	490.11
534.095	486.27
534.461	492.37
534.826	484.69
535.192	484.92
535.557	483.11
535.923	485.59
536.288	490.11
536.653	499.15
537.019	501.41
537.384	496.22
537.749	481.3
538.114	508.42
538.479	491.47
538.845	495.99
539.21	475.2
539.575	484.46
539.94	507.51
540.305	517.23
540.67	512.49
541.034	517.01
541.399	503.67
541.764	513.39
542.129	498.7
542.494	504.35
542.858	519.49
543.223	497.35
543.587	503.9
543.952	511.36
544.316	510.68
544.681	517.46
545.045	498.7
545.41	500.28
545.774	508.42
546.138	501.19
546.503	522.43
546.867	499.38
547.231	524.69
547.595	513.39
547.959	526.5
548.324	520.85
548.688	521.75
549.052	523.56
549.416	508.19
549.779	518.59
550.143	511.13
550.507	518.36
550.871	509.32
551.235	526.72
551.599	521.3
551.962	540.28
552.326	529.21
552.689	522.2
553.053	535.31
553.417	537.57
553.78	508.19
554.143	517.46
554.507	514.52
554.87	514.52
555.234	539.38
555.597	549.32
555.96	502.77
556.323	535.54
556.686	518.81
557.05	539.15
557.413	554.29
557.776	543.9
558.139	540.96
558.502	533.28
558.865	525.59
559.228	524.69
559.59	535.99
559.953	530.57
560.316	522.88
560.679	546.61
561.041	546.61
561.404	532.82
561.767	533.5
562.129	522.43
562.492	545.71
562.854	547.97
563.217	570.34
563.579	521.3
563.941	544.8
564.304	550.9
564.666	535.54
565.028	578.02
565.39	571.69
565.753	543.22
566.115	543.9
566.477	553.16
566.839	531.92
567.201	549.32
567.563	548.87
567.925	565.59
568.287	554.29
568.648	553.62
569.01	546.84
569.372	558.36
569.734	563.78
570.095	547.29
570.457	541.86
570.819	560.17
571.18	561.52
571.542	582.77
571.903	571.92
572.265	568.3
572.626	564.46
572.987	581.19
573.349	568.76
573.71	565.14
574.071	577.12
574.432	587.29
574.794	563.78
575.155	578.25
575.516	594.74
575.877	565.37
576.238	600.39
576.599	573.5
576.96	557.68
577.32	570.56
577.681	583.45
578.042	571.92
578.403	572.15
578.763	568.3
579.124	579.83
579.485	564.01
579.845	587.74
580.206	593.16
580.566	579.83
580.927	587.51
581.287	579.6
581.648	589.77
582.008	573.73
582.368	601.75
582.728	589.09
583.089	567.63
583.449	571.24
583.809	589.77
584.169	566.5
584.529	575.99
584.889	559.72
585.249	596.33
585.609	590
585.969	564.01
586.329	590.22
586.688	564.46
587.048	581.64
587.408	574.18
587.768	584.12
588.127	558.14
588.487	565.59
588.846	574.41
589.206	571.47
589.565	573.28
589.925	574.41
590.284	569.21
590.643	574.86
591.003	577.12
591.362	577.57
591.721	595.2
592.08	575.76
592.44	554.97
592.799	554.52
593.158	564.24
593.517	577.8
593.876	590.68
594.235	563.56
594.593	568.08
594.952	561.52
595.311	568.53
595.67	570.79
596.029	567.85
596.387	573.28
596.746	570.34
597.104	571.24
597.463	543.45
597.822	554.75
598.18	544.35
598.538	557.68
598.897	550.23
599.255	557.68
599.613	562.88
599.972	534.86
600.33	568.76
600.688	554.29
601.046	574.41
601.404	553.62
601.762	574.63
602.12	582.09
602.478	544.12
602.836	550
603.194	552.49
603.552	553.39
603.91	563.78
604.268	573.95
604.625	550.68
604.983	544.12
605.341	545.71
605.698	566.27
606.056	544.12
606.413	553.62
606.771	557.46
607.128	550.45
607.485	537.34
607.843	554.75
608.2	533.28
608.557	537.12
608.914	559.04
609.272	550
609.629	539.38
609.986	534.41
610.343	533.5
610.7	568.98
611.057	536.89
611.414	540.06
611.771	551.36
612.127	560.39
612.484	528.98
612.841	553.62
613.198	545.93
613.554	518.81
613.911	535.31
614.267	541.86
614.624	544.58
614.98	536.67
615.337	524.01
615.693	543.9
616.05	528.08
616.406	512.94
616.762	559.04
617.118	532.6
617.475	530.34
617.831	528.31
618.187	520.17
618.543	524.69
618.899	512.03
619.255	532.37
619.611	531.7
619.967	510.45
620.323	533.73
620.678	504.13
621.034	518.14
621.39	521.53
621.746	509.32
622.101	505.03
622.457	493.28
622.812	509.55
623.168	523.33
623.523	489.89
623.879	516.78
624.234	489.89
624.589	508.42
624.945	531.24
625.3	516.1
625.655	516.33
626.01	503
626.365	510.68
626.72	496.89
627.075	508.64
627.43	489.44
627.785	511.58
628.14	514.97
628.495	506.38
628.85	498.7
629.205	484.24
629.559	504.35
629.914	504.13
630.269	483.56
630.623	503
630.978	482.2
631.332	485.37
631.687	487.4
632.041	482.88
632.396	491.02
632.75	486.5
633.104	458.93
633.459	475.88
633.813	508.42
634.167	486.5
634.521	495.99
634.875	489.44
635.229	469.78
635.583	466.84
635.937	472.04
636.291	488.98
636.645	487.63
636.999	477.01
637.352	471.36
637.706	473.84
638.06	439.27
638.413	440.4
638.767	464.58
639.121	469.32
639.474	469.55
639.828	469.1
640.181	462.77
640.534	469.32
640.888	463.45
641.241	442.43
641.594	459.61
641.947	481.98
642.301	440.17
642.654	432.26
643.007	458.48
643.36	458.7
643.713	448.31
644.066	435.2
644.419	435.43
644.771	438.14
645.124	422.32
645.477	438.82
645.83	438.82
646.182	431.58
646.535	428.87
646.888	430.68
647.24	441.53
647.593	431.36
647.945	450.12
648.298	423
648.65	412.6
649.002	424.13
649.355	424.81
649.707	429.55
650.059	417.35
650.411	437.46
650.763	422.77
651.115	430.45
651.467	419.83
651.819	441.98
652.171	431.58
652.523	424.35
652.875	421.19
653.227	427.97
653.578	423.45
653.93	416.67
654.282	406.95
654.633	411.47
654.985	401.98
655.337	418.48
655.688	408.76
656.039	432.26
656.391	413.96
656.742	408.08
657.094	412.83
657.445	426.16
657.796	419.16
658.147	420.06
658.498	414.18
658.849	417.35
659.2	411.92
659.551	412.15
659.902	408.08
660.253	397.01
660.604	399.27
660.955	397.46
661.306	394.3
661.656	406.5
662.007	395.88
662.358	372.83
662.708	402.21
663.059	414.86
663.409	416.44
663.76	412.38
664.11	376.22
664.461	385.03
664.811	396.56
665.161	391.59
665.511	386.84
665.862	397.01
666.212	406.27
666.562	393.85
666.912	380.29
667.262	386.84
667.612	388.65
667.962	378.48
668.312	384.58
668.662	378.25
669.011	394.75
669.361	372.15
669.711	379.16
670.06	381.87
670.41	377.35
670.76	370.34
671.109	386.84
671.459	371.02
671.808	379.61
672.157	378.7
672.507	370.8
672.856	372.15
673.205	384.35
673.554	363.56
673.904	378.7
674.253	377.35
674.602	385.26
674.951	363.56
675.3	393.17
675.649	365.37
675.998	372.15
676.346	360.85
676.695	391.13
677.044	371.47
677.393	380.74
677.741	369.67
678.09	362.43
678.438	371.47
678.787	367.63
679.135	377.12
679.484	383.22
679.832	383.9
680.181	394.98
680.529	352.49
680.877	364.69
681.225	374.86
681.573	368.76
681.922	378.25
682.27	368.08
682.618	365.6
682.966	348.65
683.314	363.56
683.661	375.31
684.009	363.34
684.357	350.46
684.705	369.67
685.053	375.31
685.4	354.3
685.748	342.32
686.095	346.16
686.443	349.78
686.79	343.45
687.138	338.71
687.485	357.69
687.832	377.8
688.18	366.28
688.527	351.13
688.874	352.94
689.221	370.8
689.568	339.61
689.915	343.68
690.262	357.24
690.609	363.79
690.956	346.84
691.303	371.02
691.65	367.86
691.997	345.49
692.344	353.39
692.69	334.41
693.037	341.19
693.383	345.71
693.73	368.31
694.077	345.03
694.423	354.3
694.769	345.26
695.116	369.21
695.462	354.52
695.808	340.97
696.155	348.88
696.501	354.07
696.847	359.5
697.193	332.6
697.539	356.11
697.885	337.35
698.231	346.62
698.577	347.75
698.923	366.95
699.269	330.57
699.614	335.99
699.96	353.17
700.306	338.25
700.651	358.37
700.997	326.05
701.342	356.78
701.688	344.36
702.033	368.54
702.379	349.1
702.724	330.8
703.069	332.6
703.415	350.23
703.76	326.05
704.105	351.36
704.45	342.32
704.795	329.21
705.14	352.94
705.485	359.04
705.83	349.55
706.175	331.25
706.52	333.06
706.865	325.82
707.209	334.19
707.554	345.71
707.899	334.19
708.243	357.46
708.588	352.26
708.932	345.94
709.277	344.13
709.621	326.95
709.966	315.2
710.31	347.29
710.654	345.26
710.998	349.78
711.342	328.54
711.687	325.37
712.031	340.29
712.375	340.51
712.719	337.12
713.063	313.85
713.407	335.99
713.75	344.13
714.094	324.47
714.438	333.51
714.782	335.77
715.125	342.32
715.469	342.1
715.812	333.96
716.156	336.22
716.499	339.61
716.843	338.93
717.186	331.93
717.53	348.65
717.873	318.82
718.216	312.27
718.559	337.12
718.902	333.51
719.246	318.37
719.589	334.64
719.932	323.11
720.275	328.76
720.617	353.39
720.96	348.65
721.303	354.3
721.646	339.38
721.989	342.55
722.331	325.82
722.674	331.7
723.016	336.9
723.359	354.07
723.701	324.47
724.044	329.44
724.386	324.24
724.729	313.62
725.071	343.23
725.413	341.19
725.755	331.7
726.097	342.55
726.439	326.73
726.782	319.95
727.124	354.75
727.465	345.03
727.807	335.54
728.149	335.77
728.491	321.76
728.833	313.17
729.175	348.2
729.516	319.05
729.858	330.12
730.199	326.05
730.541	343.9
730.882	319.05
731.224	335.99
731.565	318.14
731.906	344.13
732.248	337.8
732.589	331.7
732.93	333.06
733.271	333.73
733.612	319.5
733.953	322.89
734.294	317.46
734.635	327.86
734.976	333.06
735.317	333.06
735.658	340.97
735.999	323.56
736.339	335.32
736.68	337.58
737.021	330.57
737.361	343.9
737.702	332.38
738.042	327.86
738.383	322.66
738.723	312.94
739.063	327.86
739.404	329.89
739.744	326.05
740.084	323.34
740.424	330.34
740.764	329.67
741.104	325.15
741.444	324.47
741.784	331.47
742.124	339.84
742.464	327.63
742.804	328.99
743.143	327.86
743.483	339.16
743.823	318.82
744.162	336.22
744.502	329.44
744.841	331.02
745.181	316.79
745.52	341.42
745.86	318.82
746.199	353.62
746.538	329.67
746.877	319.27
747.216	340.51
747.556	327.41
747.895	335.99
748.234	326.5
748.573	325.6
748.911	344.58
749.25	322.89
749.589	333.06
749.928	317.46
750.267	344.81
750.605	319.05
750.944	335.77
751.283	350.23
751.621	325.82
751.96	328.99
752.298	324.69
752.636	336.45
752.975	328.08
753.313	336.45
753.651	311.81
753.989	325.15
754.327	313.85
754.666	317.46
755.004	337.8
755.342	338.71
755.679	333.73
756.017	343.23
756.355	340.06
756.693	336.45
757.031	337.58
757.368	318.37
757.706	336.67
758.044	338.71
758.381	334.86
758.719	325.6
759.056	312.94
759.394	333.28
759.731	305.94
760.068	321.76
760.405	319.72
760.743	323.34
761.08	328.08
761.417	310.01
761.754	329.67
762.091	336.67
762.428	313.85
762.765	316.56
763.102	330.57
763.438	323.34
763.775	335.99
764.112	330.57
764.449	325.37
764.785	320.63
765.122	312.72
765.458	328.99
765.795	333.96
766.131	317.24
766.467	328.76
766.804	337.12
767.14	322.21
767.476	322.66
767.812	338.71
768.148	330.8
768.485	325.6
768.821	321.31
769.157	342.32
769.492	320.18
769.828	335.32
770.164	338.71
770.5	311.36
770.836	319.27
771.171	326.95
771.507	321.98
771.842	335.32
772.178	318.82
772.513	316.33
772.849	326.95
773.184	333.06
773.519	328.76
773.855	314.53
774.19	312.49
774.525	320.63
774.86	332.6
775.195	332.6
775.53	330.12
775.865	321.76
776.2	324.92
776.535	333.51
776.87	325.15
777.205	334.19
777.539	339.61
777.874	330.8
778.209	323.11
778.543	321.08
778.878	314.53
779.212	313.17
779.547	327.41
779.881	328.08
780.215	326.28
780.55	306.39
780.884	333.06
781.218	333.51
781.552	329.89
781.886	317.46
782.22	314.75
782.554	308.2
782.888	330.57
783.222	315.66
783.556	321.53
783.889	326.73
784.223	324.47
784.557	308.65
784.89	324.92
785.224	320.85
785.557	339.84
785.891	297.12
786.224	321.08
786.558	315.66
786.891	316.56
787.224	305.71
787.557	341.87
787.891	324.02
788.224	322.44
788.557	322.44
788.89	322.44
789.223	317.69
789.556	338.93
