Data from No_light_on_white_reflection_standard_FLMS001491_080.txt Node
Date: Tue Feb 07 10:33:08 GMT 2017
User: dcchb
Spectrometer: FLMS00149
Trigger mode: 0
Integration Time (sec): 2.000000E-2
Scans to average: 10
Electric dark correction enabled: true
Nonlinearity correction enabled: false
Boxcar width: 0
XAxis mode: Wavelengths
Number of Pixels in Spectrum: 2048
>>>>>Begin Spectral Data<<<<<
341.393	-19.41
341.776	-19.41
342.16	-19.41
342.543	-48.78
342.927	-49.69
343.31	-68.67
343.693	-55.11
344.077	-69.35
344.46	-78.84
344.843	-59.86
345.226	-22.12
345.61	-21.89
345.993	-11.04
346.376	-15.11
346.759	11.1
347.142	35.51
347.525	31.89
347.908	59.01
348.291	64.66
348.674	95.17
349.057	104.66
349.44	129.97
349.823	120.7
350.206	160.25
350.588	168.84
350.971	172.68
351.354	200.7
351.737	197.09
352.119	218.78
352.502	234.37
352.884	232.11
353.267	231.21
353.65	261.94
354.032	272.11
354.414	262.17
354.797	296.74
355.179	283.86
355.562	283.41
355.944	292
356.326	301.49
356.709	309.85
357.091	293.81
357.473	303.75
357.855	288.16
358.238	306.23
358.62	290.64
359.002	306.91
359.384	293.35
359.766	317.08
360.148	320.25
360.53	311.88
360.912	300.36
361.294	309.4
361.676	299.91
362.057	305.56
362.439	293.58
362.821	284.99
363.203	298.33
363.584	285.67
363.966	283.41
364.348	289.06
364.729	282.96
365.111	294.94
365.493	290.64
365.874	259
366.256	272.56
366.637	270.08
367.019	269.4
367.4	271.89
367.781	273.69
368.163	290.42
368.544	271.89
368.925	287.93
369.306	247.71
369.688	279.34
370.069	280.02
370.45	286.35
370.831	268.04
371.212	272.11
371.593	283.41
371.974	284.99
372.355	257.87
372.736	270.98
373.117	275.73
373.498	266.46
373.879	284.99
374.26	260.36
374.641	289.06
375.021	280.47
375.402	257.2
375.783	262.39
376.163	279.79
376.544	278.66
376.925	268.95
377.305	266.01
377.686	263.75
378.066	269.63
378.447	298.1
378.827	277.31
379.208	274.82
379.588	283.64
379.968	280.02
380.349	272.79
380.729	283.64
381.109	273.69
381.489	275.95
381.87	277.99
382.25	284.77
382.63	291.09
383.01	283.41
383.39	277.54
383.77	291.55
384.15	272.56
384.53	272.34
384.91	270.98
385.29	281.83
385.67	305.33
386.049	282.05
386.429	277.76
386.809	295.61
387.189	296.97
387.568	278.66
387.948	289.74
388.328	278.44
388.707	274.6
389.087	288.38
389.466	315.5
389.846	292.9
390.225	281.83
390.605	279.57
390.984	285.44
391.363	282.05
391.743	293.81
392.122	297.87
392.501	311.88
392.881	297.65
393.26	298.1
393.639	297.2
394.018	298.33
394.397	293.13
394.776	277.54
395.155	299.46
395.534	296.07
395.913	283.41
396.292	305.1
396.671	284.77
397.05	285.67
397.429	304.65
397.808	276.63
398.186	276.41
398.565	269.63
398.944	287.25
399.323	294.03
399.701	283.64
400.08	276.41
400.458	301.26
400.837	290.19
401.215	295.84
401.594	308.95
401.972	291.77
402.351	299
402.729	295.61
403.107	277.76
403.486	277.76
403.864	312.11
404.242	283.41
404.62	288.61
404.999	317.76
405.377	290.64
405.755	294.71
406.133	297.42
406.511	303.98
406.889	292.22
407.267	322.05
407.645	310.53
408.023	299.23
408.401	289.74
408.779	295.16
409.156	334.26
409.534	300.59
409.912	288.38
410.29	302.62
410.667	299.68
411.045	299.46
411.422	301.04
411.8	299.23
412.178	292.68
412.555	285.9
412.933	308.72
413.31	296.74
413.687	326.35
414.065	302.17
414.442	286.12
414.819	317.99
415.197	302.62
415.574	297.2
415.951	306.69
416.328	299
416.705	292.68
417.082	309.62
417.46	317.53
417.837	301.49
418.214	319.12
418.591	309.62
418.967	309.62
419.344	284.09
419.721	289.51
420.098	303.75
420.475	299.68
420.852	317.99
421.228	309.17
421.605	297.42
421.982	319.79
422.358	314.82
422.735	320.25
423.111	309.4
423.488	323.18
423.864	323.41
424.241	312.79
424.617	317.31
424.994	304.65
425.37	313.92
425.746	304.65
426.123	307.14
426.499	312.34
426.875	315.73
427.251	318.66
427.627	312.11
428.003	313.47
428.379	302.39
428.756	314.37
429.132	303.75
429.507	316.4
429.883	312.34
430.259	306.46
430.635	293.13
431.011	297.65
431.387	298.33
431.763	313.47
432.138	322.28
432.514	301.26
432.89	307.36
433.265	322.05
433.641	332.9
434.016	342.62
434.392	335.16
434.767	298.55
435.143	318.89
435.518	322.05
435.894	327.03
436.269	315.5
436.644	322.28
437.02	315.05
437.395	318.44
437.77	331.32
438.145	316.18
438.52	334.03
438.895	315.73
439.271	343.75
439.646	315.95
440.021	330.87
440.395	336.52
440.77	321.15
441.145	325.22
441.52	348.72
441.895	348.04
442.27	323.64
442.645	331.32
443.019	335.84
443.394	348.72
443.769	318.66
444.143	350.3
444.518	340.13
444.892	349.62
445.267	330.64
445.641	340.13
446.016	347.14
446.39	364.54
446.764	355.05
447.139	358.21
447.513	353.92
447.887	334.48
448.262	378.1
448.636	360.24
449.01	364.09
449.384	350.98
449.758	355.27
450.132	355.5
450.506	366.35
450.88	375.39
451.254	357.53
451.628	354.6
452.002	343.52
452.376	382.84
452.75	381.04
453.123	369.96
453.497	358.66
453.871	390.98
454.244	375.39
454.618	355.73
454.992	391.43
455.365	357.31
455.739	378.55
456.112	374.48
456.486	357.98
456.859	347.14
457.232	359.57
457.606	350.3
457.979	367.93
458.352	372.9
458.725	357.98
459.099	336.06
459.472	355.95
459.845	356.18
460.218	347.82
460.591	333.13
460.964	374.48
461.337	357.31
461.71	362.73
462.083	381.94
462.456	364.31
462.829	359.11
463.201	342.62
463.574	370.19
463.947	367.25
464.32	349.17
464.692	350.53
465.065	346.46
465.438	356.63
465.81	371.09
466.183	357.53
466.555	368.15
466.928	366.57
467.3	368.61
467.672	356.4
468.045	344.88
468.417	359.79
468.789	350.53
469.161	360.92
469.534	351.66
469.906	366.35
470.278	331.09
470.65	349.62
471.022	344.43
471.394	334.48
471.766	350.75
472.138	339
472.51	343.3
472.882	342.39
473.253	367.93
473.625	327.03
473.997	357.76
474.369	346.01
474.74	317.99
475.112	367.48
475.484	364.09
475.855	355.73
476.227	342.62
476.598	361.83
476.97	354.37
477.341	357.76
477.713	349.85
478.084	354.37
478.455	345.78
478.827	350.98
479.198	363.18
479.569	347.82
479.94	357.76
480.311	353.01
480.682	342.39
481.053	345.56
481.424	341.71
481.795	350.3
482.166	362.05
482.537	352.79
482.908	362.96
483.279	332
483.65	359.34
484.021	358.21
484.391	359.79
484.762	362.96
485.133	358.89
485.503	369.06
485.874	376.29
486.244	356.18
486.615	383.07
486.985	361.83
487.356	342.39
487.726	347.82
488.097	374.71
488.467	378.55
488.837	387.81
489.207	344.88
489.578	357.08
489.948	380.36
490.318	385.33
490.688	376.29
491.058	381.49
491.428	383.52
491.798	377.65
492.168	368.61
492.538	379.91
492.908	387.36
493.278	392.11
493.648	366.35
494.017	358.66
494.387	369.74
494.757	395.5
495.126	400.92
495.496	381.26
495.866	373.8
496.235	406.57
496.605	392.79
496.974	379
497.344	397.31
497.713	407.93
498.082	392.56
498.452	397.08
498.821	388.04
499.19	411.09
499.559	407.25
499.928	405.89
500.298	406.12
500.667	406.8
501.036	405.67
501.405	402.28
501.774	422.16
502.143	421.03
502.512	393.92
502.88	421.03
503.249	412.45
503.618	394.82
503.987	404.09
504.356	419.68
504.724	418.32
505.093	396.63
505.462	429.62
505.83	423.29
506.199	409.96
506.567	437.3
506.936	433.46
507.304	428.94
507.672	423.29
508.041	427.81
508.409	440.69
508.777	430.75
509.145	430.98
509.514	428.27
509.882	444.76
510.25	423.07
510.618	411.54
510.986	450.41
511.354	431.2
511.722	427.59
512.09	445.89
512.458	428.94
512.826	436.63
513.193	439.56
513.561	451.54
513.929	421.71
514.297	453.58
514.664	465.55
515.032	443.63
515.4	428.49
515.767	441.15
516.135	440.02
516.502	460.13
516.869	442.73
517.237	470.98
517.604	446.8
517.972	460.58
518.339	432.33
518.706	447.47
519.073	462.16
519.44	448.83
519.808	459.9
520.175	457.42
520.542	462.39
520.909	458.77
521.276	467.81
521.643	467.36
522.009	495.83
522.376	474.59
522.743	466.91
523.11	479.79
523.477	485.21
523.843	480.92
524.21	457.42
524.577	468.72
524.943	487.93
525.31	462.61
525.676	484.31
526.043	494.7
526.409	485.21
526.776	480.24
527.142	475.72
527.508	489.28
527.874	495.16
528.241	473.46
528.607	475.95
528.973	485.21
529.339	489.05
529.705	498.09
530.071	491.31
530.437	506.68
530.803	483.63
531.169	494.7
531.535	504.65
531.901	499.45
532.267	493.35
532.632	493.35
532.998	493.8
533.364	494.7
533.73	497.42
534.095	501.71
534.461	524.76
534.826	505.78
535.192	481.82
535.557	497.19
535.923	517.53
536.288	515.27
536.653	488.38
537.019	500.81
537.384	509.17
537.749	505.33
538.114	503.29
538.479	512.56
538.845	500.35
539.21	538.09
539.575	522.73
539.94	516.62
540.305	512.56
540.67	519.79
541.034	529.05
541.399	520.24
541.764	530.18
542.129	489.28
542.494	504.65
542.858	493.8
543.223	499
543.587	519.79
543.952	500.81
544.316	526.12
544.681	517.3
545.045	511.65
545.41	537.19
545.774	514.14
546.138	517.75
546.503	525.89
546.867	529.73
547.231	542.39
547.595	519.56
547.959	529.28
548.324	526.79
548.688	522.73
549.052	503.74
549.416	512.56
549.779	527.92
550.143	513.01
550.507	530.86
550.871	528.15
551.235	528.15
551.599	538.55
551.962	517.75
552.326	532.9
552.689	523.63
553.053	541.03
553.417	533.57
553.78	527.47
554.143	567.02
554.507	533.8
554.87	548.94
555.234	545.32
555.597	526.12
555.96	546.91
556.323	520.47
556.686	541.03
557.05	558.43
557.413	561.14
557.776	526.34
558.139	549.39
558.502	553.01
558.865	525.89
559.228	541.26
559.59	541.93
559.953	549.17
560.316	548.49
560.679	552.78
561.041	554.82
561.404	560.69
561.767	554.36
562.129	548.94
562.492	548.04
562.854	576.06
563.217	563.18
563.579	556.85
563.941	565.66
564.304	567.24
564.666	553.23
565.028	572.44
565.39	558.66
565.753	581.03
566.115	554.59
566.477	586.23
566.839	574.93
567.201	563.18
567.563	567.02
567.925	578.32
568.287	574.93
568.648	578.09
569.01	576.96
569.372	551.88
569.734	575.61
570.095	588.94
570.457	586.68
570.819	572.67
571.18	575.15
571.542	573.35
571.903	559.56
572.265	582.61
572.626	586.23
572.987	574.02
573.349	582.16
573.71	591.88
574.071	581.48
574.432	603.85
574.794	607.24
575.155	572.22
575.516	597.3
575.877	593.23
576.238	586.68
576.599	581.93
576.96	585.32
577.32	566.34
577.681	588.26
578.042	580.13
578.403	570.41
578.763	577.87
579.124	601.82
579.485	595.94
579.845	603.85
580.206	596.85
580.566	606.34
580.927	585.32
581.287	589.84
581.648	588.26
582.008	578.77
582.368	574.48
582.728	590.75
583.089	606.34
583.449	586.45
583.809	588.04
584.169	576.74
584.529	581.71
584.889	590.07
585.249	587.13
585.609	593.46
585.969	586
586.329	586.68
586.688	592.56
587.048	560.92
587.408	568.83
587.768	594.14
588.127	592.1
588.487	581.71
588.846	571.31
589.206	584.65
589.565	584.42
589.925	578.32
590.284	574.02
590.643	561.6
591.003	592.56
591.362	547.58
591.721	572.22
592.08	591.88
592.44	586
592.799	578.77
593.158	573.12
593.517	592.1
593.876	567.7
594.235	579.9
594.593	561.37
594.952	562.5
595.311	597.75
595.67	565.21
596.029	585.32
596.387	581.48
596.746	607.24
597.104	581.93
597.463	576.74
597.822	548.94
598.18	567.92
598.538	587.36
598.897	576.96
599.255	581.48
599.613	585.55
599.972	571.99
600.33	574.93
600.688	567.02
601.046	564.31
601.404	601.82
601.762	592.78
602.12	583.06
602.478	586.23
602.836	583.74
603.194	581.03
603.552	537.19
603.91	564.76
604.268	556.4
604.625	553.69
604.983	569.73
605.341	571.99
605.698	572.22
606.056	552.78
606.413	555.27
606.771	560.92
607.128	571.31
607.485	567.7
607.843	552.78
608.2	555.72
608.557	574.02
608.914	530.18
609.272	569.28
609.629	558.66
609.986	573.8
610.343	544.42
610.7	566.79
611.057	544.87
611.414	527.25
611.771	543.74
612.127	546.23
612.484	551.2
612.841	562.73
613.198	543.97
613.554	547.36
613.911	537.19
614.267	566.34
614.624	539.68
614.98	552.78
615.337	553.46
615.693	524.76
616.05	534.48
616.406	543.74
616.762	510.75
617.118	524.31
617.475	543.74
617.831	554.82
618.187	545.1
618.543	524.76
618.899	512.56
619.255	523.86
619.611	546.91
619.967	494.48
620.323	560.47
620.678	536.96
621.034	531.09
621.39	527.7
621.746	539.9
622.101	523.18
622.457	516.17
622.812	532.22
623.168	541.71
623.523	534.25
623.879	536.29
624.234	524.08
624.589	526.12
624.945	520.92
625.3	527.47
625.655	515.95
626.01	532.9
626.365	514.82
626.72	524.53
627.075	506.68
627.43	506.68
627.785	508.04
628.14	516.17
628.495	487.7
628.85	494.03
629.205	502.39
629.559	493.8
629.914	491.99
630.269	519.11
630.623	508.04
630.978	496.74
631.332	510.75
631.687	495.83
632.041	494.48
632.396	488.15
632.75	494.03
633.104	482.5
633.459	473.91
633.813	484.76
634.167	478.66
634.521	492.22
634.875	465.55
635.229	484.08
635.583	498.32
635.937	496.74
636.291	475.95
636.645	481.37
636.999	485.21
637.352	473.01
637.706	481.6
638.06	489.05
638.413	490.64
638.767	488.38
639.121	501.48
639.474	484.54
639.828	448.38
640.181	460.13
640.534	471.88
640.888	458.55
641.241	482.05
641.594	468.04
641.947	442.28
642.301	451.32
642.654	447.25
643.007	445.67
643.36	448.15
643.713	458.77
644.066	450.19
644.419	459.45
644.771	429.62
645.124	462.16
645.477	448.15
645.83	445.44
646.182	455.16
646.535	441.15
646.888	439.56
647.24	438.21
647.593	423.29
647.945	445.89
648.298	435.72
648.65	449.96
649.002	431.43
649.355	445.89
649.707	439.34
650.059	415.84
650.411	406.35
650.763	439.11
651.115	435.72
651.467	451.77
651.819	421.71
652.171	442.5
652.523	423.75
652.875	420.13
653.227	437.53
653.578	440.69
653.93	435.95
654.282	432.33
654.633	435.27
654.985	428.27
655.337	428.72
655.688	445.67
656.039	411.99
656.391	428.04
656.742	423.97
657.094	426.01
657.445	424.65
657.796	411.09
658.147	418.32
658.498	402.05
658.849	428.04
659.2	411.54
659.551	421.03
659.902	410.41
660.253	412.67
660.604	413.35
660.955	412.22
661.306	416.06
661.656	418.1
662.007	439.56
662.358	402.73
662.708	398.66
663.059	404.09
663.409	407.7
663.76	423.07
664.11	383.97
664.461	397.31
664.811	405.44
665.161	402.5
665.511	414.71
665.862	400.02
666.212	394.14
666.562	407.02
666.912	394.59
667.262	385.55
667.612	390.53
667.962	401.15
668.312	387.36
668.662	413.12
669.011	387.59
669.361	376.74
669.711	397.53
670.06	404.76
670.41	371.09
670.76	386.23
671.109	390.98
671.459	380.58
671.808	402.05
672.157	396.4
672.507	393.24
672.856	382.84
673.205	404.76
673.554	395.95
673.904	382.17
674.253	389.62
674.602	395.5
674.951	396.4
675.3	395.72
675.649	372.22
675.998	393.69
676.346	388.27
676.695	387.81
677.044	382.62
677.393	394.37
677.741	386.46
678.09	353.69
678.438	361.15
678.787	360.02
679.135	372.45
679.484	373.8
679.832	378.78
680.181	376.97
680.529	383.97
680.877	373.58
681.225	370.19
681.573	397.08
681.922	387.14
682.27	362.05
682.618	377.19
682.966	373.58
683.314	367.7
683.661	373.35
684.009	367.25
684.357	352.34
684.705	358.66
685.053	372.67
685.4	361.15
685.748	375.16
686.095	376.74
686.443	382.62
686.79	356.86
687.138	341.71
687.485	362.73
687.832	351.21
688.18	355.95
688.527	365.89
688.874	359.34
689.221	354.37
689.568	364.31
689.915	355.27
690.262	370.64
690.609	362.96
690.956	364.54
691.303	349.17
691.65	369.28
691.997	354.82
692.344	355.05
692.69	353.47
693.037	384.88
693.383	353.69
693.73	341.71
694.077	343.75
694.423	346.91
694.769	348.27
695.116	357.53
695.462	342.39
695.808	386.68
696.155	357.53
696.501	353.92
696.847	360.47
697.193	362.73
697.539	374.71
697.885	372
698.231	350.3
698.577	376.74
698.923	367.25
699.269	357.08
699.614	340.13
699.96	370.19
700.306	354.82
700.651	348.27
700.997	336.29
701.342	351.21
701.688	339.45
702.033	365.22
702.379	346.46
702.724	329.74
703.069	340.81
703.415	370.64
703.76	372.9
704.105	347.82
704.45	370.19
704.795	346.46
705.14	350.3
705.485	348.72
705.83	346.91
706.175	351.88
706.52	355.05
706.865	334.93
707.209	343.07
707.554	332.9
707.899	358.44
708.243	341.71
708.588	343.07
708.932	339.45
709.277	338.78
709.621	354.82
709.966	362.28
710.31	350.53
710.654	343.97
710.998	350.53
711.342	347.36
711.687	360.92
712.031	341.71
712.375	351.43
712.719	371.32
713.063	346.46
713.407	341.26
713.75	357.76
714.094	353.01
714.438	362.28
714.782	351.88
715.125	338.55
715.469	339
715.812	337.19
716.156	347.36
716.499	331.77
716.843	348.72
717.186	341.26
717.53	333.8
717.873	345.33
718.216	325.9
718.559	326.8
718.902	344.43
719.246	345.56
719.589	337.42
719.932	336.29
720.275	336.74
720.617	335.61
720.96	337.42
721.303	338.1
721.646	347.82
721.989	346.46
722.331	353.92
722.674	346.23
723.016	324.77
723.359	351.88
723.701	341.94
724.044	339.45
724.386	326.12
724.729	341.04
725.071	344.2
725.413	328.83
725.755	339
726.097	339.23
726.439	330.42
726.782	332.45
727.124	343.3
727.465	332.67
727.807	348.27
728.149	322.28
728.491	346.01
728.833	342.62
729.175	322.73
729.516	337.19
729.858	328.16
730.199	327.48
730.541	345.78
730.882	327.03
731.224	348.27
731.565	339.68
731.906	353.47
732.248	342.62
732.589	312.11
732.93	343.97
733.271	339.68
733.612	359.79
733.953	329.29
734.294	332.45
734.635	338.55
734.976	329.06
735.317	323.64
735.658	332
735.999	343.75
736.339	341.04
736.68	340.81
737.021	339.23
737.361	342.17
737.702	335.16
738.042	323.18
738.383	346.46
738.723	352.11
739.063	343.3
739.404	320.7
739.744	325.67
740.084	322.28
740.424	345.33
740.764	325.67
741.104	339.68
741.444	346.91
741.784	330.87
742.124	329.51
742.464	333.8
742.804	321.6
743.143	348.27
743.483	324.31
743.823	337.87
744.162	338.78
744.502	331.32
744.841	355.5
745.181	349.17
745.52	336.52
745.86	338.78
746.199	346.01
746.538	334.71
746.877	321.38
747.216	337.87
747.556	332.45
747.895	328.83
748.234	348.95
748.573	347.36
748.911	351.43
749.25	329.29
749.589	326.12
749.928	331.77
750.267	318.89
750.605	322.96
750.944	315.5
751.283	348.04
751.621	328.61
751.96	320.7
752.298	321.83
752.636	353.01
752.975	327.03
753.313	347.59
753.651	339
753.989	342.62
754.327	324.31
754.666	343.07
755.004	337.19
755.342	329.29
755.679	321.15
756.017	339.91
756.355	332.22
756.693	347.36
757.031	335.84
757.368	337.87
757.706	336.29
758.044	344.88
758.381	326.8
758.719	331.54
759.056	323.86
759.394	318.44
759.731	321.83
760.068	334.48
760.405	326.35
760.743	325.9
761.08	303.3
761.417	327.93
761.754	319.79
762.091	316.4
762.428	328.16
762.765	336.74
763.102	335.16
763.438	328.61
763.775	328.38
764.112	335.39
764.449	332.67
764.785	307.14
765.122	327.03
765.458	307.82
765.795	352.34
766.131	312.11
766.467	320.25
766.804	320.25
767.14	334.71
767.476	315.73
767.812	318.89
768.148	333.13
768.485	318.21
768.821	331.09
769.157	344.2
769.492	332.67
769.828	332.45
770.164	319.34
770.5	336.52
770.836	322.73
771.171	303.52
771.507	334.71
771.842	330.87
772.178	334.93
772.513	336.52
772.849	337.65
773.184	331.77
773.519	339
773.855	329.29
774.19	315.05
774.525	333.58
774.86	343.97
775.195	299.68
775.53	315.27
775.865	318.44
776.2	340.81
776.535	357.76
776.87	323.18
777.205	323.18
777.539	318.66
777.874	329.74
778.209	338.78
778.543	323.64
778.878	308.27
779.212	322.28
779.547	335.61
779.881	339.45
780.215	321.38
780.55	330.42
780.884	351.43
781.218	317.53
781.552	316.4
781.886	325.44
782.22	322.96
782.554	340.36
782.888	326.12
783.222	335.61
783.556	338.1
783.889	342.17
784.223	314.82
784.557	342.17
784.89	326.57
785.224	340.13
785.557	329.74
785.891	348.49
786.224	341.94
786.558	320.25
786.891	331.54
787.224	315.5
787.557	316.86
787.891	326.57
788.224	316.63
788.557	329.29
788.89	314.6
789.223	309.85
