Data from No_light_on_white_reflection_standard_FLMS001491_079.txt Node
Date: Tue Feb 07 10:33:08 GMT 2017
User: dcchb
Spectrometer: FLMS00149
Trigger mode: 0
Integration Time (sec): 2.000000E-2
Scans to average: 10
Electric dark correction enabled: true
Nonlinearity correction enabled: false
Boxcar width: 0
XAxis mode: Wavelengths
Number of Pixels in Spectrum: 2048
>>>>>Begin Spectral Data<<<<<
341.393	-26.6
341.776	-26.6
342.16	-26.6
342.543	-71.57
342.927	-69.76
343.31	-84.9
343.693	-77.67
344.077	-55.97
344.46	-60.04
344.843	-34.28
345.226	-52.81
345.61	-18.23
345.993	-6.71
346.376	-6.03
346.759	7.3
347.142	17.92
347.525	50.24
347.908	45.04
348.291	77.81
348.674	85.27
349.057	113.06
349.44	112.84
349.823	122.55
350.206	139.05
350.588	170.24
350.971	165.49
351.354	164.13
351.737	203.91
352.119	234.64
352.502	225.6
352.884	228.99
353.267	256.56
353.65	261.53
354.032	268.54
354.414	265.6
354.797	280.29
355.179	281.19
355.562	287.52
355.944	278.93
356.326	303.34
356.709	313.28
357.091	296.56
357.473	312.38
357.855	309.22
358.238	292.04
358.62	320.97
359.002	295.88
359.384	294.53
359.766	306.5
360.148	296.11
360.53	314.41
360.912	293.62
361.294	311.93
361.676	290.68
362.057	300.18
362.439	315.54
362.821	263.34
363.203	280.29
363.584	268.31
363.966	278.93
364.348	282.78
364.729	294.07
365.111	292.72
365.493	266.5
365.874	278.26
366.256	280.52
366.637	269.67
367.019	274.64
367.4	271.25
367.781	293.4
368.163	295.88
368.544	274.41
368.925	268.76
369.306	276.67
369.688	264.7
370.069	272.15
370.45	274.87
370.831	279.16
371.212	272.15
371.593	268.31
371.974	274.41
372.355	276.67
372.736	268.09
373.117	271.02
373.498	267.63
373.879	259.27
374.26	257.46
374.641	261.53
375.021	287.29
375.402	262.89
375.783	273.06
376.163	282.55
376.544	275.09
376.925	257.46
377.305	277.13
377.686	264.92
378.066	286.62
378.447	284.36
378.827	281.42
379.208	281.42
379.588	280.06
379.968	274.41
380.349	297.92
380.729	306.28
381.109	271.25
381.489	286.16
381.87	281.87
382.25	284.81
382.63	267.41
383.01	276.67
383.39	292.27
383.77	276.9
384.15	289.33
384.53	287.07
384.91	276.45
385.29	265.83
385.67	289.55
386.049	281.19
386.429	282.1
386.809	280.97
387.189	297.46
387.568	282.1
387.948	288.88
388.328	274.87
388.707	284.36
389.087	294.53
389.466	279.61
389.846	281.87
390.225	301.76
390.605	311.7
390.984	291.14
391.363	293.85
391.743	288.42
392.122	285.03
392.501	276.9
392.881	275.32
393.26	287.75
393.639	297.24
394.018	300.18
394.397	287.52
394.776	288.65
395.155	287.75
395.534	276
395.913	280.97
396.292	293.85
396.671	276.45
397.05	278.71
397.429	295.2
397.808	297.92
398.186	287.52
398.565	288.65
398.944	297.24
399.323	287.52
399.701	270.8
400.08	283
400.458	292.49
400.837	301.53
401.215	300.4
401.594	314.41
401.972	288.2
402.351	300.85
402.729	291.14
403.107	299.95
403.486	306.5
403.864	286.16
404.242	306.28
404.62	298.82
404.999	294.07
405.377	297.24
405.755	326.16
406.133	294.75
406.511	315.99
406.889	305.15
407.267	293.4
407.645	304.47
408.023	283
408.401	282.1
408.779	302.21
409.156	290.01
409.534	303.79
409.912	280.29
410.29	299.27
410.667	324.81
411.045	291.59
411.422	290.91
411.8	287.52
412.178	296.33
412.555	299.05
412.933	313.06
413.31	314.19
413.687	285.03
414.065	289.33
414.442	299.27
414.819	296.56
415.197	294.3
415.574	289.1
415.951	297.01
416.328	318.48
416.705	298.59
417.082	310.8
417.46	300.18
417.837	293.17
418.214	303.34
418.591	297.01
418.967	296.11
419.344	293.17
419.721	310.12
420.098	308.76
420.475	301.53
420.852	289.55
421.228	315.54
421.605	312.83
421.982	320.74
422.358	315.99
422.735	335.66
423.111	327.29
423.488	315.32
423.864	317.35
424.241	290.91
424.617	303.34
424.994	298.59
425.37	311.02
425.746	288.42
426.123	325.71
426.499	297.01
426.875	318.03
427.251	299.27
427.627	308.76
428.003	321.19
428.379	332.94
428.756	306.05
429.132	312.38
429.507	311.25
429.883	319.84
430.259	311.25
430.635	304.47
431.011	311.47
431.387	295.66
431.763	313.28
432.138	305.6
432.514	315.09
432.89	315.54
433.265	342.66
433.641	322.32
434.016	321.19
434.392	321.19
434.767	316.22
435.143	324.13
435.518	311.47
435.894	326.16
436.269	320.74
436.644	319.61
437.02	317.12
437.395	328.2
437.77	323.45
438.145	317.8
438.52	330.01
438.895	301.31
439.271	345.37
439.646	323.68
440.021	321.87
440.395	332.04
440.77	331.14
441.145	334.3
441.52	346.05
441.895	322.55
442.27	325.94
442.645	324.58
443.019	331.36
443.394	325.49
443.769	357.12
444.143	332.49
444.518	357.58
444.892	332.94
445.267	347.86
445.641	338.59
446.016	367.07
446.39	339.5
446.764	358.71
447.139	369.1
447.513	341.53
447.887	355.99
448.262	348.54
448.636	347.63
449.01	357.58
449.384	348.08
449.758	361.42
450.132	377.69
450.506	375.65
450.88	346.28
451.254	373.39
451.628	365.03
452.002	359.61
452.376	381.98
452.75	363.68
453.123	359.84
453.497	354.19
453.871	356.9
454.244	355.32
454.618	352.6
454.992	374.75
455.365	367.52
455.739	356.22
456.112	358.71
456.486	378.82
456.859	355.77
457.232	332.72
457.606	363.22
457.979	349.44
458.352	372.49
458.725	372.72
459.099	358.03
459.472	360.74
459.845	365.26
460.218	375.65
460.591	372.26
460.964	366.84
461.337	351.7
461.71	351.7
462.083	369.1
462.456	366.84
462.829	359.84
463.201	358.48
463.574	361.87
463.947	361.87
464.32	356.22
464.692	354.19
465.065	361.87
465.438	353.06
465.81	365.26
466.183	351.02
466.555	377.69
466.928	355.99
467.3	343.34
467.672	356.9
468.045	337.69
468.417	355.54
468.789	345.82
469.161	379.72
469.534	361.87
469.906	353.96
470.278	348.76
470.65	358.03
471.022	365.94
471.394	327.29
471.766	366.84
472.138	348.08
472.51	379.95
472.882	354.19
473.253	340.17
473.625	366.39
473.997	353.06
474.369	332.94
474.74	362.09
475.112	343.56
475.484	350.57
475.855	337.46
476.227	336.33
476.598	351.02
476.97	361.19
477.341	351.93
477.713	356.9
478.084	338.82
478.455	366.16
478.827	352.6
479.198	332.27
479.569	364.35
479.94	348.99
480.311	332.72
480.682	361.64
481.053	366.84
481.424	349.44
481.795	334.75
482.166	355.32
482.537	347.41
482.908	356.67
483.279	351.93
483.65	355.09
484.021	368.42
484.391	362.77
484.762	370
485.133	362.55
485.503	344.92
485.874	364.58
486.244	353.51
486.615	354.86
486.985	370.23
487.356	357.12
487.726	366.39
488.097	374.07
488.467	381.3
488.837	367.74
489.207	365.71
489.578	364.13
489.948	396.44
490.318	370.68
490.688	370.68
491.058	362.55
491.428	360.29
491.798	371.36
492.168	361.87
492.538	384.92
492.908	394.41
493.278	354.64
493.648	370.23
494.017	383.11
494.387	382.21
494.757	395.77
495.126	376.56
495.496	390.34
495.866	396.44
496.235	380.17
496.605	393.28
496.974	386.28
497.344	381.08
497.713	396.22
498.082	378.82
498.452	367.74
498.821	385.15
499.19	409.33
499.559	402.09
499.928	402.77
500.298	395.54
500.667	383.34
501.036	397.57
501.405	414.75
501.774	412.26
502.143	401.64
502.512	383.11
502.88	400.06
503.249	409.55
503.618	419.72
503.987	408.2
504.356	417.46
504.724	413.62
505.093	398.7
505.462	399.38
505.83	412.72
506.199	405.94
506.567	414.97
506.936	410.91
507.304	431.7
507.672	407.97
508.041	431.47
508.409	428.53
508.777	441.19
509.145	437.57
509.514	432.15
509.882	436.9
510.25	440.06
510.618	431.47
510.986	435.99
511.354	437.12
511.722	455.43
512.09	441.87
512.458	437.57
512.826	434.86
513.193	449.1
513.561	459.95
513.929	420.62
514.297	447.29
514.664	443.45
515.032	433.28
515.4	434.18
515.767	456.1
516.135	458.36
516.502	450.91
516.869	472.83
517.237	446.61
517.604	452.26
517.972	463.79
518.339	447.52
518.706	440.29
519.073	462.66
519.44	480.51
519.808	446.39
520.175	463.11
520.542	480.74
520.909	456.56
521.276	473.05
521.643	471.92
522.009	462.43
522.376	468.08
522.743	464.24
523.11	474.86
523.477	463.11
523.843	476.67
524.21	472.83
524.577	460.4
524.943	493.39
525.31	487.97
525.676	471.24
526.043	477.12
526.409	492.04
526.776	469.66
527.142	476.44
527.508	473.96
527.874	490.45
528.241	501.98
528.607	470.11
528.973	490
529.339	477.12
529.705	486.39
530.071	483
530.437	478.02
530.803	486.61
531.169	486.84
531.535	478.93
531.901	489.1
532.267	478.25
532.632	521.41
532.998	513.73
533.364	500.85
533.73	493.84
534.095	500.62
534.461	501.07
534.826	501.75
535.192	480.06
535.557	510.11
535.923	501.98
536.288	516.22
536.653	491.36
537.019	497.91
537.384	521.41
537.749	492.94
538.114	504.01
538.479	488.87
538.845	493.62
539.21	508.53
539.575	501.98
539.94	507.63
540.305	499.27
540.67	500.62
541.034	532.94
541.399	511.47
541.764	521.41
542.129	511.02
542.494	509.44
542.858	510.34
543.223	488.19
543.587	527.74
543.952	535.65
544.316	519.15
544.681	496.33
545.045	516.89
545.41	528.42
545.774	523.9
546.138	519.83
546.503	519.15
546.867	542.43
547.231	520.51
547.595	506.95
547.959	532.71
548.324	520.73
548.688	524.12
549.052	526.38
549.416	521.86
549.779	529.1
550.143	526.61
550.507	527.06
550.871	542.88
551.235	546.5
551.599	549.66
551.962	539.04
552.326	539.27
552.689	534.29
553.053	522.99
553.417	528.87
553.78	518.25
554.143	537.46
554.507	527.51
554.87	533.62
555.234	541.98
555.597	528.64
555.96	513.05
556.323	516.22
556.686	534.52
557.05	519.15
557.413	539.72
557.776	544.46
558.139	533.84
558.502	533.39
558.865	538.81
559.228	531.81
559.59	565.25
559.953	552.82
560.316	528.19
560.679	547.17
561.041	563.67
561.404	552.15
561.767	560.06
562.129	568.42
562.492	571.58
562.854	548.08
563.217	557.57
563.579	574.97
563.941	567.29
564.304	534.07
564.666	558.93
565.028	562.32
565.39	567.06
565.753	555.31
566.115	563.22
566.477	567.51
566.839	558.25
567.201	576.33
567.563	570.45
567.925	564.8
568.287	582.88
568.648	574.74
569.01	584.24
569.372	581.52
569.734	559.15
570.095	583.11
570.457	590.56
570.819	585.37
571.18	562.54
571.542	578.13
571.903	576.78
572.265	584.24
572.626	579.94
572.987	603.67
573.349	582.43
573.71	583.78
574.071	579.26
574.432	590.11
574.794	586.72
575.155	603.22
575.516	584.46
575.877	590.34
576.238	574.97
576.599	579.04
576.96	592.37
577.32	593.73
577.681	593.05
578.042	580.39
578.403	586.04
578.763	590.11
579.124	598.47
579.485	565.03
579.845	595.54
580.206	581.52
580.566	587.4
580.927	584.91
581.287	597.34
581.648	584.46
582.008	597.8
582.368	609.55
582.728	589.89
583.089	605.48
583.449	587.63
583.809	593.73
584.169	579.49
584.529	586.5
584.889	596.21
585.249	572.26
585.609	591.92
585.969	593.95
586.329	592.37
586.688	578.13
587.048	619.94
587.408	588.98
587.768	583.78
588.127	576.33
588.487	581.3
588.846	577.68
589.206	590.11
589.565	598.92
589.925	584.01
590.284	569.32
590.643	580.17
591.003	580.62
591.362	594.86
591.721	574.97
592.08	585.82
592.44	574.52
592.799	577.68
593.158	583.33
593.517	578.81
593.876	562.09
594.235	564.58
594.593	577.23
594.952	596.21
595.311	583.11
595.67	552.37
596.029	587.63
596.387	569.77
596.746	578.59
597.104	565.48
597.463	543.11
597.822	557.12
598.18	573.84
598.538	559.6
598.897	568.19
599.255	572.71
599.613	580.39
599.972	587.63
600.33	560.73
600.688	568.42
601.046	587.63
601.404	567.29
601.762	571.36
602.12	566.84
602.478	574.07
602.836	567.74
603.194	558.47
603.552	573.84
603.91	546.72
604.268	546.5
604.625	572.94
604.983	559.38
605.341	573.84
605.698	566.84
606.056	568.64
606.413	558.25
606.771	577.23
607.128	558.7
607.485	567.06
607.843	558.93
608.2	554.63
608.557	574.07
608.914	584.24
609.272	563.67
609.629	565.03
609.986	578.36
610.343	574.74
610.7	561.19
611.057	527.97
611.414	552.37
611.771	561.86
612.127	562.77
612.484	548.08
612.841	524.58
613.198	555.08
613.554	551.92
613.911	575.87
614.267	539.27
614.624	546.27
614.98	529.1
615.337	545.14
615.693	555.54
616.05	522.77
616.406	550.56
616.762	526.84
617.118	538.14
617.475	551.69
617.831	531.81
618.187	526.16
618.543	541.53
618.899	509.89
619.255	534.29
619.611	525.71
619.967	550.79
620.323	545.59
620.678	521.64
621.034	539.94
621.39	523.9
621.746	555.99
622.101	527.74
622.457	523.45
622.812	519.83
623.168	517.8
623.523	502.66
623.879	521.41
624.234	511.02
624.589	508.08
624.945	521.41
625.3	508.98
625.655	500.62
626.01	523.45
626.365	498.59
626.72	510.34
627.075	518.7
627.43	517.8
627.785	508.53
628.14	502.43
628.495	527.29
628.85	506.5
629.205	517.8
629.559	509.21
629.914	499.27
630.269	511.47
630.623	511.02
630.978	479.38
631.332	480.74
631.687	491.81
632.041	495.65
632.396	510.11
632.75	509.66
633.104	484.58
633.459	475.54
633.813	484.58
634.167	484.8
634.521	500.85
634.875	470.11
635.229	503.56
635.583	493.39
635.937	473.96
636.291	480.28
636.645	482.77
636.999	468.08
637.352	474.86
637.706	473.5
638.06	473.05
638.413	480.28
638.767	474.41
639.121	460.85
639.474	471.92
639.828	478.93
640.181	474.41
640.534	439.83
640.888	461.08
641.241	487.29
641.594	465.14
641.947	466.95
642.301	449.1
642.654	457.23
643.007	465.6
643.36	460.62
643.713	441.64
644.066	478.7
644.419	462.43
644.771	464.92
645.124	447.29
645.477	451.13
645.83	427.4
646.182	453.17
646.535	451.81
646.888	437.35
647.24	433.51
647.593	449.1
647.945	444.13
648.298	451.81
648.65	434.86
649.002	417.23
649.355	435.54
649.707	443.67
650.059	440.29
650.411	432.6
650.763	436.9
651.115	461.53
651.467	455.65
651.819	422.88
652.171	421.08
652.523	440.74
652.875	428.99
653.227	439.16
653.578	442.32
653.93	432.83
654.282	423.11
654.633	431.92
654.985	394.64
655.337	416.1
655.688	407.52
656.039	400.96
656.391	399.61
656.742	403.68
657.094	398.03
657.445	433.96
657.796	409.78
658.147	433.51
658.498	405.71
658.849	399.83
659.2	417.46
659.551	420.17
659.902	412.26
660.253	416.1
660.604	419.04
660.955	403
661.306	407.74
661.656	405.94
662.007	391.02
662.358	401.19
662.708	387.41
663.059	387.86
663.409	405.71
663.76	401.64
664.11	406.39
664.461	395.99
664.811	413.62
665.161	407.07
665.511	374.3
665.862	380.17
666.212	394.18
666.562	400.74
666.912	386.95
667.262	391.25
667.612	390.12
667.962	395.77
668.312	395.09
668.662	405.48
669.011	378.37
669.361	381.76
669.711	387.41
670.06	392.83
670.41	384.47
670.76	383.11
671.109	380.4
671.459	383.79
671.808	393.05
672.157	398.7
672.507	376.56
672.856	389.66
673.205	379.95
673.554	378.14
673.904	373.39
674.253	393.28
674.602	398.03
674.951	386.95
675.3	371.13
675.649	379.27
675.998	387.41
676.346	366.84
676.695	385.15
677.044	393.28
677.393	376.78
677.741	389.89
678.09	383.11
678.438	387.86
678.787	377.46
679.135	375.2
679.484	368.65
679.832	369.33
680.181	373.62
680.529	374.75
680.877	371.59
681.225	377.46
681.573	390.79
681.922	370.68
682.27	393.51
682.618	354.64
682.966	356.9
683.314	356.67
683.661	370
684.009	379.72
684.357	351.93
684.705	343.34
685.053	365.94
685.4	381.08
685.748	361.64
686.095	377.01
686.443	372.49
686.79	358.93
687.138	356.22
687.485	356.9
687.832	360.29
688.18	376.56
688.527	361.87
688.874	352.15
689.221	356.22
689.568	353.28
689.915	354.41
690.262	351.93
690.609	346.28
690.956	344.02
691.303	365.03
691.65	383.34
691.997	357.12
692.344	370.91
692.69	350.34
693.037	348.99
693.383	349.89
693.73	353.51
694.077	332.49
694.423	355.99
694.769	361.87
695.116	336.78
695.462	374.98
695.808	367.74
696.155	344.69
696.501	340.17
696.847	336.11
697.193	361.87
697.539	371.36
697.885	354.86
698.231	336.78
698.577	361.87
698.923	355.54
699.269	372.26
699.614	346.95
699.96	342.89
700.306	331.59
700.651	357.8
700.997	357.12
701.342	328.42
701.688	337.24
702.033	358.93
702.379	345.82
702.724	330.46
703.069	349.67
703.415	381.3
703.76	353.51
704.105	348.31
704.45	366.39
704.795	353.28
705.14	352.38
705.485	334.07
705.83	336.33
706.175	345.6
706.52	353.06
706.865	351.25
707.209	348.31
707.554	332.04
707.899	344.69
708.243	346.05
708.588	366.16
708.932	346.5
709.277	337.24
709.621	338.37
709.966	366.61
710.31	346.05
710.654	364.35
710.998	338.59
711.342	341.98
711.687	338.82
712.031	346.95
712.375	348.99
712.719	352.38
713.063	332.27
713.407	334.98
713.75	334.3
714.094	336.11
714.438	343.34
714.782	355.54
715.125	335.88
715.469	340.85
715.812	332.04
716.156	340.85
716.499	319.38
716.843	314.19
717.186	342.21
717.53	319.16
717.873	335.43
718.216	321.87
718.559	327.52
718.902	313.96
719.246	331.36
719.589	319.16
719.932	326.39
720.275	327.97
720.617	337.69
720.96	361.42
721.303	337.01
721.646	342.21
721.989	335.88
722.331	347.86
722.674	319.16
723.016	336.33
723.359	314.86
723.701	355.54
724.044	338.14
724.386	332.72
724.729	332.94
725.071	324.58
725.413	318.03
725.755	334.3
726.097	342.66
726.439	340.4
726.782	317.58
727.124	354.41
727.465	342.21
727.807	320.06
728.149	338.82
728.491	338.14
728.833	337.01
729.175	348.31
729.516	334.07
729.858	349.21
730.199	327.07
730.541	336.56
730.882	357.35
731.224	345.37
731.565	338.37
731.906	341.3
732.248	318.48
732.589	329.78
732.93	330.46
733.271	355.54
733.612	334.75
733.953	334.07
734.294	347.86
734.635	336.11
734.976	323.45
735.317	328.2
735.658	314.64
735.999	337.91
736.339	335.88
736.68	343.79
737.021	321.64
737.361	344.24
737.702	309.44
738.042	327.29
738.383	333.4
738.723	349.44
739.063	327.52
739.404	341.3
739.744	320.06
740.084	339.27
740.424	299.05
740.764	338.82
741.104	318.48
741.444	327.07
741.784	324.81
742.124	329.78
742.464	344.47
742.804	330.46
743.143	330.91
743.483	324.81
743.823	346.95
744.162	324.13
744.502	342.43
744.841	330.91
745.181	336.56
745.52	316.9
745.86	327.52
746.199	338.59
746.538	315.99
746.877	343.11
747.216	349.67
747.556	341.98
747.895	322.32
748.234	319.16
748.573	326.62
748.911	338.82
749.25	331.14
749.589	330.68
749.928	339.95
750.267	342.21
750.605	312.83
750.944	311.02
751.283	336.33
751.621	318.93
751.96	342.43
752.298	313.28
752.636	332.27
752.975	358.93
753.313	333.62
753.651	359.84
753.989	352.38
754.327	323.23
754.666	321.87
755.004	328.65
755.342	329.78
755.679	325.49
756.017	344.24
756.355	328.65
756.693	323.68
757.031	339.27
757.368	315.54
757.706	325.49
758.044	344.02
758.381	341.53
758.719	329.78
759.056	341.3
759.394	321.87
759.731	346.95
760.068	318.71
760.405	316.9
760.743	345.6
761.08	307.63
761.417	318.71
761.754	303.11
762.091	313.51
762.428	323.23
762.765	332.27
763.102	339.27
763.438	323.23
763.775	319.16
764.112	324.36
764.449	310.8
764.785	317.12
765.122	319.38
765.458	322.32
765.795	344.02
766.131	334.53
766.467	328.42
766.804	326.84
767.14	337.01
767.476	329.33
767.812	323
768.148	341.98
768.485	303.79
768.821	325.26
769.157	321.19
769.492	345.15
769.828	331.14
770.164	324.58
770.5	332.04
770.836	331.59
771.171	329.33
771.507	318.48
771.842	316.9
772.178	330.91
772.513	331.59
772.849	312.38
773.184	327.75
773.519	340.4
773.855	328.65
774.19	337.46
774.525	331.81
774.86	327.52
775.195	314.64
775.53	345.6
775.865	317.35
776.2	322.55
776.535	325.71
776.87	333.17
777.205	330.68
777.539	340.4
777.874	341.08
778.209	309.89
778.543	311.02
778.878	327.07
779.212	339.04
779.547	330.01
779.881	329.78
780.215	318.03
780.55	338.37
780.884	327.75
781.218	331.14
781.552	330.46
781.886	294.53
782.22	330.46
782.554	339.95
782.888	331.81
783.222	321.87
783.556	318.25
783.889	335.2
784.223	300.4
784.557	313.96
784.89	320.51
785.224	327.29
785.557	326.16
785.891	320.74
786.224	330.68
786.558	314.64
786.891	337.01
787.224	335.66
787.557	336.78
787.891	318.71
788.224	323.68
788.557	328.42
788.89	332.27
