Data from No_light_on_white_reflection_standard_FLMS001491_025.txt Node
Date: Tue Feb 07 10:32:57 GMT 2017
User: dcchb
Spectrometer: FLMS00149
Trigger mode: 0
Integration Time (sec): 2.000000E-2
Scans to average: 10
Electric dark correction enabled: true
Nonlinearity correction enabled: false
Boxcar width: 0
XAxis mode: Wavelengths
Number of Pixels in Spectrum: 2048
>>>>>Begin Spectral Data<<<<<
341.393	-20.83
341.776	-20.83
342.16	-20.83
342.543	-68.52
342.927	-54.73
343.31	-58.8
343.693	-72.36
344.077	-59.48
344.46	-67.61
344.843	-42.3
345.226	-67.39
345.61	-32.36
345.993	-17.22
346.376	3.12
346.759	12.16
347.142	28.88
347.525	34.31
347.908	60.07
348.291	70.69
348.674	97.81
349.057	110.46
349.44	118.6
349.823	123.34
350.206	139.61
350.588	174.19
350.971	154.98
351.354	182.55
351.737	212.83
352.119	223.23
352.502	229.56
352.884	248.09
353.267	267.97
353.65	261.65
354.032	268.65
354.414	267.97
354.797	250.12
355.179	307.75
355.562	284.02
355.944	285.83
356.326	306.16
356.709	296.45
357.091	305.03
357.473	300.51
357.855	320.18
358.238	301.87
358.62	319.05
359.002	286.73
359.384	301.64
359.766	283.57
360.148	293.28
360.53	287.63
360.912	312.94
361.294	307.52
361.676	296.22
362.057	312.94
362.439	300.51
362.821	288.09
363.203	272.49
363.584	284.7
363.966	297.8
364.348	286.28
364.729	282.44
365.111	280.63
365.493	273.85
365.874	267.97
366.256	276.56
366.637	265.04
367.019	282.21
367.4	274.98
367.781	286.5
368.163	273.85
368.544	249.44
368.925	260.97
369.306	272.27
369.688	272.94
370.069	268.65
370.45	251.48
370.831	265.71
371.212	262.32
371.593	283.34
371.974	266.39
372.355	274.3
372.736	271.59
373.117	274.07
373.498	278.14
373.879	281.98
374.26	260.52
374.641	286.28
375.021	277.46
375.402	274.3
375.783	275.2
376.163	281.98
376.544	281.53
376.925	288.76
377.305	270.68
377.686	276.11
378.066	297.12
378.447	271.36
378.827	284.92
379.208	281.76
379.588	269.1
379.968	270.68
380.349	277.46
380.729	276.56
381.109	262.32
381.489	280.4
381.87	295.09
382.25	263.23
382.63	283.11
383.01	282.21
383.39	294.41
383.77	272.94
384.15	288.31
384.53	263.68
384.91	291.25
385.29	265.49
385.67	284.92
386.049	273.17
386.429	265.71
386.809	290.57
387.189	279.72
387.568	286.73
387.948	263.23
388.328	303.23
388.707	282.89
389.087	273.4
389.466	287.41
389.846	291.02
390.225	284.47
390.605	275.43
390.984	304.81
391.363	294.64
391.743	297.58
392.122	292.38
392.501	272.04
392.881	307.07
393.26	316.33
393.639	303.68
394.018	293.96
394.397	290.35
394.776	307.29
395.155	282.44
395.534	281.98
395.913	286.5
396.292	301.42
396.671	307.97
397.05	298.25
397.429	291.48
397.808	285.37
398.186	277.69
398.565	291.48
398.944	316.33
399.323	285.15
399.701	273.4
400.08	279.5
400.458	284.24
400.837	303.9
401.215	283.11
401.594	281.31
401.972	298.48
402.351	290.35
402.729	305.94
403.107	286.73
403.486	281.53
403.864	273.85
404.242	299.84
404.62	303
404.999	310.01
405.377	307.52
405.755	306.16
406.133	295.77
406.511	299.61
406.889	291.7
407.267	318.14
407.645	281.08
408.023	286.28
408.401	303.68
408.779	310.23
409.156	286.05
409.534	294.87
409.912	308.2
410.29	297.58
410.667	303.45
411.045	305.49
411.422	310.23
411.8	313.62
412.178	289.89
412.555	285.83
412.933	295.54
413.31	312.49
413.687	309.33
414.065	278.14
414.442	309.55
414.819	312.72
415.197	298.93
415.574	276.56
415.951	302.55
416.328	301.19
416.705	308.42
417.082	324.47
417.46	303.68
417.837	292.38
418.214	300.06
418.591	297.35
418.967	289.44
419.344	303.9
419.721	303
420.098	306.84
420.475	309.55
420.852	302.1
421.228	317.92
421.605	290.35
421.982	295.77
422.358	299.61
422.735	294.19
423.111	304.58
423.488	310.23
423.864	306.16
424.241	292.38
424.617	297.12
424.994	294.19
425.37	305.49
425.746	320.85
426.123	324.02
426.499	314.75
426.875	297.58
427.251	285.6
427.627	309.1
428.003	316.33
428.379	311.81
428.756	301.87
429.132	301.19
429.507	310.91
429.883	274.3
430.259	322.89
430.635	300.06
431.011	284.7
431.387	303.68
431.763	317.69
432.138	326.28
432.514	317.92
432.89	309.33
433.265	301.42
433.641	300.29
434.016	311.81
434.392	287.63
434.767	304.13
435.143	326.73
435.518	305.71
435.894	319.05
436.269	319.95
436.644	317.01
437.02	302.55
437.395	343
437.77	324.69
438.145	336.45
438.52	334.19
438.895	345.49
439.271	318.82
439.646	315.43
440.021	317.92
440.395	321.08
440.77	324.47
441.145	329.44
441.52	349.1
441.895	355.88
442.27	332.6
442.645	326.28
443.019	324.02
443.394	316.56
443.769	328.31
444.143	345.94
444.518	352.26
444.892	350
445.267	347.07
445.641	336.45
446.016	331.02
446.39	353.17
446.764	345.26
447.139	356.33
447.513	357.24
447.887	371.93
448.262	357.69
448.636	352.72
449.01	343.23
449.384	353.85
449.758	375.77
450.132	376.44
450.506	385.71
450.88	349.33
451.254	372.38
451.628	362.89
452.002	385.48
452.376	368.76
452.75	365.37
453.123	354.98
453.497	373.28
453.871	359.5
454.244	354.98
454.618	390.91
454.992	360.17
455.365	348.65
455.739	377.12
456.112	369.44
456.486	350.91
456.859	359.04
457.232	357.46
457.606	398.59
457.979	353.17
458.352	365.6
458.725	350.23
459.099	366.95
459.472	363.56
459.845	353.85
460.218	342.77
460.591	351.36
460.964	363.79
461.337	352.94
461.71	367.18
462.083	337.35
462.456	337.35
462.829	359.5
463.201	324.47
463.574	358.14
463.947	361.08
464.32	349.33
464.692	341.42
465.065	373.96
465.438	350.23
465.81	344.81
466.183	351.81
466.555	321.98
466.928	330.12
467.3	353.39
467.672	343.45
468.045	352.26
468.417	369.21
468.789	350.91
469.161	356.33
469.534	348.88
469.906	339.16
470.278	346.16
470.65	352.94
471.022	354.98
471.394	356.11
471.766	357.24
472.138	345.71
472.51	354.07
472.882	340.97
473.253	365.15
473.625	373.51
473.997	340.29
474.369	345.03
474.74	345.26
475.112	351.13
475.484	338.93
475.855	340.29
476.227	347.75
476.598	355.88
476.97	337.12
477.341	354.52
477.713	350
478.084	341.42
478.455	329.89
478.827	346.84
479.198	354.98
479.569	335.09
479.94	347.52
480.311	372.83
480.682	357.46
481.053	354.98
481.424	365.37
481.795	354.98
482.166	343.9
482.537	344.36
482.908	363.34
483.279	347.75
483.65	358.37
484.021	375.77
484.391	373.28
484.762	384.58
485.133	352.26
485.503	343.68
485.874	362.66
486.244	340.29
486.615	339.84
486.985	369.89
487.356	366.73
487.726	357.91
488.097	362.89
488.467	377.8
488.837	359.27
489.207	356.11
489.578	354.75
489.948	366.5
490.318	373.73
490.688	371.93
491.058	357.01
491.428	354.75
491.798	386.61
492.168	366.95
492.538	367.86
492.908	368.54
493.278	368.99
493.648	362.43
494.017	374.64
494.387	371.93
494.757	373.28
495.126	397.46
495.496	405.82
495.866	386.16
496.235	388.2
496.605	390.46
496.974	369.44
497.344	403.79
497.713	392.94
498.082	387.07
498.452	385.71
498.821	389.78
499.19	395.2
499.559	411.92
499.928	397.24
500.298	374.86
500.667	385.71
501.036	399.27
501.405	400.85
501.774	373.96
502.143	402.21
502.512	416.67
502.88	400.63
503.249	405.37
503.618	416.44
503.987	408.08
504.356	418.03
504.724	406.05
505.093	395.2
505.462	407.63
505.83	421.19
506.199	426.39
506.567	420.51
506.936	397.46
507.304	410.12
507.672	423.22
508.041	439.27
508.409	417.8
508.777	410.12
509.145	425.26
509.514	425.71
509.882	425.48
510.25	430.23
510.618	427.29
510.986	415.99
511.354	452.15
511.722	414.41
512.09	426.61
512.458	446.27
512.826	444.01
513.193	426.16
513.561	432.71
513.929	406.27
514.297	449.44
514.664	448.76
515.032	437.91
515.4	444.01
515.767	451.25
516.135	445.6
516.502	423.22
516.869	446.73
517.237	461.19
517.604	428.87
517.972	432.26
518.339	442.66
518.706	460.96
519.073	453.51
519.44	445.6
519.808	450.57
520.175	456.44
520.542	471.58
520.909	474.52
521.276	427.74
521.643	461.19
522.009	451.47
522.376	472.71
522.743	479.04
523.11	446.73
523.477	470.68
523.843	456.44
524.21	475.65
524.577	486.95
524.943	476.1
525.31	483.11
525.676	495.76
526.043	487.4
526.409	515.88
526.776	453.96
527.142	467.52
527.508	455.54
527.874	481.53
528.241	487.18
528.607	466.39
528.973	467.97
529.339	480.85
529.705	476.1
530.071	470.23
530.437	465.48
530.803	475.43
531.169	496.67
531.535	477.23
531.901	505.93
532.267	491.47
532.632	486.05
532.998	491.24
533.364	495.76
533.73	473.62
534.095	508.64
534.461	490.34
534.826	503.9
535.192	501.87
535.557	503
535.923	523.11
536.288	482.2
536.653	508.64
537.019	511.36
537.384	519.04
537.749	471.81
538.114	504.13
538.479	500.51
538.845	498.48
539.21	511.58
539.575	498.25
539.94	514.29
540.305	522.88
540.67	504.8
541.034	518.81
541.399	510.68
541.764	505.26
542.129	499.38
542.494	518.59
542.858	514.52
543.223	505.93
543.587	517.23
543.952	517.46
544.316	504.8
544.681	493.05
545.045	522.2
545.41	516.1
545.774	515.2
546.138	504.58
546.503	512.71
546.867	513.62
547.231	523.79
547.595	533.5
547.959	519.49
548.324	521.75
548.688	482.66
549.052	514.07
549.416	515.88
549.779	535.76
550.143	516.78
550.507	535.54
550.871	495.76
551.235	514.29
551.599	527.18
551.962	503.45
552.326	550
552.689	518.36
553.053	551.81
553.417	523.11
553.78	525.37
554.143	517.23
554.507	516.1
554.87	554.07
555.234	528.31
555.597	542.09
555.96	528.98
556.323	543.22
556.686	518.81
557.05	535.31
557.413	542.09
557.776	514.75
558.139	534.41
558.502	539.6
558.865	545.03
559.228	551.36
559.59	529.21
559.953	547.97
560.316	528.53
560.679	535.99
561.041	529.44
561.404	547.29
561.767	544.58
562.129	550.9
562.492	543.67
562.854	543.67
563.217	540.96
563.579	552.26
563.941	541.41
564.304	534.86
564.666	566.72
565.028	539.83
565.39	564.46
565.753	579.15
566.115	551.58
566.477	557.23
566.839	568.76
567.201	554.07
567.563	551.58
567.925	547.74
568.287	567.17
568.648	555.2
569.01	556.55
569.372	564.46
569.734	565.14
570.095	547.74
570.457	572.37
570.819	549.32
571.18	561.98
571.542	562.88
571.903	538.93
572.265	575.76
572.626	553.84
572.987	559.04
573.349	559.94
573.71	587.51
574.071	597.23
574.432	581.41
574.794	585.48
575.155	569.89
575.516	573.95
575.877	570.79
576.238	541.19
576.599	603.11
576.96	559.94
577.32	573.28
577.681	572.37
578.042	571.69
578.403	594.29
578.763	579.6
579.124	600.17
579.485	586.38
579.845	573.73
580.206	580.73
580.566	587.29
580.927	575.76
581.287	590
581.648	591.58
582.008	583.9
582.368	587.96
582.728	600.62
583.089	571.24
583.449	576.21
583.809	577.12
584.169	582.09
584.529	578.47
584.889	581.86
585.249	591.35
585.609	568.3
585.969	580.96
586.329	608.3
586.688	586.38
587.048	576.89
587.408	564.01
587.768	556.1
588.127	578.25
588.487	577.8
588.846	575.76
589.206	579.38
589.565	581.19
589.925	552.94
590.284	572.6
590.643	566.5
591.003	561.07
591.362	563.78
591.721	566.04
592.08	584.12
592.44	581.86
592.799	558.14
593.158	589.32
593.517	576.21
593.876	586.38
594.235	557.68
594.593	573.73
594.952	562.43
595.311	578.7
595.67	562.88
596.029	562.88
596.387	572.6
596.746	582.99
597.104	566.27
597.463	556.78
597.822	543.22
598.18	555.2
598.538	545.48
598.897	571.02
599.255	554.52
599.613	555.65
599.972	590
600.33	548.42
600.688	581.19
601.046	566.72
601.404	577.12
601.762	552.26
602.12	570.11
602.478	577.57
602.836	567.4
603.194	556.78
603.552	558.36
603.91	563.33
604.268	560.85
604.625	554.52
604.983	558.59
605.341	552.49
605.698	557.91
606.056	554.97
606.413	563.33
606.771	570.34
607.128	545.93
607.485	570.34
607.843	531.24
608.2	544.58
608.557	541.41
608.914	548.64
609.272	563.11
609.629	544.8
609.986	564.46
610.343	538.47
610.7	559.49
611.057	551.81
611.414	557.68
611.771	547.97
612.127	525.82
612.484	528.76
612.841	554.52
613.198	556.78
613.554	557.68
613.911	544.35
614.267	508.19
614.624	547.29
614.98	524.46
615.337	527.4
615.693	542.77
616.05	537.57
616.406	556.1
616.762	535.08
617.118	512.26
617.475	523.33
617.831	524.01
618.187	526.95
618.543	510.23
618.899	527.63
619.255	535.99
619.611	512.94
619.967	527.85
620.323	533.5
620.678	515.2
621.034	516.1
621.39	510.45
621.746	531.02
622.101	507.97
622.457	514.52
622.812	502.32
623.168	514.29
623.523	501.41
623.879	512.71
624.234	519.27
624.589	502.77
624.945	503.22
625.3	511.58
625.655	506.16
626.01	504.8
626.365	491.02
626.72	504.58
627.075	496.44
627.43	500.51
627.785	471.36
628.14	497.57
628.495	492.37
628.85	498.7
629.205	497.8
629.559	522.2
629.914	496.89
630.269	498.25
630.623	486.72
630.978	510.45
631.332	497.35
631.687	485.14
632.041	477.46
632.396	501.41
632.75	505.03
633.104	521.75
633.459	474.07
633.813	496.67
634.167	492.15
634.521	499.83
634.875	467.29
635.229	463.45
635.583	466.39
635.937	466.84
636.291	468.87
636.645	467.29
636.999	479.49
637.352	458.93
637.706	464.8
638.06	470.68
638.413	467.74
638.767	478.82
639.121	472.04
639.474	467.29
639.828	453.51
640.181	467.06
640.534	470.23
640.888	459.38
641.241	473.17
641.594	448.76
641.947	470.91
642.301	471.58
642.654	440.85
643.007	452.38
643.36	449.89
643.713	440.85
644.066	457.12
644.419	450.34
644.771	459.38
645.124	439.95
645.477	455.99
645.83	430.23
646.182	407.18
646.535	450.79
646.888	430.45
647.24	443.56
647.593	408.31
647.945	435.88
648.298	446.95
648.65	415.54
649.002	425.26
649.355	437.46
649.707	430.23
650.059	416.22
650.411	427.52
650.763	423.22
651.115	431.81
651.467	448.53
651.819	430.68
652.171	472.94
652.523	439.49
652.875	412.83
653.227	408.99
653.578	402.21
653.93	418.03
654.282	402.66
654.633	429.78
654.985	441.08
655.337	414.64
655.688	394.75
656.039	394.07
656.391	400.63
656.742	418.93
657.094	406.95
657.445	421.64
657.796	420.96
658.147	420.51
658.498	401.3
658.849	405.37
659.2	399.95
659.551	406.73
659.902	415.54
660.253	392.04
660.604	401.75
660.955	411.7
661.306	398.59
661.656	415.77
662.007	424.13
662.358	395.2
662.708	390.68
663.059	397.69
663.409	398.59
663.76	403.79
664.11	407.86
664.461	410.79
664.811	385.48
665.161	409.44
665.511	394.98
665.862	383.9
666.212	375.31
666.562	400.85
666.912	397.69
667.262	401.08
667.612	404.47
667.962	369.67
668.312	393.85
668.662	385.48
669.011	380.06
669.361	378.93
669.711	375.54
670.06	384.58
670.41	390.91
670.76	391.81
671.109	379.16
671.459	380.74
671.808	390.91
672.157	393.39
672.507	398.59
672.856	392.72
673.205	376.67
673.554	385.94
673.904	384.58
674.253	383.45
674.602	347.07
674.951	371.25
675.3	393.39
675.649	383
675.998	377.57
676.346	393.85
676.695	371.25
677.044	379.83
677.393	383.45
677.741	392.04
678.09	376.9
678.438	378.48
678.787	374.41
679.135	381.87
679.484	384.35
679.832	358.37
680.181	361.98
680.529	373.96
680.877	363.56
681.225	370.8
681.573	358.59
681.922	366.73
682.27	362.66
682.618	369.21
682.966	395.2
683.314	374.19
683.661	367.63
684.009	366.28
684.357	380.74
684.705	360.4
685.053	366.73
685.4	362.21
685.748	373.73
686.095	368.08
686.443	363.56
686.79	347.75
687.138	377.12
687.485	360.17
687.832	356.33
688.18	344.58
688.527	350.68
688.874	363.34
689.221	353.62
689.568	368.08
689.915	363.11
690.262	372.83
690.609	364.92
690.956	352.49
691.303	368.31
691.65	345.03
691.997	364.69
692.344	340.97
692.69	373.51
693.037	357.69
693.383	349.78
693.73	362.21
694.077	354.98
694.423	344.36
694.769	346.39
695.116	353.39
695.462	361.3
695.808	352.72
696.155	367.18
696.501	349.78
696.847	346.39
697.193	340.74
697.539	350.23
697.885	348.42
698.231	355.88
698.577	354.3
698.923	343.68
699.269	344.58
699.614	355.43
699.96	340.74
700.306	345.49
700.651	333.96
700.997	348.42
701.342	339.61
701.688	340.06
702.033	345.49
702.379	350
702.724	334.41
703.069	361.53
703.415	345.49
703.76	347.07
704.105	360.63
704.45	354.07
704.795	356.11
705.14	351.81
705.485	335.32
705.83	353.85
706.175	328.31
706.52	347.97
706.865	337.8
707.209	359.72
707.554	341.19
707.899	343.23
708.243	339.84
708.588	363.11
708.932	328.31
709.277	360.17
709.621	341.19
709.966	342.77
710.31	337.12
710.654	334.41
710.998	337.35
711.342	331.02
711.687	340.51
712.031	346.39
712.375	346.84
712.719	339.38
713.063	356.11
713.407	336.45
713.75	332.83
714.094	349.1
714.438	342.55
714.782	331.7
715.125	338.25
715.469	327.41
715.812	333.28
716.156	353.39
716.499	325.15
716.843	352.26
717.186	343.9
717.53	332.38
717.873	335.54
718.216	329.21
718.559	333.73
718.902	338.03
719.246	326.28
719.589	356.33
719.932	348.65
720.275	328.54
720.617	326.73
720.96	336.45
721.303	347.97
721.646	336.67
721.989	338.03
722.331	352.04
722.674	335.09
723.016	334.41
723.359	329.44
723.701	344.36
724.044	336.45
724.386	311.59
724.729	342.77
725.071	339.61
725.413	334.64
725.755	338.03
726.097	333.73
726.439	328.08
726.782	352.49
727.124	344.58
727.465	309.55
727.807	362.66
728.149	333.06
728.491	328.31
728.833	321.53
729.175	328.76
729.516	333.51
729.858	320.63
730.199	314.07
730.541	317.92
730.882	335.09
731.224	344.36
731.565	345.26
731.906	345.26
732.248	315.43
732.589	331.47
732.93	343.68
733.271	319.5
733.612	350
733.953	332.15
734.294	343.68
734.635	342.77
734.976	320.18
735.317	333.96
735.658	323.56
735.999	317.24
736.339	326.5
736.68	328.08
737.021	338.93
737.361	320.18
737.702	327.18
738.042	336.22
738.383	317.92
738.723	329.21
739.063	328.54
739.404	309.55
739.744	339.16
740.084	347.52
740.424	336.67
740.764	328.76
741.104	316.56
741.444	336.22
741.784	323.11
742.124	325.6
742.464	316.33
742.804	313.62
743.143	324.47
743.483	351.59
743.823	347.52
744.162	318.37
744.502	321.08
744.841	333.73
745.181	351.81
745.52	319.27
745.86	331.02
746.199	340.29
746.538	331.02
746.877	320.4
747.216	327.41
747.556	322.44
747.895	321.98
748.234	327.86
748.573	330.34
748.911	330.57
749.25	342.1
749.589	322.44
749.928	312.04
750.267	313.85
750.605	324.47
750.944	312.94
751.283	310.68
751.621	330.34
751.96	322.21
752.298	317.69
752.636	335.54
752.975	319.72
753.313	322.89
753.651	335.77
753.989	335.54
754.327	324.02
754.666	326.73
755.004	328.31
755.342	332.15
755.679	317.01
756.017	334.41
756.355	304.81
756.693	332.15
757.031	321.31
757.368	334.19
757.706	340.29
758.044	326.73
758.381	325.15
758.719	343.68
759.056	336.45
759.394	341.19
759.731	332.6
760.068	327.18
760.405	310.01
760.743	334.41
761.08	332.15
761.417	326.5
761.754	321.31
762.091	331.47
762.428	339.16
762.765	316.11
763.102	317.69
763.438	326.28
763.775	331.25
764.112	318.14
764.449	324.69
764.785	324.69
765.122	314.75
765.458	326.5
765.795	314.75
766.131	328.99
766.467	316.33
766.804	313.17
767.14	330.34
767.476	330.34
767.812	340.51
768.148	335.54
768.485	329.21
768.821	314.98
769.157	329.21
769.492	322.66
769.828	340.97
770.164	323.56
770.5	343.9
770.836	320.4
771.171	333.51
771.507	332.38
771.842	313.62
772.178	342.1
772.513	324.92
772.849	326.95
773.184	339.61
773.519	322.66
773.855	312.27
774.19	336.22
774.525	319.27
774.86	311.59
775.195	339.84
775.53	318.59
775.865	324.92
776.2	331.25
776.535	320.63
776.87	328.54
777.205	317.69
777.539	347.07
777.874	324.24
778.209	333.06
778.543	328.31
778.878	340.29
779.212	305.26
779.547	333.28
779.881	330.34
780.215	304.13
780.55	331.7
780.884	312.04
781.218	308.2
781.552	324.47
781.886	325.37
782.22	337.12
782.554	340.51
782.888	314.98
783.222	330.8
783.556	320.18
783.889	315.43
784.223	336.45
784.557	321.98
784.89	301.87
785.224	332.6
785.557	323.34
785.891	319.05
786.224	310.01
786.558	333.06
786.891	345.49
787.224	323.79
787.557	323.11
787.891	322.66
788.224	355.65
788.557	330.12
788.89	323.34
789.223	315.88
