Data from No_light_on_white_reflection_standard_FLMS001491_061.txt Node
Date: Tue Feb 07 10:33:04 GMT 2017
User: dcchb
Spectrometer: FLMS00149
Trigger mode: 0
Integration Time (sec): 2.000000E-2
Scans to average: 10
Electric dark correction enabled: true
Nonlinearity correction enabled: false
Boxcar width: 0
XAxis mode: Wavelengths
Number of Pixels in Spectrum: 2048
>>>>>Begin Spectral Data<<<<<
341.393	-10.69
341.776	-10.69
342.16	-10.69
342.543	-65.15
342.927	-71.48
343.31	-76
343.693	-69
344.077	-68.09
344.46	-65.38
344.843	-49.33
345.226	-29.45
345.61	-21.09
345.993	-8.43
346.376	-5.95
346.759	9.19
347.142	12.36
347.525	38.8
347.908	85.8
348.291	61.85
348.674	87.38
349.057	97.33
349.44	125.58
349.823	143.65
350.206	143.88
350.588	179.36
350.971	190.88
351.354	196.31
351.737	195.18
352.119	215.29
352.502	251
352.884	234.27
353.267	239.7
353.65	268.17
354.032	282.41
354.414	279.47
354.797	286.48
355.179	299.13
355.562	306.81
355.944	302.75
356.326	311.56
356.709	296.64
357.091	294.38
357.473	313.82
357.855	311.79
358.238	297.1
358.62	315.4
359.002	308.17
359.384	300.71
359.766	288.74
360.148	302.75
360.53	304.55
360.912	293.26
361.294	294.84
361.676	296.42
362.057	311.33
362.439	313.37
362.821	306.36
363.203	282.63
363.584	298.68
363.966	283.09
364.348	273.37
364.729	305.23
365.111	279.92
365.493	280.83
365.874	270.66
366.256	293.03
366.637	284.22
367.019	285.35
367.4	271.56
367.781	270.66
368.163	271.11
368.544	296.42
368.925	276.31
369.306	276.98
369.688	256.42
370.069	281.5
370.45	265.23
370.831	267.49
371.212	298.23
371.593	269.98
371.974	282.63
372.355	278.11
372.736	274.95
373.117	272.69
373.498	286.48
373.879	266.36
374.26	264.1
374.641	258.91
375.021	279.47
375.402	254.16
375.783	271.79
376.163	286.02
376.544	281.28
376.925	284.67
377.305	277.21
377.686	288.74
378.066	288.06
378.447	281.28
378.827	272.92
379.208	281.28
379.588	279.24
379.968	302.97
380.349	277.21
380.729	275.4
381.109	289.19
381.489	272.46
381.87	287.15
382.25	280.15
382.63	293.71
383.01	301.84
383.39	306.36
383.77	278.34
384.15	293.93
384.53	277.66
384.91	276.98
385.29	284.44
385.67	295.74
386.049	286.25
386.429	288.06
386.809	296.87
387.189	280.6
387.568	298.68
387.948	289.87
388.328	289.87
388.707	297.32
389.087	288.51
389.466	291.67
389.846	283.09
390.225	292.8
390.605	300.94
390.984	291.9
391.363	277.66
391.743	304.1
392.122	285.12
392.501	291.67
392.881	284.89
393.26	291
393.639	293.26
394.018	300.94
394.397	304.33
394.776	290.09
395.155	289.87
395.534	296.19
395.913	288.51
396.292	316.53
396.671	291.67
397.05	282.86
397.429	300.94
397.808	294.61
398.186	288.06
398.565	294.38
398.944	299.81
399.323	280.37
399.701	276.76
400.08	302.75
400.458	312.69
400.837	313.14
401.215	288.96
401.594	291
401.972	284.89
402.351	297.1
402.729	284.89
403.107	288.28
403.486	303.42
403.864	276.53
404.242	297.1
404.62	325.8
404.999	309.07
405.377	294.38
405.755	295.74
406.133	291.67
406.511	298.9
406.889	307.49
407.267	312.01
407.645	290.54
408.023	297.32
408.401	310.66
408.779	307.94
409.156	307.49
409.534	304.78
409.912	303.2
410.29	300.26
410.667	312.24
411.045	326.93
411.422	285.8
411.8	291.45
412.178	315.18
412.555	315.63
412.933	282.18
413.31	310.43
413.687	319.02
414.065	296.19
414.442	286.7
414.819	301.84
415.197	319.02
415.574	316.76
415.951	326.47
416.328	316.98
416.705	309.53
417.082	309.3
417.46	322.41
417.837	295.06
418.214	323.31
418.591	312.24
418.967	307.04
419.344	293.93
419.721	309.53
420.098	308.62
420.475	314.05
420.852	324.89
421.228	297.1
421.605	291.22
421.982	286.7
422.358	301.84
422.735	304.33
423.111	321.28
423.488	314.27
423.864	312.92
424.241	322.41
424.617	312.01
424.994	310.88
425.37	309.98
425.746	299.13
426.123	314.5
426.499	312.69
426.875	312.46
427.251	321.5
427.627	315.85
428.003	295.06
428.379	326.93
428.756	326.02
429.132	319.02
429.507	318.34
429.883	306.59
430.259	320.15
430.635	316.98
431.011	312.24
431.387	315.18
431.763	328.28
432.138	324.89
432.514	321.05
432.89	320.37
433.265	323.76
433.641	313.37
434.016	305.23
434.392	319.47
434.767	336.19
435.143	316.53
435.518	303.42
435.894	328.06
436.269	325.57
436.644	328.06
437.02	320.6
437.395	326.7
437.77	342.52
438.145	319.47
438.52	310.2
438.895	336.19
439.271	341.84
439.646	341.62
440.021	328.51
440.395	324.89
440.77	331.67
441.145	338.23
441.52	331.45
441.895	341.62
442.27	344.1
442.645	352.24
443.019	337.77
443.394	326.7
443.769	340.49
444.143	326.7
444.518	361.05
444.892	342.29
445.267	342.75
445.641	342.29
446.016	343.42
446.39	360.37
446.764	351.78
447.139	353.37
447.513	365.8
447.887	348.17
448.262	356.98
448.636	376.64
449.01	384.1
449.384	359.02
449.758	351.33
450.132	334.38
450.506	363.31
450.88	382.29
451.254	373.93
451.628	373.03
452.002	364.67
452.376	359.92
452.75	387.26
453.123	372.8
453.497	368.96
453.871	381.61
454.244	367.6
454.618	366.93
454.992	385.91
455.365	390.43
455.739	383.65
456.112	368.28
456.486	369.19
456.859	368.28
457.232	365.34
457.606	361.73
457.979	375.06
458.352	385.91
458.725	359.92
459.099	365.34
459.472	367.6
459.845	352.69
460.218	362.41
460.591	348.85
460.964	355.85
461.337	360.6
461.71	362.41
462.083	370.32
462.456	369.86
462.829	355.85
463.201	345.46
463.574	368.51
463.947	370.99
464.32	352.46
464.692	336.19
465.065	362.41
465.438	338.68
465.81	343.65
466.183	376.42
466.555	379.81
466.928	353.37
467.3	349.52
467.672	354.95
468.045	363.76
468.417	345.91
468.789	362.63
469.161	340.71
469.534	367.38
469.906	356.53
470.278	345.23
470.65	365.8
471.022	346.36
471.394	349.3
471.766	341.16
472.138	364.44
472.51	376.64
472.882	338.68
473.253	364.21
473.625	340.03
473.997	352.69
474.369	349.3
474.74	343.88
475.112	347.26
475.484	346.81
475.855	353.37
476.227	328.96
476.598	349.3
476.97	341.62
477.341	362.41
477.713	351.33
478.084	362.63
478.455	343.88
478.827	336.42
479.198	359.47
479.569	355.17
479.94	376.64
480.311	363.31
480.682	347.72
481.053	362.63
481.424	357.21
481.795	361.05
482.166	346.13
482.537	364.67
482.908	360.37
483.279	340.71
483.65	357.21
484.021	348.85
484.391	356.3
484.762	356.3
485.133	358.79
485.503	350.2
485.874	365.8
486.244	359.02
486.615	359.69
486.985	363.76
487.356	361.5
487.726	376.42
488.097	366.93
488.467	387.94
488.837	362.18
489.207	360.6
489.578	368.96
489.948	370.77
490.318	368.96
490.688	359.92
491.058	400.14
491.428	377.77
491.798	381.16
492.168	378.9
492.538	382.07
492.908	382.29
493.278	367.38
493.648	395.17
494.017	388.17
494.387	378.45
494.757	399.47
495.126	365.34
495.496	401.5
495.866	393.59
496.235	380.94
496.605	383.42
496.974	387.49
497.344	409.41
497.713	399.92
498.082	383.2
498.452	406.92
498.821	397.21
499.19	406.7
499.559	387.49
499.928	382.29
500.298	408.96
500.667	402.86
501.036	400.6
501.405	415.06
501.774	410.77
502.143	408.05
502.512	428.17
502.88	417.77
503.249	392.91
503.618	414.38
503.987	403.99
504.356	421.84
504.724	427.94
505.093	420.03
505.462	413.48
505.83	401.05
506.199	408.73
506.567	424.1
506.936	407.15
507.304	418.9
507.672	427.49
508.041	430.65
508.409	435.17
508.777	437.43
509.145	439.92
509.514	447.6
509.882	423.65
510.25	435.4
510.618	414.83
510.986	434.49
511.354	421.39
511.722	464.78
512.09	454.38
512.458	441.95
512.826	445.12
513.193	446.25
513.561	448.05
513.929	466.13
514.297	430.65
514.664	439.92
515.032	456.19
515.4	448.05
515.767	440.82
516.135	457.77
516.502	450.99
516.869	430.65
517.237	434.95
517.604	453.48
517.972	471.56
518.339	437.88
518.706	455.74
519.073	460.48
519.44	464.1
519.808	456.19
520.175	480.37
520.542	456.19
520.909	457.09
521.276	478.56
521.643	453.93
522.009	481.95
522.376	470.2
522.743	440.6
523.11	467.26
523.477	472.01
523.843	495.74
524.21	472.01
524.577	475.17
524.943	482.4
525.31	469.75
525.676	466.13
526.043	479.69
526.409	486.47
526.776	493.02
527.142	476.53
527.508	481.72
527.874	474.04
528.241	466.36
528.607	502.29
528.973	505.23
529.339	479.92
529.705	508.39
530.071	479.92
530.437	505.9
530.803	478.33
531.169	501.84
531.535	493.02
531.901	495.74
532.267	502.29
532.632	514.27
532.998	494.61
533.364	501.61
533.73	505.68
534.095	510.2
534.461	522.85
534.826	483.31
535.192	507.94
535.557	509.52
535.923	489.86
536.288	526.24
536.653	512.68
537.019	509.29
537.384	509.75
537.749	518.56
538.114	507.03
538.479	526.24
538.845	546.58
539.21	499.58
539.575	514.04
539.94	506.81
540.305	521.05
540.67	500.71
541.034	514.04
541.399	518.56
541.764	513.81
542.129	522.18
542.494	561.72
542.858	520.37
543.223	541.38
543.587	523.53
543.952	517.66
544.316	514.94
544.681	508.39
545.045	536.41
545.41	525.34
545.774	536.41
546.138	516.53
546.503	532.57
546.867	524.66
547.231	519.92
547.595	526.02
547.959	526.02
548.324	514.04
548.688	541.16
549.052	502.97
549.416	543.87
549.779	539.58
550.143	518.79
550.507	534.38
550.871	544.77
551.235	519.46
551.599	510.42
551.962	528.73
552.326	553.81
552.689	537.09
553.053	539.8
553.417	527.83
553.78	553.59
554.143	543.19
554.507	540.93
554.87	533.25
555.234	548.84
555.597	533.02
555.96	559.01
556.323	523.31
556.686	534.83
557.05	541.38
557.413	565.79
557.776	546.13
558.139	552.68
558.502	537.32
558.865	544.77
559.228	537.09
559.59	540.03
559.953	549.29
560.316	548.62
560.679	557.2
561.041	566.02
561.404	553.36
561.767	559.24
562.129	561.5
562.492	548.16
562.854	547.71
563.217	539.8
563.579	560.14
563.941	565.34
564.304	568.28
564.666	555.85
565.028	602.4
565.39	560.82
565.753	569.86
566.115	555.85
566.477	571.21
566.839	561.72
567.201	580.48
567.563	584.32
567.925	585.68
568.287	564.21
568.648	567.15
569.01	589.29
569.372	568.73
569.734	574.6
570.095	574.38
570.457	575.96
570.819	574.15
571.18	561.27
571.542	577.77
571.903	562.17
572.265	575.73
572.626	579.12
572.987	582.51
573.349	604.43
573.71	567.6
574.071	580.25
574.432	587.48
574.794	595.62
575.155	570.99
575.516	592.91
575.877	586.58
576.238	576.64
576.599	592.91
576.96	583.87
577.32	594.72
577.681	589.97
578.042	601.95
578.403	613.25
578.763	598.78
579.124	587.03
579.485	582.51
579.845	566.47
580.206	608.73
580.566	581.16
580.927	592
581.287	584.09
581.648	580.03
582.008	601.95
582.368	580.48
582.728	611.89
583.089	580.03
583.449	585.22
583.809	587.48
584.169	592.68
584.529	590.2
584.889	605.56
585.249	593.81
585.609	577.32
585.969	596.07
586.329	609.63
586.688	592.23
587.048	582.06
587.408	592
587.768	575.51
588.127	598.33
588.487	589.29
588.846	595.39
589.206	588.61
589.565	587.26
589.925	573.02
590.284	545.9
590.643	565.56
591.003	566.47
591.362	573.25
591.721	577.54
592.08	582.51
592.44	570.76
592.799	599.24
593.158	594.04
593.517	574.15
593.876	587.48
594.235	566.69
594.593	569.86
594.952	596.98
595.311	566.24
595.67	565.79
596.029	587.03
596.387	587.94
596.746	573.02
597.104	569.63
597.463	596.75
597.822	580.93
598.18	577.77
598.538	581.16
598.897	573.25
599.255	545.23
599.613	566.02
599.972	568.73
600.33	573.25
600.688	608.73
601.046	575.96
601.404	586.81
601.762	581.16
602.12	578.22
602.478	589.52
602.836	561.27
603.194	563.08
603.552	589.74
603.91	569.41
604.268	554.94
604.625	575.28
604.983	585.45
605.341	559.24
605.698	566.92
606.056	586.13
606.413	572.8
606.771	581.16
607.128	570.31
607.485	591.78
607.843	573.47
608.2	562.63
608.557	561.04
608.914	579.35
609.272	556.75
609.629	564.89
609.986	559.46
610.343	548.16
610.7	559.91
611.057	554.27
611.414	560.14
611.771	568.5
612.127	566.24
612.484	545
612.841	540.25
613.198	542.06
613.554	547.94
613.911	553.36
614.267	533.7
614.624	547.03
614.98	543.19
615.337	551.33
615.693	554.04
616.05	538.67
616.406	548.62
616.762	552.23
617.118	540.48
617.475	570.99
617.831	544.55
618.187	535.51
618.543	523.76
618.899	527.15
619.255	523.08
619.611	535.96
619.967	539.35
620.323	517.2
620.678	542.51
621.034	527.6
621.39	522.18
621.746	525.11
622.101	539.35
622.457	527.37
622.812	492.35
623.168	530.54
623.523	512.68
623.879	523.31
624.234	526.02
624.589	519.24
624.945	504.77
625.3	501.39
625.655	515.62
626.01	503.87
626.365	527.6
626.72	526.24
627.075	528.96
627.43	529.18
627.785	494.83
628.14	498.9
628.495	515.4
628.85	494.38
629.205	509.29
629.559	517.66
629.914	516.07
630.269	491.89
630.623	502.29
630.978	513.59
631.332	501.84
631.687	499.58
632.041	510.65
632.396	475.62
632.75	518.79
633.104	504.1
633.459	490.31
633.813	490.76
634.167	471.78
634.521	507.71
634.875	475.62
635.229	476.98
635.583	486.47
635.937	475.17
636.291	496.87
636.645	489.86
636.999	492.57
637.352	479.46
637.706	477.66
638.06	483.76
638.413	479.01
638.767	461.16
639.121	468.17
639.474	474.04
639.828	457.09
640.181	453.7
640.534	459.8
640.888	468.84
641.241	476.98
641.594	465.91
641.947	467.94
642.301	453.93
642.654	466.58
643.007	476.08
643.36	449.18
643.713	453.25
644.066	449.18
644.419	450.31
644.771	478.33
645.124	465.23
645.477	472.69
645.83	439.47
646.182	448.73
646.535	432.23
646.888	440.37
647.24	444.66
647.593	447.38
647.945	434.27
648.298	455.74
648.65	448.28
649.002	425.91
649.355	438.56
649.707	428.84
650.059	443.31
650.411	430.88
650.763	429.75
651.115	410.99
651.467	421.84
651.819	416.87
652.171	453.02
652.523	423.2
652.875	414.61
653.227	419.13
653.578	438.34
653.93	406.92
654.282	432.69
654.633	411.67
654.985	439.24
655.337	435.4
655.688	411.44
656.039	425
656.391	410.77
656.742	435.85
657.094	425.23
657.445	413.93
657.796	440.82
658.147	450.99
658.498	411.67
658.849	409.64
659.2	426.58
659.551	408.73
659.902	404.89
660.253	395.85
660.604	399.47
660.955	413.93
661.306	430.43
661.656	397.66
662.007	401.27
662.358	410.77
662.708	404.21
663.059	401.73
663.409	401.5
663.76	391.56
664.11	395.63
664.461	417.09
664.811	401.5
665.161	394.95
665.511	403.53
665.862	418.9
666.212	411.22
666.562	394.95
666.912	376.42
667.262	394.72
667.612	414.61
667.962	391.78
668.312	401.5
668.662	395.85
669.011	388.85
669.361	381.39
669.711	406.25
670.06	397.43
670.41	379.35
670.76	382.74
671.109	371.22
671.459	372.35
671.808	390.2
672.157	383.42
672.507	380.48
672.856	399.69
673.205	389.07
673.554	406.02
673.904	401.27
674.253	397.66
674.602	381.84
674.951	380.71
675.3	412.8
675.649	385
675.998	358.34
676.346	367.6
676.695	390.2
677.044	377.09
677.393	388.62
677.741	382.74
678.09	395.63
678.438	388.17
678.787	407.15
679.135	380.26
679.484	350.43
679.832	365.12
680.181	380.03
680.529	368.73
680.877	376.19
681.225	381.61
681.573	376.64
681.922	357.43
682.27	373.03
682.618	367.15
682.966	373.48
683.314	378.22
683.661	358.56
684.009	355.17
684.357	392.91
684.705	364.44
685.053	368.96
685.4	370.77
685.748	381.84
686.095	370.99
686.443	383.2
686.79	383.2
687.138	343.65
687.485	359.24
687.832	378
688.18	373.93
688.527	361.28
688.874	361.28
689.221	370.32
689.568	349.52
689.915	386.36
690.262	384.55
690.609	362.18
690.956	371.67
691.303	365.57
691.65	354.5
691.997	359.02
692.344	386.36
692.69	368.96
693.037	347.49
693.383	357.66
693.73	359.92
694.077	359.92
694.423	362.86
694.769	355.4
695.116	343.88
695.462	331.9
695.808	360.6
696.155	362.18
696.501	353.82
696.847	361.05
697.193	359.69
697.539	356.76
697.885	369.41
698.231	344.33
698.577	339.58
698.923	359.69
699.269	347.94
699.614	360.6
699.96	359.24
700.306	336.64
700.651	349.07
700.997	348.62
701.342	345.23
701.688	372.57
702.033	353.14
702.379	344.78
702.724	336.42
703.069	340.03
703.415	355.4
703.76	345.91
704.105	341.84
704.45	344.78
704.795	348.17
705.14	350.43
705.485	335.51
705.83	344.33
706.175	357.89
706.52	366.25
706.865	331.67
707.209	350.88
707.554	352.46
707.899	366.47
708.243	353.59
708.588	355.85
708.932	358.34
709.277	355.63
709.621	332.58
709.966	338.9
710.31	367.38
710.654	333.48
710.998	346.36
711.342	348.85
711.687	338
712.031	363.99
712.375	347.49
712.719	342.07
713.063	328.73
713.407	365.34
713.75	345.46
714.094	333.93
714.438	342.97
714.782	326.02
715.125	332.8
715.469	365.12
715.812	338.45
716.156	350.88
716.499	350.65
716.843	333.71
717.186	347.72
717.53	340.26
717.873	350.65
718.216	353.37
718.559	344.1
718.902	358.34
719.246	356.98
719.589	331.22
719.932	336.64
720.275	340.26
720.617	342.07
720.96	341.84
721.303	343.2
721.646	335.97
721.989	341.39
722.331	359.24
722.674	351.33
723.016	327.6
723.359	337.32
723.701	346.59
724.044	342.07
724.386	330.54
724.729	339.36
725.071	342.52
725.413	333.25
725.755	347.26
726.097	338.23
726.439	352.01
726.782	334.38
727.124	330.99
727.465	337.55
727.807	346.59
728.149	329.86
728.491	330.09
728.833	324.21
729.175	340.03
729.516	352.01
729.858	351.33
730.199	341.62
730.541	341.39
730.882	326.93
731.224	342.29
731.565	349.3
731.906	343.88
732.248	327.6
732.589	335.29
732.93	338.45
733.271	322.41
733.612	342.75
733.953	341.39
734.294	344.1
734.635	347.04
734.976	336.19
735.317	336.19
735.658	337.32
735.999	338.23
736.339	332.35
736.68	337.77
737.021	320.6
737.361	340.26
737.702	350.43
738.042	335.06
738.383	358.79
738.723	316.98
739.063	327.38
739.404	327.83
739.744	346.81
740.084	345.68
740.424	343.88
740.764	352.24
741.104	331.9
741.444	335.06
741.784	325.8
742.124	333.71
742.464	341.84
742.804	352.24
743.143	345.91
743.483	346.36
743.823	349.07
744.162	314.05
744.502	331.22
744.841	333.71
745.181	330.32
745.52	313.14
745.86	341.62
746.199	330.32
746.538	334.84
746.877	332.8
747.216	341.16
747.556	338.23
747.895	359.92
748.234	351.11
748.573	337.77
748.911	338.68
749.25	336.87
749.589	310.43
749.928	334.84
750.267	343.65
750.605	321.28
750.944	331.67
751.283	323.54
751.621	338.23
751.96	333.71
752.298	347.04
752.636	351.11
752.975	333.03
753.313	329.64
753.651	357.89
753.989	341.16
754.327	358.11
754.666	327.6
755.004	339.58
755.342	328.96
755.679	314.05
756.017	341.16
756.355	325.34
756.693	308.85
757.031	339.13
757.368	338.68
757.706	338.9
758.044	341.16
758.381	342.52
758.719	346.81
759.056	330.99
759.394	317.44
759.731	329.41
760.068	341.39
760.405	298.9
760.743	330.99
761.08	331.22
761.417	317.21
761.754	343.42
762.091	317.21
762.428	332.8
762.765	339.13
763.102	346.59
763.438	328.28
763.775	329.86
764.112	326.02
764.449	330.54
764.785	326.47
765.122	319.69
765.458	329.64
765.795	348.17
766.131	339.58
766.467	333.25
766.804	325.12
767.14	331.45
767.476	317.21
767.812	327.15
768.148	345.91
768.485	325.57
768.821	341.39
769.157	321.05
769.492	317.66
769.828	314.72
770.164	337.77
770.5	350.65
770.836	330.77
771.171	333.25
771.507	338.68
771.842	315.85
772.178	321.95
772.513	327.15
772.849	324.44
773.184	331.22
773.519	333.03
773.855	328.06
774.19	340.26
774.525	339.36
774.86	333.25
775.195	320.15
775.53	320.37
775.865	336.42
776.2	323.31
776.535	321.28
776.87	326.47
777.205	332.12
777.539	334.84
777.874	338
778.209	339.13
778.543	334.38
778.878	312.46
779.212	324.89
779.547	322.63
779.881	338.68
780.215	332.58
780.55	329.64
780.884	311.79
781.218	332.12
781.552	329.86
781.886	319.02
782.22	313.82
782.554	339.13
782.888	312.69
783.222	319.92
783.556	318.57
783.889	305.46
784.223	331.22
784.557	329.19
784.89	304.55
785.224	337.32
785.557	327.38
785.891	319.92
786.224	322.41
786.558	323.31
786.891	338
787.224	321.73
787.557	322.63
787.891	318.79
788.224	317.89
788.557	308.17
788.89	320.6
789.223	327.15
789.556	326.47
