Data from No_light_on_white_reflection_standard_FLMS001491_051.txt Node
Date: Tue Feb 07 10:33:02 GMT 2017
User: dcchb
Spectrometer: FLMS00149
Trigger mode: 0
Integration Time (sec): 2.000000E-2
Scans to average: 10
Electric dark correction enabled: true
Nonlinearity correction enabled: false
Boxcar width: 0
XAxis mode: Wavelengths
Number of Pixels in Spectrum: 2048
>>>>>Begin Spectral Data<<<<<
341.393	-21.76
341.776	-21.76
342.16	-21.76
342.543	-47.75
342.927	-83.23
343.31	-79.39
343.693	-86.62
344.077	-69
344.46	-54.53
344.843	-53.4
345.226	-21.31
345.61	-32.61
345.993	5.35
346.376	-23.57
346.759	9.87
347.142	20.72
347.525	45.8
347.908	51
348.291	65.01
348.674	101.62
349.057	121.06
349.44	108.18
349.823	128.06
350.206	141.17
350.588	168.51
350.971	191.79
351.354	183.43
351.737	199.92
352.119	198.79
352.502	236.99
352.884	242.63
353.267	245.12
353.65	260.04
354.032	262.3
354.414	267.94
354.797	283.76
355.179	295.51
355.562	287.83
355.944	306.59
356.326	294.16
356.709	322.18
357.091	310.2
357.473	307.27
357.855	300.26
358.238	288.06
358.62	281.28
359.002	317.89
359.384	298.68
359.766	303.42
360.148	306.14
360.53	299.36
360.912	300.71
361.294	285.8
361.676	302.52
362.057	296.42
362.439	278.11
362.821	296.19
363.203	307.49
363.584	284.89
363.966	274.27
364.348	276.31
364.729	298.23
365.111	286.48
365.493	291
365.874	278.34
366.256	285.8
366.637	283.76
367.019	260.04
367.4	278.34
367.781	265.91
368.163	284.67
368.544	276.08
368.925	262.3
369.306	278.34
369.688	248.06
370.069	259.81
370.45	278.11
370.831	258
371.212	289.19
371.593	265.46
371.974	262.97
372.355	265.46
372.736	267.49
373.117	270.43
373.498	280.15
373.879	287.15
374.26	257.55
374.641	283.54
375.021	265.23
375.402	257.78
375.783	273.14
376.163	269.98
376.544	267.27
376.925	277.44
377.305	256.65
377.686	258.91
378.066	255.74
378.447	265.91
378.827	277.21
379.208	267.94
379.588	291.9
379.968	292.8
380.349	286.48
380.729	281.28
381.109	271.33
381.489	279.47
381.87	279.92
382.25	271.33
382.63	305.68
383.01	288.06
383.39	283.54
383.77	287.61
384.15	285.12
384.53	287.15
384.91	274.27
385.29	292.13
385.67	293.93
386.049	280.83
386.429	276.53
386.809	282.63
387.189	277.21
387.568	278.34
387.948	294.84
388.328	298
388.707	295.06
389.087	278.57
389.466	283.09
389.846	295.29
390.225	296.87
390.605	278.79
390.984	281.96
391.363	286.93
391.743	278.34
392.122	288.74
392.501	265.46
392.881	289.64
393.26	284.89
393.639	286.25
394.018	292.8
394.397	288.51
394.776	293.93
395.155	302.75
395.534	288.28
395.913	287.83
396.292	299.58
396.671	294.16
397.05	304.55
397.429	316.31
397.808	300.03
398.186	293.03
398.565	288.06
398.944	302.97
399.323	293.93
399.701	280.6
400.08	291.9
400.458	294.16
400.837	309.75
401.215	300.03
401.594	283.54
401.972	299.58
402.351	276.98
402.729	295.97
403.107	299.13
403.486	271.11
403.864	295.29
404.242	316.98
404.62	295.06
404.999	304.1
405.377	300.94
405.755	303.2
406.133	281.5
406.511	306.14
406.889	307.49
407.267	285.35
407.645	305.91
408.023	284.89
408.401	311.11
408.779	300.26
409.156	290.32
409.534	324.89
409.912	291.67
410.29	302.97
410.667	296.87
411.045	293.93
411.422	287.83
411.8	297.32
412.178	286.7
412.555	287.61
412.933	303.65
413.31	303.88
413.687	300.71
414.065	307.72
414.442	296.42
414.819	307.04
415.197	311.56
415.574	311.56
415.951	296.19
416.328	295.06
416.705	312.69
417.082	297.55
417.46	309.53
417.837	314.27
418.214	309.07
418.591	291
418.967	303.65
419.344	281.96
419.721	303.88
420.098	308.62
420.475	299.58
420.852	309.3
421.228	309.07
421.605	302.29
421.982	295.97
422.358	313.59
422.735	302.07
423.111	299.58
423.488	307.04
423.864	306.14
424.241	304.1
424.617	304.78
424.994	301.62
425.37	314.5
425.746	313.14
426.123	332.35
426.499	298.45
426.875	319.92
427.251	309.3
427.627	307.72
428.003	315.63
428.379	291.45
428.756	311.79
429.132	299.58
429.507	308.17
429.883	310.88
430.259	304.33
430.635	317.21
431.011	318.79
431.387	313.14
431.763	289.41
432.138	309.53
432.514	326.25
432.89	299.13
433.265	314.05
433.641	305.46
434.016	336.87
434.392	314.5
434.767	314.27
435.143	329.41
435.518	333.03
435.894	312.01
436.269	312.92
436.644	328.28
437.02	327.6
437.395	333.71
437.77	327.6
438.145	325.8
438.52	320.15
438.895	338
439.271	304.33
439.646	310.2
440.021	335.51
440.395	317.44
440.77	320.37
441.145	304.78
441.52	328.96
441.895	321.73
442.27	330.09
442.645	349.3
443.019	331.45
443.394	352.69
443.769	335.74
444.143	323.54
444.518	346.36
444.892	345.46
445.267	342.29
445.641	350.65
446.016	343.2
446.39	347.49
446.764	347.49
447.139	360.6
447.513	327.38
447.887	328.06
448.262	349.07
448.636	344.78
449.01	349.07
449.384	358.79
449.758	368.51
450.132	357.43
450.506	365.57
450.88	362.41
451.254	378
451.628	349.3
452.002	374.61
452.376	373.03
452.75	374.61
453.123	381.61
453.497	375.74
453.871	349.07
454.244	363.31
454.618	393.37
454.992	375.51
455.365	386.59
455.739	377.09
456.112	378.22
456.486	372.12
456.859	352.69
457.232	362.63
457.606	383.87
457.979	373.48
458.352	376.64
458.725	365.57
459.099	350.43
459.472	361.28
459.845	356.98
460.218	371.9
460.591	337.55
460.964	361.5
461.337	349.52
461.71	333.03
462.083	358.11
462.456	323.31
462.829	353.82
463.201	357.21
463.574	329.19
463.947	354.27
464.32	348.39
464.692	361.05
465.065	364.21
465.438	354.04
465.81	342.07
466.183	355.17
466.555	367.83
466.928	351.33
467.3	356.08
467.672	358.79
468.045	366.93
468.417	358.11
468.789	349.98
469.161	339.36
469.534	332.8
469.906	342.97
470.278	353.14
470.65	351.56
471.022	375.96
471.394	378.68
471.766	355.63
472.138	350.2
472.51	354.04
472.882	347.26
473.253	352.46
473.625	346.36
473.997	351.11
474.369	354.27
474.74	348.17
475.112	343.2
475.484	371.45
475.855	352.91
476.227	357.21
476.598	347.26
476.97	362.63
477.341	332.12
477.713	347.04
478.084	358.56
478.455	349.98
478.827	362.18
479.198	361.05
479.569	374.38
479.94	366.47
480.311	337.1
480.682	348.17
481.053	363.08
481.424	365.12
481.795	342.52
482.166	346.81
482.537	349.3
482.908	360.15
483.279	352.69
483.65	346.59
484.021	364.89
484.391	347.49
484.762	349.07
485.133	338.68
485.503	356.76
485.874	354.95
486.244	364.21
486.615	340.49
486.985	366.7
487.356	358.11
487.726	365.57
488.097	352.24
488.467	362.86
488.837	348.39
489.207	368.96
489.578	360.15
489.948	382.52
490.318	377.32
490.688	365.57
491.058	371.45
491.428	372.8
491.798	391.78
492.168	364.89
492.538	383.87
492.908	371.67
493.278	382.29
493.648	396.08
494.017	377.32
494.387	380.71
494.757	368.28
495.126	395.85
495.496	389.75
495.866	403.76
496.235	389.98
496.605	395.63
496.974	387.26
497.344	397.66
497.713	385.46
498.082	417.77
498.452	387.04
498.821	378.22
499.19	411.44
499.559	376.42
499.928	395.4
500.298	387.94
500.667	399.24
501.036	398.34
501.405	397.89
501.774	415.29
502.143	378.45
502.512	403.31
502.88	425.45
503.249	403.08
503.618	406.7
503.987	396.08
504.356	408.05
504.724	385.91
505.093	400.6
505.462	419.81
505.83	411.9
506.199	417.32
506.567	421.39
506.936	426.13
507.304	396.76
507.672	420.48
508.041	424.78
508.409	438.79
508.777	427.71
509.145	422.29
509.514	417.55
509.882	420.48
510.25	427.49
510.618	434.27
510.986	434.04
511.354	427.26
511.722	424.1
512.09	450.99
512.458	445.57
512.826	425.23
513.193	443.76
513.561	421.61
513.929	428.17
514.297	411.22
514.664	449.41
515.032	429.97
515.4	457.54
515.767	432.91
516.135	429.75
516.502	446.47
516.869	445.12
517.237	449.41
517.604	440.6
517.972	461.39
518.339	476.53
518.706	449.64
519.073	464.55
519.44	463.42
519.808	449.86
520.175	476.98
520.542	448.05
520.909	477.88
521.276	449.18
521.643	487.6
522.009	484.21
522.376	456.87
522.743	478.33
523.11	476.3
523.477	470.2
523.843	471.56
524.21	462.97
524.577	480.59
524.943	467.71
525.31	472.46
525.676	482.63
526.043	473.59
526.409	474.49
526.776	462.74
527.142	485.79
527.508	487.6
527.874	480.59
528.241	476.53
528.607	497.54
528.973	488.5
529.339	470.2
529.705	471.56
530.071	475.85
530.437	491.67
530.803	500.48
531.169	501.84
531.535	515.4
531.901	471.78
532.267	497.77
532.632	520.59
532.998	483.31
533.364	487.15
533.73	488.73
534.095	494.83
534.461	515.4
534.826	518.79
535.192	496.64
535.557	483.53
535.923	476.08
536.288	487.37
536.653	498
537.019	510.42
537.384	497.54
537.749	489.18
538.114	486.7
538.479	490.09
538.845	489.41
539.21	487.83
539.575	486.92
539.94	483.31
540.305	512.91
540.67	507.71
541.034	505.9
541.399	517.2
541.764	503.64
542.129	530.31
542.494	524.44
542.858	495.06
543.223	512.46
543.587	527.6
543.952	508.62
544.316	508.62
544.681	520.59
545.045	527.37
545.41	523.08
545.774	528.96
546.138	519.92
546.503	541.16
546.867	520.37
547.231	531.67
547.595	504.77
547.959	513.59
548.324	517.2
548.688	519.24
549.052	496.19
549.416	525.79
549.779	523.76
550.143	512.01
550.507	521.95
550.871	527.37
551.235	530.31
551.599	532.8
551.962	533.25
552.326	529.41
552.689	520.37
553.053	543.42
553.417	522.4
553.78	523.98
554.143	532.57
554.507	536.86
554.87	548.62
555.234	528.28
555.597	552.46
555.96	535.96
556.323	529.18
556.686	559.91
557.05	527.15
557.413	539.12
557.776	520.14
558.139	557.65
558.502	542.97
558.865	532.34
559.228	541.16
559.59	550.42
559.953	540.48
560.316	551.33
560.679	559.24
561.041	549.29
561.404	547.49
561.767	534.6
562.129	532.8
562.492	539.58
562.854	560.14
563.217	533.93
563.579	533.47
563.941	552.68
564.304	552.68
564.666	553.81
565.028	556.52
565.39	549.52
565.753	556.75
566.115	557.88
566.477	550.2
566.839	559.01
567.201	586.81
567.563	549.29
567.925	555.85
568.287	587.26
568.648	573.7
569.01	566.92
569.372	577.32
569.734	554.72
570.095	568.73
570.457	561.95
570.819	553.36
571.18	560.59
571.542	562.4
571.903	560.14
572.265	562.4
572.626	594.72
572.987	565.56
573.349	582.51
573.71	561.5
574.071	592.91
574.432	548.84
574.794	573.47
575.155	568.5
575.516	574.83
575.877	569.86
576.238	588.39
576.599	580.25
576.96	590.42
577.32	601.5
577.681	604.21
578.042	562.17
578.403	590.2
578.763	576.64
579.124	582.51
579.485	592.46
579.845	585.68
580.206	607.37
580.566	575.51
580.927	580.71
581.287	603.08
581.648	586.81
582.008	581.83
582.368	583.64
582.728	597.2
583.089	580.25
583.449	591.33
583.809	588.84
584.169	583.42
584.529	571.67
584.889	575.06
585.249	580.71
585.609	589.74
585.969	590.87
586.329	606.92
586.688	607.37
587.048	596.98
587.408	583.87
587.768	576.64
588.127	595.62
588.487	566.92
588.846	589.29
589.206	580.93
589.565	584.32
589.925	582.74
590.284	577.09
590.643	582.96
591.003	574.6
591.362	571.67
591.721	590.87
592.08	564.43
592.44	569.63
592.799	581.83
593.158	568.5
593.517	568.95
593.876	573.93
594.235	563.53
594.593	583.87
594.952	587.26
595.311	573.47
595.67	593.81
596.029	569.86
596.387	549.75
596.746	591.1
597.104	570.99
597.463	574.6
597.822	580.93
598.18	565.56
598.538	566.69
598.897	566.69
599.255	571.67
599.613	589.07
599.972	586.35
600.33	573.25
600.688	570.76
601.046	557.65
601.404	560.14
601.762	578.22
602.12	549.07
602.478	575.28
602.836	583.19
603.194	558.56
603.552	552.23
603.91	563.76
604.268	579.58
604.625	567.15
604.983	578.67
605.341	586.13
605.698	560.59
606.056	587.94
606.413	574.6
606.771	572.8
607.128	558.33
607.485	527.15
607.843	553.36
608.2	542.51
608.557	544.77
608.914	534.83
609.272	554.94
609.629	569.63
609.986	537.32
610.343	580.93
610.7	535.51
611.057	530.08
611.414	551.33
611.771	547.26
612.127	564.66
612.484	551.33
612.841	550.42
613.198	546.13
613.554	546.13
613.911	553.81
614.267	552.46
614.624	548.62
614.98	543.87
615.337	545.45
615.693	531.89
616.05	549.97
616.406	533.25
616.762	535.06
617.118	523.53
617.475	541.38
617.831	538.45
618.187	536.19
618.543	521.72
618.899	532.34
619.255	529.41
619.611	532.8
619.967	532.57
620.323	518.79
620.678	530.99
621.034	521.05
621.39	533.93
621.746	519.92
622.101	520.59
622.457	539.35
622.812	522.85
623.168	539.35
623.523	516.07
623.879	522.63
624.234	493.48
624.589	522.4
624.945	502.74
625.3	511.55
625.655	508.16
626.01	499.8
626.365	508.62
626.72	505.9
627.075	510.65
627.43	535.28
627.785	515.4
628.14	496.87
628.495	509.29
628.85	495.51
629.205	506.36
629.559	509.97
629.914	503.87
630.269	511.1
630.623	518.11
630.978	495.06
631.332	461.16
631.687	479.69
632.041	478.79
632.396	489.41
632.75	475.4
633.104	500.71
633.459	490.09
633.813	495.06
634.167	504.1
634.521	461.39
634.875	491.22
635.229	494.38
635.583	466.81
635.937	496.41
636.291	471.1
636.645	482.18
636.999	474.95
637.352	453.93
637.706	464.78
638.06	456.64
638.413	457.32
638.767	469.75
639.121	499.58
639.474	465
639.828	464.1
640.181	466.58
640.534	450.31
640.888	465.68
641.241	454.38
641.594	464.78
641.947	471.56
642.301	474.27
642.654	462.97
643.007	464.32
643.36	453.7
643.713	454.38
644.066	466.58
644.419	464.55
644.771	461.61
645.124	457.32
645.477	440.37
645.83	451.22
646.182	420.94
646.535	442.86
646.888	446.47
647.24	436.98
647.593	441.27
647.945	435.17
648.298	458
648.65	431.33
649.002	429.75
649.355	439.69
649.707	414.38
650.059	453.7
650.411	441.95
650.763	418
651.115	438.11
651.467	432.91
651.819	427.04
652.171	452.8
652.523	416.19
652.875	429.52
653.227	399.24
653.578	416.19
653.93	435.85
654.282	436.75
654.633	417.77
654.985	437.66
655.337	410.54
655.688	413.93
656.039	410.09
656.391	410.31
656.742	414.83
657.094	413.7
657.445	403.76
657.796	415.29
658.147	418.45
658.498	410.31
658.849	422.29
659.2	423.42
659.551	415.29
659.902	403.76
660.253	417.55
660.604	420.03
660.955	403.31
661.306	417.09
661.656	399.01
662.007	392.69
662.358	408.28
662.708	382.29
663.059	410.31
663.409	389.75
663.76	379.13
664.11	411.44
664.461	386.81
664.811	394.5
665.161	397.43
665.511	404.44
665.862	389.3
666.212	390.2
666.562	397.43
666.912	389.98
667.262	397.21
667.612	395.85
667.962	417.09
668.312	382.97
668.662	400.82
669.011	393.14
669.361	385.23
669.711	401.95
670.06	375.74
670.41	404.89
670.76	381.84
671.109	377.77
671.459	389.07
671.808	395.63
672.157	382.07
672.507	395.85
672.856	365.57
673.205	405.34
673.554	366.25
673.904	369.64
674.253	375.29
674.602	371.67
674.951	393.82
675.3	395.17
675.649	384.1
675.998	380.71
676.346	369.19
676.695	370.99
677.044	376.42
677.393	387.94
677.741	401.5
678.09	377.55
678.438	368.06
678.787	365.8
679.135	375.96
679.484	375.29
679.832	389.75
680.181	373.25
680.529	359.92
680.877	376.64
681.225	369.41
681.573	360.6
681.922	368.06
682.27	365.57
682.618	352.69
682.966	375.51
683.314	379.81
683.661	387.72
684.009	375.29
684.357	373.7
684.705	384.78
685.053	363.08
685.4	353.59
685.748	369.41
686.095	359.69
686.443	359.24
686.79	357.21
687.138	352.01
687.485	334.84
687.832	353.82
688.18	368.73
688.527	380.48
688.874	382.07
689.221	346.81
689.568	346.59
689.915	365.34
690.262	368.06
690.609	359.92
690.956	366.25
691.303	342.29
691.65	359.92
691.997	366.25
692.344	343.2
692.69	352.01
693.037	354.04
693.383	343.88
693.73	363.08
694.077	357.21
694.423	361.05
694.769	344.78
695.116	352.46
695.462	357.66
695.808	347.49
696.155	342.97
696.501	361.28
696.847	358.56
697.193	348.39
697.539	350.65
697.885	346.59
698.231	375.29
698.577	356.98
698.923	371.9
699.269	339.36
699.614	351.11
699.96	347.04
700.306	342.75
700.651	354.72
700.997	354.5
701.342	356.3
701.688	346.59
702.033	343.42
702.379	357.66
702.724	336.87
703.069	356.76
703.415	334.84
703.76	337.55
704.105	338.45
704.45	356.3
704.795	347.04
705.14	364.89
705.485	365.8
705.83	349.52
706.175	334.38
706.52	352.46
706.865	353.14
707.209	317.66
707.554	318.57
707.899	345.01
708.243	334.84
708.588	340.03
708.932	356.98
709.277	346.59
709.621	359.92
709.966	350.65
710.31	364.89
710.654	358.56
710.998	326.93
711.342	340.49
711.687	357.21
712.031	336.42
712.375	356.53
712.719	321.05
713.063	356.08
713.407	338.23
713.75	354.5
714.094	358.11
714.438	325.8
714.782	339.81
715.125	337.55
715.469	368.28
715.812	345.68
716.156	335.06
716.499	341.84
716.843	344.78
717.186	349.3
717.53	357.43
717.873	342.29
718.216	359.24
718.559	340.94
718.902	326.7
719.246	341.62
719.589	313.59
719.932	340.94
720.275	341.16
720.617	324.67
720.96	321.05
721.303	339.36
721.646	337.77
721.989	307.94
722.331	360.37
722.674	359.47
723.016	332.58
723.359	351.56
723.701	343.2
724.044	346.36
724.386	329.86
724.729	331.45
725.071	323.76
725.413	344.1
725.755	319.92
726.097	346.81
726.439	341.84
726.782	332.12
727.124	320.6
727.465	309.75
727.807	341.16
728.149	352.69
728.491	328.96
728.833	340.71
729.175	346.59
729.516	328.51
729.858	338.23
730.199	326.7
730.541	348.17
730.882	352.69
731.224	342.97
731.565	330.09
731.906	336.19
732.248	344.33
732.589	333.48
732.93	329.19
733.271	349.52
733.612	341.62
733.953	322.18
734.294	324.44
734.635	351.56
734.976	353.82
735.317	342.97
735.658	346.59
735.999	323.31
736.339	319.92
736.68	352.69
737.021	331.22
737.361	336.42
737.702	340.26
738.042	335.51
738.383	342.07
738.723	327.15
739.063	337.55
739.404	351.33
739.744	342.97
740.084	345.46
740.424	340.49
740.764	331.9
741.104	326.7
741.444	327.38
741.784	327.83
742.124	342.52
742.464	326.25
742.804	342.97
743.143	341.16
743.483	347.72
743.823	320.37
744.162	334.16
744.502	323.76
744.841	323.31
745.181	334.61
745.52	332.35
745.86	321.05
746.199	327.6
746.538	332.35
746.877	316.53
747.216	331.67
747.556	324.67
747.895	329.41
748.234	323.31
748.573	326.02
748.911	326.7
749.25	333.03
749.589	352.91
749.928	331.9
750.267	326.47
750.605	335.74
750.944	330.54
751.283	329.86
751.621	322.86
751.96	328.96
752.298	344.55
752.636	331.22
752.975	327.6
753.313	336.64
753.651	312.92
753.989	325.34
754.327	335.74
754.666	328.51
755.004	337.55
755.342	333.25
755.679	314.27
756.017	335.29
756.355	315.85
756.693	323.31
757.031	321.95
757.368	340.94
757.706	323.76
758.044	348.85
758.381	330.77
758.719	346.81
759.056	340.49
759.394	346.36
759.731	321.05
760.068	337.32
760.405	323.08
760.743	322.86
761.08	326.47
761.417	335.74
761.754	337.1
762.091	306.14
762.428	322.18
762.765	308.85
763.102	326.93
763.438	356.53
763.775	331.9
764.112	334.38
764.449	323.76
764.785	312.92
765.122	333.48
765.458	338.68
765.795	328.73
766.131	329.86
766.467	338.23
766.804	311.11
767.14	332.12
767.476	328.51
767.812	330.54
768.148	333.03
768.485	330.32
768.821	321.73
769.157	323.31
769.492	339.81
769.828	333.48
770.164	326.93
770.5	318.57
770.836	315.85
771.171	330.77
771.507	346.81
771.842	331.9
772.178	327.6
772.513	323.54
772.849	338.9
773.184	328.51
773.519	318.11
773.855	340.26
774.19	317.21
774.525	317.21
774.86	317.89
775.195	342.52
775.53	332.58
775.865	337.1
776.2	348.62
776.535	321.5
776.87	330.32
777.205	326.25
777.539	328.51
777.874	338.9
778.209	314.5
778.543	329.64
778.878	329.64
779.212	323.76
779.547	325.34
779.881	324.67
780.215	310.2
780.55	314.5
780.884	327.6
781.218	321.28
781.552	333.03
781.886	325.8
782.22	322.41
782.554	308.17
782.888	351.11
783.222	326.93
783.556	337.32
783.889	332.8
784.223	327.6
784.557	340.94
784.89	338.68
785.224	318.11
785.557	334.84
785.891	332.8
786.224	313.82
786.558	345.01
786.891	312.01
787.224	330.77
787.557	317.21
787.891	313.14
788.224	316.98
788.557	303.42
788.89	327.6
789.223	329.86
789.556	331.45
789.888	314.95
