Data from No_light_on_white_reflection_standard_FLMS001491_093.txt Node
Date: Tue Feb 07 10:33:10 GMT 2017
User: dcchb
Spectrometer: FLMS00149
Trigger mode: 0
Integration Time (sec): 2.000000E-2
Scans to average: 10
Electric dark correction enabled: true
Nonlinearity correction enabled: false
Boxcar width: 0
XAxis mode: Wavelengths
Number of Pixels in Spectrum: 2048
>>>>>Begin Spectral Data<<<<<
341.393	-32.23
341.776	-32.23
342.16	-32.23
342.543	-52.57
342.927	-67.48
343.31	-62.06
343.693	-56.64
344.077	-78.78
344.46	-60.7
344.843	-43.53
345.226	-49.63
345.61	-52.8
345.993	-21.61
346.376	-10.54
346.759	18.39
347.142	12.51
347.525	45.96
347.908	73.08
348.291	85.05
348.674	91.16
349.057	110.14
349.44	134.54
349.823	138.39
350.206	167.54
350.588	142.45
350.971	173.41
351.354	172.28
351.737	199.85
352.119	222.68
352.502	234.43
352.884	240.76
353.267	253.41
353.65	247.76
354.032	279.85
354.414	255.45
354.797	268.55
355.179	276.24
355.562	299.74
355.944	261.55
356.326	303.58
356.709	293.86
357.091	307.2
357.473	303.58
357.855	321.88
358.238	301.09
358.62	308.1
359.002	307.42
359.384	287.08
359.766	303.81
360.148	304.48
360.53	309.46
360.912	293.86
361.294	279.85
361.676	299.51
362.057	287.08
362.439	294.77
362.821	294.31
363.203	290.92
363.584	290.02
363.966	293.64
364.348	279.85
364.729	277.59
365.111	275.56
365.493	247.08
365.874	295.9
366.256	296.8
366.637	285.27
367.019	275.11
367.4	269.23
367.781	259.74
368.163	282.11
368.544	289.34
368.925	271.72
369.306	271.94
369.688	281.66
370.069	273.75
370.45	265.61
370.831	264.71
371.212	269.46
371.593	287.99
371.974	280.76
372.355	269.46
372.736	276.24
373.117	254.99
373.498	286.86
373.879	266.74
374.26	263.13
374.641	273.75
375.021	276.69
375.402	261.55
375.783	271.04
376.163	259.96
376.544	258.61
376.925	257.25
377.305	276.24
377.686	283.47
378.066	263.81
378.447	270.36
378.827	274.2
379.208	289.34
379.588	273.07
379.968	270.36
380.349	283.92
380.729	276.01
381.109	306.29
381.489	285.05
381.87	278.04
382.25	282.79
382.63	271.49
383.01	274.2
383.39	277.82
383.77	287.99
384.15	283.24
384.53	295.44
384.91	245.5
385.29	267.65
385.67	270.59
386.049	291.38
386.429	280.76
386.809	276.91
387.189	291.15
387.568	291.15
387.948	278.72
388.328	292.05
388.707	292.73
389.087	282.11
389.466	269.91
389.846	276.24
390.225	288.89
390.605	288.66
390.984	274.65
391.363	285.27
391.743	293.18
392.122	298.83
392.501	292.28
392.881	289.57
393.26	309.91
393.639	285.27
394.018	276.91
394.397	296.12
394.776	280.53
395.155	282.79
395.534	264.94
395.913	312.17
396.292	290.47
396.671	277.82
397.05	296.12
397.429	293.41
397.808	313.07
398.186	277.14
398.565	287.76
398.944	277.59
399.323	292.05
399.701	279.17
400.08	304.48
400.458	317.82
400.837	279.85
401.215	308.55
401.594	294.31
401.972	276.24
402.351	293.64
402.729	277.14
403.107	310.13
403.486	295.44
403.864	289.12
404.242	301.32
404.62	294.99
404.999	300.19
405.377	307.42
405.755	283.02
406.133	286.4
406.511	318.95
406.889	286.18
407.267	296.12
407.645	291.38
408.023	290.92
408.401	278.04
408.779	286.86
409.156	308.33
409.534	297.25
409.912	300.42
410.29	287.76
410.667	299.96
411.045	304.48
411.422	299.96
411.8	297.7
412.178	297.48
412.555	292.51
412.933	293.64
413.31	278.04
413.687	290.7
414.065	302.9
414.442	284.82
414.819	308.33
415.197	305.84
415.574	300.19
415.951	286.86
416.328	287.08
416.705	295.9
417.082	304.94
417.46	289.79
417.837	292.96
418.214	308.1
418.591	289.79
418.967	285.5
419.344	290.92
419.721	291.38
420.098	295.9
420.475	301.55
420.852	317.82
421.228	295.44
421.605	327.08
421.982	309.91
422.358	302.9
422.735	294.99
423.111	280.98
423.488	297.48
423.864	315.33
424.241	305.16
424.617	310.13
424.994	304.26
425.37	314.88
425.746	318.95
426.123	323.24
426.499	298.61
426.875	308.55
427.251	317.82
427.627	296.8
428.003	302.9
428.379	330.7
428.756	305.61
429.132	308.78
429.507	303.13
429.883	307.87
430.259	317.36
430.635	320.98
431.011	325.27
431.387	304.48
431.763	314.43
432.138	319.4
432.514	301.55
432.89	307.65
433.265	336.8
433.641	327.31
434.016	306.97
434.392	318.49
434.767	311.26
435.143	321.66
435.518	323.47
435.894	319.4
436.269	331.83
436.644	315.56
437.02	312.84
437.395	334.31
437.77	332.51
438.145	308.1
438.52	322.56
438.895	304.71
439.271	333.64
439.646	316.01
440.021	330.02
440.395	325.73
440.77	314.2
441.145	318.04
441.52	302.9
441.895	340.19
442.27	348.1
442.645	342.67
443.019	329.12
443.394	360.3
443.769	338.83
444.143	333.41
444.518	333.64
444.892	345.39
445.267	330.92
445.641	340.87
446.016	350.81
446.39	354.43
446.764	337.03
447.139	349.91
447.513	349
447.887	337.25
448.262	374.99
448.636	354.88
449.01	345.61
449.384	345.39
449.758	349.91
450.132	347.19
450.506	359.85
450.88	367.31
451.254	373.86
451.628	379.96
452.002	367.53
452.376	348.55
452.75	356.46
453.123	349.91
453.497	355.78
453.871	360.53
454.244	367.76
454.618	365.95
454.992	358.95
455.365	342.45
455.739	366.85
456.112	359.4
456.486	383.8
456.859	360.98
457.232	365.27
457.606	351.26
457.979	372.73
458.352	373.41
458.725	351.04
459.099	345.84
459.472	352.84
459.845	364.82
460.218	371.6
460.591	374.54
460.964	382.22
461.337	336.57
461.71	363.24
462.083	342
462.456	340.87
462.829	340.41
463.201	350.36
463.574	358.72
463.947	353.75
464.32	350.13
464.692	357.14
465.065	358.27
465.438	346.97
465.81	353.3
466.183	350.58
466.555	350.58
466.928	341.32
467.3	342.22
467.672	358.95
468.045	350.81
468.417	342.9
468.789	345.61
469.161	359.85
469.534	358.04
469.906	353.75
470.278	349.23
470.65	353.07
471.022	343.58
471.394	320.53
471.766	353.07
472.138	352.17
472.51	353.52
472.882	358.04
473.253	347.87
473.625	347.42
473.997	313.75
474.369	327.53
474.74	351.04
475.112	340.87
475.484	337.7
475.855	338.61
476.227	355.1
476.598	321.88
476.97	329.57
477.341	348.32
477.713	341.77
478.084	318.49
478.455	354.88
478.827	350.58
479.198	326.4
479.569	352.17
479.94	343.8
480.311	332.51
480.682	364.14
481.053	343.8
481.424	360.75
481.795	348.1
482.166	355.1
482.537	361.43
482.908	347.87
483.279	351.94
483.65	362.56
484.021	346.29
484.391	361.66
484.762	361.43
485.133	338.83
485.503	356.91
485.874	359.62
486.244	354.88
486.615	352.17
486.985	354.88
487.356	362.56
487.726	372.73
488.097	356.91
488.467	355.33
488.837	358.04
489.207	372.28
489.578	370.7
489.948	383.8
490.318	356.46
490.688	357.14
491.058	376.57
491.428	379.96
491.798	385.61
492.168	383.8
492.538	375.67
492.908	372.96
493.278	393.29
493.648	362.11
494.017	380.87
494.387	363.92
494.757	377.48
495.126	383.35
495.496	376.35
495.866	388.78
496.235	380.19
496.605	372.73
496.974	378.38
497.344	398.49
497.713	378.15
498.082	391.26
498.452	402.56
498.821	385.39
499.19	402.56
499.559	394.88
499.928	377.7
500.298	394.88
500.667	388.32
501.036	407.98
501.405	407.08
501.774	422.45
502.143	410.47
502.512	396.68
502.88	399.85
503.249	420.86
503.618	410.47
503.987	434.65
504.356	412.96
504.724	399.4
505.093	405.72
505.462	422.67
505.83	408.89
506.199	415.44
506.567	402.56
506.936	430.58
507.304	437.81
507.672	406.18
508.041	421.09
508.409	414.76
508.777	402.33
509.145	432.39
509.514	429.23
509.882	420.86
510.25	423.58
510.618	428.32
510.986	423.35
511.354	435.55
511.722	429.9
512.09	440.53
512.458	421.77
512.826	440.3
513.193	424.71
513.561	427.19
513.929	426.97
514.297	442.11
514.664	449.79
515.032	440.98
515.4	461.09
515.767	435.1
516.135	443.69
516.502	457.25
516.869	431.71
517.237	454.08
517.604	445.04
517.972	452.73
518.339	460.19
518.706	456.8
519.073	451.15
519.44	441.66
519.808	454.76
520.175	459.06
520.542	459.73
520.909	473.07
521.276	474.87
521.643	466.29
522.009	483.69
522.376	467.87
522.743	459.06
523.11	459.96
523.477	444.14
523.843	478.72
524.21	491.15
524.577	455.67
524.943	476.46
525.31	469
525.676	479.39
526.043	471.48
526.409	483.69
526.776	452.28
527.142	481.88
527.508	484.37
527.874	499.05
528.241	486.4
528.607	495.21
528.973	502.22
529.339	488.89
529.705	493.18
530.071	492.28
530.437	517.59
530.803	482.56
531.169	478.26
531.535	471.94
531.901	483.69
532.267	482.56
532.632	480.52
532.998	461.32
533.364	475.78
533.73	483.24
534.095	496.12
534.461	492.73
534.826	482.56
535.192	511.48
535.557	517.13
535.923	490.92
536.288	514.65
536.653	504.25
537.019	507.42
537.384	497.25
537.749	493.18
538.114	495.21
538.479	507.64
538.845	515.78
539.21	520.98
539.575	524.59
539.94	504.93
540.305	497.25
540.67	504.7
541.034	485.04
541.399	492.05
541.764	503.35
542.129	530.01
542.494	522.1
542.858	499.96
543.223	498.83
543.587	502.44
543.952	523.46
544.316	521.43
544.681	501.77
545.045	504.48
545.41	550.13
545.774	525.72
546.138	548.09
546.503	515.1
546.867	511.48
547.231	529.56
547.595	525.72
547.959	530.92
548.324	520.75
548.688	523.23
549.052	530.47
549.416	509.45
549.779	515.55
550.143	531.6
550.507	532.5
550.871	537.92
551.235	534.08
551.599	518.94
551.962	538.6
552.326	526.85
552.689	552.84
553.053	542.67
553.417	528.43
553.78	539.05
554.143	527.08
554.507	541.99
554.87	533.86
555.234	523.23
555.597	541.99
555.96	550.8
556.323	541.99
556.686	537.02
557.05	544.03
557.413	541.77
557.776	547.64
558.139	544.25
558.502	538.6
558.865	544.25
559.228	525.72
559.59	539.05
559.953	564.14
560.316	557.13
560.679	567.08
561.041	563.91
561.404	556
561.767	573.63
562.129	569.11
562.492	577.47
562.854	546.96
563.217	549.22
563.579	563.46
563.941	557.81
564.304	563.69
564.666	570.24
565.028	571.6
565.39	539.28
565.753	571.37
566.115	574.98
566.477	566.62
566.839	590.8
567.201	560.75
567.563	572.95
567.925	564.36
568.287	560.52
568.648	564.82
569.01	559.17
569.372	588.09
569.734	582.67
570.095	560.97
570.457	556
570.819	580.63
571.18	587.87
571.542	585.61
571.903	586.06
572.265	585.15
572.626	574.76
572.987	597.13
573.349	577.47
573.71	579.96
574.071	585.38
574.432	591.26
574.794	574.31
575.155	605.72
575.516	604.59
575.877	587.19
576.238	572.27
576.599	576.57
576.96	602.55
577.32	572.95
577.681	597.58
578.042	579.73
578.403	595.55
578.763	593.52
579.124	577.24
579.485	578.6
579.845	563.91
580.206	582.44
580.566	597.36
580.927	591.26
581.287	587.87
581.648	599.84
582.008	594.19
582.368	584.48
582.728	580.86
583.089	594.65
583.449	574.98
583.809	590.35
584.169	586.06
584.529	603.23
584.889	578.83
585.249	578.15
585.609	590.35
585.969	582.67
586.329	577.02
586.688	588.77
587.048	599.84
587.408	589
587.768	597.13
588.127	584.02
588.487	555.55
588.846	557.81
589.206	590.58
589.565	592.16
589.925	573.18
590.284	566.4
590.643	578.37
591.003	608.2
591.362	601.88
591.721	576.11
592.08	582.89
592.44	592.16
592.799	572.73
593.158	575.89
593.517	574.08
593.876	585.83
594.235	586.28
594.593	580.86
594.952	574.31
595.311	589.45
595.67	579.96
596.029	558.04
596.387	570.69
596.746	586.96
597.104	561.88
597.463	571.6
597.822	595.55
598.18	582.67
598.538	573.18
598.897	587.64
599.255	551.48
599.613	544.93
599.972	562.1
600.33	557.36
600.688	564.59
601.046	561.43
601.404	554.87
601.762	566.62
602.12	583.35
602.478	558.04
602.836	574.98
603.194	591.93
603.552	555.32
603.91	553.97
604.268	554.19
604.625	560.52
604.983	577.7
605.341	552.16
605.698	551.71
606.056	572.95
606.413	563.23
606.771	594.87
607.128	549
607.485	570.92
607.843	567.3
608.2	552.61
608.557	579.05
608.914	570.92
609.272	546.51
609.629	552.39
609.986	561.88
610.343	560.75
610.7	569.11
611.057	537.25
611.414	557.58
611.771	570.01
612.127	565.49
612.484	542.9
612.841	543.35
613.198	532.5
613.554	525.72
613.911	544.25
614.267	534.76
614.624	538.38
614.98	529.56
615.337	546.74
615.693	558.94
616.05	546.74
616.406	534.53
616.762	538.6
617.118	555.1
617.475	538.15
617.831	538.15
618.187	547.41
618.543	541.31
618.899	532.95
619.255	510.13
619.611	536.79
619.967	556
620.323	513.97
620.678	520.98
621.034	525.95
621.39	524.14
621.746	525.49
622.101	531.82
622.457	508.77
622.812	541.99
623.168	528.88
623.523	517.13
623.879	530.01
624.234	506.51
624.589	497.92
624.945	516.23
625.3	512.84
625.655	527.75
626.01	520.98
626.365	502.9
626.72	528.88
627.075	521.2
627.43	522.78
627.785	497.02
628.14	489.56
628.495	529.11
628.85	521.2
629.205	500.86
629.559	487.08
629.914	483.01
630.269	492.05
630.623	497.7
630.978	524.82
631.332	500.41
631.687	493.18
632.041	498.6
632.396	472.84
632.75	480.98
633.104	459.06
633.459	500.64
633.813	490.47
634.167	460.86
634.521	497.7
634.875	478.26
635.229	477.59
635.583	467.42
635.937	477.59
636.291	490.69
636.645	489.11
636.999	467.64
637.352	486.63
637.706	439.85
638.06	491.37
638.413	469.22
638.767	484.14
639.121	475.55
639.474	463.58
639.828	474.87
640.181	460.86
640.534	471.71
640.888	456.12
641.241	451.6
641.594	473.97
641.947	456.34
642.301	448.89
642.654	467.19
643.007	431.49
643.36	441.43
643.713	449.34
644.066	446.85
644.419	447.3
644.771	446.85
645.124	453.63
645.477	439.17
645.83	451.6
646.182	440.75
646.535	439.17
646.888	443.24
647.24	419.06
647.593	463.8
647.945	428.55
648.298	449.11
648.65	428.55
649.002	447.08
649.355	445.5
649.707	432.62
650.059	452.73
650.411	445.04
650.763	436.91
651.115	411.37
651.467	420.86
651.819	427.87
652.171	465.38
652.523	433.07
652.875	432.39
653.227	430.58
653.578	427.64
653.93	442.11
654.282	419.28
654.633	415.89
654.985	426.97
655.337	406.4
655.688	439.4
656.039	417.25
656.391	425.16
656.742	401.2
657.094	415.22
657.445	425.16
657.796	419.06
658.147	396.68
658.498	414.54
658.849	411.37
659.2	410.92
659.551	417.93
659.902	408.66
660.253	429.68
660.604	412.96
660.955	389.45
661.306	389.45
661.656	405.5
662.007	408.89
662.358	400.3
662.708	400.98
663.059	396.01
663.409	398.04
663.76	382
664.11	375.67
664.461	399.17
664.811	389.23
665.161	401.2
665.511	403.69
665.862	391.71
666.212	405.5
666.562	390.36
666.912	414.99
667.262	398.72
667.612	398.94
667.962	377.48
668.312	394.42
668.662	358.95
669.011	390.36
669.361	397.36
669.711	379.51
670.06	377.7
670.41	393.52
670.76	393.75
671.109	377.25
671.459	382.22
671.808	397.14
672.157	394.65
672.507	371.83
672.856	378.38
673.205	385.39
673.554	394.2
673.904	393.29
674.253	391.49
674.602	374.76
674.951	389
675.3	380.87
675.649	389.91
675.998	382.9
676.346	388.78
676.695	375.67
677.044	364.37
677.393	370.7
677.741	374.99
678.09	366.18
678.438	389.23
678.787	386.74
679.135	365.5
679.484	366.18
679.832	391.03
680.181	390.81
680.529	375.67
680.877	390.58
681.225	373.86
681.573	374.09
681.922	379.74
682.27	379.96
682.618	389.68
682.966	365.27
683.314	374.76
683.661	351.71
684.009	365.72
684.357	380.64
684.705	388.1
685.053	351.49
685.4	370.7
685.748	361.43
686.095	350.58
686.443	367.31
686.79	362.11
687.138	365.05
687.485	365.72
687.832	349.68
688.18	361.88
688.527	359.17
688.874	359.85
689.221	360.75
689.568	362.79
689.915	353.97
690.262	359.85
690.609	335.22
690.956	361.66
691.303	368.66
691.65	342
691.997	357.82
692.344	362.56
692.69	361.21
693.037	351.49
693.383	353.3
693.73	356.91
694.077	341.77
694.423	349
694.769	361.88
695.116	354.88
695.462	356.23
695.808	354.2
696.155	364.37
696.501	358.95
696.847	346.29
697.193	359.17
697.539	351.49
697.885	346.97
698.231	366.4
698.577	360.53
698.923	359.4
699.269	349.23
699.614	355.78
699.96	362.56
700.306	334.09
700.651	357.82
700.997	361.66
701.342	363.47
701.688	343.13
702.033	349
702.379	340.19
702.724	348.78
703.069	341.54
703.415	353.75
703.76	338.38
704.105	336.12
704.45	330.02
704.795	339.06
705.14	354.88
705.485	330.47
705.83	346.06
706.175	337.48
706.52	339.51
706.865	347.87
707.209	369.79
707.554	364.59
707.899	347.19
708.243	337.25
708.588	355.1
708.932	346.06
709.277	371.6
709.621	339.74
709.966	340.41
710.31	343.58
710.654	337.7
710.998	334.31
711.342	328.44
711.687	357.36
712.031	322.79
712.375	343.58
712.719	355.78
713.063	326.18
713.407	337.7
713.75	371.15
714.094	328.44
714.438	340.19
714.782	334.99
715.125	315.56
715.469	330.02
715.812	346.97
716.156	332.96
716.499	347.19
716.843	335.67
717.186	325.73
717.53	344.03
717.873	358.27
718.216	315.56
718.559	338.61
718.902	331.83
719.246	326.4
719.589	326.86
719.932	331.83
720.275	337.25
720.617	332.73
720.96	318.04
721.303	335.22
721.646	335.67
721.989	329.12
722.331	342
722.674	338.61
723.016	324.14
723.359	317.36
723.701	320.98
724.044	329.34
724.386	325.27
724.729	329.34
725.071	352.84
725.413	337.03
725.755	317.36
726.097	344.71
726.439	339.06
726.782	315.78
727.124	339.28
727.465	324.37
727.807	330.25
728.149	331.15
728.491	324.6
728.833	332.28
729.175	335.9
729.516	325.05
729.858	341.09
730.199	334.09
730.541	336.57
730.882	331.38
731.224	339.74
731.565	327.31
731.906	347.65
732.248	331.38
732.589	351.49
732.93	320.3
733.271	332.73
733.612	331.15
733.953	325.95
734.294	346.29
734.635	334.31
734.976	331.83
735.317	317.59
735.658	307.65
735.999	344.48
736.339	317.36
736.68	334.99
737.021	330.25
737.361	331.38
737.702	339.74
738.042	308.78
738.383	314.2
738.723	324.6
739.063	328.21
739.404	336.12
739.744	329.12
740.084	310.59
740.424	326.86
740.764	318.04
741.104	331.15
741.444	315.1
741.784	317.59
742.124	323.47
742.464	325.73
742.804	325.05
743.143	328.89
743.483	349.68
743.823	334.09
744.162	320.08
744.502	333.64
744.841	319.85
745.181	342.22
745.52	316.91
745.86	327.99
746.199	306.07
746.538	321.66
746.877	312.84
747.216	343.8
747.556	323.47
747.895	339.96
748.234	316.91
748.573	325.5
748.911	313.07
749.25	333.86
749.589	336.12
749.928	332.28
750.267	321.88
750.605	337.03
750.944	318.49
751.283	331.6
751.621	311.49
751.96	347.19
752.298	305.61
752.636	319.4
752.975	312.17
753.313	340.64
753.651	330.7
753.989	322.79
754.327	323.69
754.666	328.66
755.004	338.83
755.342	304.94
755.679	312.84
756.017	319.62
756.355	332.28
756.693	318.72
757.031	316.91
757.368	334.54
757.706	324.14
758.044	334.31
758.381	340.87
758.719	324.6
759.056	338.61
759.394	334.09
759.731	328.21
760.068	334.09
760.405	317.36
760.743	311.49
761.08	318.49
761.417	320.53
761.754	348.1
762.091	299.29
762.428	317.36
762.765	314.2
763.102	343.35
763.438	327.76
763.775	319.17
764.112	329.34
764.449	327.53
764.785	328.44
765.122	321.21
765.458	306.97
765.795	338.83
766.131	321.66
766.467	336.8
766.804	331.15
767.14	330.25
767.476	322.11
767.812	323.47
768.148	335.22
768.485	327.31
768.821	310.36
769.157	320.75
769.492	325.5
769.828	312.62
770.164	342.9
770.5	332.73
770.836	322.56
771.171	335.22
771.507	327.53
771.842	325.05
772.178	316.46
772.513	318.95
772.849	313.3
773.184	318.95
773.519	309.46
773.855	307.2
774.19	328.89
774.525	317.59
774.86	321.88
775.195	315.78
775.53	321.21
775.865	316.91
776.2	320.75
776.535	328.44
776.87	327.53
777.205	327.08
777.539	321.66
777.874	319.85
778.209	310.81
778.543	312.62
778.878	334.99
779.212	340.87
779.547	305.16
779.881	331.6
780.215	326.63
780.55	313.3
780.884	330.7
781.218	331.38
781.552	320.3
781.886	332.51
782.22	345.39
782.554	338.83
782.888	322.56
783.222	311.71
783.556	327.99
783.889	321.21
784.223	319.62
784.557	341.54
784.89	332.05
785.224	323.01
785.557	327.99
785.891	324.37
786.224	331.38
786.558	326.86
786.891	331.83
787.224	324.6
787.557	332.28
787.891	322.11
788.224	325.73
788.557	320.08
788.89	331.83
789.223	308.55
789.556	318.49
789.888	332.05
