Data from No_light_on_white_reflection_standard_FLMS001491_040.txt Node
Date: Tue Feb 07 10:33:00 GMT 2017
User: dcchb
Spectrometer: FLMS00149
Trigger mode: 0
Integration Time (sec): 2.000000E-2
Scans to average: 10
Electric dark correction enabled: true
Nonlinearity correction enabled: false
Boxcar width: 0
XAxis mode: Wavelengths
Number of Pixels in Spectrum: 2048
>>>>>Begin Spectral Data<<<<<
341.393	-12.12
341.776	-12.12
342.16	-12.12
342.543	-51.21
342.927	-82.85
343.31	-72.91
343.693	-76.98
344.077	-67.71
344.46	-57.54
344.843	-48.05
345.226	-45.11
345.61	-25
345.993	-18.22
346.376	7.99
346.759	17.49
347.142	22.68
347.525	36.02
347.908	62.46
348.291	77.82
348.674	94.09
349.057	92.96
349.44	105.62
349.823	149.01
350.206	145.17
350.588	171.15
350.971	182.9
351.354	179.97
351.737	197.37
352.119	215.22
352.502	250.25
352.884	231.04
353.267	260.42
353.65	250.47
354.032	256.8
354.414	256.8
354.797	290.02
355.179	283.47
355.562	299.96
355.944	269
356.326	292.73
356.709	318.72
357.091	314.43
357.473	318.49
357.855	310.81
358.238	311.26
358.62	298.16
359.002	312.39
359.384	292.05
359.766	294.77
360.148	299.74
360.53	285.95
360.912	296.8
361.294	307.65
361.676	297.03
362.057	295.44
362.439	284.82
362.821	283.47
363.203	274.65
363.584	284.82
363.966	284.6
364.348	280.08
364.729	294.54
365.111	272.39
365.493	271.94
365.874	302.45
366.256	306.74
366.637	295.67
367.019	282.11
367.4	285.05
367.781	297.25
368.163	266.97
368.544	280.76
368.925	288.66
369.306	277.37
369.688	259.74
370.069	253.41
370.45	264.48
370.831	275.11
371.212	273.98
371.593	270.36
371.974	269
372.355	266.07
372.736	264.48
373.117	269.23
373.498	280.76
373.879	267.65
374.26	280.08
374.641	264.03
375.021	274.2
375.402	282.11
375.783	264.48
376.163	263.81
376.544	257.48
376.925	272.39
377.305	291.6
377.686	291.15
378.066	266.97
378.447	276.24
378.827	283.24
379.208	288.89
379.588	275.56
379.968	297.48
380.349	273.75
380.729	291.83
381.109	282.11
381.489	282.34
381.87	289.57
382.25	283.47
382.63	265.39
383.01	295.22
383.39	282.34
383.77	265.16
384.15	297.93
384.53	302.45
384.91	287.31
385.29	298.61
385.67	286.4
386.049	291.38
386.429	296.12
386.809	291.15
387.189	297.25
387.568	266.07
387.948	283.69
388.328	275.11
388.707	290.47
389.087	281.66
389.466	281.66
389.846	287.53
390.225	287.53
390.605	321.43
390.984	296.35
391.363	288.66
391.743	276.46
392.122	281.43
392.501	279.4
392.881	282.34
393.26	306.52
393.639	293.18
394.018	280.98
394.397	301.55
394.776	278.27
395.155	283.69
395.534	289.79
395.913	302.22
396.292	274.2
396.671	309.23
397.05	306.07
397.429	285.95
397.808	297.7
398.186	299.06
398.565	297.93
398.944	276.69
399.323	295.44
399.701	311.71
400.08	289.57
400.458	310.59
400.837	303.58
401.215	291.15
401.594	298.61
401.972	300.42
402.351	293.41
402.729	305.16
403.107	307.87
403.486	279.4
403.864	289.34
404.242	303.81
404.62	288.44
404.999	305.61
405.377	317.59
405.755	294.77
406.133	295.44
406.511	307.2
406.889	300.42
407.267	303.13
407.645	302
408.023	302.22
408.401	298.16
408.779	290.02
409.156	311.94
409.534	304.94
409.912	317.14
410.29	291.15
410.667	303.81
411.045	309.91
411.422	309
411.8	285.73
412.178	289.79
412.555	312.39
412.933	304.71
413.31	292.96
413.687	293.18
414.065	303.35
414.442	293.18
414.819	303.35
415.197	300.87
415.574	320.08
415.951	308.1
416.328	279.85
416.705	306.97
417.082	307.2
417.46	322.56
417.837	329.12
418.214	323.24
418.591	290.25
418.967	298.61
419.344	301.09
419.721	306.74
420.098	304.71
420.475	304.48
420.852	312.17
421.228	315.1
421.605	329.12
421.982	299.51
422.358	299.29
422.735	316.23
423.111	311.71
423.488	323.92
423.864	303.13
424.241	310.81
424.617	309.46
424.994	306.07
425.37	296.57
425.746	318.95
426.123	311.49
426.499	303.13
426.875	306.29
427.251	310.81
427.627	306.07
428.003	282.34
428.379	329.79
428.756	304.03
429.132	324.6
429.507	315.1
429.883	297.7
430.259	331.83
430.635	299.74
431.011	301.32
431.387	320.08
431.763	326.18
432.138	309.23
432.514	328.66
432.89	329.12
433.265	320.75
433.641	315.78
434.016	316.91
434.392	307.87
434.767	331.6
435.143	327.76
435.518	325.73
435.894	305.39
436.269	316.91
436.644	313.3
437.02	319.85
437.395	330.25
437.77	329.34
438.145	312.39
438.52	345.84
438.895	311.49
439.271	323.69
439.646	327.76
440.021	308.1
440.395	322.11
440.77	333.18
441.145	325.27
441.52	322.56
441.895	318.95
442.27	320.08
442.645	337.03
443.019	342.67
443.394	351.71
443.769	327.99
444.143	336.8
444.518	339.51
444.892	348.78
445.267	347.19
445.641	342
446.016	352.39
446.39	357.36
446.764	357.36
447.139	367.31
447.513	343.13
447.887	350.36
448.262	367.31
448.636	349.68
449.01	361.21
449.384	360.3
449.758	363.92
450.132	360.53
450.506	371.37
450.88	397.36
451.254	376.35
451.628	351.71
452.002	352.62
452.376	360.75
452.75	367.98
453.123	363.47
453.497	381.54
453.871	368.21
454.244	363.92
454.618	385.84
454.992	370.24
455.365	372.05
455.739	348.78
456.112	365.95
456.486	378.83
456.859	352.84
457.232	375.67
457.606	379.51
457.979	377.25
458.352	369.57
458.725	364.59
459.099	365.27
459.472	350.81
459.845	359.17
460.218	372.05
460.591	350.58
460.964	373.41
461.337	344.48
461.71	355.33
462.083	368.66
462.456	365.72
462.829	350.58
463.201	345.61
463.574	356.69
463.947	356.23
464.32	345.61
464.692	339.96
465.065	349.45
465.438	337.93
465.81	336.12
466.183	359.85
466.555	366.4
466.928	358.49
467.3	356.46
467.672	361.43
468.045	362.56
468.417	362.56
468.789	338.83
469.161	374.54
469.534	341.77
469.906	343.8
470.278	361.88
470.65	345.39
471.022	351.04
471.394	325.05
471.766	340.41
472.138	362.79
472.51	326.4
472.882	348.55
473.253	339.06
473.625	329.57
473.997	368.66
474.369	333.18
474.74	348.55
475.112	342.9
475.484	364.14
475.855	346.74
476.227	342.67
476.598	336.57
476.97	350.36
477.341	321.66
477.713	353.52
478.084	352.62
478.455	342.22
478.827	353.07
479.198	353.52
479.569	337.93
479.94	362.11
480.311	360.3
480.682	337.25
481.053	377.02
481.424	355.56
481.795	341.77
482.166	353.3
482.537	392.84
482.908	339.51
483.279	354.43
483.65	338.38
484.021	351.71
484.391	347.87
484.762	330.47
485.133	363.47
485.503	370.02
485.874	370.92
486.244	350.36
486.615	362.34
486.985	370.7
487.356	358.49
487.726	375.44
488.097	363.01
488.467	363.47
488.837	370.92
489.207	375.67
489.578	366.85
489.948	356.23
490.318	388.55
490.688	372.28
491.058	348.55
491.428	369.57
491.798	370.47
492.168	366.18
492.538	394.88
492.908	368.66
493.278	383.8
493.648	385.61
494.017	365.05
494.387	375.67
494.757	390.58
495.126	392.16
495.496	385.61
495.866	394.65
496.235	375.22
496.605	367.98
496.974	383.8
497.344	396.46
497.713	395.33
498.082	396.23
498.452	381.32
498.821	391.94
499.19	388.32
499.559	394.2
499.928	391.94
500.298	386.06
500.667	390.58
501.036	391.49
501.405	405.5
501.774	409.34
502.143	397.36
502.512	385.61
502.88	431.26
503.249	410.92
503.618	405.05
503.987	425.38
504.356	387.65
504.724	406.4
505.093	405.95
505.462	419.96
505.83	410.7
506.199	416.12
506.567	409.34
506.936	408.44
507.304	402.56
507.672	394.88
508.041	423.12
508.409	410.02
508.777	425.84
509.145	431.71
509.514	426.74
509.882	436.01
510.25	435.33
510.618	441.66
510.986	448.21
511.354	424.03
511.722	431.71
512.09	440.3
512.458	452.28
512.826	428.55
513.193	417.7
513.561	428.77
513.929	459.51
514.297	438.72
514.664	466.74
515.032	425.84
515.4	451.15
515.767	451.6
516.135	440.07
516.502	446.85
516.869	447.76
517.237	457.02
517.604	455.21
517.972	443.24
518.339	450.69
518.706	453.41
519.073	484.59
519.44	444.82
519.808	461.54
520.175	473.07
520.542	468.1
520.909	455.21
521.276	479.17
521.643	450.69
522.009	436.01
522.376	476.68
522.743	458.38
523.11	468.55
523.477	478.04
523.843	456.8
524.21	482.11
524.577	450.92
524.943	450.02
525.31	480.3
525.676	476.68
526.043	462.9
526.409	452.05
526.776	476.46
527.142	467.64
527.508	482.78
527.874	476
528.241	466.29
528.607	482.11
528.973	485.95
529.339	470.35
529.705	497.02
530.071	501.09
530.437	473.07
530.803	499.51
531.169	489.11
531.535	482.78
531.901	498.83
532.267	487.3
532.632	484.59
532.998	507.64
533.364	511.26
533.73	480.52
534.095	506.51
534.461	480.3
534.826	501.99
535.192	502.9
535.557	492.73
535.923	501.31
536.288	503.12
536.653	495.21
537.019	502.67
537.384	495.89
537.749	516.23
538.114	507.42
538.479	519.39
538.845	496.57
539.21	490.24
539.575	511.48
539.94	500.64
540.305	493.18
540.67	522.1
541.034	503.8
541.399	506.74
541.764	515.78
542.129	508.77
542.494	511.94
542.858	501.09
543.223	497.7
543.587	509.68
543.952	516.46
544.316	509.22
544.681	501.09
545.045	518.49
545.41	516.23
545.774	525.49
546.138	528.66
546.503	521.65
546.867	514.65
547.231	521.65
547.595	511.03
547.959	542.9
548.324	539.51
548.688	549
549.052	514.42
549.416	518.94
549.779	513.97
550.143	516.23
550.507	516.91
550.871	515.55
551.235	518.26
551.599	506.74
551.962	523.46
552.326	520.07
552.689	518.94
553.053	516.91
553.417	537.25
553.78	548.32
554.143	526.4
554.507	532.95
554.87	530.69
555.234	504.25
555.597	530.47
555.96	526.85
556.323	518.26
556.686	537.92
557.05	518.94
557.413	524.14
557.776	529.56
558.139	572.73
558.502	558.94
558.865	549.45
559.228	535.44
559.59	529.56
559.953	540.86
560.316	539.73
560.679	546.06
561.041	551.26
561.404	547.87
561.767	540.64
562.129	536.57
562.492	562.56
562.854	530.69
563.217	565.04
563.579	551.26
563.941	538.6
564.304	539.28
564.666	564.82
565.028	572.05
565.39	551.48
565.753	572.5
566.115	561.43
566.477	565.04
566.839	555.1
567.201	574.76
567.563	551.93
567.925	572.27
568.287	545.83
568.648	570.69
569.01	580.41
569.372	587.19
569.734	584.48
570.095	572.95
570.457	553.97
570.819	560.07
571.18	598.04
571.542	568.21
571.903	561.65
572.265	560.97
572.626	565.95
572.987	570.92
573.349	574.53
573.71	548.32
574.071	589.22
574.432	594.42
574.794	581.09
575.155	578.37
575.516	570.01
575.877	574.98
576.238	575.89
576.599	570.24
576.96	553.29
577.32	574.76
577.681	597.81
578.042	577.92
578.403	557.58
578.763	581.76
579.124	590.13
579.485	587.41
579.845	572.5
580.206	570.01
580.566	580.86
580.927	583.35
581.287	579.96
581.648	582.22
582.008	576.57
582.368	584.93
582.728	573.4
583.089	585.83
583.449	583.57
583.809	580.63
584.169	598.26
584.529	582.89
584.889	586.74
585.249	585.15
585.609	581.76
585.969	565.27
586.329	570.92
586.688	582.44
587.048	584.02
587.408	566.85
587.768	574.76
588.127	585.61
588.487	579.28
588.846	567.75
589.206	584.93
589.565	580.41
589.925	579.96
590.284	574.08
590.643	580.63
591.003	572.05
591.362	573.63
591.721	590.35
592.08	562.56
592.44	558.04
592.799	578.83
593.158	564.59
593.517	567.53
593.876	561.2
594.235	561.65
594.593	567.98
594.952	570.24
595.311	581.31
595.67	565.95
596.029	575.21
596.387	586.51
596.746	572.5
597.104	552.61
597.463	567.53
597.822	571.37
598.18	572.27
598.538	572.5
598.897	561.2
599.255	554.19
599.613	550.8
599.972	577.24
600.33	559.84
600.688	585.15
601.046	554.42
601.404	565.95
601.762	562.78
602.12	559.39
602.478	568.21
602.836	561.43
603.194	565.72
603.552	573.4
603.91	547.87
604.268	560.3
604.625	558.04
604.983	565.49
605.341	556.45
605.698	564.82
606.056	552.61
606.413	572.27
606.771	542.22
607.128	534.31
607.485	551.48
607.843	539.96
608.2	554.42
608.557	550.58
608.914	534.99
609.272	567.98
609.629	547.19
609.986	537.47
610.343	553.29
610.7	541.09
611.057	549.67
611.414	548.54
611.771	532.5
612.127	528.43
612.484	544.7
612.841	550.58
613.198	535.89
613.554	533.86
613.911	526.85
614.267	545.16
614.624	532.95
614.98	528.21
615.337	531.14
615.693	539.73
616.05	538.6
616.406	555.1
616.762	522.56
617.118	533.4
617.475	540.86
617.831	541.77
618.187	528.66
618.543	541.77
618.899	523.46
619.255	517.36
619.611	513.97
619.967	537.02
620.323	519.17
620.678	508.55
621.034	506.96
621.39	526.17
621.746	523.69
622.101	508.77
622.457	526.62
622.812	509.9
623.168	528.88
623.523	501.77
623.879	516.23
624.234	492.73
624.589	516.23
624.945	509.68
625.3	520.52
625.655	519.62
626.01	506.51
626.365	519.39
626.72	492.05
627.075	477.81
627.43	492.05
627.785	512.61
628.14	487.76
628.495	491.82
628.85	504.7
629.205	526.4
629.559	497.92
629.914	483.24
630.269	497.25
630.623	490.69
630.978	505.61
631.332	481.43
631.687	500.41
632.041	492.73
632.396	493.18
632.75	470.35
633.104	499.73
633.459	488.43
633.813	471.94
634.167	453.63
634.521	460.19
634.875	459.51
635.229	481.2
635.583	473.07
635.937	475.55
636.291	480.75
636.645	469
636.999	454.99
637.352	478.04
637.706	478.49
638.06	492.05
638.413	471.48
638.767	461.77
639.121	464.71
639.474	469.9
639.828	469
640.181	469.22
640.534	468.1
640.888	443.24
641.241	473.52
641.594	461.32
641.947	462.9
642.301	440.07
642.654	454.99
643.007	471.94
643.36	459.06
643.713	443.69
644.066	463.8
644.419	455.21
644.771	437.36
645.124	440.75
645.477	442.56
645.83	446.63
646.182	447.76
646.535	424.48
646.888	424.25
647.24	448.66
647.593	449.79
647.945	442.11
648.298	441.66
648.65	436.68
649.002	436.46
649.355	426.74
649.707	432.39
650.059	433.52
650.411	412.73
650.763	430.81
651.115	428.1
651.467	413.63
651.819	424.03
652.171	442.78
652.523	433.97
652.875	420.86
653.227	427.19
653.578	406.18
653.93	404.37
654.282	420.41
654.633	427.42
654.985	441.66
655.337	404.59
655.688	407.98
656.039	438.27
656.391	416.8
656.742	421.09
657.094	431.71
657.445	407.98
657.796	409.79
658.147	399.17
658.498	425.61
658.849	425.38
659.2	411.83
659.551	408.21
659.902	398.49
660.253	407.31
660.604	399.62
660.955	400.75
661.306	398.94
661.656	391.71
662.007	393.29
662.358	407.31
662.708	393.97
663.059	399.62
663.409	407.31
663.76	396.68
664.11	401.43
664.461	406.4
664.811	412.96
665.161	387.65
665.511	410.47
665.862	414.99
666.212	390.13
666.562	401.2
666.912	410.02
667.262	389.45
667.612	384.93
667.962	393.29
668.312	396.46
668.662	394.2
669.011	393.52
669.361	379.51
669.711	377.7
670.06	391.71
670.41	373.41
670.76	385.61
671.109	389.68
671.459	382
671.808	391.49
672.157	398.27
672.507	386.06
672.856	387.19
673.205	394.65
673.554	385.84
673.904	385.84
674.253	396.23
674.602	407.31
674.951	367.76
675.3	374.31
675.649	385.16
675.998	374.54
676.346	369.11
676.695	379.51
677.044	381.32
677.393	381.77
677.741	370.24
678.09	366.4
678.438	383.58
678.787	387.19
679.135	379.74
679.484	368.89
679.832	389.68
680.181	371.15
680.529	384.48
680.877	380.19
681.225	344.26
681.573	386.52
681.922	375.89
682.27	364.59
682.618	370.24
682.966	375.44
683.314	364.37
683.661	371.6
684.009	373.18
684.357	348.78
684.705	358.49
685.053	364.82
685.4	373.18
685.748	360.3
686.095	370.24
686.443	374.09
686.79	370.92
687.138	354.65
687.485	343.35
687.832	345.84
688.18	344.71
688.527	379.74
688.874	365.95
689.221	364.14
689.568	365.05
689.915	372.5
690.262	350.81
690.609	346.74
690.956	341.54
691.303	348.55
691.65	359.85
691.997	367.76
692.344	372.96
692.69	358.72
693.037	366.18
693.383	350.81
693.73	349.91
694.077	362.56
694.423	370.92
694.769	341.09
695.116	345.39
695.462	347.87
695.808	361.66
696.155	352.84
696.501	370.47
696.847	360.3
697.193	358.27
697.539	361.88
697.885	357.36
698.231	357.36
698.577	343.8
698.923	343.58
699.269	328.66
699.614	346.74
699.96	347.65
700.306	359.62
700.651	359.62
700.997	344.03
701.342	363.69
701.688	351.26
702.033	363.24
702.379	352.39
702.724	363.92
703.069	348.55
703.415	328.44
703.76	349.23
704.105	371.15
704.45	356.23
704.795	347.65
705.14	356.69
705.485	346.97
705.83	343.58
706.175	344.48
706.52	342.9
706.865	356.46
707.209	344.71
707.554	336.35
707.899	345.61
708.243	353.75
708.588	351.71
708.932	327.31
709.277	323.92
709.621	370.47
709.966	377.48
710.31	357.59
710.654	350.13
710.998	329.12
711.342	330.25
711.687	342.67
712.031	352.39
712.375	333.86
712.719	349.45
713.063	356.01
713.407	358.95
713.75	356.69
714.094	333.18
714.438	346.06
714.782	342
715.125	344.71
715.469	344.93
715.812	340.87
716.156	341.32
716.499	340.64
716.843	349.45
717.186	346.52
717.53	335.9
717.873	338.83
718.216	319.17
718.559	333.64
718.902	313.07
719.246	309.46
719.589	329.79
719.932	334.09
720.275	323.24
720.617	347.19
720.96	345.61
721.303	319.17
721.646	338.38
721.989	345.61
722.331	340.19
722.674	319.85
723.016	334.77
723.359	329.34
723.701	319.4
724.044	330.25
724.386	347.65
724.729	323.01
725.071	336.57
725.413	326.63
725.755	315.78
726.097	332.28
726.439	340.41
726.782	319.4
727.124	333.41
727.465	352.39
727.807	346.52
728.149	331.6
728.491	313.52
728.833	342.22
729.175	353.3
729.516	349
729.858	337.48
730.199	344.93
730.541	351.26
730.882	327.76
731.224	359.85
731.565	334.09
731.906	329.34
732.248	335.44
732.589	347.19
732.93	360.53
733.271	327.31
733.612	332.05
733.953	336.57
734.294	342.67
734.635	329.79
734.976	332.51
735.317	338.61
735.658	326.4
735.999	346.74
736.339	335.67
736.68	319.62
737.021	317.14
737.361	335.67
737.702	355.56
738.042	349.45
738.383	352.84
738.723	362.11
739.063	326.86
739.404	329.34
739.744	349.45
740.084	331.83
740.424	322.79
740.764	332.28
741.104	346.52
741.444	315.56
741.784	333.18
742.124	329.12
742.464	337.7
742.804	335.44
743.143	331.15
743.483	308.55
743.823	337.48
744.162	343.13
744.502	344.71
744.841	343.58
745.181	318.95
745.52	337.93
745.86	347.19
746.199	343.8
746.538	340.87
746.877	323.24
747.216	340.87
747.556	336.8
747.895	332.51
748.234	313.75
748.573	334.31
748.911	350.36
749.25	328.66
749.589	327.99
749.928	300.64
750.267	351.71
750.605	323.01
750.944	331.6
751.283	325.27
751.621	328.44
751.96	322.34
752.298	352.84
752.636	335.67
752.975	351.71
753.313	335.44
753.651	329.57
753.989	354.65
754.327	337.7
754.666	327.99
755.004	319.17
755.342	337.03
755.679	340.41
756.017	346.52
756.355	330.25
756.693	335.9
757.031	353.07
757.368	331.38
757.706	332.28
758.044	322.79
758.381	339.28
758.719	345.61
759.056	330.47
759.394	331.15
759.731	326.4
760.068	317.82
760.405	311.49
760.743	332.05
761.08	343.35
761.417	309
761.754	301.09
762.091	325.73
762.428	320.75
762.765	319.85
763.102	316.69
763.438	326.63
763.775	328.66
764.112	307.42
764.449	338.83
764.785	337.03
765.122	314.2
765.458	316.46
765.795	342.9
766.131	324.37
766.467	324.14
766.804	322.79
767.14	318.95
767.476	328.21
767.812	324.82
768.148	335.22
768.485	330.7
768.821	337.03
769.157	312.17
769.492	324.6
769.828	311.94
770.164	333.86
770.5	337.7
770.836	322.34
771.171	346.06
771.507	337.93
771.842	332.28
772.178	336.12
772.513	312.39
772.849	325.73
773.184	320.53
773.519	325.73
773.855	319.62
774.19	328.44
774.525	321.43
774.86	320.53
775.195	329.79
775.53	321.43
775.865	310.81
776.2	328.21
776.535	349
776.87	337.93
777.205	301.32
777.539	322.79
777.874	342.67
778.209	323.69
778.543	328.66
778.878	309.91
779.212	310.59
779.547	334.99
779.881	346.52
780.215	329.79
780.55	325.73
780.884	329.79
781.218	325.27
781.552	326.18
781.886	341.09
782.22	323.24
782.554	334.54
782.888	311.94
783.222	323.92
783.556	327.53
783.889	338.61
784.223	334.54
784.557	329.34
784.89	301.09
785.224	332.51
785.557	348.78
785.891	338.15
786.224	322.11
786.558	320.98
786.891	314.2
787.224	328.66
787.557	304.48
787.891	324.82
788.224	332.28
788.557	300.64
788.89	304.26
789.223	325.05
789.556	344.71
