Data from No_light_on_white_reflection_standard_FLMS001491_064.txt Node
Date: Tue Feb 07 10:33:05 GMT 2017
User: dcchb
Spectrometer: FLMS00149
Trigger mode: 0
Integration Time (sec): 2.000000E-2
Scans to average: 10
Electric dark correction enabled: true
Nonlinearity correction enabled: false
Boxcar width: 0
XAxis mode: Wavelengths
Number of Pixels in Spectrum: 2048
>>>>>Begin Spectral Data<<<<<
341.393	0.81
341.776	0.81
342.16	0.81
342.543	-74.9
342.927	-67.89
343.31	-76.93
343.693	-66.09
344.077	-57.5
344.46	-58.4
344.843	-21.79
345.226	-45.52
345.61	-13.43
345.993	-27.89
346.376	-16.6
346.759	7.36
347.142	34.02
347.525	52.56
347.908	51.43
348.291	81.25
348.674	77.41
349.057	80.13
349.44	147.47
349.823	153.12
350.206	141.37
350.588	169.39
350.971	181.14
351.354	197.86
351.737	192.44
352.119	225.43
352.502	250.06
352.884	261.82
353.267	249.61
353.65	267.46
354.032	247.13
354.414	273.79
354.797	288.48
355.179	278.99
355.562	298.88
355.944	293.45
356.326	285.54
356.709	286.45
357.091	325.09
357.473	313.11
357.855	308.59
358.238	285.54
358.62	319.44
359.002	311.76
359.384	307.46
359.766	309.72
360.148	329.16
360.53	301.59
360.912	316.73
361.294	311.31
361.676	308.59
362.057	311.31
362.439	302.72
362.821	297.29
363.203	304.98
363.584	276.5
363.966	287.35
364.348	285.77
364.729	282.38
365.111	269.27
365.493	276.73
365.874	282.15
366.256	281.7
366.637	296.84
367.019	267.69
367.4	274.02
367.781	281.93
368.163	297.29
368.544	296.39
368.925	295.71
369.306	287.8
369.688	270.18
370.069	285.09
370.45	281.7
370.831	258.65
371.212	270.4
371.593	295.71
371.974	289.39
372.355	296.62
372.736	295.49
373.117	270.4
373.498	276.73
373.879	293.45
374.26	271.53
374.641	281.48
375.021	266.56
375.402	274.92
375.783	276.28
376.163	298.42
376.544	268.82
376.925	279.22
377.305	277.86
377.686	285.77
378.066	312.89
378.447	269.72
378.827	304.53
379.208	305.88
379.588	289.16
379.968	282.61
380.349	292.55
380.729	292.1
381.109	297.29
381.489	283.06
381.87	289.84
382.25	312.21
382.63	300.91
383.01	287.8
383.39	290.51
383.77	296.84
384.15	302.27
384.53	294.13
384.91	275.6
385.29	306.79
385.67	295.94
386.049	287.8
386.429	303.62
386.809	279.44
387.189	290.97
387.568	285.54
387.948	291.19
388.328	286
388.707	281.93
389.087	282.83
389.466	314.92
389.846	296.16
390.225	293.45
390.605	301.59
390.984	277.41
391.363	286.9
391.743	286.67
392.122	297.97
392.501	295.26
392.881	285.77
393.26	302.94
393.639	299.78
394.018	295.26
394.397	302.49
394.776	293.45
395.155	309.05
395.534	298.42
395.913	295.71
396.292	307.46
396.671	284.41
397.05	302.04
397.429	312.21
397.808	292.55
398.186	297.75
398.565	312.66
398.944	303.17
399.323	313.11
399.701	292.32
400.08	297.07
400.458	285.54
400.837	311.31
401.215	308.82
401.594	289.39
401.972	292.1
402.351	290.29
402.729	316.05
403.107	311.08
403.486	311.31
403.864	309.72
404.242	293
404.62	318.08
404.999	297.52
405.377	306.11
405.755	293.68
406.133	296.62
406.511	297.75
406.889	307.92
407.267	303.62
407.645	298.42
408.023	297.97
408.401	323.51
408.779	313.79
409.156	288.48
409.534	298.88
409.912	313.57
410.29	303.17
410.667	314.24
411.045	321.02
411.422	301.59
411.8	296.39
412.178	311.53
412.555	299.78
412.933	299.33
413.31	317.41
413.687	302.04
414.065	312.44
414.442	296.62
414.819	309.5
415.197	300.01
415.574	309.95
415.951	316.73
416.328	313.34
416.705	314.7
417.082	303.4
417.46	313.79
417.837	300.91
418.214	311.76
418.591	320.34
418.967	294.81
419.344	313.57
419.721	302.72
420.098	318.54
420.475	331.42
420.852	307.92
421.228	314.47
421.605	304.75
421.982	311.53
422.358	321.02
422.735	297.07
423.111	312.21
423.488	303.62
423.864	329.84
424.241	322.38
424.617	311.76
424.994	308.14
425.37	331.64
425.746	324.64
426.123	304.53
426.499	317.18
426.875	313.11
427.251	300.01
427.627	320.57
428.003	307.01
428.379	312.66
428.756	318.99
429.132	321.7
429.507	302.94
429.883	321.47
430.259	314.24
430.635	303.62
431.011	333.68
431.387	317.18
431.763	317.63
432.138	300.46
432.514	321.7
432.89	312.44
433.265	315.15
433.641	338.42
434.016	340.68
434.392	328.25
434.767	327.8
435.143	307.69
435.518	358.08
435.894	333.45
436.269	321.25
436.644	332.77
437.02	330.74
437.395	308.59
437.77	326.67
438.145	347.91
438.52	351.53
438.895	329.38
439.271	339.1
439.646	315.83
440.021	347.24
440.395	329.38
440.77	328.71
441.145	321.25
441.52	320.8
441.895	368.03
442.27	337.97
442.645	349.95
443.019	359.67
443.394	357.63
443.769	339.1
444.143	357.41
444.518	348.14
444.892	362.15
445.267	353.56
445.641	362.15
446.016	375.03
446.39	334.58
446.764	352.21
447.139	353.11
447.513	352.43
447.887	344.07
448.262	337.07
448.636	371.87
449.01	375.94
449.384	356.05
449.758	363.51
450.132	354.92
450.506	377.07
450.88	340.23
451.254	367.8
451.628	364.19
452.002	370.29
452.376	383.39
452.75	366.67
453.123	374.35
453.497	375.94
453.871	365.32
454.244	350.17
454.618	374.35
454.992	349.04
455.365	371.42
455.739	381.81
456.112	357.18
456.486	381.36
456.859	371.19
457.232	370.51
457.606	389.27
457.979	370.06
458.352	363.28
458.725	347.91
459.099	371.87
459.472	362.83
459.845	373.22
460.218	346.11
460.591	373.68
460.964	343.39
461.337	369.38
461.71	358.76
462.083	373.45
462.456	384.98
462.829	367.35
463.201	365.77
463.574	362.15
463.947	347.01
464.32	351.3
464.692	376.16
465.065	371.87
465.438	317.63
465.81	355.15
466.183	342.04
466.555	348.14
466.928	349.27
467.3	358.08
467.672	375.26
468.045	358.54
468.417	367.12
468.789	339.1
469.161	335.49
469.534	341.59
469.906	346.78
470.278	337.52
470.65	344.3
471.022	387.01
471.394	364.41
471.766	350.17
472.138	357.18
472.51	377.52
472.882	356.73
473.253	361.25
473.625	364.19
473.997	359.21
474.369	348.59
474.74	353.34
475.112	355.82
475.484	367.8
475.855	343.17
476.227	370.51
476.598	332.77
476.97	340.91
477.341	345.43
477.713	360.57
478.084	349.95
478.455	357.41
478.827	365.32
479.198	373
479.569	374.58
479.94	346.78
480.311	374.81
480.682	366.67
481.053	360.12
481.424	349.04
481.795	369.61
482.166	357.41
482.537	341.81
482.908	363.96
483.279	354.24
483.65	374.58
484.021	353.34
484.391	371.42
484.762	354.69
485.133	362.15
485.503	346.56
485.874	361.47
486.244	375.71
486.615	369.16
486.985	359.67
487.356	366.22
487.726	390.17
488.097	368.48
488.467	369.38
488.837	377.29
489.207	381.36
489.578	378.87
489.948	375.94
490.318	377.52
490.688	360.8
491.058	369.61
491.428	360.34
491.798	382.26
492.168	372.77
492.538	373.9
492.908	359.89
493.278	373.68
493.648	390.63
494.017	371.19
494.387	387.01
494.757	373.9
495.126	376.61
495.496	380.23
495.866	382.72
496.235	389.5
496.605	393.79
496.974	392.21
497.344	382.26
497.713	393.34
498.082	398.31
498.452	385.43
498.821	395.14
499.19	403.28
499.559	402.83
499.928	401.25
500.298	418.2
500.667	405.54
501.036	398.99
501.405	420
501.774	410.96
502.143	403.28
502.512	386.78
502.88	411.87
503.249	408.7
503.618	406.44
503.987	417.97
504.356	415.26
504.724	423.17
505.093	433.11
505.462	404.18
505.83	432.66
506.199	395.82
506.567	430.4
506.936	418.65
507.304	420.91
507.672	441.92
508.041	419.33
508.409	423.17
508.777	435.82
509.145	434.47
509.514	448.02
509.882	421.36
510.25	428.82
510.618	431.53
510.986	436.27
511.354	425.88
511.722	427.46
512.09	423.39
512.458	454.13
512.826	430.4
513.193	433.79
513.561	435.6
513.929	443.96
514.297	430.62
514.664	437.18
515.032	455.26
515.4	467.69
515.767	455.93
516.135	447.35
516.502	476.5
516.869	467.23
517.237	440.57
517.604	461.58
517.972	491.41
518.339	460.91
518.706	459.1
519.073	458.42
519.44	467.23
519.808	455.26
520.175	473.56
520.542	468.14
520.909	459.55
521.276	450.74
521.643	463.39
522.009	460.68
522.376	467.91
522.743	479.44
523.11	494.58
523.477	471.08
523.843	471.75
524.21	478.08
524.577	468.59
524.943	469.72
525.31	463.84
525.676	499.1
526.043	480.34
526.409	481.02
526.776	448.25
527.142	502.71
527.508	471.53
527.874	493.45
528.241	483.05
528.607	471.53
528.973	500.68
529.339	479.89
529.705	482.15
530.071	486.22
530.437	485.99
530.803	482.6
531.169	503.62
531.535	513.56
531.901	509.49
532.267	503.39
532.632	498.42
532.998	499.77
533.364	497.52
533.73	471.75
534.095	491.19
534.461	508.59
534.826	489.38
535.192	502.03
535.557	500.45
535.923	504.07
536.288	497.06
536.653	515.82
537.019	492.77
537.384	509.49
537.749	516.95
538.114	513.56
538.479	493.45
538.845	489.61
539.21	501.13
539.575	514.92
539.94	497.06
540.305	539.1
540.67	516.5
541.034	527.34
541.399	510.85
541.764	519.89
542.129	527.57
542.494	518.31
542.858	523.5
543.223	535.71
543.587	546.55
543.952	543.62
544.316	534.35
544.681	497.74
545.045	527.57
545.41	520.11
545.774	523.28
546.138	551.98
546.503	530.06
546.867	501.58
547.231	535.93
547.595	518.76
547.959	521.92
548.324	518.98
548.688	524.18
549.052	542.49
549.416	546.33
549.779	535.93
550.143	527.8
550.507	551.75
550.871	535.71
551.235	536.61
551.599	535.93
551.962	558.53
552.326	526.67
552.689	532.99
553.053	520.11
553.417	519.21
553.78	554.46
554.143	517.18
554.507	540.68
554.87	542.94
555.234	540.45
555.597	524.86
555.96	540.23
556.323	546.78
556.686	531.19
557.05	558.08
557.413	563.05
557.776	539.32
558.139	534.58
558.502	549.27
558.865	522.83
559.228	558.98
559.59	544.75
559.953	541.36
560.316	550.17
560.679	564.41
561.041	565.54
561.404	565.31
561.767	553.11
562.129	558.53
562.492	560.79
562.854	562.6
563.217	549.49
563.579	584.52
563.941	580.9
564.304	553.78
564.666	568.7
565.028	574.35
565.39	558.76
565.753	565.08
566.115	584.97
566.477	593.78
566.839	573.45
567.201	580.9
567.563	560.11
567.925	569.6
568.287	581.13
568.648	580.68
569.01	552.65
569.372	581.13
569.734	559.21
570.095	605.08
570.457	583.61
570.819	598.08
571.18	584.97
571.542	576.16
571.903	560.79
572.265	588.81
572.626	594.91
572.987	582.03
573.349	580.45
573.71	590.39
574.071	568.02
574.432	582.03
574.794	589.72
575.155	607.12
575.516	566.21
575.877	578.42
576.238	594.69
576.599	589.72
576.96	566.67
577.32	579.09
577.681	598.3
578.042	603.05
578.403	604.63
578.763	610.73
579.124	615.48
579.485	566.67
579.845	577.97
580.206	588.81
580.566	589.72
580.927	584.07
581.287	576.61
581.648	584.52
582.008	610.73
582.368	587
582.728	583.39
583.089	606.89
583.449	603.95
583.809	584.52
584.169	589.26
584.529	593.11
584.889	604.86
585.249	577.97
585.609	623.39
585.969	614.57
586.329	584.29
586.688	572.99
587.048	586.1
587.408	587.68
587.768	575.25
588.127	582.26
588.487	588.59
588.846	597.85
589.206	587.23
589.565	572.99
589.925	592.65
590.284	576.38
590.643	572.09
591.003	586.55
591.362	570.73
591.721	584.74
592.08	590.85
592.44	605.31
592.799	580.9
593.158	592.2
593.517	588.13
593.876	581.58
594.235	584.52
594.593	591.07
594.952	584.97
595.311	590.17
595.67	586.78
596.029	589.26
596.387	588.59
596.746	585.87
597.104	580
597.463	581.13
597.822	578.42
598.18	574.12
598.538	589.04
598.897	593.33
599.255	562.6
599.613	583.16
599.972	573.45
600.33	580.22
600.688	591.52
601.046	560.56
601.404	569.15
601.762	567.12
602.12	567.8
602.478	590.62
602.836	574.35
603.194	573.9
603.552	583.84
603.91	573.9
604.268	563.95
604.625	557.85
604.983	579.32
605.341	554.01
605.698	566.21
606.056	558.76
606.413	566.21
606.771	578.19
607.128	559.43
607.485	552.43
607.843	560.56
608.2	579.55
608.557	584.29
608.914	558.08
609.272	582.03
609.629	552.88
609.986	546.1
610.343	553.56
610.7	558.3
611.057	551.75
611.414	554.24
611.771	559.21
612.127	592.2
612.484	565.31
612.841	560.11
613.198	540.68
613.554	559.89
613.911	535.93
614.267	560.11
614.624	551.3
614.98	564.86
615.337	541.36
615.693	542.94
616.05	541.36
616.406	539.1
616.762	565.76
617.118	549.04
617.475	540.45
617.831	536.84
618.187	527.12
618.543	556.04
618.899	550.85
619.255	534.12
619.611	535.25
619.967	539.55
620.323	536.84
620.678	532.99
621.034	527.12
621.39	539.77
621.746	543.62
622.101	527.12
622.457	545.2
622.812	525.31
623.168	535.48
623.523	517.85
623.879	524.86
624.234	528.93
624.589	504.75
624.945	515.37
625.3	524.41
625.655	514.46
626.01	507.01
626.365	517.4
626.72	492.77
627.075	511.98
627.43	511.3
627.785	528.02
628.14	504.07
628.495	517.18
628.85	488.48
629.205	507.91
629.559	507.01
629.914	498.65
630.269	486.44
630.623	485.76
630.978	505.65
631.332	525.54
631.687	514.92
632.041	511.07
632.396	515.82
632.75	490.51
633.104	486.89
633.459	484.86
633.813	488.93
634.167	489.38
634.521	473.79
634.875	487.35
635.229	479.89
635.583	481.47
635.937	471.3
636.291	483.73
636.645	493.45
636.999	471.75
637.352	477.18
637.706	488.48
638.06	477.63
638.413	487.8
638.767	480.79
639.121	456.39
639.474	468.59
639.828	473.34
640.181	469.04
640.534	472.88
640.888	478.08
641.241	500.23
641.594	477.63
641.947	470.85
642.301	474.46
642.654	461.81
643.007	463.39
643.36	447.12
643.713	442.38
644.066	455.03
644.419	477.18
644.771	461.58
645.124	439.66
645.477	442.15
645.83	435.82
646.182	447.8
646.535	439.44
646.888	448.02
647.24	447.35
647.593	446.44
647.945	465.65
648.298	437.86
648.65	450.51
649.002	439.44
649.355	468.14
649.707	424.97
650.059	426.33
650.411	435.37
650.763	453.67
651.115	419.33
651.467	426.78
651.819	441.47
652.171	449.61
652.523	424.3
652.875	429.49
653.227	433.79
653.578	432.21
653.93	420.91
654.282	414.13
654.633	444.86
654.985	432.21
655.337	431.53
655.688	423.17
656.039	435.37
656.391	436.73
656.742	413.68
657.094	414.13
657.445	410.74
657.796	424.97
658.147	406.22
658.498	426.56
658.849	426.1
659.2	414.13
659.551	408.25
659.902	402.83
660.253	433.34
660.604	412.09
660.955	424.97
661.306	416.61
661.656	405.09
662.007	411.64
662.358	384.75
662.708	401.47
663.059	402.6
663.409	417.29
663.76	399.21
664.11	408.48
664.461	410.96
664.811	424.07
665.161	394.47
665.511	386.56
665.862	409.38
666.212	405.99
666.562	411.19
666.912	411.19
667.262	390.85
667.612	403.05
667.962	388.14
668.312	398.99
668.662	390.17
669.011	396.5
669.361	388.59
669.711	406.67
670.06	390.4
670.41	392.43
670.76	382.49
671.109	397.86
671.459	389.72
671.808	400.12
672.157	394.69
672.507	392.43
672.856	379.33
673.205	392.89
673.554	393.56
673.904	383.62
674.253	412.09
674.602	395.14
674.951	384.52
675.3	387.46
675.649	382.94
675.998	384.3
676.346	380.46
676.695	389.5
677.044	373
677.393	381.36
677.741	385.43
678.09	398.08
678.438	382.72
678.787	385.43
679.135	369.38
679.484	375.71
679.832	382.49
680.181	371.19
680.529	390.63
680.877	382.49
681.225	381.36
681.573	373.68
681.922	384.07
682.27	375.48
682.618	380.23
682.966	365.99
683.314	359.89
683.661	365.09
684.009	371.42
684.357	368.25
684.705	380.68
685.053	361.7
685.4	359.44
685.748	343.39
686.095	366.22
686.443	380.23
686.79	370.51
687.138	366.45
687.485	366.9
687.832	367.58
688.18	361.25
688.527	358.54
688.874	351.08
689.221	364.19
689.568	353.79
689.915	349.04
690.262	349.72
690.609	361.25
690.956	378.65
691.303	358.76
691.65	369.83
691.997	365.54
692.344	360.57
692.69	371.42
693.037	356.95
693.383	337.52
693.73	353.56
694.077	387.01
694.423	362.6
694.769	344.75
695.116	355.6
695.462	349.27
695.808	359.67
696.155	346.56
696.501	374.58
696.847	358.76
697.193	357.41
697.539	361.93
697.885	350.85
698.231	380
698.577	369.61
698.923	364.86
699.269	349.5
699.614	363.06
699.96	386.11
700.306	365.99
700.651	339.55
700.997	363.96
701.342	356.5
701.688	342.04
702.033	356.05
702.379	347.91
702.724	365.54
703.069	344.3
703.415	344.07
703.76	367.12
704.105	340.46
704.45	339.1
704.795	365.77
705.14	358.08
705.485	363.28
705.83	355.82
706.175	342.72
706.52	358.54
706.865	350.17
707.209	358.31
707.554	346.78
707.899	351.53
708.243	345.88
708.588	350.85
708.932	353.11
709.277	358.76
709.621	349.27
709.966	354.92
710.31	342.72
710.654	339.1
710.998	350.17
711.342	333.45
711.687	361.02
712.031	347.24
712.375	351.3
712.719	335.49
713.063	351.53
713.407	348.59
713.75	333.23
714.094	334.81
714.438	358.31
714.782	328.93
715.125	358.08
715.469	351.3
715.812	349.27
716.156	343.62
716.499	339.33
716.843	339.78
717.186	353.79
717.53	336.39
717.873	323.96
718.216	342.04
718.559	364.64
718.902	343.39
719.246	362.38
719.589	351.53
719.932	337.52
720.275	343.39
720.617	344.3
720.96	342.72
721.303	336.39
721.646	358.99
721.989	346.56
722.331	333
722.674	348.37
723.016	347.91
723.359	346.33
723.701	364.41
724.044	341.59
724.386	344.52
724.729	332.55
725.071	333
725.413	338.2
725.755	366.67
726.097	343.39
726.439	351.76
726.782	334.13
727.124	335.49
727.465	362.15
727.807	338.2
728.149	351.76
728.491	339.78
728.833	336.16
729.175	356.05
729.516	332.1
729.858	348.37
730.199	357.41
730.541	335.49
730.882	331.19
731.224	347.01
731.565	358.54
731.906	336.84
732.248	360.12
732.589	330.97
732.93	325.09
733.271	342.49
733.612	330.06
733.953	342.72
734.294	339.1
734.635	323.51
734.976	340.46
735.317	339.1
735.658	326.9
735.999	325.77
736.339	326.67
736.68	324.41
737.021	343.17
737.361	340.01
737.702	341.81
738.042	343.39
738.383	362.15
738.723	326.9
739.063	324.64
739.404	346.56
739.744	332.77
740.084	348.59
740.424	353.11
740.764	324.64
741.104	348.59
741.444	340.91
741.784	345.2
742.124	347.91
742.464	330.06
742.804	345.43
743.143	337.52
743.483	318.54
743.823	337.07
744.162	348.82
744.502	335.71
744.841	353.79
745.181	342.04
745.52	343.85
745.86	359.44
746.199	330.06
746.538	342.94
746.877	351.08
747.216	332.77
747.556	333.68
747.895	340.68
748.234	335.03
748.573	313.34
748.911	346.78
749.25	325.77
749.589	337.07
749.928	341.81
750.267	333.45
750.605	318.31
750.944	322.15
751.283	350.63
751.621	325.54
751.96	328.25
752.298	335.03
752.636	331.87
752.975	364.41
753.313	350.17
753.651	342.04
753.989	330.97
754.327	331.64
754.666	337.75
755.004	331.19
755.342	343.17
755.679	330.06
756.017	354.47
756.355	337.52
756.693	321.7
757.031	351.08
757.368	340.46
757.706	323.28
758.044	336.16
758.381	310.85
758.719	331.87
759.056	330.06
759.394	320.34
759.731	339.33
760.068	349.5
760.405	313.79
760.743	345.65
761.08	317.18
761.417	320.57
761.754	335.49
762.091	316.28
762.428	347.46
762.765	337.52
763.102	321.93
763.438	311.31
763.775	343.85
764.112	333.9
764.449	325.32
764.785	307.69
765.122	314.92
765.458	338.2
765.795	320.34
766.131	317.86
766.467	337.97
766.804	320.57
767.14	322.6
767.476	337.29
767.812	347.46
768.148	344.07
768.485	330.29
768.821	334.13
769.157	328.03
769.492	342.27
769.828	335.26
770.164	337.97
770.5	323.96
770.836	330.97
771.171	340.01
771.507	323.51
771.842	323.28
772.178	317.86
772.513	344.98
772.849	368.25
773.184	361.25
773.519	350.63
773.855	328.48
774.19	347.01
774.525	317.63
774.86	353.34
775.195	337.07
775.53	328.93
775.865	327.12
776.2	334.81
776.535	341.14
776.87	343.39
777.205	318.08
777.539	335.03
777.874	346.11
778.209	343.85
778.543	333.45
778.878	339.55
779.212	342.27
779.547	323.73
779.881	330.74
780.215	342.49
780.55	336.84
780.884	321.7
781.218	317.41
781.552	350.63
781.886	322.83
782.22	330.51
782.554	340.91
782.888	334.58
783.222	329.16
783.556	312.89
783.889	336.84
784.223	328.25
784.557	317.41
784.89	326.22
785.224	316.5
785.557	318.31
785.891	312.66
786.224	328.03
786.558	332.1
786.891	328.03
787.224	330.74
787.557	329.84
787.891	335.94
788.224	340.01
788.557	342.04
788.89	348.37
789.223	343.85
