Data from No_light_on_white_reflection_standard_FLMS001491_042.txt Node
Date: Tue Feb 07 10:33:00 GMT 2017
User: dcchb
Spectrometer: FLMS00149
Trigger mode: 0
Integration Time (sec): 2.000000E-2
Scans to average: 10
Electric dark correction enabled: true
Nonlinearity correction enabled: false
Boxcar width: 0
XAxis mode: Wavelengths
Number of Pixels in Spectrum: 2048
>>>>>Begin Spectral Data<<<<<
341.393	-27.98
341.776	-27.98
342.16	-27.98
342.543	-47.87
342.927	-78.15
343.31	-70.46
343.693	-85.83
344.077	-63.01
344.46	-74.08
344.843	-57.13
345.226	-33.63
345.61	-33.18
345.993	1.62
346.376	-2.67
346.759	-3.57
347.142	24.67
347.525	41.62
347.908	52.24
348.291	60.38
348.674	112.13
349.057	130.89
349.44	108.51
349.823	126.82
350.206	159.81
350.588	159.59
350.971	168.63
351.354	187.83
351.737	191.22
352.119	201.17
352.502	217.66
352.884	239.58
353.267	243.43
353.65	246.36
354.032	273.71
354.414	268.51
354.797	277.78
355.179	287.27
355.562	292.92
355.944	276.65
356.326	288.17
356.709	306.02
357.091	301.05
357.473	319.58
357.855	299.47
358.238	312.58
358.62	303.76
359.002	308.73
359.384	322.52
359.766	299.24
360.148	315.06
360.53	295.18
360.912	291.11
361.294	306.02
361.676	288.62
362.057	283.2
362.439	288.62
362.821	287.27
363.203	298.57
363.584	261.73
363.966	274.84
364.348	261.5
364.729	286.59
365.111	279.81
365.493	279.36
365.874	275.52
366.256	258.79
366.637	253.82
367.019	282.07
367.4	279.13
367.781	255.85
368.163	261.28
368.544	258.11
368.925	264.67
369.306	297.89
369.688	273.03
370.069	263.76
370.45	282.75
370.831	262.41
371.212	254.95
371.593	245.46
371.974	269.64
372.355	260.6
372.736	277.1
373.117	279.81
373.498	286.59
373.879	259.7
374.26	270.54
374.641	253.37
375.021	275.52
375.402	276.87
375.783	251.79
376.163	263.31
376.544	269.87
376.925	266.48
377.305	262.86
377.686	265.8
378.066	284.78
378.447	247.72
378.827	271.45
379.208	280.94
379.588	280.94
379.968	265.57
380.349	268.06
380.729	297.66
381.109	278.91
381.489	276.87
381.87	259.24
382.25	274.61
382.63	269.64
383.01	281.39
383.39	296.08
383.77	280.26
384.15	276.87
384.53	290.66
384.91	284.55
385.29	273.26
385.67	278.45
386.049	289.3
386.429	287.72
386.809	263.31
387.189	287.27
387.568	250.21
387.948	285.46
388.328	282.52
388.707	259.7
389.087	280.26
389.466	272.35
389.846	270.54
390.225	309.19
390.605	258.34
390.984	294.72
391.363	296.08
391.743	278.68
392.122	272.35
392.501	278.91
392.881	298.79
393.26	283.2
393.639	293.37
394.018	292.92
394.397	299.92
394.776	278.91
395.155	300.37
395.534	276.42
395.913	288.85
396.292	294.27
396.671	281.84
397.05	306.47
397.429	288.62
397.808	287.72
398.186	294.72
398.565	284.33
398.944	289.75
399.323	283.65
399.701	292.01
400.08	264.89
400.458	277.78
400.837	272.58
401.215	279.58
401.594	290.66
401.972	273.93
402.351	301.96
402.729	279.81
403.107	244.56
403.486	290.88
403.864	273.48
404.242	297.44
404.62	276.42
404.999	290.66
405.377	282.52
405.755	285.01
406.133	287.04
406.511	290.66
406.889	299.92
407.267	295.4
407.645	311.67
408.023	320.94
408.401	298.79
408.779	292.46
409.156	281.62
409.534	293.59
409.912	304.44
410.29	301.05
410.667	307.6
411.045	283.88
411.422	274.84
411.8	280.94
412.178	286.14
412.555	305.12
412.933	292.46
413.31	296.08
413.687	293.37
414.065	288.4
414.442	269.41
414.819	292.46
415.197	297.44
415.574	290.88
415.951	317.1
416.328	290.43
416.705	288.62
417.082	301.28
417.46	304.67
417.837	277.78
418.214	266.02
418.591	276.19
418.967	304.67
419.344	313.03
419.721	301.96
420.098	302.41
420.475	284.78
420.852	291.56
421.228	294.05
421.605	316.42
421.982	286.59
422.358	293.37
422.735	296.98
423.111	313.25
423.488	279.36
423.864	301.28
424.241	302.63
424.617	308.96
424.994	305.12
425.37	299.7
425.746	304.44
426.123	320.03
426.499	310.54
426.875	277.1
427.251	311.67
427.627	297.89
428.003	305.57
428.379	302.41
428.756	311.22
429.132	296.53
429.507	308.96
429.883	306.47
430.259	289.3
430.635	294.05
431.011	306.02
431.387	303.31
431.763	304.67
432.138	325.23
432.514	318.9
432.89	331.11
433.265	304.89
433.641	306.25
434.016	320.94
434.392	299.24
434.767	309.19
435.143	294.95
435.518	290.43
435.894	320.94
436.269	313.25
436.644	309.41
437.02	322.97
437.395	332.24
437.77	331.56
438.145	324.33
438.52	326.36
438.895	322.29
439.271	315.97
439.646	313.25
440.021	322.52
440.395	319.36
440.77	322.97
441.145	311.22
441.52	320.49
441.895	322.75
442.27	308.51
442.645	337.43
443.019	320.71
443.394	333.37
443.769	333.37
444.143	339.47
444.518	324.33
444.892	358
445.267	341.5
445.641	323.2
446.016	351.22
446.39	355.29
446.764	343.08
447.139	351.45
447.513	341.05
447.887	340.37
448.262	350.09
448.636	365
449.01	359.13
449.384	355.29
449.758	352.35
450.132	345.12
450.506	362.52
450.88	366.36
451.254	355.51
451.628	353.48
452.002	368.85
452.376	371.33
452.75	367.04
453.123	357.77
453.497	357.77
453.871	357.77
454.244	368.39
454.618	369.07
454.992	371.11
455.365	388.96
455.739	369.07
456.112	368.39
456.486	357.1
456.859	376.08
457.232	354.61
457.606	345.12
457.979	347.6
458.352	358.9
458.725	361.61
459.099	349.86
459.472	358.9
459.845	350.77
460.218	356.42
460.591	343.99
460.964	334.04
461.337	354.16
461.71	354.84
462.083	347.83
462.456	327.04
462.829	354.84
463.201	351.45
463.574	354.16
463.947	341.28
464.32	348.51
464.692	329.75
465.065	337.89
465.438	341.95
465.81	357.77
466.183	345.34
466.555	362.29
466.928	342.41
467.3	339.47
467.672	347.15
468.045	339.92
468.417	331.11
468.789	337.66
469.161	334.95
469.534	348.96
469.906	357.55
470.278	376.3
470.65	323.65
471.022	358.45
471.394	341.28
471.766	325.91
472.138	343.99
472.51	329.75
472.882	355.74
473.253	331.11
473.625	323.88
473.997	335.85
474.369	341.95
474.74	370.2
475.112	344.44
475.484	353.48
475.855	371.78
476.227	350.09
476.598	346.47
476.97	352.58
477.341	343.08
477.713	336.98
478.084	347.6
478.455	335.63
478.827	340.37
479.198	349.41
479.569	357.32
479.94	355.74
480.311	365.23
480.682	334.27
481.053	350.32
481.424	325.68
481.795	371.11
482.166	349.41
482.537	326.81
482.908	357.32
483.279	350.32
483.65	352.35
484.021	339.24
484.391	349.64
484.762	362.29
485.133	327.04
485.503	338.34
485.874	351.22
486.244	362.52
486.615	362.29
486.985	357.32
487.356	374.27
487.726	372.01
488.097	360.26
488.467	343.99
488.837	357.1
489.207	338.11
489.578	363.2
489.948	363.2
490.318	334.5
490.688	381.28
491.058	376.3
491.428	372.46
491.798	365
492.168	381.05
492.538	357.77
492.908	370.65
493.278	365.23
493.648	357.1
494.017	362.29
494.387	383.99
494.757	383.76
495.126	369.07
495.496	363.42
495.866	374.95
496.235	363.2
496.605	382.86
496.974	390.54
497.344	372.01
497.713	385.34
498.082	398
498.452	386.02
498.821	397.32
499.19	380.6
499.559	392.8
499.928	403.65
500.298	404.78
500.667	366.36
501.036	382.18
501.405	420.37
501.774	393.93
502.143	398.9
502.512	413.82
502.88	381.5
503.249	376.53
503.618	389.41
503.987	395.74
504.356	405.91
504.724	413.14
505.093	412.46
505.462	408.39
505.83	407.94
506.199	398
506.567	415.4
506.936	407.04
507.304	418.34
507.672	430.31
508.041	418.11
508.409	414.27
508.777	403.87
509.145	416.98
509.514	416.98
509.882	417.21
510.25	412.69
510.618	417.88
510.986	415.62
511.354	424.66
511.722	434.83
512.09	428.28
512.458	417.66
512.826	435.06
513.193	420.82
513.561	436.87
513.929	433.25
514.297	421.27
514.664	430.09
515.032	438.45
515.4	430.77
515.767	445.23
516.135	427.83
516.502	439.8
516.869	450.88
517.237	444.55
517.604	445.23
517.972	446.36
518.339	440.93
518.706	437.54
519.073	449.97
519.44	444.1
519.808	456.75
520.175	449.75
520.542	440.48
520.909	454.95
521.276	439.13
521.643	457.66
522.009	468.73
522.376	462.86
522.743	468.73
523.11	464.89
523.477	461.05
523.843	458.11
524.21	452.23
524.577	456.98
524.943	463.53
525.31	468.73
525.676	462.86
526.043	480.93
526.409	463.76
526.776	488.17
527.142	481.84
527.508	459.69
527.874	475.74
528.241	487.49
528.607	470.99
528.973	465.57
529.339	460.37
529.705	465.11
530.071	459.92
530.437	492.91
530.803	473.02
531.169	462.63
531.535	482.74
531.901	475.28
532.267	483.19
532.632	494.94
532.998	476.87
533.364	476.19
533.73	485.45
534.095	487.94
534.461	489.52
534.826	479.58
535.192	486.36
535.557	493.14
535.923	460.37
536.288	504.66
536.653	494.49
537.019	481.16
537.384	480.03
537.749	485.91
538.114	495.62
538.479	484.1
538.845	490.2
539.21	497.2
539.575	479.8
539.94	491.78
540.305	504.66
540.67	489.97
541.034	500.59
541.399	501.5
541.764	491.78
542.129	495.17
542.494	500.14
542.858	516.64
543.223	509.63
543.587	497.2
543.952	498.79
544.316	484.32
544.681	522.51
545.045	512.12
545.41	484.32
545.774	485.45
546.138	486.81
546.503	507.6
546.867	505.57
547.231	503.76
547.595	504.66
547.959	516.41
548.324	526.36
548.688	515.51
549.052	526.81
549.416	510.31
549.779	516.64
550.143	496.3
550.507	522.51
550.871	510.31
551.235	517.09
551.599	496.98
551.962	515.96
552.326	523.87
552.689	518.45
553.053	494.27
553.417	526.13
553.78	535.62
554.143	540.59
554.507	521.38
554.87	516.41
555.234	518.67
555.597	527.71
555.96	515.74
556.323	513.48
556.686	532.46
557.05	550.08
557.413	514.61
557.776	548.5
558.139	538.11
558.502	531.1
558.865	533.36
559.228	520.71
559.59	557.54
559.953	535.4
560.316	531.1
560.679	531.33
561.041	542.4
561.404	532.91
561.767	538.79
562.129	562.97
562.492	538.11
562.854	536.3
563.217	553.93
563.579	535.62
563.941	569.74
564.304	536.75
564.666	553.02
565.028	558.22
565.39	531.33
565.753	551.67
566.115	545.34
566.477	566.58
566.839	554.38
567.201	558.9
567.563	533.59
567.925	545.34
568.287	562.74
568.648	545.11
569.01	562.06
569.372	546.47
569.734	551.67
570.095	580.59
570.457	548.95
570.819	555.73
571.18	558.22
571.542	572.46
571.903	581.72
572.265	557.77
572.626	571.1
572.987	558.45
573.349	579.46
573.71	564.1
574.071	555.28
574.432	572.68
574.794	574.49
575.155	575.39
575.516	543.76
575.877	566.36
576.238	579.69
576.599	543.53
576.96	560.48
577.32	560.48
577.681	566.58
578.042	573.59
578.403	571.55
578.763	577.2
579.124	567.49
579.485	577.65
579.845	589.18
580.206	569.52
580.566	578.56
580.927	561.16
581.287	560.03
581.648	570.65
582.008	574.49
582.368	559.12
582.728	559.58
583.089	584.66
583.449	583.98
583.809	584.43
584.169	575.17
584.529	573.81
584.889	588.95
585.249	588.28
585.609	567.26
585.969	565.45
586.329	563.42
586.688	576.98
587.048	580.59
587.408	562.97
587.768	562.97
588.127	588.28
588.487	557.32
588.846	566.36
589.206	556.41
589.565	568.39
589.925	576.07
590.284	565.45
590.643	578.33
591.003	577.43
591.362	567.26
591.721	574.94
592.08	566.81
592.44	572.91
592.799	549.18
593.158	555.51
593.517	581.95
593.876	568.61
594.235	568.61
594.593	565.23
594.952	552.57
595.311	548.28
595.67	552.34
596.029	557.77
596.387	561.16
596.746	538.11
597.104	558.9
597.463	561.16
597.822	586.47
598.18	558.22
598.538	584.43
598.897	574.94
599.255	566.81
599.613	573.81
599.972	575.17
600.33	551.21
600.688	548.28
601.046	564.1
601.404	564.55
601.762	553.7
602.12	550.99
602.478	557.32
602.836	567.94
603.194	559.58
603.552	587.37
603.91	560.71
604.268	533.14
604.625	564.77
604.983	564.32
605.341	565
605.698	571.78
606.056	539.46
606.413	534.04
606.771	532.68
607.128	556.41
607.485	557.54
607.843	557.54
608.2	551.67
608.557	554.38
608.914	539.01
609.272	539.92
609.629	544.66
609.986	537.43
610.343	540.59
610.7	548.05
611.057	571.78
611.414	514.61
611.771	541.5
612.127	558.45
612.484	540.59
612.841	538.79
613.198	524.1
613.554	548.95
613.911	526.13
614.267	515.96
614.624	534.49
614.98	521.38
615.337	541.5
615.693	548.28
616.05	528.62
616.406	521.16
616.762	513.02
617.118	532.46
617.475	521.84
617.831	538.56
618.187	525
618.543	515.06
618.899	485.91
619.255	520.03
619.611	530.42
619.967	534.04
620.323	500.14
620.678	509.41
621.034	506.24
621.39	497.88
621.746	521.16
622.101	522.06
622.457	493.59
622.812	496.53
623.168	497.88
623.523	510.54
623.879	497.2
624.234	526.13
624.589	507.15
624.945	506.02
625.3	498.33
625.655	504.66
626.01	521.84
626.365	508.5
626.72	499.69
627.075	494.94
627.43	497.66
627.785	488.39
628.14	472.8
628.495	486.58
628.85	485.23
629.205	489.97
629.559	491.33
629.914	494.94
630.269	490.2
630.623	502.4
630.978	492.91
631.332	480.71
631.687	475.28
632.041	478.9
632.396	468.96
632.75	477.09
633.104	472.57
633.459	491.1
633.813	454.72
634.167	479.35
634.521	474.61
634.875	464.89
635.229	471.89
635.583	488.17
635.937	484.1
636.291	465.79
636.645	473.25
636.999	470.99
637.352	465.79
637.706	472.12
638.06	471.22
638.413	498.79
638.767	454.49
639.121	465.11
639.474	452.91
639.828	456.98
640.181	472.35
640.534	460.14
640.888	450.65
641.241	471.44
641.594	459.47
641.947	452.91
642.301	449.07
642.654	447.26
643.007	463.53
643.36	455.62
643.713	442.74
644.066	448.17
644.419	441.61
644.771	443.42
645.124	433.48
645.477	432.8
645.83	424.66
646.182	447.04
646.535	443.42
646.888	453.14
647.24	415.62
647.593	420.14
647.945	405.91
648.298	415.85
648.65	426.25
649.002	443.42
649.355	418.34
649.707	436.64
650.059	423.31
650.411	419.92
650.763	413.36
651.115	424.66
651.467	429.41
651.819	406.81
652.171	438.9
652.523	399.81
652.875	413.82
653.227	405.68
653.578	417.88
653.93	424.89
654.282	400.71
654.633	420.37
654.985	424.21
655.337	414.27
655.688	395.74
656.039	412.46
656.391	408.85
656.742	416.75
657.094	416.53
657.445	409.52
657.796	391.22
658.147	397.09
658.498	416.53
658.849	414.95
659.2	395.06
659.551	399.35
659.902	396.64
660.253	390.77
660.604	394.38
660.955	400.26
661.306	395.06
661.656	377.66
662.007	394.16
662.358	376.76
662.708	384.44
663.059	387.83
663.409	380.37
663.76	380.15
664.11	378.79
664.461	404.78
664.811	380.15
665.161	413.82
665.511	398
665.862	387.83
666.212	383.54
666.562	380.37
666.912	388.51
667.262	402.74
667.612	403.42
667.962	395.74
668.312	385.57
668.662	380.6
669.011	376.3
669.361	377.89
669.711	384.44
670.06	361.39
670.41	376.53
670.76	364.78
671.109	389.18
671.459	362.29
671.808	378.79
672.157	391.44
672.507	383.31
672.856	367.26
673.205	383.76
673.554	390.09
673.904	386.47
674.253	383.31
674.602	386.7
674.951	365.46
675.3	354.84
675.649	365.68
675.998	363.87
676.346	375.4
676.695	381.5
677.044	383.76
677.393	357.77
677.741	379.24
678.09	366.59
678.438	382.63
678.787	368.62
679.135	373.59
679.484	348.06
679.832	363.87
680.181	347.38
680.529	363.2
680.877	358
681.225	355.74
681.573	370.43
681.922	350.77
682.27	367.26
682.618	340.15
682.966	380.6
683.314	365.91
683.661	350.09
684.009	374.04
684.357	367.04
684.705	368.39
685.053	353.93
685.4	370.65
685.748	383.76
686.095	353.48
686.443	360.03
686.79	357.32
687.138	364.1
687.485	375.4
687.832	337.21
688.18	346.47
688.527	345.8
688.874	362.74
689.221	342.18
689.568	339.92
689.915	337.89
690.262	350.77
690.609	328.62
690.956	334.95
691.303	325.91
691.65	339.69
691.997	343.31
692.344	352.8
692.69	368.62
693.037	362.52
693.383	338.56
693.73	348.06
694.077	357.77
694.423	358.68
694.769	362.74
695.116	340.82
695.462	346.47
695.808	340.82
696.155	332.91
696.501	359.58
696.847	358.68
697.193	353.03
697.539	357.1
697.885	344.44
698.231	347.15
698.577	336.08
698.923	337.66
699.269	338.79
699.614	348.73
699.96	337.89
700.306	332.69
700.651	349.64
700.997	369.07
701.342	333.82
701.688	339.69
702.033	321.62
702.379	341.5
702.724	327.49
703.069	346.25
703.415	341.5
703.76	343.76
704.105	338.56
704.45	374.04
704.795	344.21
705.14	348.28
705.485	360.48
705.83	351.22
706.175	350.99
706.52	358.45
706.865	367.72
707.209	334.5
707.554	341.5
707.899	354.61
708.243	318.68
708.588	336.76
708.932	347.83
709.277	340.82
709.621	343.54
709.966	349.86
710.31	348.96
710.654	336.08
710.998	333.14
711.342	340.37
711.687	342.63
712.031	335.85
712.375	329.07
712.719	337.43
713.063	327.27
713.407	318.45
713.75	325.91
714.094	354.16
714.438	332.91
714.782	331.56
715.125	341.5
715.469	343.99
715.812	325.91
716.156	324.33
716.499	329.07
716.843	319.58
717.186	345.8
717.53	327.94
717.873	333.59
718.216	351.9
718.559	326.81
718.902	337.21
719.246	326.14
719.589	328.17
719.932	325.91
720.275	336.53
720.617	332.69
720.96	329.3
721.303	315.29
721.646	328.4
721.989	327.27
722.331	345.12
722.674	309.19
723.016	323.42
723.359	328.4
723.701	319.58
724.044	303.76
724.386	329.53
724.729	342.41
725.071	334.72
725.413	332.69
725.755	325.68
726.097	342.41
726.439	315.97
726.782	328.17
727.124	327.72
727.465	323.2
727.807	324.1
728.149	315.06
728.491	320.71
728.833	320.03
729.175	310.32
729.516	335.17
729.858	318.23
730.199	330.66
730.541	335.17
730.882	317.77
731.224	320.94
731.565	327.49
731.906	344.21
732.248	338.34
732.589	319.36
732.93	343.99
733.271	326.81
733.612	335.4
733.953	338.56
734.294	344.67
734.635	332.91
734.976	330.43
735.317	327.27
735.658	334.95
735.999	331.11
736.339	331.33
736.68	330.66
737.021	320.49
737.361	326.36
737.702	331.33
738.042	321.39
738.383	334.04
738.723	330.66
739.063	351.22
739.404	332.01
739.744	313.48
740.084	306.93
740.424	334.27
740.764	332.01
741.104	316.64
741.444	309.64
741.784	352.8
742.124	315.74
742.464	343.54
742.804	326.14
743.143	315.74
743.483	319.36
743.823	314.16
744.162	325.68
744.502	339.24
744.841	337.21
745.181	327.49
745.52	311.9
745.86	310.99
746.199	336.98
746.538	321.39
746.877	348.28
747.216	305.12
747.556	327.27
747.895	308.73
748.234	333.14
748.573	325.68
748.911	331.56
749.25	324.55
749.589	328.17
749.928	311.45
750.267	317.77
750.605	306.47
750.944	336.08
751.283	336.08
751.621	335.85
751.96	326.36
752.298	345.8
752.636	345.34
752.975	317.55
753.313	315.97
753.651	316.42
753.989	329.53
754.327	335.63
754.666	334.72
755.004	329.53
755.342	306.25
755.679	337.21
756.017	332.01
756.355	327.04
756.693	312.8
757.031	316.64
757.368	334.27
757.706	335.85
758.044	316.87
758.381	334.27
758.719	299.47
759.056	336.76
759.394	336.53
759.731	316.64
760.068	315.97
760.405	309.41
760.743	306.47
761.08	326.81
761.417	316.19
761.754	324.33
762.091	310.77
762.428	304.67
762.765	327.72
763.102	322.52
763.438	324.78
763.775	316.42
764.112	318.68
764.449	329.53
764.785	314.16
765.122	321.39
765.458	321.16
765.795	309.64
766.131	340.6
766.467	321.84
766.804	319.13
767.14	330.88
767.476	328.62
767.812	324.55
768.148	293.59
768.485	294.72
768.821	309.19
769.157	336.08
769.492	322.52
769.828	325.23
770.164	324.33
770.5	321.84
770.836	313.93
771.171	315.06
771.507	343.31
771.842	321.62
772.178	307.38
772.513	312.8
772.849	340.15
773.184	329.98
773.519	345.57
773.855	324.33
774.19	328.17
774.525	331.11
774.86	320.94
775.195	337.21
775.53	314.38
775.865	327.27
776.2	324.55
776.535	310.54
776.87	328.85
777.205	338.79
777.539	321.39
777.874	311.22
778.209	314.16
778.543	325.68
778.878	361.39
779.212	344.44
779.547	336.76
779.881	330.2
780.215	349.86
780.55	331.79
780.884	311.67
781.218	325.46
781.552	321.39
781.886	336.3
782.22	321.62
782.554	311.9
782.888	317.32
783.222	317.32
783.556	322.29
783.889	313.48
784.223	328.4
784.557	327.94
784.89	296.98
785.224	325.01
785.557	335.63
785.891	334.72
786.224	327.72
786.558	334.5
786.891	314.38
787.224	333.14
787.557	322.75
787.891	322.29
788.224	311.45
788.557	335.4
788.89	329.53
789.223	331.11
