Data from No_light_on_white_reflection_standard_FLMS001491_077.txt Node
Date: Tue Feb 07 10:33:07 GMT 2017
User: dcchb
Spectrometer: FLMS00149
Trigger mode: 0
Integration Time (sec): 2.000000E-2
Scans to average: 10
Electric dark correction enabled: true
Nonlinearity correction enabled: false
Boxcar width: 0
XAxis mode: Wavelengths
Number of Pixels in Spectrum: 2048
>>>>>Begin Spectral Data<<<<<
341.393	-16.91
341.776	-16.91
342.16	-16.91
342.543	-55.55
342.927	-54.19
343.31	-61.65
343.693	-70.92
344.077	-62.55
344.46	-63.23
344.843	-52.61
345.226	-40.63
345.61	-19.62
345.993	-23.23
346.376	4.11
346.759	14.96
347.142	37.78
347.525	22.87
347.908	45.24
348.291	64
348.674	101.28
349.057	104.22
349.44	127.27
349.823	140.83
350.206	168.4
350.588	158.68
350.971	165.91
351.354	191.9
351.737	190.32
352.119	218.12
352.502	233.71
352.884	253.14
353.267	257.66
353.65	271.22
354.032	277.55
354.414	249.75
354.797	270.09
355.179	274.84
355.562	297.21
355.944	303.31
356.326	289.07
356.709	300.37
357.091	313.71
357.473	302.41
357.855	305.8
358.238	303.31
358.62	294.5
359.002	311.9
359.384	307.83
359.766	312.12
360.148	286.81
360.53	303.76
360.912	298.79
361.294	303.54
361.676	280.26
362.057	295.85
362.439	298.57
362.821	318.23
363.203	293.82
363.584	278.68
363.966	264.67
364.348	287.94
364.729	285.68
365.111	289.53
365.493	287.27
365.874	275.29
366.256	286.81
366.637	278.68
367.019	293.37
367.4	301.5
367.781	280.04
368.163	276.42
368.544	265.8
368.925	269.19
369.306	268.96
369.688	275.97
370.069	280.49
370.45	273.93
370.831	263.31
371.212	282.29
371.593	278.91
371.974	250.66
372.355	278
372.736	264.22
373.117	256.76
373.498	265.12
373.879	277.55
374.26	284.1
374.641	268.74
375.021	263.31
375.402	299.02
375.783	265.8
376.163	285.01
376.544	285.68
376.925	269.64
377.305	264.22
377.686	286.59
378.066	289.75
378.447	279.13
378.827	265.12
379.208	294.95
379.588	277.78
379.968	283.65
380.349	283.2
380.729	309.64
381.109	284.33
381.489	291.56
381.87	303.76
382.25	285.68
382.63	274.84
383.01	306.25
383.39	277.1
383.77	285.91
384.15	266.7
384.53	303.09
384.91	282.97
385.29	280.26
385.67	265.57
386.049	281.39
386.429	292.46
386.809	298.57
387.189	275.74
387.568	281.62
387.948	294.95
388.328	265.12
388.707	318
389.087	295.18
389.466	282.52
389.846	289.75
390.225	291.79
390.605	288.17
390.984	288.62
391.363	298.34
391.743	289.07
392.122	300.6
392.501	282.52
392.881	283.42
393.26	289.3
393.639	303.09
394.018	308.06
394.397	292.92
394.776	285.91
395.155	292.24
395.534	293.82
395.913	263.31
396.292	289.98
396.671	292.01
397.05	284.33
397.429	300.6
397.808	296.98
398.186	279.36
398.565	279.36
398.944	278.91
399.323	298.79
399.701	306.02
400.08	286.36
400.458	295.63
400.837	311.22
401.215	306.47
401.594	288.62
401.972	281.16
402.351	291.56
402.729	293.59
403.107	305.35
403.486	299.92
403.864	301.73
404.242	283.2
404.62	287.27
404.999	296.76
405.377	290.2
405.755	302.41
406.133	298.57
406.511	300.83
406.889	290.88
407.267	321.16
407.645	301.28
408.023	297.21
408.401	309.64
408.779	310.77
409.156	301.5
409.534	299.7
409.912	287.49
410.29	309.19
410.667	302.63
411.045	295.85
411.422	296.08
411.8	308.28
412.178	307.15
412.555	324.78
412.933	295.85
413.31	303.99
413.687	297.89
414.065	306.02
414.442	308.51
414.819	294.72
415.197	295.18
415.574	314.38
415.951	301.73
416.328	301.28
416.705	309.64
417.082	296.31
417.46	294.72
417.837	304.44
418.214	309.19
418.591	300.83
418.967	311.9
419.344	292.92
419.721	292.24
420.098	297.89
420.475	308.96
420.852	311.9
421.228	300.6
421.605	298.11
421.982	310.99
422.358	310.54
422.735	303.09
423.111	307.6
423.488	313.03
423.864	315.29
424.241	309.19
424.617	320.49
424.994	313.71
425.37	294.95
425.746	313.25
426.123	315.06
426.499	301.5
426.875	327.27
427.251	304.67
427.627	313.48
428.003	315.29
428.379	320.26
428.756	318.23
429.132	318.23
429.507	309.86
429.883	319.81
430.259	308.96
430.635	330.2
431.011	298.57
431.387	312.8
431.763	333.14
432.138	313.93
432.514	311.9
432.89	299.7
433.265	301.96
433.641	329.98
434.016	338.79
434.392	325.68
434.767	308.73
435.143	323.42
435.518	318.45
435.894	312.35
436.269	327.27
436.644	334.04
437.02	327.72
437.395	316.87
437.77	324.33
438.145	322.75
438.52	344.89
438.895	323.88
439.271	350.99
439.646	335.85
440.021	345.34
440.395	337.89
440.77	360.03
441.145	369.52
441.52	350.32
441.895	324.78
442.27	343.99
442.645	366.59
443.019	338.34
443.394	334.27
443.769	342.41
444.143	359.58
444.518	339.92
444.892	331.79
445.267	354.61
445.641	355.97
446.016	358.45
446.39	373.59
446.764	364.1
447.139	342.41
447.513	350.32
447.887	344.21
448.262	387.38
448.636	344.21
449.01	354.84
449.384	350.32
449.758	353.93
450.132	378.11
450.506	343.99
450.88	363.2
451.254	358.68
451.628	374.27
452.002	380.6
452.376	370.88
452.75	373.82
453.123	374.27
453.497	355.51
453.871	368.39
454.244	364.55
454.618	378.56
454.992	361.39
455.365	375.17
455.739	390.09
456.112	392.12
456.486	364.78
456.859	373.82
457.232	372.01
457.606	380.82
457.979	366.13
458.352	364.33
458.725	350.54
459.099	381.95
459.472	365
459.845	369.52
460.218	362.07
460.591	346.93
460.964	364.1
461.337	343.31
461.71	354.16
462.083	359.58
462.456	357.55
462.829	362.74
463.201	369.3
463.574	343.99
463.947	364.33
464.32	357.32
464.692	371.33
465.065	339.69
465.438	349.41
465.81	363.87
466.183	378.11
466.555	360.48
466.928	375.85
467.3	356.87
467.672	358.9
468.045	349.64
468.417	385.79
468.789	343.76
469.161	346.47
469.534	343.08
469.906	340.15
470.278	330.66
470.65	343.99
471.022	354.61
471.394	358
471.766	355.97
472.138	337.66
472.51	335.85
472.882	353.93
473.253	343.99
473.625	351.67
473.997	365.68
474.369	350.99
474.74	345.8
475.112	336.76
475.484	361.84
475.855	362.52
476.227	344.67
476.598	360.48
476.97	356.64
477.341	342.41
477.713	350.77
478.084	350.54
478.455	341.5
478.827	355.06
479.198	346.47
479.569	324.55
479.94	348.06
480.311	355.29
480.682	348.73
481.053	348.06
481.424	373.59
481.795	369.07
482.166	331.11
482.537	357.55
482.908	338.34
483.279	346.02
483.65	339.69
484.021	353.71
484.391	360.26
484.762	353.71
485.133	359.13
485.503	376.3
485.874	375.63
486.244	352.12
486.615	348.73
486.985	363.42
487.356	354.16
487.726	364.33
488.097	373.37
488.467	352.12
488.837	374.27
489.207	371.33
489.578	357.1
489.948	358.68
490.318	381.95
490.688	377.43
491.058	367.26
491.428	369.52
491.798	378.79
492.168	384.44
492.538	367.04
492.908	382.63
493.278	376.3
493.648	382.86
494.017	392.35
494.387	372.01
494.757	384.44
495.126	376.76
495.496	395.06
495.866	392.35
496.235	380.82
496.605	378.34
496.974	403.42
497.344	400.48
497.713	375.4
498.082	400.03
498.452	388.28
498.821	388.96
499.19	387.6
499.559	386.47
499.928	406.59
500.298	399.35
500.667	419.47
501.036	411.33
501.405	408.39
501.774	406.13
502.143	395.06
502.512	404.1
502.88	414.95
503.249	396.87
503.618	403.42
503.987	409.07
504.356	412.91
504.724	421.95
505.093	430.77
505.462	402.74
505.83	420.82
506.199	426.25
506.567	406.59
506.936	415.17
507.304	418.56
507.672	421.05
508.041	420.6
508.409	426.92
508.777	427.83
509.145	440.26
509.514	408.39
509.882	433.03
510.25	439.13
510.618	438
510.986	435.29
511.354	437.32
511.722	447.04
512.09	432.8
512.458	452.01
512.826	435.06
513.193	445
513.561	476.87
513.929	447.94
514.297	441.84
514.664	435.29
515.032	422.18
515.4	425.57
515.767	448.17
516.135	456.3
516.502	442.52
516.869	441.84
517.237	456.08
517.604	447.71
517.972	459.24
518.339	468.28
518.706	458.34
519.073	473.02
519.44	481.16
519.808	457.66
520.175	476.41
520.542	476.87
520.909	470.09
521.276	457.66
521.643	450.88
522.009	465.11
522.376	471.67
522.743	452.69
523.11	486.58
523.477	480.26
523.843	461.95
524.21	479.58
524.577	456.98
524.943	492.46
525.31	464.21
525.676	464.66
526.043	508.96
526.409	468.96
526.776	487.26
527.142	484.1
527.508	494.04
527.874	467.83
528.241	480.93
528.607	483.19
528.973	475.96
529.339	496.75
529.705	497.66
530.071	480.71
530.437	481.16
530.803	502.85
531.169	494.49
531.535	502.85
531.901	497.2
532.267	494.49
532.632	504.44
532.998	504.89
533.364	496.07
533.73	507.83
534.095	513.93
534.461	491.78
534.826	493.81
535.192	494.72
535.557	485.45
535.923	502.85
536.288	494.72
536.653	500.59
537.019	491.1
537.384	480.71
537.749	504.21
538.114	500.82
538.479	509.41
538.845	506.24
539.21	497.66
539.575	504.66
539.94	509.86
540.305	505.11
540.67	512.57
541.034	510.09
541.399	518.45
541.764	507.6
542.129	525.45
542.494	513.93
542.858	526.81
543.223	521.61
543.587	525.9
543.952	516.86
544.316	525
544.681	506.7
545.045	515.51
545.41	517.77
545.774	521.38
546.138	514.38
546.503	489.07
546.867	521.61
547.231	499.24
547.595	542.4
547.959	521.84
548.324	519.8
548.688	521.61
549.052	531.1
549.416	528.39
549.779	532.23
550.143	502.4
550.507	539.46
550.871	541.05
551.235	534.72
551.599	535.17
551.962	523.19
552.326	530.65
552.689	546.92
553.053	521.38
553.417	520.48
553.78	543.3
554.143	552.8
554.507	527.03
554.87	535.62
555.234	543.3
555.597	551.21
555.96	551.89
556.323	542.85
556.686	542.18
557.05	557.77
557.413	538.56
557.776	544.21
558.139	546.92
558.502	521.16
558.865	557.77
559.228	556.86
559.59	548.28
559.953	550.99
560.316	544.89
560.679	547.15
561.041	563.87
561.404	562.74
561.767	549.41
562.129	555.06
562.492	572.68
562.854	545.34
563.217	526.36
563.579	563.64
563.941	557.99
564.304	570.2
564.666	544.89
565.028	577.43
565.39	574.49
565.753	533.36
566.115	551.21
566.477	584.43
566.839	567.03
567.201	562.97
567.563	580.14
567.925	567.49
568.287	565.9
568.648	562.74
569.01	577.65
569.372	579.01
569.734	597.31
570.095	568.16
570.457	584.66
570.819	587.82
571.18	581.27
571.542	564.77
571.903	582.85
572.265	577.88
572.626	566.81
572.987	592.34
573.349	583.53
573.71	590.31
574.071	583.76
574.432	581.04
574.794	594.83
575.155	597.31
575.516	576.75
575.877	590.08
576.238	612
576.599	569.97
576.96	580.82
577.32	595.05
577.681	585.34
578.042	591.89
578.403	571.33
578.763	581.95
579.124	579.24
579.485	605.9
579.845	581.04
580.206	572.23
580.566	580.82
580.927	592.34
581.287	585.79
581.648	598.67
582.008	591.44
582.368	598.44
582.728	600.03
583.089	585.11
583.449	580.37
583.809	588.05
584.169	580.37
584.529	590.08
584.889	570.42
585.249	596.64
585.609	580.59
585.969	607.48
586.329	579.46
586.688	574.49
587.048	577.88
587.408	561.84
587.768	585.11
588.127	591.21
588.487	591.67
588.846	602.29
589.206	573.81
589.565	581.27
589.925	561.61
590.284	590.08
590.643	592.34
591.003	591.89
591.362	594.15
591.721	598.9
592.08	605.22
592.44	567.71
592.799	571.1
593.158	587.82
593.517	588.73
593.876	578.33
594.235	562.97
594.593	554.6
594.952	601.16
595.311	564.77
595.67	553.25
596.029	566.36
596.387	582.4
596.746	570.65
597.104	561.84
597.463	559.8
597.822	565.68
598.18	576.98
598.538	591.21
598.897	590.54
599.255	589.63
599.613	570.42
599.972	579.46
600.33	572.23
600.688	582.17
601.046	579.91
601.404	576.3
601.762	565.23
602.12	575.62
602.478	584.89
602.836	580.37
603.194	570.65
603.552	560.25
603.91	552.57
604.268	561.61
604.625	563.64
604.983	581.04
605.341	510.99
605.698	563.42
606.056	568.16
606.413	571.78
606.771	582.4
607.128	575.17
607.485	551.67
607.843	545.56
608.2	554.15
608.557	576.52
608.914	568.84
609.272	561.61
609.629	555.96
609.986	559.12
610.343	539.46
610.7	551.44
611.057	554.38
611.414	550.54
611.771	555.51
612.127	546.69
612.484	536.53
612.841	540.82
613.198	538.56
613.554	572.68
613.911	559.58
614.267	541.95
614.624	567.03
614.98	527.03
615.337	543.3
615.693	556.86
616.05	532.46
616.406	542.18
616.762	546.92
617.118	553.25
617.475	542.85
617.831	535.62
618.187	553.02
618.543	525.45
618.899	533.81
619.255	512.12
619.611	537.2
619.967	541.27
620.323	529.07
620.678	535.62
621.034	552.12
621.39	535.85
621.746	546.47
622.101	520.25
622.457	523.42
622.812	525
623.168	529.97
623.523	532.01
623.879	535.4
624.234	526.13
624.589	506.02
624.945	524.1
625.3	527.94
625.655	517.32
626.01	496.75
626.365	517.99
626.72	515.06
627.075	506.7
627.43	508.73
627.785	513.48
628.14	512.57
628.495	499.92
628.85	506.47
629.205	496.98
629.559	498.79
629.914	490.42
630.269	499.46
630.623	497.66
630.978	496.3
631.332	494.72
631.687	482.52
632.041	480.48
632.396	503.98
632.75	484.78
633.104	484.78
633.459	497.43
633.813	503.53
634.167	507.37
634.521	517.32
634.875	483.87
635.229	495.4
635.583	463.31
635.937	498.79
636.291	481.39
636.645	473.25
636.999	495.85
637.352	474.61
637.706	494.49
638.06	485
638.413	471.89
638.767	468.96
639.121	494.49
639.474	468.73
639.828	475.28
640.181	457.43
640.534	482.06
640.888	469.18
641.241	478.67
641.594	471.89
641.947	472.12
642.301	460.82
642.654	466.02
643.007	464.21
643.36	483.19
643.713	441.84
644.066	469.41
644.419	443.19
644.771	446.58
645.124	459.47
645.477	460.37
645.83	452.69
646.182	450.43
646.535	446.13
646.888	436.87
647.24	428.28
647.593	432.8
647.945	436.87
648.298	452.91
648.65	450.65
649.002	443.65
649.355	438.45
649.707	422.18
650.059	428.05
650.411	428.73
650.763	438.45
651.115	436.64
651.467	444.32
651.819	412.69
652.171	464.21
652.523	444.78
652.875	430.09
653.227	433.7
653.578	436.19
653.93	412.91
654.282	438.45
654.633	452.69
654.985	412.01
655.337	432.12
655.688	426.02
656.039	422.18
656.391	400.48
656.742	398.45
657.094	405.23
657.445	423.76
657.796	424.44
658.147	427.6
658.498	401.61
658.849	413.36
659.2	419.47
659.551	413.82
659.902	393.93
660.253	403.42
660.604	414.49
660.955	428.05
661.306	408.85
661.656	406.59
662.007	408.17
662.358	408.62
662.708	406.59
663.059	405.23
663.409	405.68
663.76	415.4
664.11	405.68
664.461	419.69
664.811	398.22
665.161	397.77
665.511	425.34
665.862	401.84
666.212	383.99
666.562	400.48
666.912	387.6
667.262	404.33
667.612	392.57
667.962	399.13
668.312	381.05
668.662	381.95
669.011	403.42
669.361	409.98
669.711	398.45
670.06	381.95
670.41	384.44
670.76	386.47
671.109	395.51
671.459	376.98
671.808	365
672.157	381.28
672.507	376.76
672.856	408.62
673.205	386.02
673.554	383.99
673.904	392.35
674.253	402.97
674.602	366.13
674.951	385.79
675.3	375.63
675.649	387.83
675.998	385.57
676.346	376.98
676.695	363.87
677.044	389.86
677.393	403.65
677.741	407.72
678.09	383.76
678.438	374.72
678.787	369.52
679.135	377.89
679.484	368.85
679.832	368.39
680.181	363.42
680.529	382.41
680.877	383.31
681.225	369.52
681.573	375.85
681.922	366.13
682.27	386.02
682.618	362.97
682.966	365.68
683.314	385.79
683.661	381.95
684.009	371.33
684.357	365
684.705	386.02
685.053	380.37
685.4	391.67
685.748	378.79
686.095	390.31
686.443	365.23
686.79	378.56
687.138	377.66
687.485	372.91
687.832	357.32
688.18	380.37
688.527	360.03
688.874	368.39
689.221	356.19
689.568	365
689.915	374.27
690.262	364.33
690.609	367.72
690.956	357.1
691.303	350.54
691.65	369.75
691.997	343.76
692.344	344.67
692.69	357.77
693.037	345.12
693.383	359.58
693.73	350.54
694.077	379.69
694.423	368.85
694.769	351.9
695.116	348.73
695.462	362.74
695.808	358.23
696.155	347.15
696.501	341.28
696.847	348.96
697.193	360.94
697.539	361.39
697.885	359.58
698.231	348.28
698.577	347.83
698.923	360.26
699.269	339.02
699.614	362.97
699.96	344.21
700.306	363.42
700.651	349.19
700.997	352.8
701.342	341.95
701.688	319.58
702.033	366.59
702.379	348.73
702.724	354.38
703.069	362.52
703.415	362.29
703.76	359.35
704.105	342.18
704.45	344.44
704.795	339.47
705.14	342.63
705.485	323.65
705.83	344.21
706.175	337.89
706.52	332.69
706.865	365.68
707.209	357.1
707.554	342.63
707.899	355.06
708.243	358
708.588	346.47
708.932	339.92
709.277	338.11
709.621	344.44
709.966	354.61
710.31	336.53
710.654	341.05
710.998	340.6
711.342	338.34
711.687	338.34
712.031	328.62
712.375	336.98
712.719	336.98
713.063	333.37
713.407	346.25
713.75	332.24
714.094	331.11
714.438	346.25
714.782	337.66
715.125	342.41
715.469	341.73
715.812	340.6
716.156	339.02
716.499	343.08
716.843	329.75
717.186	342.18
717.53	339.92
717.873	329.07
718.216	343.08
718.559	348.28
718.902	335.63
719.246	346.47
719.589	355.29
719.932	353.71
720.275	333.37
720.617	331.33
720.96	339.02
721.303	315.97
721.646	335.17
721.989	333.37
722.331	348.73
722.674	327.94
723.016	328.85
723.359	341.28
723.701	336.3
724.044	348.28
724.386	341.05
724.729	332.46
725.071	353.71
725.413	338.56
725.755	350.09
726.097	329.53
726.439	345.8
726.782	341.73
727.124	325.46
727.465	332.01
727.807	332.91
728.149	325.68
728.491	339.92
728.833	337.66
729.175	332.69
729.516	325.46
729.858	357.1
730.199	346.02
730.541	340.6
730.882	346.7
731.224	327.72
731.565	332.91
731.906	335.85
732.248	348.96
732.589	329.75
732.93	340.37
733.271	343.76
733.612	338.11
733.953	322.52
734.294	322.75
734.635	332.46
734.976	328.17
735.317	344.89
735.658	336.76
735.999	358
736.339	317.77
736.68	341.28
737.021	341.5
737.361	329.3
737.702	343.08
738.042	317.77
738.383	316.64
738.723	316.87
739.063	329.3
739.404	325.23
739.744	329.3
740.084	354.61
740.424	340.15
740.764	335.85
741.104	313.71
741.444	343.99
741.784	322.29
742.124	326.81
742.464	334.5
742.804	342.41
743.143	343.54
743.483	316.64
743.823	312.58
744.162	337.89
744.502	332.69
744.841	334.04
745.181	346.47
745.52	322.75
745.86	318.9
746.199	325.68
746.538	354.84
746.877	339.24
747.216	320.49
747.556	339.69
747.895	326.59
748.234	334.04
748.573	320.49
748.911	336.76
749.25	337.89
749.589	338.34
749.928	333.37
750.267	333.59
750.605	341.95
750.944	322.29
751.283	339.69
751.621	338.11
751.96	309.64
752.298	326.36
752.636	334.72
752.975	323.42
753.313	342.63
753.651	346.93
753.989	338.79
754.327	336.98
754.666	324.1
755.004	317.32
755.342	340.6
755.679	333.82
756.017	328.62
756.355	327.72
756.693	309.64
757.031	325.01
757.368	355.74
757.706	336.3
758.044	342.41
758.381	339.47
758.719	343.08
759.056	339.47
759.394	313.93
759.731	323.65
760.068	321.84
760.405	316.42
760.743	328.85
761.08	353.71
761.417	306.25
761.754	329.07
762.091	325.01
762.428	345.34
762.765	326.14
763.102	319.58
763.438	322.97
763.775	317.77
764.112	321.84
764.449	326.14
764.785	331.11
765.122	322.97
765.458	327.27
765.795	338.34
766.131	308.06
766.467	341.28
766.804	338.56
767.14	317.1
767.476	341.5
767.812	338.11
768.148	328.17
768.485	321.84
768.821	328.62
769.157	341.28
769.492	305.12
769.828	343.99
770.164	321.39
770.5	332.46
770.836	359.81
771.171	338.11
771.507	344.67
771.842	324.33
772.178	334.95
772.513	346.7
772.849	322.75
773.184	327.49
773.519	330.2
773.855	338.34
774.19	326.36
774.525	340.15
774.86	322.75
775.195	325.68
775.53	321.84
775.865	326.36
776.2	318.9
776.535	356.87
776.87	328.85
777.205	338.34
777.539	337.89
777.874	334.95
778.209	326.14
778.543	320.26
778.878	340.6
779.212	324.1
779.547	333.82
779.881	328.17
780.215	322.75
780.55	340.37
780.884	354.38
781.218	335.4
781.552	331.79
781.886	320.71
782.22	336.76
782.554	344.44
782.888	339.02
783.222	330.66
783.556	326.59
783.889	330.88
784.223	326.81
784.557	336.53
784.89	293.59
785.224	322.75
785.557	325.68
785.891	308.51
786.224	320.49
786.558	320.03
786.891	327.94
787.224	300.6
787.557	328.4
787.891	332.24
788.224	336.08
788.557	316.19
788.89	319.81
789.223	317.77
789.556	347.83
