Data from No_light_on_white_reflection_standard_FLMS001491_028.txt Node
Date: Tue Feb 07 10:32:57 GMT 2017
User: dcchb
Spectrometer: FLMS00149
Trigger mode: 0
Integration Time (sec): 2.000000E-2
Scans to average: 10
Electric dark correction enabled: true
Nonlinearity correction enabled: false
Boxcar width: 0
XAxis mode: Wavelengths
Number of Pixels in Spectrum: 2048
>>>>>Begin Spectral Data<<<<<
341.393	-13.19
341.776	-13.19
342.16	-13.19
342.543	-61.78
342.927	-57.26
343.31	-44.6
343.693	-75.79
344.077	-61.33
344.46	-46.19
344.843	-73.98
345.226	-54.32
345.61	-34.43
345.993	-18.16
346.376	-16.36
346.759	11.21
347.142	18.9
347.525	63.42
347.908	62.74
348.291	65.9
348.674	86.47
349.057	116.52
349.44	126.47
349.823	133.7
350.206	140.25
350.588	155.84
350.971	191.77
351.354	186.58
351.737	214.37
352.119	227.71
352.502	239.01
352.884	262.73
353.267	253.02
353.65	262.73
354.032	278.78
354.414	292.11
354.797	294.6
355.179	284.2
355.562	305.44
355.944	280.36
356.326	297.76
356.709	298.66
357.091	294.14
357.473	304.09
357.855	307.7
358.238	309.29
358.62	306.12
359.002	303.18
359.384	314.71
359.766	298.44
360.148	309.74
360.53	296.18
360.912	297.76
361.294	307.7
361.676	302.73
362.057	304.77
362.439	295.27
362.821	293.01
363.203	297.53
363.584	286.01
363.966	290.3
364.348	290.3
364.729	289.17
365.111	286.91
365.493	269.96
365.874	269.74
366.256	272.9
366.637	272.22
367.019	282.62
367.4	275.61
367.781	288.72
368.163	281.04
368.544	288.95
368.925	302.28
369.306	297.99
369.688	276.74
370.069	265.9
370.45	284.88
370.831	288.95
371.212	278.1
371.593	281.04
371.974	270.87
372.355	291.88
372.736	289.17
373.117	265.67
373.498	271.77
373.879	287.37
374.26	269.29
374.641	278.78
375.021	282.39
375.402	281.72
375.783	256.63
376.163	283.52
376.544	275.84
376.925	274.94
377.305	282.85
377.686	297.53
378.066	292.79
378.447	280.36
378.827	288.27
379.208	277.87
379.588	276.07
379.968	283.52
380.349	266.12
380.729	278.1
381.109	274.26
381.489	294.82
381.87	297.99
382.25	292.34
382.63	298.66
383.01	274.94
383.39	291.88
383.77	289.85
384.15	302.28
384.53	278.55
384.91	286.01
385.29	297.08
385.67	282.17
386.049	305.44
386.429	265.44
386.809	286.24
387.189	278.55
387.568	281.94
387.948	271.77
388.328	300.25
388.707	313.13
389.087	286.69
389.466	279.46
389.846	279.91
390.225	281.04
390.605	285.11
390.984	297.53
391.363	290.53
391.743	280.59
392.122	266.8
392.501	297.53
392.881	293.01
393.26	293.01
393.639	288.04
394.018	287.37
394.397	309.06
394.776	287.37
395.155	304.54
395.534	307.48
395.913	314.71
396.292	297.31
396.671	283.3
397.05	295.5
397.429	299.12
397.808	298.21
398.186	315.16
398.565	295.27
398.944	286.24
399.323	299.12
399.701	304.99
400.08	296.4
400.458	295.05
400.837	307.93
401.215	313.35
401.594	309.96
401.972	292.79
402.351	298.44
402.729	303.41
403.107	282.62
403.486	305.9
403.864	297.99
404.242	305.67
404.62	312.68
404.999	311.09
405.377	286.24
405.755	292.34
406.133	303.18
406.511	330.08
406.889	292.56
407.267	309.74
407.645	301.6
408.023	293.92
408.401	306.12
408.779	317.2
409.156	321.04
409.534	302.51
409.912	314.48
410.29	303.41
410.667	293.24
411.045	300.25
411.422	311.09
411.8	295.27
412.178	297.76
412.555	300.47
412.933	305.44
413.31	307.7
413.687	321.26
414.065	317.65
414.442	307.48
414.819	315.84
415.197	315.16
415.574	299.79
415.951	312.68
416.328	326.69
416.705	314.94
417.082	313.81
417.46	309.51
417.837	322.17
418.214	302.73
418.591	313.58
418.967	304.31
419.344	311.55
419.721	314.94
420.098	312
420.475	325.56
420.852	303.41
421.228	302.51
421.605	320.81
421.982	299.57
422.358	297.76
422.735	316.97
423.111	319.91
423.488	321.94
423.864	307.7
424.241	339.34
424.617	325.1
424.994	322.84
425.37	311.55
425.746	317.65
426.123	312.68
426.499	307.48
426.875	299.57
427.251	309.29
427.627	317.87
428.003	319.45
428.379	333.92
428.756	316.74
429.132	330.53
429.507	314.48
429.883	315.61
430.259	313.81
430.635	299.34
431.011	319.68
431.387	314.94
431.763	326.46
432.138	321.04
432.514	311.77
432.89	304.09
433.265	326.91
433.641	333.24
434.016	326.46
434.392	312.9
434.767	321.71
435.143	328.04
435.518	325.56
435.894	324.88
436.269	304.99
436.644	304.77
437.02	333.24
437.395	318.32
437.77	336.18
438.145	317.42
438.52	334.82
438.895	337.31
439.271	319.91
439.646	339.57
440.021	325.78
440.395	336.18
440.77	328.04
441.145	329.62
441.52	334.37
441.895	341.38
442.27	329.17
442.645	346.57
443.019	333.69
443.394	363.52
443.769	338.44
444.143	359.68
444.518	353.8
444.892	361.04
445.267	354.48
445.641	337.76
446.016	363.52
446.39	365.1
446.764	352.67
447.139	326.91
447.513	354.48
447.887	379.34
448.262	345.89
448.636	374.14
449.01	365.33
449.384	394.71
449.758	361.94
450.132	373.01
450.506	353.35
450.88	374.14
451.254	366.46
451.628	372.79
452.002	366.01
452.376	350.41
452.75	365.78
453.123	362.39
453.497	360.36
453.871	363.97
454.244	355.84
454.618	374.37
454.992	367.82
455.365	378.66
455.739	370.75
456.112	375.05
456.486	382.28
456.859	364.43
457.232	355.61
457.606	362.39
457.979	376.85
458.352	372.79
458.725	381.6
459.099	362.84
459.472	360.81
459.845	349.28
460.218	352.9
460.591	357.19
460.964	350.87
461.337	359.23
461.71	363.75
462.083	354.26
462.456	366.23
462.829	348.38
463.201	356.74
463.574	348.61
463.947	372.33
464.32	360.13
464.692	359.68
465.065	352.45
465.438	360.58
465.81	345.67
466.183	367.14
466.555	344.76
466.928	345.44
467.3	358.78
467.672	357.19
468.045	360.81
468.417	358.32
468.789	361.94
469.161	360.36
469.534	354.26
469.906	349.96
470.278	356.29
470.65	372.11
471.022	359.23
471.394	348.15
471.766	357.42
472.138	371.88
472.51	348.61
472.882	367.59
473.253	331.21
473.625	354.26
473.997	364.65
474.369	363.97
474.74	353.35
475.112	350.41
475.484	352.22
475.855	345.44
476.227	356.52
476.598	352
476.97	341.38
477.341	337.99
477.713	348.83
478.084	358.1
478.455	351.09
478.827	353.58
479.198	349.06
479.569	346.57
479.94	349.06
480.311	353.35
480.682	374.59
481.053	361.26
481.424	375.5
481.795	365.78
482.166	366.69
482.537	366.69
482.908	360.58
483.279	366.23
483.65	370.98
484.021	349.06
484.391	364.88
484.762	358.55
485.133	381.37
485.503	370.08
485.874	358.78
486.244	367.82
486.615	356.06
486.985	359
487.356	372.33
487.726	364.65
488.097	378.21
488.467	376.18
488.837	365.1
489.207	362.84
489.578	376.4
489.948	376.63
490.318	352.45
490.688	371.66
491.058	377.08
491.428	384.54
491.798	371.2
492.168	379.34
492.538	375.5
492.908	394.26
493.278	377.53
493.648	394.26
494.017	416.4
494.387	379.57
494.757	386.35
495.126	387.93
495.496	376.4
495.866	384.99
496.235	370.3
496.605	392.9
496.974	395.39
497.344	394.93
497.713	388.38
498.082	401.49
498.452	399
498.821	394.26
499.19	400.81
499.559	412.56
499.928	413.01
500.298	407.59
500.667	392.67
501.036	404.42
501.405	412.11
501.774	410.53
502.143	422.95
502.512	414.59
502.88	394.71
503.249	426.57
503.618	417.08
503.987	412.11
504.356	410.75
504.724	395.16
505.093	411.66
505.462	424.54
505.83	435.61
506.199	417.31
506.567	433.35
506.936	410.3
507.304	408.27
507.672	399.9
508.041	448.49
508.409	427.93
508.777	409.4
509.145	436.97
509.514	431.99
509.882	421.37
510.25	437.87
510.618	434.93
510.986	421.6
511.354	455.5
511.722	436.74
512.09	443.07
512.458	438.32
512.826	440.36
513.193	442.84
513.561	419.11
513.929	452.56
514.297	432.22
514.664	439.45
515.032	457.76
515.4	443.75
515.767	447.81
516.135	452.11
516.502	441.71
516.869	477.19
517.237	450.3
517.604	441.03
517.972	450.3
518.339	465.44
518.706	458.89
519.073	452.11
519.44	462.28
519.808	459.11
520.175	485.1
520.542	467.25
520.909	464.99
521.276	457.08
521.643	454.82
522.009	449.17
522.376	471.09
522.743	474.93
523.11	501.37
523.477	464.76
523.843	467.02
524.21	472.45
524.577	484.2
524.943	485.78
525.31	474.48
525.676	466.57
526.043	480.58
526.409	470.64
526.776	481.94
527.142	453.69
527.508	484.42
527.874	460.69
528.241	474.93
528.607	498.43
528.973	490.75
529.339	470.41
529.705	485.55
530.071	478.09
530.437	471.77
530.803	504.99
531.169	494.59
531.535	500.69
531.901	490.07
532.267	506.57
532.632	487.13
532.998	477.42
533.364	499.11
533.73	493.01
534.095	491.43
534.461	478.32
534.826	467.7
535.192	489.17
535.557	504.99
535.923	513.35
536.288	501.6
536.653	484.42
537.019	533.46
537.384	503.4
537.749	518.09
538.114	510.18
538.479	488.04
538.845	501.6
539.21	512.67
539.575	502.95
539.94	525.1
540.305	500.02
540.67	497.98
541.034	521.94
541.399	494.59
541.764	502.95
542.129	519.22
542.494	502.5
542.858	507.02
543.223	520.58
543.587	527.36
543.952	530.07
544.316	506.79
544.681	482.39
545.045	511.31
545.41	513.35
545.774	506.34
546.138	495.95
546.503	517.42
546.867	516.29
547.231	487.36
547.595	522.84
547.959	503.4
548.324	526.46
548.688	515.16
549.052	554.02
549.416	543.18
549.779	530.07
550.143	511.99
550.507	513.12
550.871	516.51
551.235	534.14
551.599	512.9
551.962	516.96
552.326	533.01
552.689	514.93
553.053	518.55
553.417	551.09
553.78	543.18
554.143	520.13
554.507	533.23
554.87	550.41
555.234	529.17
555.597	550.41
555.96	543.4
556.323	536.62
556.686	534.14
557.05	535.95
557.413	551.77
557.776	517.87
558.139	549.51
558.502	524.87
558.865	547.25
559.228	549.05
559.59	548.83
559.953	550.41
560.316	528.94
560.679	558.32
561.041	542.95
561.404	564.87
561.767	544.76
562.129	554.7
562.492	561.03
562.854	566.23
563.217	534.14
563.579	554.48
563.941	565.55
564.304	529.84
564.666	552.22
565.028	570.97
565.39	565.1
565.753	543.63
566.115	573.01
566.477	552.44
566.839	575.27
567.201	569.84
567.563	550.86
567.925	557.19
568.287	559.67
568.648	574.82
569.01	568.26
569.372	575.04
569.734	562.16
570.095	552.22
570.457	558.32
570.819	561.48
571.18	575.04
571.542	573.69
571.903	564.65
572.265	552.44
572.626	562.61
572.987	571.2
573.349	569.39
573.71	589.28
574.071	560.58
574.432	575.72
574.794	603.29
575.155	563.52
575.516	570.07
575.877	574.36
576.238	568.71
576.599	573.46
576.96	610.29
577.32	582.05
577.681	563.97
578.042	557.41
578.403	561.71
578.763	576.4
579.124	571.88
579.485	581.14
579.845	580.24
580.206	558.54
580.566	564.19
580.927	565.1
581.287	587.24
581.648	575.27
582.008	585.44
582.368	621.37
582.728	561.71
583.089	560.58
583.449	561.03
583.809	558.09
584.169	566.45
584.529	598.54
584.889	574.14
585.249	576.85
585.609	584.31
585.969	593.35
586.329	571.2
586.688	578.21
587.048	584.31
587.408	571.65
587.768	599.9
588.127	597.19
588.487	589.5
588.846	578.21
589.206	589.96
589.565	584.08
589.925	565.78
590.284	580.92
590.643	593.8
591.003	563.97
591.362	584.53
591.721	567.58
592.08	587.47
592.44	564.42
592.799	569.62
593.158	577.53
593.517	572.33
593.876	578.21
594.235	570.97
594.593	571.88
594.952	573.46
595.311	575.27
595.67	560.8
596.029	585.89
596.387	568.71
596.746	573.46
597.104	575.72
597.463	561.26
597.822	563.74
598.18	580.24
598.538	573.23
598.897	583.4
599.255	574.82
599.613	565.78
599.972	563.97
600.33	565.1
600.688	556.06
601.046	553.57
601.404	554.7
601.762	550.86
602.12	558.77
602.478	591.54
602.836	564.19
603.194	570.07
603.552	556.51
603.91	573.23
604.268	551.99
604.625	583.85
604.983	570.97
605.341	561.03
605.698	570.97
606.056	561.71
606.413	589.96
606.771	562.39
607.128	558.09
607.485	575.49
607.843	569.39
608.2	532.56
608.557	547.02
608.914	581.14
609.272	568.94
609.629	590.86
609.986	571.88
610.343	543.86
610.7	527.58
611.057	537.3
611.414	541.6
611.771	548.15
612.127	554.93
612.484	555.15
612.841	559.45
613.198	554.02
613.554	548.83
613.911	540.24
614.267	552.22
614.624	571.65
614.98	524.65
615.337	554.93
615.693	533.46
616.05	523.07
616.406	541.37
616.762	558.09
617.118	507.25
617.475	541.82
617.831	521.26
618.187	544.31
618.543	531.43
618.899	529.84
619.255	517.87
619.611	503.18
619.967	532.33
620.323	519.22
620.678	532.33
621.034	511.99
621.39	521.94
621.746	520.35
622.101	523.74
622.457	500.02
622.812	520.35
623.168	550.41
623.523	514.03
623.879	515.83
624.234	494.82
624.589	514.03
624.945	515.16
625.3	519.22
625.655	527.58
626.01	535.49
626.365	510.18
626.72	499.34
627.075	514.93
627.43	490.52
627.785	505.89
628.14	498.89
628.495	501.82
628.85	506.57
629.205	504.31
629.559	518.55
629.914	487.13
630.269	494.59
630.623	477.64
630.978	476.29
631.332	507.47
631.687	507.92
632.041	519.68
632.396	499.79
632.75	495.95
633.104	486.23
633.459	468.6
633.813	491.2
634.167	486.68
634.521	486.46
634.875	490.07
635.229	484.2
635.583	494.59
635.937	486
636.291	496.63
636.645	491.43
636.999	481.26
637.352	477.64
637.706	462.28
638.06	468.38
638.413	464.31
638.767	455.95
639.121	484.2
639.474	480.81
639.828	474.48
640.181	460.92
640.534	447.59
640.888	458.21
641.241	469.51
641.594	462.5
641.947	462.73
642.301	475.16
642.654	470.19
643.007	467.93
643.36	457.76
643.713	450.98
644.066	434.03
644.419	455.5
644.771	453.91
645.124	446.01
645.477	436.29
645.83	444.88
646.182	449.39
646.535	439.68
646.888	422.95
647.24	439.45
647.593	434.25
647.945	418.66
648.298	435.84
648.65	413.46
649.002	442.39
649.355	428.83
649.707	442.39
650.059	431.77
650.411	449.62
650.763	454.37
651.115	445.33
651.467	458.89
651.819	425.67
652.171	463.63
652.523	445.33
652.875	425.89
653.227	419.57
653.578	412.56
653.93	414.59
654.282	429.96
654.633	430.41
654.985	430.64
655.337	413.92
655.688	425.44
656.039	426.57
656.391	418.44
656.742	415.95
657.094	406.46
657.445	417.98
657.796	411.43
658.147	417.08
658.498	406.91
658.849	417.98
659.2	410.98
659.551	419.57
659.902	396.51
660.253	418.89
660.604	415.95
660.955	410.98
661.306	397.87
661.656	412.56
662.007	392.67
662.358	420.02
662.708	393.8
663.059	404.65
663.409	402.62
663.76	413.01
664.11	401.71
664.461	390.41
664.811	411.43
665.161	382.28
665.511	395.84
665.862	396.97
666.212	382.96
666.562	411.88
666.912	391.54
667.262	385.89
667.612	386.12
667.962	423.63
668.312	398.1
668.662	408.04
669.011	400.13
669.361	398.32
669.711	376.63
670.06	385.89
670.41	393.8
670.76	387.02
671.109	389.74
671.459	395.16
671.808	379.34
672.157	379.11
672.507	404.65
672.856	370.53
673.205	382.73
673.554	387.25
673.904	397.42
674.253	387.93
674.602	389.06
674.951	372.56
675.3	368.27
675.649	393.58
675.998	405.78
676.346	370.3
676.695	383.18
677.044	392.45
677.393	387.02
677.741	368.95
678.09	388.15
678.438	378.66
678.787	373.92
679.135	380.47
679.484	391.32
679.832	371.2
680.181	375.5
680.529	391.54
680.877	373.24
681.225	392
681.573	380.24
681.922	375.27
682.27	358.32
682.618	366.91
682.966	354.48
683.314	366.46
683.661	385.67
684.009	375.72
684.357	362.39
684.705	373.46
685.053	386.35
685.4	360.81
685.748	340.92
686.095	386.57
686.443	368.72
686.79	346.57
687.138	379.57
687.485	369.62
687.832	375.95
688.18	348.61
688.527	356.74
688.874	366.23
689.221	366.01
689.568	361.26
689.915	380.24
690.262	358.55
690.609	362.84
690.956	366.46
691.303	372.56
691.65	380.02
691.997	380.02
692.344	377.76
692.69	349.96
693.037	350.87
693.383	375.05
693.73	348.15
694.077	345.44
694.423	365.33
694.769	341.38
695.116	376.85
695.462	363.75
695.808	365.78
696.155	331.88
696.501	362.17
696.847	363.97
697.193	347.93
697.539	357.42
697.885	354.03
698.231	365.33
698.577	359.45
698.923	363.3
699.269	354.71
699.614	348.38
699.96	362.62
700.306	348.61
700.651	370.75
700.997	356.97
701.342	351.09
701.688	358.32
702.033	351.32
702.379	336.63
702.724	362.62
703.069	367.14
703.415	353.8
703.76	352.67
704.105	359.91
704.45	350.64
704.795	356.74
705.14	372.56
705.485	364.65
705.83	355.84
706.175	365.33
706.52	338.21
706.865	357.19
707.209	326.91
707.554	368.95
707.899	354.93
708.243	348.61
708.588	356.74
708.932	336.4
709.277	353.58
709.621	343.64
709.966	357.42
710.31	351.77
710.654	328.04
710.998	343.86
711.342	347.02
711.687	357.87
712.031	346.12
712.375	346.12
712.719	350.64
713.063	366.01
713.407	355.61
713.75	364.2
714.094	339.12
714.438	349.74
714.782	367.82
715.125	346.12
715.469	343.86
715.812	332.56
716.156	344.31
716.499	330.3
716.843	347.48
717.186	337.99
717.53	340.02
717.873	339.79
718.216	333.69
718.559	352.9
718.902	343.18
719.246	344.76
719.589	341.6
719.932	332.11
720.275	334.82
720.617	347.02
720.96	339.79
721.303	332.56
721.646	338.21
721.989	342.96
722.331	350.64
722.674	325.1
723.016	348.38
723.359	351.09
723.701	342.51
724.044	348.83
724.386	346.12
724.729	347.93
725.071	335.05
725.413	337.08
725.755	318.78
726.097	343.64
726.439	336.86
726.782	346.35
727.124	353.8
727.465	334.14
727.807	336.63
728.149	342.96
728.491	358.32
728.833	332.11
729.175	335.95
729.516	351.09
729.858	315.84
730.199	353.35
730.541	335.27
730.882	352
731.224	345.44
731.565	340.7
731.906	341.15
732.248	342.51
732.589	334.14
732.93	340.7
733.271	346.35
733.612	347.48
733.953	331.43
734.294	315.39
734.635	337.76
734.976	349.28
735.317	340.92
735.658	323.52
735.999	336.86
736.339	326.23
736.68	339.12
737.021	335.27
737.361	340.25
737.702	333.24
738.042	350.19
738.383	331.66
738.723	327.36
739.063	351.09
739.404	338.89
739.744	351.77
740.084	317.42
740.424	335.27
740.764	339.12
741.104	321.49
741.444	342.73
741.784	326.01
742.124	345.44
742.464	342.73
742.804	325.56
743.143	319.23
743.483	329.17
743.823	327.36
744.162	318.32
744.502	330.98
744.841	327.59
745.181	330.3
745.52	338.89
745.86	334.37
746.199	357.87
746.538	335.27
746.877	329.85
747.216	349.28
747.556	310.19
747.895	344.31
748.234	329.85
748.573	335.27
748.911	337.31
749.25	337.99
749.589	338.44
749.928	332.56
750.267	326.69
750.605	342.96
750.944	328.49
751.283	339.79
751.621	337.53
751.96	334.82
752.298	348.15
752.636	333.24
752.975	327.36
753.313	315.39
753.651	341.6
753.989	340.25
754.327	319.45
754.666	347.93
755.004	351.77
755.342	358.78
755.679	331.66
756.017	332.79
756.355	329.62
756.693	362.39
757.031	332.11
757.368	322.84
757.706	326.69
758.044	333.01
758.381	328.49
758.719	337.53
759.056	330.75
759.394	323.97
759.731	334.14
760.068	326.91
760.405	333.24
760.743	330.08
761.08	343.18
761.417	319.23
761.754	338.89
762.091	318.1
762.428	338.21
762.765	324.88
763.102	324.43
763.438	327.14
763.775	334.6
764.112	324.43
764.449	307.93
764.785	329.4
765.122	328.95
765.458	319.45
765.795	336.86
766.131	320.36
766.467	342.05
766.804	330.75
767.14	335.05
767.476	334.14
767.812	356.29
768.148	309.96
768.485	335.27
768.821	319.45
769.157	330.08
769.492	334.6
769.828	321.26
770.164	330.75
770.5	348.38
770.836	331.43
771.171	335.05
771.507	311.77
771.842	341.83
772.178	321.94
772.513	337.99
772.849	329.17
773.184	334.6
773.519	324.88
773.855	319.45
774.19	336.86
774.525	334.6
774.86	315.16
775.195	324.2
775.53	329.17
775.865	320.58
776.2	322.39
776.535	333.69
776.87	344.54
777.205	326.23
777.539	337.31
777.874	354.48
778.209	347.25
778.543	338.21
778.878	337.08
779.212	323.07
779.547	313.13
779.881	315.84
780.215	338.89
780.55	337.99
780.884	323.52
781.218	318.32
781.552	332.11
781.886	332.34
782.22	326.91
782.554	319
782.888	338.44
783.222	337.53
783.556	334.82
783.889	315.39
784.223	336.63
784.557	306.57
784.89	328.04
785.224	320.36
785.557	328.27
785.891	323.07
786.224	330.98
786.558	336.4
786.891	336.4
787.224	335.27
787.557	314.48
787.891	335.73
788.224	324.43
788.557	344.09
788.89	333.01
