Data from No_light_on_white_reflection_standard_FLMS001491_047.txt Node
Date: Tue Feb 07 10:33:01 GMT 2017
User: dcchb
Spectrometer: FLMS00149
Trigger mode: 0
Integration Time (sec): 2.000000E-2
Scans to average: 10
Electric dark correction enabled: true
Nonlinearity correction enabled: false
Boxcar width: 0
XAxis mode: Wavelengths
Number of Pixels in Spectrum: 2048
>>>>>Begin Spectral Data<<<<<
341.393	-8.5
341.776	-8.5
342.16	-8.5
342.543	-55.73
342.927	-69.52
343.31	-88.05
343.693	-72
344.077	-55.51
344.46	-51.21
344.843	-64.55
345.226	-51.44
345.61	-30.65
345.993	-15.51
346.376	7.32
346.759	5.51
347.142	21.1
347.525	38.95
347.908	49.35
348.291	85.51
348.674	94.32
349.057	126.86
349.44	118.27
349.823	134.77
350.206	147.43
350.588	165.5
350.971	184.71
351.354	209.8
351.737	195.79
352.119	229.23
352.502	223.36
352.884	233.98
353.267	236.69
353.65	245.05
354.032	257.48
354.414	271.49
354.797	271.26
355.179	280.3
355.562	274.43
355.944	289.34
356.326	294.31
356.709	298.61
357.091	295.9
357.473	287.76
357.855	292.73
358.238	297.25
358.62	303.58
359.002	299.06
359.384	326.63
359.766	311.94
360.148	310.59
360.53	305.84
360.912	303.81
361.294	326.63
361.676	295.44
362.057	292.96
362.439	278.5
362.821	294.31
363.203	295.22
363.584	294.54
363.966	298.16
364.348	288.89
364.729	282.11
365.111	276.01
365.493	295.9
365.874	279.17
366.256	282.11
366.637	275.33
367.019	254.99
367.4	282.11
367.781	273.52
368.163	287.76
368.544	274.2
368.925	276.69
369.306	264.94
369.688	266.07
370.069	280.3
370.45	287.53
370.831	271.94
371.212	280.08
371.593	289.79
371.974	253.86
372.355	252.06
372.736	241.43
373.117	251.15
373.498	278.95
373.879	269.23
374.26	284.15
374.641	268.78
375.021	273.3
375.402	279.63
375.783	292.96
376.163	298.38
376.544	268.33
376.925	270.13
377.305	264.94
377.686	273.75
378.066	282.56
378.447	297.93
378.827	279.85
379.208	270.81
379.588	261.55
379.968	278.5
380.349	272.62
380.729	270.36
381.109	292.96
381.489	295.67
381.87	294.54
382.25	285.5
382.63	271.26
383.01	275.11
383.39	280.76
383.77	281.66
384.15	290.02
384.53	306.29
384.91	276.69
385.29	287.76
385.67	290.25
386.049	296.12
386.429	282.79
386.809	285.27
387.189	277.37
387.568	267.2
387.948	263.81
388.328	278.04
388.707	267.2
389.087	296.35
389.466	302.9
389.846	299.74
390.225	304.03
390.605	284.6
390.984	297.03
391.363	280.76
391.743	284.6
392.122	293.41
392.501	274.43
392.881	307.65
393.26	306.52
393.639	273.98
394.018	290.47
394.397	294.31
394.776	300.19
395.155	295.67
395.534	283.24
395.913	291.83
396.292	286.4
396.671	284.6
397.05	291.6
397.429	297.03
397.808	280.3
398.186	277.59
398.565	283.47
398.944	284.6
399.323	298.83
399.701	299.06
400.08	313.3
400.458	289.79
400.837	290.25
401.215	300.64
401.594	292.51
401.972	290.25
402.351	296.57
402.729	287.99
403.107	286.63
403.486	293.64
403.864	270.59
404.242	295.44
404.62	274.65
404.999	292.96
405.377	280.98
405.755	290.92
406.133	292.28
406.511	264.94
406.889	303.81
407.267	299.51
407.645	307.87
408.023	295.9
408.401	313.52
408.779	290.25
409.156	275.56
409.534	299.74
409.912	296.12
410.29	273.98
410.667	277.59
411.045	299.74
411.422	291.15
411.8	296.35
412.178	296.35
412.555	320.3
412.933	303.81
413.31	297.7
413.687	290.7
414.065	295.22
414.442	313.07
414.819	306.74
415.197	284.6
415.574	295.67
415.951	275.33
416.328	290.02
416.705	311.04
417.082	311.49
417.46	295.67
417.837	282.34
418.214	302.45
418.591	299.06
418.967	293.86
419.344	295.67
419.721	299.74
420.098	299.06
420.475	299.51
420.852	297.25
421.228	285.95
421.605	325.5
421.982	304.48
422.358	289.34
422.735	298.83
423.111	309.91
423.488	287.31
423.864	307.2
424.241	309.46
424.617	316.01
424.994	317.36
425.37	312.84
425.746	301.32
426.123	297.7
426.499	311.94
426.875	311.71
427.251	306.29
427.627	306.97
428.003	295.9
428.379	315.78
428.756	308.55
429.132	304.94
429.507	286.18
429.883	302.22
430.259	310.59
430.635	303.13
431.011	296.57
431.387	317.36
431.763	341.54
432.138	315.33
432.514	311.49
432.89	298.16
433.265	312.17
433.641	309
434.016	318.49
434.392	322.11
434.767	338.61
435.143	331.38
435.518	325.05
435.894	310.59
436.269	316.46
436.644	316.91
437.02	298.16
437.395	314.65
437.77	312.17
438.145	329.57
438.52	318.49
438.895	335.22
439.271	311.26
439.646	320.08
440.021	320.98
440.395	311.71
440.77	309.68
441.145	334.99
441.52	328.21
441.895	342.45
442.27	353.97
442.645	342.67
443.019	314.88
443.394	327.53
443.769	326.18
444.143	326.86
444.518	349
444.892	326.4
445.267	326.63
445.641	361.66
446.016	341.54
446.39	332.96
446.764	346.97
447.139	333.64
447.513	349.68
447.887	355.56
448.262	349.23
448.636	369.79
449.01	358.49
449.384	339.51
449.758	347.42
450.132	357.36
450.506	369.34
450.88	364.37
451.254	350.81
451.628	364.14
452.002	347.87
452.376	368.66
452.75	377.25
453.123	352.84
453.497	361.43
453.871	357.59
454.244	356.91
454.618	366.18
454.992	367.31
455.365	357.82
455.739	365.27
456.112	382.45
456.486	348.78
456.859	358.27
457.232	360.53
457.606	365.05
457.979	358.27
458.352	359.17
458.725	357.59
459.099	363.69
459.472	360.53
459.845	346.06
460.218	380.41
460.591	374.99
460.964	338.15
461.337	359.85
461.71	344.48
462.083	353.75
462.456	369.79
462.829	343.35
463.201	364.59
463.574	346.29
463.947	362.11
464.32	337.03
464.692	333.64
465.065	349.68
465.438	353.3
465.81	358.04
466.183	351.71
466.555	362.56
466.928	343.8
467.3	355.78
467.672	337.25
468.045	360.98
468.417	325.05
468.789	330.92
469.161	348.78
469.534	363.24
469.906	352.84
470.278	347.42
470.65	336.8
471.022	346.97
471.394	345.39
471.766	354.88
472.138	365.05
472.51	350.36
472.882	369.34
473.253	339.28
473.625	351.71
473.997	356.69
474.369	349.68
474.74	342
475.112	343.8
475.484	335.9
475.855	340.41
476.227	332.28
476.598	355.33
476.97	359.85
477.341	355.33
477.713	350.13
478.084	343.8
478.455	349
478.827	360.53
479.198	356.23
479.569	349.23
479.94	353.07
480.311	352.62
480.682	348.1
481.053	347.65
481.424	363.92
481.795	359.85
482.166	373.86
482.537	358.95
482.908	365.05
483.279	363.24
483.65	367.31
484.021	348.32
484.391	346.52
484.762	347.19
485.133	374.31
485.503	351.26
485.874	333.86
486.244	365.5
486.615	371.6
486.985	353.52
487.356	370.47
487.726	383.58
488.097	360.98
488.467	334.54
488.837	373.63
489.207	374.31
489.578	368.44
489.948	358.49
490.318	377.93
490.688	354.88
491.058	357.36
491.428	357.82
491.798	360.08
492.168	369.34
492.538	349.45
492.908	382.22
493.278	378.15
493.648	380.41
494.017	388.55
494.387	372.73
494.757	378.83
495.126	378.15
495.496	376.57
495.866	378.61
496.235	389.45
496.605	393.97
496.974	383.35
497.344	384.03
497.713	384.26
498.082	371.83
498.452	379.28
498.821	399.17
499.19	384.48
499.559	381.77
499.928	393.97
500.298	405.72
500.667	389
501.036	392.39
501.405	401.66
501.774	396.68
502.143	407.31
502.512	415.89
502.88	403.92
503.249	417.25
503.618	401.66
503.987	395.33
504.356	401.43
504.724	431.03
505.093	417.93
505.462	423.12
505.83	421.54
506.199	407.08
506.567	405.72
506.936	435.78
507.304	423.58
507.672	447.3
508.041	436.46
508.409	431.26
508.777	419.96
509.145	421.09
509.514	429
509.882	424.93
510.25	436.23
510.618	425.61
510.986	413.63
511.354	421.77
511.722	449.56
512.09	430.36
512.458	433.07
512.826	433.07
513.193	429.45
513.561	434.42
513.929	435.78
514.297	439.85
514.664	439.17
515.032	443.69
515.4	436.46
515.767	448.89
516.135	425.16
516.502	456.57
516.869	458.6
517.237	446.17
517.604	443.46
517.972	437.59
518.339	446.4
518.706	436.46
519.073	451.15
519.44	457.47
519.808	439.4
520.175	480.98
520.542	458.83
520.909	460.41
521.276	476
521.643	454.76
522.009	463.35
522.376	452.95
522.743	456.8
523.11	468.55
523.477	448.21
523.843	477.13
524.21	478.26
524.577	465.38
524.943	470.35
525.31	458.15
525.676	467.87
526.043	460.86
526.409	461.32
526.776	469.9
527.142	463.35
527.508	480.3
527.874	484.82
528.241	482.33
528.607	472.39
528.973	490.24
529.339	488.66
529.705	496.79
530.071	494.31
530.437	492.28
530.803	483.46
531.169	475.33
531.535	490.24
531.901	479.17
532.267	492.5
532.632	487.76
532.998	499.96
533.364	504.25
533.73	487.53
534.095	473.29
534.461	474.2
534.826	502.44
535.192	497.92
535.557	487.76
535.923	480.07
536.288	484.59
536.653	495.66
537.019	486.85
537.384	497.7
537.749	522.1
538.114	488.66
538.479	503.57
538.845	507.42
539.21	486.85
539.575	513.29
539.94	496.12
540.305	481.88
540.67	508.32
541.034	486.4
541.399	500.86
541.764	495.66
542.129	513.52
542.494	521.43
542.858	503.12
543.223	500.64
543.587	518.94
543.952	501.54
544.316	496.12
544.681	517.36
545.045	505.38
545.41	502.22
545.774	532.27
546.138	511.71
546.503	499.05
546.867	506.51
547.231	521.65
547.595	500.18
547.959	516.68
548.324	534.76
548.688	515.33
549.052	530.01
549.416	517.59
549.779	518.49
550.143	513.52
550.507	525.04
550.871	513.74
551.235	545.38
551.599	507.42
551.962	502.44
552.326	522.1
552.689	514.2
553.053	522.78
553.417	542.22
553.78	503.57
554.143	525.27
554.507	541.09
554.87	529.79
555.234	532.05
555.597	534.53
555.96	518.26
556.323	526.17
556.686	525.49
557.05	531.37
557.413	539.28
557.776	528.88
558.139	547.19
558.502	518.26
558.865	524.14
559.228	544.93
559.59	564.14
559.953	542.44
560.316	541.31
560.679	552.39
561.041	537.02
561.404	563.01
561.767	527.3
562.129	572.95
562.492	552.61
562.854	558.26
563.217	530.69
563.579	577.47
563.941	545.38
564.304	547.87
564.666	548.32
565.028	563.23
565.39	557.81
565.753	573.85
566.115	559.17
566.477	559.84
566.839	565.72
567.201	559.62
567.563	558.94
567.925	566.17
568.287	569.56
568.648	563.69
569.01	536.57
569.372	574.08
569.734	571.6
570.095	569.79
570.457	591.71
570.819	549.9
571.18	577.47
571.542	574.08
571.903	578.37
572.265	570.01
572.626	565.72
572.987	558.49
573.349	567.75
573.71	566.62
574.071	575.44
574.432	597.81
574.794	592.16
575.155	582.67
575.516	583.12
575.877	568.66
576.238	576.79
576.599	595.1
576.96	582.89
577.32	580.86
577.681	574.76
578.042	581.54
578.403	560.07
578.763	561.88
579.124	568.66
579.485	574.53
579.845	596.23
580.206	583.35
580.566	587.87
580.927	559.62
581.287	605.72
581.648	595.32
582.008	568.43
582.368	567.53
582.728	568.88
583.089	579.5
583.449	563.01
583.809	570.47
584.169	569.56
584.529	596.91
584.889	586.96
585.249	565.04
585.609	579.05
585.969	573.18
586.329	588.54
586.688	579.28
587.048	586.51
587.408	568.21
587.768	596.68
588.127	564.82
588.487	595.1
588.846	599.39
589.206	580.63
589.565	567.53
589.925	589.22
590.284	575.21
590.643	574.76
591.003	594.19
591.362	569.11
591.721	563.01
592.08	575.89
592.44	573.18
592.799	573.4
593.158	559.17
593.517	559.39
593.876	568.88
594.235	574.53
594.593	562.1
594.952	579.28
595.311	569.56
595.67	566.17
596.029	570.01
596.387	562.1
596.746	573.63
597.104	549.67
597.463	580.41
597.822	589.22
598.18	584.93
598.538	559.62
598.897	567.3
599.255	536.79
599.613	567.3
599.972	566.17
600.33	546.51
600.688	563.69
601.046	582.67
601.404	557.13
601.762	571.37
602.12	555.1
602.478	569.56
602.836	566.85
603.194	585.38
603.552	533.4
603.91	557.13
604.268	558.04
604.625	557.58
604.983	524.82
605.341	546.29
605.698	558.49
606.056	552.39
606.413	545.61
606.771	562.56
607.128	561.65
607.485	543.8
607.843	528.21
608.2	558.49
608.557	547.41
608.914	530.01
609.272	541.31
609.629	534.31
609.986	544.7
610.343	549
610.7	547.41
611.057	522.56
611.414	545.61
611.771	553.52
612.127	555.78
612.484	546.29
612.841	543.12
613.198	553.29
613.554	537.47
613.911	560.97
614.267	534.53
614.624	527.98
614.98	539.96
615.337	537.92
615.693	514.87
616.05	532.95
616.406	541.99
616.762	530.24
617.118	520.75
617.475	534.76
617.831	529.56
618.187	517.13
618.543	552.39
618.899	548.77
619.255	531.37
619.611	536.79
619.967	520.98
620.323	527.75
620.678	536.57
621.034	527.3
621.39	538.15
621.746	500.64
622.101	507.42
622.457	516.23
622.812	516.91
623.168	525.49
623.523	483.69
623.879	511.03
624.234	498.15
624.589	514.87
624.945	500.86
625.3	513.07
625.655	511.94
626.01	490.02
626.365	513.07
626.72	501.09
627.075	511.94
627.43	508.32
627.785	506.96
628.14	506.74
628.495	500.64
628.85	516.23
629.205	499.51
629.559	500.18
629.914	483.69
630.269	495.21
630.623	502.22
630.978	505.38
631.332	499.05
631.687	488.66
632.041	496.12
632.396	465.16
632.75	481.65
633.104	483.24
633.459	472.61
633.813	487.76
634.167	466.97
634.521	470.13
634.875	486.17
635.229	492.95
635.583	451.6
635.937	469.9
636.291	476.46
636.645	473.97
636.999	479.17
637.352	471.03
637.706	471.48
638.06	481.2
638.413	469.45
638.767	464.25
639.121	490.69
639.474	481.88
639.828	483.46
640.181	494.08
640.534	465.84
640.888	443.24
641.241	431.49
641.594	459.96
641.947	444.37
642.301	465.84
642.654	459.51
643.007	443.24
643.36	460.19
643.713	434.88
644.066	450.47
644.419	452.28
644.771	455.89
645.124	451.15
645.477	446.85
645.83	433.75
646.182	436.01
646.535	419.06
646.888	454.76
647.24	448.66
647.593	429.23
647.945	432.39
648.298	421.99
648.65	425.84
649.002	440.53
649.355	446.17
649.707	425.61
650.059	438.49
650.411	421.32
650.763	433.75
651.115	419.73
651.467	423.8
651.819	434.88
652.171	444.59
652.523	440.53
652.875	415.22
653.227	419.96
653.578	417.25
653.93	409.34
654.282	423.8
654.633	425.16
654.985	435.78
655.337	409.79
655.688	421.09
656.039	407.76
656.391	440.53
656.742	413.63
657.094	390.36
657.445	373.63
657.796	412.5
658.147	404.59
658.498	405.05
658.849	392.16
659.2	409.34
659.551	412.05
659.902	407.31
660.253	397.36
660.604	415.22
660.955	394.88
661.306	401.2
661.656	407.31
662.007	396.68
662.358	421.54
662.708	384.48
663.059	400.53
663.409	398.27
663.76	424.03
664.11	387.87
664.461	404.37
664.811	411.15
665.161	405.95
665.511	379.96
665.862	412.96
666.212	374.99
666.562	396.91
666.912	388.55
667.262	383.58
667.612	389.91
667.962	402.56
668.312	376.12
668.662	402.11
669.011	382.67
669.361	390.81
669.711	403.69
670.06	397.81
670.41	373.63
670.76	371.83
671.109	375.89
671.459	376.8
671.808	366.63
672.157	379.51
672.507	367.76
672.856	393.75
673.205	391.94
673.554	386.06
673.904	362.79
674.253	378.15
674.602	376.12
674.951	376.12
675.3	374.54
675.649	356.23
675.998	357.82
676.346	382
676.695	374.76
677.044	388.1
677.393	386.29
677.741	384.03
678.09	385.61
678.438	365.95
678.787	393.52
679.135	371.6
679.484	373.63
679.832	378.38
680.181	390.58
680.529	363.92
680.877	360.08
681.225	384.48
681.573	369.11
681.922	356.91
682.27	363.47
682.618	354.65
682.966	357.14
683.314	372.5
683.661	379.06
684.009	331.6
684.357	372.96
684.705	354.43
685.053	368.21
685.4	388.55
685.748	363.24
686.095	352.17
686.443	357.59
686.79	377.02
687.138	349
687.485	360.98
687.832	357.59
688.18	377.7
688.527	349.68
688.874	340.19
689.221	341.54
689.568	365.27
689.915	346.97
690.262	358.95
690.609	360.98
690.956	334.99
691.303	357.59
691.65	334.77
691.997	341.32
692.344	349.68
692.69	356.23
693.037	338.38
693.383	374.99
693.73	346.52
694.077	369.11
694.423	352.39
694.769	358.04
695.116	359.17
695.462	331.38
695.808	354.2
696.155	363.47
696.501	364.59
696.847	357.14
697.193	361.88
697.539	376.12
697.885	357.82
698.231	342.9
698.577	377.7
698.923	371.15
699.269	342.22
699.614	344.03
699.96	349.68
700.306	332.51
700.651	342.9
700.997	365.27
701.342	354.2
701.688	348.1
702.033	340.87
702.379	349.23
702.724	341.32
703.069	339.28
703.415	354.65
703.76	349.23
704.105	338.38
704.45	342
704.795	339.74
705.14	353.75
705.485	332.96
705.83	352.62
706.175	323.01
706.52	347.42
706.865	334.77
707.209	337.48
707.554	357.36
707.899	333.86
708.243	369.57
708.588	345.61
708.932	341.77
709.277	332.05
709.621	355.78
709.966	330.92
710.31	351.26
710.654	332.51
710.998	345.84
711.342	343.8
711.687	346.74
712.031	345.39
712.375	338.61
712.719	336.35
713.063	334.09
713.407	353.3
713.75	321.43
714.094	338.61
714.438	342.9
714.782	353.07
715.125	335.44
715.469	315.56
715.812	334.54
716.156	348.55
716.499	351.94
716.843	334.54
717.186	361.43
717.53	330.47
717.873	341.54
718.216	313.52
718.559	319.62
718.902	332.51
719.246	327.08
719.589	332.28
719.932	340.64
720.275	335.9
720.617	325.95
720.96	338.83
721.303	350.36
721.646	335.44
721.989	333.64
722.331	342.22
722.674	354.88
723.016	346.06
723.359	325.95
723.701	343.13
724.044	330.7
724.386	334.54
724.729	341.54
725.071	334.31
725.413	340.64
725.755	341.77
726.097	325.95
726.439	316.01
726.782	344.93
727.124	316.01
727.465	335.9
727.807	323.47
728.149	345.84
728.491	330.47
728.833	344.93
729.175	344.03
729.516	338.83
729.858	329.57
730.199	333.18
730.541	340.19
730.882	329.12
731.224	338.61
731.565	322.34
731.906	311.94
732.248	321.21
732.589	321.88
732.93	327.08
733.271	339.28
733.612	321.21
733.953	328.44
734.294	325.5
734.635	323.24
734.976	341.32
735.317	344.26
735.658	337.25
735.999	321.43
736.339	337.48
736.68	349
737.021	330.7
737.361	328.21
737.702	321.43
738.042	337.7
738.383	348.1
738.723	309.23
739.063	338.83
739.404	332.28
739.744	313.52
740.084	322.79
740.424	330.25
740.764	339.51
741.104	320.3
741.444	331.83
741.784	309.91
742.124	319.85
742.464	346.97
742.804	315.33
743.143	330.92
743.483	330.92
743.823	339.96
744.162	317.36
744.502	338.83
744.841	340.19
745.181	338.61
745.52	323.47
745.86	356.23
746.199	318.72
746.538	337.48
746.877	332.28
747.216	317.59
747.556	331.15
747.895	332.05
748.234	334.77
748.573	324.82
748.911	350.13
749.25	325.73
749.589	316.91
749.928	312.17
750.267	326.86
750.605	351.04
750.944	312.17
751.283	300.42
751.621	324.14
751.96	325.73
752.298	328.44
752.636	338.61
752.975	347.65
753.313	331.15
753.651	321.88
753.989	330.47
754.327	320.98
754.666	317.14
755.004	325.95
755.342	319.85
755.679	339.51
756.017	332.73
756.355	314.65
756.693	346.29
757.031	312.17
757.368	320.53
757.706	326.18
758.044	316.69
758.381	318.27
758.719	318.95
759.056	308.1
759.394	340.41
759.731	316.01
760.068	330.92
760.405	312.62
760.743	333.18
761.08	306.97
761.417	302.9
761.754	334.77
762.091	340.19
762.428	332.28
762.765	335.22
763.102	311.26
763.438	309.23
763.775	332.51
764.112	303.81
764.449	329.79
764.785	343.58
765.122	327.08
765.458	333.64
765.795	317.36
766.131	318.72
766.467	320.08
766.804	310.59
767.14	324.37
767.476	327.53
767.812	314.43
768.148	328.21
768.485	316.46
768.821	325.27
769.157	309
769.492	318.95
769.828	332.28
770.164	336.8
770.5	338.61
770.836	309.68
771.171	324.14
771.507	309
771.842	343.8
772.178	300.42
772.513	320.3
772.849	311.26
773.184	350.36
773.519	313.97
773.855	333.64
774.19	334.09
774.525	327.08
774.86	337.03
775.195	313.97
775.53	305.39
775.865	314.43
776.2	324.14
776.535	325.27
776.87	323.01
777.205	320.3
777.539	319.4
777.874	318.49
778.209	320.98
778.543	313.3
778.878	325.73
779.212	322.56
779.547	328.44
779.881	311.94
780.215	332.73
780.55	329.34
780.884	305.61
781.218	305.39
781.552	308.78
781.886	329.12
782.22	326.18
782.554	294.09
782.888	322.34
783.222	320.98
783.556	324.82
783.889	325.05
784.223	333.64
784.557	320.75
784.89	317.82
785.224	316.46
785.557	320.75
785.891	320.3
786.224	316.91
786.558	316.23
786.891	314.88
787.224	340.19
787.557	319.4
787.891	313.3
788.224	334.09
788.557	294.99
788.89	321.21
789.223	343.58
789.556	316.01
