Data from No_light_on_white_reflection_standard_FLMS001491_094.txt Node
Date: Tue Feb 07 10:33:11 GMT 2017
User: dcchb
Spectrometer: FLMS00149
Trigger mode: 0
Integration Time (sec): 2.000000E-2
Scans to average: 10
Electric dark correction enabled: true
Nonlinearity correction enabled: false
Boxcar width: 0
XAxis mode: Wavelengths
Number of Pixels in Spectrum: 2048
>>>>>Begin Spectral Data<<<<<
341.393	-5.89
341.776	-5.89
342.16	-5.89
342.543	-61.48
342.927	-71.65
343.31	-82.95
343.693	-73.46
344.077	-80.01
344.46	-65.32
344.843	-35.49
345.226	-26
345.61	-47.24
345.993	-14.25
346.376	-6.12
346.759	12.64
347.142	16.93
347.525	48.57
347.908	52.19
348.291	87.44
348.674	93.99
349.057	119.08
349.44	134.45
349.823	135.58
350.206	152.75
350.588	154.56
350.971	184.16
351.354	210.38
351.737	225.52
352.119	225.97
352.502	235.46
352.884	246.08
353.267	247.44
353.65	258.06
354.032	260.54
354.414	281.79
354.797	284.05
355.179	289.7
355.562	283.14
355.944	294.44
356.326	286.98
356.709	301.67
357.091	307.77
357.473	314.78
357.855	297.15
358.238	320.66
358.62	305.51
359.002	299.64
359.384	306.87
359.766	316.81
360.148	293.99
360.53	312.29
360.912	302.35
361.294	316.36
361.676	298.28
362.057	302.12
362.439	306.64
362.821	302.58
363.203	289.7
363.584	274.78
363.966	280.88
364.348	310.26
364.729	298.51
365.111	283.59
365.493	279.3
365.874	272.97
366.256	265.97
366.637	282.92
367.019	281.11
367.4	296.48
367.781	296.48
368.163	265.06
368.544	286.53
368.925	261
369.306	269.58
369.688	294.22
370.069	265.97
370.45	271.17
370.831	251.73
371.212	270.26
371.593	285.63
371.974	270.71
372.355	273.2
372.736	256.7
373.117	272.97
373.498	265.52
373.879	292.41
374.26	260.77
374.641	275.01
375.021	266.42
375.402	282.69
375.783	275.23
376.163	269.13
376.544	282.46
376.925	273.65
377.305	262.58
377.686	286.76
378.066	281.79
378.447	289.02
378.827	308.23
379.208	280.43
379.588	276.14
379.968	290.37
380.349	284.95
380.729	278.85
381.109	292.18
381.489	301.22
381.87	298.51
382.25	267.78
382.63	279.98
383.01	273.2
383.39	290.15
383.77	290.15
384.15	282.46
384.53	283.14
384.91	282.46
385.29	275.68
385.67	279.75
386.049	279.75
386.429	276.36
386.809	266.65
387.189	295.57
387.568	285.4
387.948	306.42
388.328	294.22
388.707	275.91
389.087	285.4
389.466	303.48
389.846	279.53
390.225	303.25
390.605	290.83
390.984	301.67
391.363	292.18
391.743	293.76
392.122	299.19
392.501	284.27
392.881	286.53
393.26	294.44
393.639	286.31
394.018	297.83
394.397	288.57
394.776	290.6
395.155	291.28
395.534	279.98
395.913	297.15
396.292	288.11
396.671	308.45
397.05	292.63
397.429	298.28
397.808	298.28
398.186	284.5
398.565	280.2
398.944	299.41
399.323	302.12
399.701	299.64
400.08	296.93
400.458	297.38
400.837	303.25
401.215	293.99
401.594	290.15
401.972	292.41
402.351	294.44
402.729	300.32
403.107	287.89
403.486	279.3
403.864	294.44
404.242	333.08
404.62	306.19
404.999	313.42
405.377	286.76
405.755	297.83
406.133	286.08
406.511	304.38
406.889	300.32
407.267	282.01
407.645	299.41
408.023	289.92
408.401	296.02
408.779	282.92
409.156	293.54
409.534	301.45
409.912	306.64
410.29	292.63
410.667	293.54
411.045	329.47
411.422	294.89
411.8	285.18
412.178	295.8
412.555	319.75
412.933	302.8
413.31	286.76
413.687	306.87
414.065	318.62
414.442	319.07
414.819	306.64
415.197	304.61
415.574	327.43
415.951	312.97
416.328	301.67
416.705	303.03
417.082	323.59
417.46	312.52
417.837	313.88
418.214	311.39
418.591	299.86
418.967	299.64
419.344	307.32
419.721	323.37
420.098	307.32
420.475	320.88
420.852	290.83
421.228	308.9
421.605	294.89
421.982	309.13
422.358	303.48
422.735	308.68
423.111	330.82
423.488	298.96
423.864	315.91
424.241	321.56
424.617	310.49
424.994	302.12
425.37	310.49
425.746	300.77
426.123	321.11
426.499	309.36
426.875	327.89
427.251	309.13
427.627	319.3
428.003	311.16
428.379	308.45
428.756	314.78
429.132	308.45
429.507	300.54
429.883	315.46
430.259	317.27
430.635	313.88
431.011	304.16
431.387	323.82
431.763	309.36
432.138	312.52
432.514	326.76
432.89	330.82
433.265	306.42
433.641	336.7
434.016	302.8
434.392	333.31
434.767	333.99
435.143	318.4
435.518	326.76
435.894	339.19
436.269	328.34
436.644	331.73
437.02	325.63
437.395	336.47
437.77	333.54
438.145	311.39
438.52	314.55
438.895	304.61
439.271	335.12
439.646	326.76
440.021	342.35
440.395	337.6
440.77	324.95
441.145	328.11
441.52	330.82
441.895	356.36
442.27	357.26
442.645	345.29
443.019	328.79
443.394	347.1
443.769	349.36
444.143	343.93
444.518	352.74
444.892	335.57
445.267	360.43
445.641	352.29
446.016	367.21
446.39	328.56
446.764	352.52
447.139	350.94
447.513	377.38
447.887	347.77
448.262	365.17
448.636	349.81
449.01	364.95
449.384	338.06
449.758	347.77
450.132	371.95
450.506	395
450.88	383.03
451.254	350.49
451.628	362.46
452.002	384.83
452.376	372.86
452.75	353.42
453.123	362.01
453.497	388.68
453.871	359.52
454.244	362.69
454.618	361.11
454.992	384.16
455.365	373.08
455.739	365.85
456.112	358.39
456.486	390.03
456.859	364.95
457.232	378.06
457.606	371.28
457.979	359.3
458.352	384.61
458.725	358.17
459.099	354.1
459.472	349.36
459.845	359.98
460.218	371.73
460.591	362.46
460.964	367.66
461.337	350.71
461.71	355.91
462.083	360.65
462.456	356.59
462.829	377.15
463.201	358.39
463.574	359.07
463.947	357.04
464.32	353.65
464.692	358.39
465.065	366.3
465.438	356.13
465.81	334.44
466.183	348.9
466.555	343.48
466.928	357.72
467.3	358.39
467.672	338.73
468.045	375.34
468.417	366.76
468.789	371.28
469.161	378.06
469.534	350.71
469.906	362.46
470.278	361.11
470.65	342.35
471.022	364.04
471.394	328.34
471.766	351.16
472.138	374.21
472.51	361.11
472.882	357.49
473.253	325.4
473.625	357.04
473.997	355.46
474.369	346.19
474.74	346.87
475.112	347.1
475.484	362.24
475.855	355.23
476.227	355.91
476.598	357.94
476.97	335.57
477.341	363.14
477.713	354.33
478.084	347.55
478.455	351.62
478.827	363.37
479.198	351.62
479.569	349.81
479.94	374.67
480.311	356.13
480.682	363.82
481.053	362.69
481.424	350.03
481.795	348.23
482.166	354.78
482.537	369.92
482.908	355.23
483.279	348.45
483.65	369.69
484.021	380.54
484.391	370.15
484.762	377.83
485.133	364.27
485.503	371.73
485.874	365.4
486.244	359.3
486.615	349.81
486.985	372.63
487.356	365.85
487.726	366.3
488.097	383.48
488.467	364.04
488.837	358.62
489.207	374.67
489.578	366.53
489.948	349.36
490.318	362.01
490.688	365.85
491.058	390.03
491.428	375.34
491.798	385.06
492.168	392.07
492.538	361.33
492.908	378.51
493.278	376.25
493.648	358.85
494.017	391.84
494.387	382.57
494.757	382.35
495.126	383.03
495.496	370.6
495.866	386.87
496.235	385.29
496.605	394.33
496.974	408.34
497.344	391.84
497.713	379.64
498.082	423.93
498.452	380.31
498.821	404.95
499.19	402.91
499.559	366.98
499.928	400.88
500.298	388.68
500.667	402.91
501.036	410.37
501.405	392.97
501.774	407.66
502.143	414.44
502.512	415.12
502.88	407.43
503.249	416.25
503.618	405.85
503.987	413.76
504.356	421.44
504.724	417.6
505.093	402.24
505.462	429.35
505.83	429.35
506.199	413.53
506.567	438.39
506.936	447.66
507.304	407.66
507.672	423.03
508.041	414.21
508.409	421.22
508.777	430.71
509.145	441.33
509.514	435.68
509.882	434.32
510.25	425.51
510.618	446.75
510.986	416.25
511.354	434.55
511.722	452.4
512.09	423.7
512.458	434.32
512.826	438.62
513.193	440.65
513.561	429.81
513.929	447.66
514.297	457.15
514.664	440.88
515.032	441.1
515.4	442.23
515.767	463.48
516.135	470.26
516.502	443.14
516.869	464.83
517.237	455.79
517.604	450.37
517.972	443.59
518.339	463.48
518.706	451.5
519.073	457.15
519.44	468.9
519.808	474.1
520.175	463.25
520.542	473.65
520.909	451.5
521.276	459.63
521.643	465.74
522.009	458.05
522.376	468.67
522.743	483.59
523.11	454.66
523.477	470.26
523.843	474.32
524.21	461.89
524.577	469.8
524.943	484.72
525.31	490.14
525.676	485.17
526.043	498.73
526.409	498.73
526.776	495.34
527.142	491.05
527.508	501.89
527.874	503.7
528.241	482.69
528.607	506.64
528.973	504.61
529.339	503.7
529.705	488.56
530.071	480.43
530.437	484.27
530.803	489.46
531.169	500.31
531.535	498.05
531.901	479.07
532.267	512.74
532.632	503.25
532.998	476.13
533.364	477.71
533.73	502.35
534.095	511.84
534.461	505.96
534.826	499.41
535.192	506.41
535.557	495.57
535.923	517.49
536.288	509.35
536.653	509.35
537.019	507.32
537.384	500.31
537.749	503.25
538.114	511.16
538.479	516.36
538.845	507.32
539.21	509.13
539.575	515.23
539.94	524.49
540.305	508.45
540.67	520.65
541.034	526.07
541.399	538.28
541.764	521.33
542.129	538.05
542.494	516.13
542.858	504.83
543.223	514.1
543.587	528.11
543.952	529.01
544.316	526.07
544.681	526.07
545.045	532.4
545.41	517.71
545.774	516.58
546.138	549.12
546.503	529.24
546.867	525.4
547.231	507.54
547.595	518.39
547.959	517.26
548.324	524.72
548.688	523.59
549.052	529.69
549.416	542.57
549.779	528.79
550.143	527.88
550.507	539.86
550.871	536.47
551.235	520.42
551.599	542.8
551.962	550.93
552.326	531.5
552.689	534.66
553.053	536.02
553.417	544.6
553.78	513.19
554.143	542.57
554.507	536.92
554.87	531.95
555.234	535.34
555.597	547.54
555.96	544.38
556.323	531.27
556.686	533.76
557.05	558.62
557.413	565.85
557.776	546.86
558.139	557.94
558.502	543.93
558.865	557.03
559.228	540.99
559.59	524.72
559.953	533.53
560.316	545.51
560.679	557.03
561.041	554.32
561.404	561.1
561.767	577.15
562.129	568.11
562.492	585.51
562.854	550.03
563.217	558.39
563.579	563.59
563.941	538.28
564.304	559.29
564.666	549.58
565.028	556.81
565.39	577.15
565.753	564.26
566.115	559.07
566.477	586.19
566.839	562.68
567.201	564.49
567.563	589.35
567.925	585.96
568.287	592.29
568.648	590.7
569.01	573.3
569.372	582.57
569.734	604.26
570.095	563.59
570.457	570.14
570.819	562.91
571.18	590.25
571.542	599.29
571.903	581.89
572.265	579.18
572.626	581.89
572.987	593.19
573.349	588.9
573.71	559.07
574.071	595
574.432	574.21
574.794	598.39
575.155	587.32
575.516	581.89
575.877	593.42
576.238	602
576.599	581.44
576.96	581.89
577.32	582.57
577.681	591.38
578.042	616.01
578.403	602.91
578.763	595.68
579.124	599.97
579.485	596.13
579.845	604.04
580.206	570.37
580.566	599.29
580.927	585.51
581.287	599.29
581.648	602.46
582.008	598.16
582.368	570.37
582.728	591.83
583.089	582.8
583.449	579.18
583.809	590.48
584.169	596.13
584.529	605.39
584.889	607.88
585.249	574.66
585.609	576.02
585.969	605.62
586.329	591.83
586.688	576.69
587.048	581.67
587.408	580.99
587.768	572.17
588.127	572.63
588.487	611.27
588.846	602.68
589.206	615.34
589.565	609.01
589.925	599.52
590.284	584.15
590.643	581.21
591.003	610.37
591.362	614.66
591.721	580.54
592.08	583.02
592.44	575.56
592.799	591.61
593.158	583.02
593.517	603.59
593.876	593.19
594.235	611.72
594.593	596.58
594.952	580.54
595.311	582.34
595.67	585.51
596.029	601.78
596.387	598.16
596.746	580.31
597.104	608.33
597.463	597.26
597.822	579.18
598.18	577.37
598.538	578.5
598.897	585.51
599.255	585.28
599.613	574.43
599.972	581.67
600.33	542.34
600.688	563.13
601.046	561.1
601.404	572.4
601.762	563.59
602.12	569.01
602.478	579.41
602.836	580.99
603.194	570.59
603.552	573.53
603.91	573.3
604.268	573.76
604.625	563.13
604.983	571.72
605.341	567.43
605.698	542.8
606.056	552.29
606.413	581.21
606.771	568.78
607.128	549.12
607.485	554.32
607.843	569.01
608.2	566.52
608.557	576.02
608.914	578.05
609.272	573.98
609.629	588.67
609.986	545.96
610.343	565.85
610.7	552.29
611.057	565.85
611.414	562
611.771	550.71
612.127	558.39
612.484	555.68
612.841	550.93
613.198	566.98
613.554	524.49
613.911	551.16
614.267	563.13
614.624	559.52
614.98	560.2
615.337	529.24
615.693	545.51
616.05	555.9
616.406	534.44
616.762	544.83
617.118	540.54
617.475	544.83
617.831	527.66
618.187	542.57
618.543	535.11
618.899	551.16
619.255	548.22
619.611	550.03
619.967	566.75
620.323	544.38
620.678	538.73
621.034	547.54
621.39	521.33
621.746	529.69
622.101	528.33
622.457	525.62
622.812	542.12
623.168	524.04
623.523	511.38
623.879	532.4
624.234	531.05
624.589	520.65
624.945	527.66
625.3	544.83
625.655	532.18
626.01	512.97
626.365	503.02
626.72	511.38
627.075	511.61
627.43	510.93
627.785	503.93
628.14	530.59
628.495	518.16
628.85	504.83
629.205	531.27
629.559	530.82
629.914	495.34
630.269	511.16
630.623	486.3
630.978	515.68
631.332	524.27
631.687	499.41
632.041	503.02
632.396	480.88
632.75	520.2
633.104	500.31
633.459	509.35
633.813	484.04
634.167	483.14
634.521	500.54
634.875	481.56
635.229	505.74
635.583	483.14
635.937	495.11
636.291	489.69
636.645	471.16
636.999	478.62
637.352	482.46
637.706	472.06
638.06	451.95
638.413	503.02
638.767	471.61
639.121	483.36
639.474	498.28
639.828	467.09
640.181	467.09
640.534	476.58
640.888	460.76
641.241	457.15
641.594	477.04
641.947	449.92
642.301	468.67
642.654	436.13
643.007	461.67
643.36	456.92
643.713	470.71
644.066	459.18
644.419	467.77
644.771	465.51
645.124	451.73
645.477	452.63
645.83	456.7
646.182	461.44
646.535	471.61
646.888	451.05
647.24	458.73
647.593	452.63
647.945	434.1
648.298	435
648.65	436.36
649.002	444.49
649.355	451.73
649.707	451.27
650.059	431.61
650.411	439.75
650.763	452.18
651.115	437.71
651.467	446.53
651.819	428.45
652.171	465.74
652.523	437.04
652.875	450.6
653.227	442.46
653.578	427.09
653.93	415.34
654.282	422.8
654.633	430.71
654.985	441.78
655.337	422.35
655.688	416.7
656.039	423.48
656.391	416.02
656.742	413.31
657.094	419.64
657.445	432.74
657.796	425.29
658.147	430.71
658.498	433.19
658.849	430.26
659.2	425.06
659.551	429.81
659.902	425.96
660.253	413.31
660.604	420.54
660.955	398.62
661.306	399.3
661.656	398.39
662.007	419.86
662.358	406.53
662.708	390.48
663.059	417.83
663.409	387.55
663.76	399.98
664.11	395.68
664.461	408.11
664.811	418.05
665.161	387.09
665.511	399.07
665.862	409.92
666.212	387.55
666.562	424.16
666.912	382.35
667.262	382.8
667.612	396.81
667.962	392.07
668.312	393.65
668.662	399.07
669.011	413.31
669.361	401.11
669.711	394.78
670.06	385.74
670.41	424.38
670.76	395.46
671.109	395.23
671.459	396.59
671.808	383.93
672.157	378.73
672.507	388.45
672.856	376.7
673.205	382.12
673.554	409.69
673.904	390.26
674.253	386.42
674.602	386.64
674.951	381.44
675.3	390.94
675.649	404.04
675.998	400.65
676.346	383.48
676.695	378.06
677.044	371.95
677.393	369.24
677.741	411.5
678.09	387.32
678.438	395
678.787	385.29
679.135	386.42
679.484	383.25
679.832	383.7
680.181	371.73
680.529	358.17
680.877	390.03
681.225	371.73
681.573	369.47
681.922	367.89
682.27	363.59
682.618	369.69
682.966	381.22
683.314	366.98
683.661	385.51
684.009	382.8
684.357	367.43
684.705	379.18
685.053	383.7
685.4	379.86
685.748	374.89
686.095	382.12
686.443	382.57
686.79	385.29
687.138	342.8
687.485	361.56
687.832	379.64
688.18	368.34
688.527	373.99
688.874	353.2
689.221	357.26
689.568	368.56
689.915	382.57
690.262	365.63
690.609	369.69
690.956	352.97
691.303	353.2
691.65	366.53
691.997	374.89
692.344	373.99
692.69	370.82
693.037	382.35
693.383	367.89
693.73	366.53
694.077	358.17
694.423	338.28
694.769	347.32
695.116	343.48
695.462	356.59
695.808	339.41
696.155	365.63
696.501	362.46
696.847	352.07
697.193	345.97
697.539	377.6
697.885	363.82
698.231	341.67
698.577	348
698.923	379.64
699.269	353.2
699.614	367.43
699.96	339.19
700.306	349.36
700.651	334.89
700.997	342.58
701.342	353.42
701.688	346.64
702.033	361.56
702.379	353.87
702.724	355.68
703.069	356.59
703.415	355.68
703.76	363.14
704.105	357.26
704.45	333.76
704.795	360.2
705.14	357.04
705.485	351.39
705.83	341.67
706.175	352.07
706.52	355.91
706.865	354.33
707.209	361.78
707.554	328.56
707.899	334.44
708.243	360.43
708.588	370.15
708.932	366.76
709.277	345.06
709.621	361.33
709.966	335.57
710.31	352.29
710.654	349.58
710.998	350.03
711.342	349.36
711.687	351.62
712.031	324.5
712.375	361.56
712.719	343.03
713.063	317.94
713.407	344.16
713.75	339.19
714.094	352.29
714.438	334.21
714.782	344.38
715.125	338.51
715.469	341.9
715.812	356.36
716.156	356.81
716.499	335.8
716.843	345.51
717.186	339.41
717.53	345.06
717.873	349.58
718.216	352.29
718.559	346.87
718.902	351.62
719.246	325.85
719.589	333.54
719.932	344.16
720.275	355
720.617	327.66
720.96	301.9
721.303	339.41
721.646	343.25
721.989	338.73
722.331	361.56
722.674	344.38
723.016	342.35
723.359	322.24
723.701	331.28
724.044	333.54
724.386	351.39
724.729	347.1
725.071	334.44
725.413	334.67
725.755	347.55
726.097	330.6
726.439	359.75
726.782	350.71
727.124	315.01
727.465	323.59
727.807	344.84
728.149	315.68
728.491	345.74
728.833	323.14
729.175	312.75
729.516	343.93
729.858	323.82
730.199	318.17
730.541	355.46
730.882	348.68
731.224	331.95
731.565	348
731.906	354.78
732.248	331.95
732.589	321.11
732.93	340.54
733.271	332.41
733.612	356.59
733.953	334.89
734.294	347.77
734.635	340.77
734.976	336.47
735.317	334.67
735.658	328.56
735.999	330.15
736.339	324.72
736.68	330.37
737.021	346.42
737.361	342.58
737.702	336.93
738.042	327.21
738.383	334.67
738.723	331.28
739.063	320.43
739.404	340.32
739.744	321.11
740.084	315.46
740.424	348
740.764	313.88
741.104	330.37
741.444	326.76
741.784	329.69
742.124	343.71
742.464	334.89
742.804	323.82
743.143	344.16
743.483	319.3
743.823	349.13
744.162	326.98
744.502	317.49
744.841	332.18
745.181	336.25
745.52	325.85
745.86	322.69
746.199	312.29
746.538	330.15
746.877	329.47
747.216	311.84
747.556	322.46
747.895	346.42
748.234	335.57
748.573	334.21
748.911	341.9
749.25	341.45
749.589	325.4
749.928	334.67
750.267	342.8
750.605	314.33
750.944	330.82
751.283	340.54
751.621	326.98
751.96	344.16
752.298	362.01
752.636	328.11
752.975	327.66
753.313	323.82
753.651	331.5
753.989	323.59
754.327	347.77
754.666	332.86
755.004	318.85
755.342	320.43
755.679	337.15
756.017	334.21
756.355	350.49
756.693	336.93
757.031	332.18
757.368	327.43
757.706	325.63
758.044	331.28
758.381	339.86
758.719	323.82
759.056	333.76
759.394	315.46
759.731	331.28
760.068	348.9
760.405	354.33
760.743	331.28
761.08	326.3
761.417	326.08
761.754	320.2
762.091	350.94
762.428	338.06
762.765	336.25
763.102	333.99
763.438	311.16
763.775	327.21
764.112	328.11
764.449	325.85
764.785	307.1
765.122	342.35
765.458	338.28
765.795	329.92
766.131	338.28
766.467	324.5
766.804	340.54
767.14	343.93
767.476	332.63
767.812	323.82
768.148	325.63
768.485	315.23
768.821	325.4
769.157	332.63
769.492	342.58
769.828	332.18
770.164	334.89
770.5	331.73
770.836	354.78
771.171	336.02
771.507	330.6
771.842	310.03
772.178	329.92
772.513	332.63
772.849	322.69
773.184	310.03
773.519	321.11
773.855	341.67
774.19	311.84
774.525	333.54
774.86	331.5
775.195	334.21
775.53	322.24
775.865	331.28
776.2	335.8
776.535	348
776.87	333.08
777.205	330.6
777.539	313.88
777.874	334.67
778.209	343.25
778.543	326.3
778.878	335.34
779.212	327.89
779.547	321.79
779.881	318.17
780.215	333.31
780.55	326.08
780.884	341.22
781.218	341.9
781.552	339.64
781.886	342.58
782.22	331.28
782.554	324.5
782.888	330.15
783.222	330.37
783.556	332.63
783.889	335.57
784.223	325.63
784.557	338.51
784.89	323.14
785.224	343.48
785.557	345.51
785.891	348.45
786.224	328.56
786.558	326.98
786.891	334.21
787.224	349.13
787.557	324.72
787.891	335.8
788.224	324.72
788.557	307.55
788.89	317.49
789.223	326.53
