Data from No_light_on_white_reflection_standard_FLMS001491_063.txt Node
Date: Tue Feb 07 10:33:04 GMT 2017
User: dcchb
Spectrometer: FLMS00149
Trigger mode: 0
Integration Time (sec): 2.000000E-2
Scans to average: 10
Electric dark correction enabled: true
Nonlinearity correction enabled: false
Boxcar width: 0
XAxis mode: Wavelengths
Number of Pixels in Spectrum: 2048
>>>>>Begin Spectral Data<<<<<
341.393	-11.93
341.776	-11.93
342.16	-11.93
342.543	-47.87
342.927	-65.94
343.31	-60.97
343.693	-65.49
344.077	-76.79
344.46	-55.1
344.843	-51.03
345.226	-54.87
345.61	-25.27
345.993	-26.62
346.376	-0.41
346.759	7.5
347.142	21.96
347.525	38.91
347.908	69.65
348.291	70.32
348.674	91.57
349.057	116.65
349.44	122.75
349.823	137.67
350.206	158.68
350.588	149.19
350.971	182.64
351.354	179.92
351.737	185.57
352.119	203.65
352.502	203.65
352.884	222.18
353.267	274.61
353.65	268.51
354.032	250.21
354.414	266.48
354.797	280.71
355.179	285.68
355.562	280.26
355.944	286.36
356.326	303.31
356.709	285.01
357.091	297.44
357.473	291.79
357.855	320.26
358.238	307.15
358.62	303.54
359.002	282.07
359.384	301.05
359.766	321.16
360.148	287.04
360.53	292.46
360.912	311.9
361.294	278.68
361.676	298.57
362.057	283.88
362.439	294.95
362.821	287.27
363.203	282.75
363.584	292.01
363.966	259.47
364.348	286.14
364.729	291.79
365.111	274.84
365.493	297.89
365.874	269.41
366.256	273.71
366.637	262.18
367.019	275.97
367.4	251.79
367.781	287.94
368.163	287.72
368.544	275.06
368.925	278.23
369.306	277.55
369.688	271.67
370.069	267.15
370.45	266.02
370.831	280.49
371.212	262.41
371.593	264.44
371.974	261.73
372.355	268.96
372.736	285.68
373.117	272.13
373.498	261.5
373.879	286.81
374.26	281.16
374.641	263.54
375.021	273.26
375.402	264.89
375.783	287.04
376.163	262.41
376.544	271.45
376.925	279.36
377.305	278.91
377.686	271.22
378.066	276.19
378.447	286.14
378.827	271.22
379.208	290.2
379.588	287.49
379.968	268.06
380.349	277.55
380.729	298.34
381.109	275.52
381.489	270.54
381.87	283.42
382.25	263.54
382.63	256.08
383.01	288.85
383.39	251.56
383.77	289.07
384.15	294.5
384.53	274.61
384.91	266.7
385.29	279.58
385.67	282.97
386.049	280.71
386.429	278.68
386.809	276.42
387.189	287.27
387.568	293.59
387.948	281.39
388.328	286.81
388.707	289.53
389.087	291.33
389.466	297.44
389.846	313.71
390.225	292.69
390.605	274.84
390.984	279.58
391.363	301.28
391.743	289.3
392.122	294.5
392.501	274.84
392.881	286.81
393.26	282.07
393.639	281.84
394.018	273.03
394.397	286.36
394.776	294.5
395.155	312.8
395.534	291.11
395.913	304.44
396.292	299.92
396.671	299.02
397.05	295.4
397.429	283.2
397.808	271.22
398.186	273.03
398.565	289.53
398.944	297.66
399.323	310.54
399.701	293.14
400.08	297.21
400.458	282.75
400.837	303.76
401.215	295.18
401.594	290.66
401.972	281.62
402.351	292.01
402.729	331.79
403.107	304.89
403.486	307.15
403.864	309.64
404.242	319.81
404.62	294.72
404.999	302.86
405.377	307.6
405.755	280.04
406.133	277.55
406.511	288.85
406.889	289.98
407.267	290.2
407.645	285.01
408.023	290.88
408.401	316.64
408.779	320.03
409.156	293.82
409.534	302.41
409.912	281.16
410.29	298.11
410.667	303.99
411.045	298.11
411.422	280.71
411.8	309.19
412.178	282.29
412.555	306.7
412.933	297.89
413.31	306.25
413.687	299.02
414.065	294.72
414.442	312.12
414.819	288.4
415.197	316.19
415.574	316.19
415.951	286.14
416.328	310.32
416.705	292.46
417.082	299.7
417.46	295.18
417.837	295.63
418.214	310.32
418.591	301.96
418.967	293.82
419.344	282.97
419.721	300.6
420.098	320.03
420.475	285.46
420.852	301.5
421.228	307.6
421.605	320.71
421.982	313.93
422.358	304.89
422.735	318.9
423.111	297.89
423.488	295.18
423.864	283.2
424.241	294.05
424.617	304.44
424.994	308.28
425.37	311.22
425.746	284.33
426.123	294.5
426.499	311.45
426.875	306.25
427.251	304.89
427.627	310.54
428.003	325.23
428.379	298.57
428.756	300.15
429.132	304.89
429.507	309.64
429.883	305.8
430.259	307.38
430.635	316.64
431.011	307.6
431.387	309.64
431.763	354.38
432.138	312.58
432.514	296.08
432.89	308.73
433.265	314.61
433.641	305.35
434.016	331.79
434.392	305.12
434.767	314.16
435.143	338.11
435.518	303.09
435.894	325.23
436.269	308.06
436.644	306.25
437.02	318
437.395	319.36
437.77	323.65
438.145	333.14
438.52	311.9
438.895	322.75
439.271	333.82
439.646	331.11
440.021	315.51
440.395	334.27
440.77	322.97
441.145	337.89
441.52	339.92
441.895	327.27
442.27	332.01
442.645	344.21
443.019	352.58
443.394	335.17
443.769	339.92
444.143	337.66
444.518	356.19
444.892	334.27
445.267	351.45
445.641	346.93
446.016	368.85
446.39	336.3
446.764	350.77
447.139	355.97
447.513	371.11
447.887	371.11
448.262	359.13
448.636	351.45
449.01	355.06
449.384	369.3
449.758	344.89
450.132	366.59
450.506	355.97
450.88	374.72
451.254	376.76
451.628	369.52
452.002	364.78
452.376	379.02
452.75	363.87
453.123	353.93
453.497	390.99
453.871	370.65
454.244	361.61
454.618	368.39
454.992	387.38
455.365	374.72
455.739	374.04
456.112	387.6
456.486	369.52
456.859	366.59
457.232	365.68
457.606	341.28
457.979	353.48
458.352	339.02
458.725	371.56
459.099	375.4
459.472	378.34
459.845	359.13
460.218	358.23
460.591	360.03
460.964	345.8
461.337	370.43
461.71	347.15
462.083	347.83
462.456	338.34
462.829	345.57
463.201	334.72
463.574	335.63
463.947	337.21
464.32	350.32
464.692	366.13
465.065	365.23
465.438	334.95
465.81	349.41
466.183	354.61
466.555	343.76
466.928	360.48
467.3	347.15
467.672	350.54
468.045	348.51
468.417	357.77
468.789	341.28
469.161	341.73
469.534	347.38
469.906	357.55
470.278	353.03
470.65	351.9
471.022	347.15
471.394	360.94
471.766	343.31
472.138	348.06
472.51	354.38
472.882	343.08
473.253	365
473.625	342.41
473.997	355.06
474.369	336.3
474.74	346.7
475.112	334.04
475.484	322.75
475.855	362.74
476.227	367.04
476.598	355.74
476.97	348.51
477.341	340.15
477.713	360.03
478.084	362.74
478.455	370.88
478.827	320.26
479.198	341.05
479.569	348.51
479.94	338.79
480.311	338.34
480.682	348.96
481.053	356.19
481.424	343.08
481.795	353.03
482.166	353.48
482.537	343.54
482.908	364.78
483.279	346.7
483.65	346.93
484.021	367.04
484.391	371.33
484.762	365.46
485.133	368.39
485.503	360.71
485.874	363.87
486.244	361.16
486.615	342.41
486.985	364.55
487.356	357.32
487.726	356.19
488.097	355.97
488.467	354.61
488.837	347.38
489.207	374.27
489.578	360.71
489.948	370.88
490.318	383.08
490.688	378.56
491.058	356.87
491.428	378.56
491.798	362.97
492.168	393.93
492.538	371.56
492.908	388.96
493.278	397.09
493.648	384.21
494.017	378.34
494.387	381.73
494.757	395.06
495.126	384.67
495.496	356.64
495.866	375.17
496.235	395.29
496.605	395.29
496.974	368.39
497.344	376.08
497.713	388.73
498.082	384.89
498.452	390.54
498.821	382.86
499.19	375.4
499.559	408.85
499.928	402.29
500.298	385.79
500.667	391.9
501.036	372.46
501.405	372.24
501.774	415.62
502.143	403.2
502.512	397.09
502.88	392.12
503.249	386.7
503.618	433.48
503.987	426.47
504.356	407.26
504.724	405.91
505.093	417.88
505.462	429.41
505.83	410.43
506.199	412.23
506.567	428.73
506.936	417.88
507.304	412.46
507.672	419.47
508.041	422.86
508.409	435.06
508.777	421.27
509.145	421.5
509.514	422.86
509.882	441.16
510.25	431.9
510.618	434.16
510.986	446.81
511.354	431.67
511.722	455.62
512.09	447.71
512.458	450.2
512.826	454.95
513.193	423.76
513.561	436.42
513.929	416.53
514.297	427.6
514.664	449.75
515.032	451.1
515.4	470.54
515.767	424.89
516.135	447.71
516.502	456.3
516.869	443.65
517.237	418.79
517.604	454.49
517.972	460.37
518.339	442.29
518.706	456.75
519.073	448.84
519.44	442.97
519.808	454.72
520.175	445.45
520.542	442.29
520.909	455.62
521.276	451.33
521.643	480.93
522.009	444.55
522.376	459.24
522.743	461.05
523.11	449.3
523.477	474.38
523.843	468.96
524.21	458.79
524.577	461.05
524.943	480.48
525.31	473.48
525.676	480.71
526.043	473.48
526.409	490.65
526.776	505.11
527.142	469.63
527.508	486.36
527.874	479.58
528.241	490.88
528.607	477.32
528.973	474.38
529.339	493.36
529.705	475.06
530.071	495.85
530.437	501.72
530.803	491.55
531.169	510.31
531.535	502.18
531.901	474.61
532.267	492.46
532.632	489.07
532.998	496.3
533.364	499.01
533.73	479.58
534.095	512.57
534.461	508.73
534.826	473.48
535.192	503.08
535.557	513.02
535.923	507.6
536.288	506.92
536.653	501.95
537.019	519.35
537.384	490.88
537.749	506.92
538.114	532.01
538.479	509.86
538.845	498.56
539.21	497.88
539.575	529.97
539.94	515.74
540.305	498.11
540.67	502.85
541.034	532.23
541.399	515.28
541.764	500.14
542.129	518.22
542.494	518.45
542.858	520.71
543.223	529.07
543.587	516.19
543.952	546.02
544.316	526.13
544.681	521.16
545.045	511.89
545.41	531.55
545.774	522.29
546.138	523.19
546.503	538.11
546.867	535.17
547.231	537.43
547.595	519.8
547.959	539.46
548.324	536.98
548.688	524.1
549.052	517.99
549.416	512.35
549.779	509.18
550.143	513.25
550.507	528.16
550.871	536.07
551.235	496.07
551.599	531.33
551.962	533.14
552.326	537.88
552.689	542.63
553.053	499.92
553.417	534.49
553.78	523.42
554.143	525.45
554.507	525.68
554.87	541.05
555.234	532.46
555.597	540.14
555.96	533.81
556.323	525.45
556.686	528.84
557.05	553.7
557.413	560.93
557.776	565.23
558.139	557.32
558.502	543.98
558.865	559.12
559.228	554.83
559.59	543.53
559.953	545.56
560.316	545.56
560.679	559.8
561.041	553.7
561.404	525.68
561.767	564.55
562.129	560.93
562.492	570.42
562.854	556.19
563.217	568.61
563.579	586.47
563.941	568.39
564.304	551.89
564.666	576.07
565.028	567.03
565.39	565.45
565.753	569.52
566.115	572.91
566.477	583.98
566.839	575.39
567.201	559.58
567.563	546.24
567.925	573.81
568.287	574.04
568.648	549.86
569.01	574.72
569.372	570.2
569.734	558.22
570.095	578.78
570.457	579.69
570.819	583.08
571.18	577.43
571.542	558.67
571.903	557.09
572.265	573.36
572.626	549.41
572.987	575.62
573.349	585.11
573.71	591.67
574.071	563.42
574.432	560.25
574.794	595.05
575.155	589.41
575.516	593.93
575.877	589.41
576.238	586.47
576.599	589.63
576.96	588.28
577.32	614.26
577.681	578.56
578.042	587.82
578.403	589.18
578.763	578.33
579.124	589.18
579.485	597.54
579.845	610.65
580.206	563.42
580.566	587.6
580.927	586.92
581.287	572.46
581.648	577.2
582.008	600.03
582.368	592.8
582.728	570.87
583.089	599.35
583.449	562.74
583.809	576.3
584.169	586.69
584.529	590.31
584.889	589.86
585.249	573.59
585.609	597.09
585.969	579.69
586.329	609.29
586.688	597.99
587.048	619.01
587.408	593.93
587.768	607.48
588.127	589.18
588.487	568.39
588.846	588.5
589.206	585.11
589.565	583.3
589.925	581.95
590.284	582.4
590.643	561.16
591.003	582.63
591.362	575.85
591.721	611.78
592.08	567.03
592.44	588.28
592.799	596.41
593.158	577.43
593.517	584.66
593.876	596.18
594.235	576.98
594.593	568.39
594.952	586.02
595.311	556.19
595.67	588.28
596.029	582.85
596.387	577.2
596.746	588.73
597.104	570.2
597.463	571.55
597.822	573.13
598.18	574.72
598.538	577.43
598.897	562.29
599.255	562.29
599.613	572.46
599.972	572.23
600.33	576.3
600.688	576.07
601.046	575.17
601.404	571.1
601.762	580.82
602.12	567.03
602.478	567.94
602.836	596.64
603.194	590.54
603.552	590.08
603.91	572.46
604.268	578.56
604.625	558.9
604.983	585.11
605.341	547.37
605.698	550.08
606.056	558.45
606.413	572
606.771	571.55
607.128	544.21
607.485	573.36
607.843	558.9
608.2	569.74
608.557	538.56
608.914	580.37
609.272	561.84
609.629	566.36
609.986	548.95
610.343	545.79
610.7	547.6
611.057	552.57
611.414	549.41
611.771	548.28
612.127	550.54
612.484	562.51
612.841	555.28
613.198	559.8
613.554	555.96
613.911	558.9
614.267	549.63
614.624	547.82
614.98	542.4
615.337	543.98
615.693	550.76
616.05	570.42
616.406	565.68
616.762	567.71
617.118	549.18
617.475	537.88
617.831	538.79
618.187	541.5
618.543	530.65
618.899	530.88
619.255	512.8
619.611	549.63
619.967	539.69
620.323	560.71
620.678	522.06
621.034	527.03
621.39	535.17
621.746	518.22
622.101	522.97
622.457	533.14
622.812	508.5
623.168	521.61
623.523	525.68
623.879	520.48
624.234	521.38
624.589	515.74
624.945	512.35
625.3	503.08
625.655	504.21
626.01	515.06
626.365	515.06
626.72	515.28
627.075	507.6
627.43	519.12
627.785	497.2
628.14	515.06
628.495	488.84
628.85	488.84
629.205	507.6
629.559	503.53
629.914	489.3
630.269	500.82
630.623	503.98
630.978	496.98
631.332	494.94
631.687	503.98
632.041	481.84
632.396	487.04
632.75	487.94
633.104	484.55
633.459	499.92
633.813	478.45
634.167	467.37
634.521	471.44
634.875	508.05
635.229	492.01
635.583	474.38
635.937	468.28
636.291	467.6
636.645	483.65
636.999	464.66
637.352	471.44
637.706	479.35
638.06	480.26
638.413	465.79
638.767	473.02
639.121	448.62
639.474	454.04
639.828	470.09
640.181	467.83
640.534	459.24
640.888	463.08
641.241	470.09
641.594	486.13
641.947	465.79
642.301	433.25
642.654	451.56
643.007	450.65
643.36	444.32
643.713	434.16
644.066	450.43
644.419	439.35
644.771	439.58
645.124	450.65
645.477	429.41
645.83	442.97
646.182	461.5
646.535	457.21
646.888	438.22
647.24	450.88
647.593	429.41
647.945	448.39
648.298	447.49
648.65	425.79
649.002	428.28
649.355	456.53
649.707	430.09
650.059	425.79
650.411	430.77
650.763	425.79
651.115	425.34
651.467	449.75
651.819	420.37
652.171	444.1
652.523	431.9
652.875	421.73
653.227	409.75
653.578	437.09
653.93	409.75
654.282	428.51
654.633	426.25
654.985	430.31
655.337	433.93
655.688	428.51
656.039	430.31
656.391	417.43
656.742	406.81
657.094	426.02
657.445	427.6
657.796	422.63
658.147	394.83
658.498	398.22
658.849	417.88
659.2	406.59
659.551	405.68
659.902	420.37
660.253	408.17
660.604	388.05
660.955	386.25
661.306	419.47
661.656	381.05
662.007	399.13
662.358	405.23
662.708	422.63
663.059	419.24
663.409	403.42
663.76	387.6
664.11	388.73
664.461	396.64
664.811	409.52
665.161	402.74
665.511	404.33
665.862	397.09
666.212	407.49
666.562	388.73
666.912	375.4
667.262	403.65
667.612	403.65
667.962	392.8
668.312	406.59
668.662	397.77
669.011	368.62
669.361	391.44
669.711	365.68
670.06	386.47
670.41	397.09
670.76	408.62
671.109	390.77
671.459	381.95
671.808	377.43
672.157	398
672.507	378.34
672.856	401.16
673.205	370.88
673.554	385.12
673.904	402.29
674.253	360.26
674.602	377.66
674.951	384.67
675.3	393.93
675.649	406.36
675.998	378.79
676.346	383.54
676.695	375.17
677.044	381.5
677.393	369.98
677.741	396.87
678.09	372.01
678.438	378.56
678.787	388.28
679.135	362.97
679.484	358.68
679.832	388.05
680.181	380.37
680.529	374.72
680.877	340.6
681.225	356.87
681.573	361.61
681.922	348.96
682.27	358.45
682.618	370.43
682.966	363.87
683.314	366.59
683.661	368.17
684.009	361.39
684.357	356.87
684.705	359.58
685.053	393.03
685.4	363.2
685.748	354.61
686.095	383.99
686.443	366.36
686.79	382.63
687.138	347.83
687.485	363.42
687.832	371.11
688.18	354.84
688.527	367.72
688.874	355.51
689.221	349.19
689.568	357.55
689.915	334.04
690.262	348.06
690.609	351.9
690.956	365.91
691.303	364.1
691.65	384.21
691.997	365.23
692.344	365
692.69	359.13
693.037	358.68
693.383	363.2
693.73	352.8
694.077	353.25
694.423	350.09
694.769	346.02
695.116	347.15
695.462	358.45
695.808	337.21
696.155	360.26
696.501	353.03
696.847	350.32
697.193	344.89
697.539	353.48
697.885	356.64
698.231	355.29
698.577	334.04
698.923	327.72
699.269	335.85
699.614	342.18
699.96	338.79
700.306	348.51
700.651	344.44
700.997	339.69
701.342	335.63
701.688	336.08
702.033	349.19
702.379	348.73
702.724	339.92
703.069	352.12
703.415	334.95
703.76	354.16
704.105	339.24
704.45	342.86
704.795	346.93
705.14	366.81
705.485	351.45
705.83	360.48
706.175	353.25
706.52	355.51
706.865	341.5
707.209	360.03
707.554	319.58
707.899	352.35
708.243	359.58
708.588	356.87
708.932	342.63
709.277	330.88
709.621	338.34
709.966	337.89
710.31	347.6
710.654	326.81
710.998	314.61
711.342	339.47
711.687	338.56
712.031	369.3
712.375	344.67
712.719	341.5
713.063	340.6
713.407	327.94
713.75	344.67
714.094	326.59
714.438	331.56
714.782	331.56
715.125	334.95
715.469	356.42
715.812	333.37
716.156	347.6
716.499	324.1
716.843	332.24
717.186	340.15
717.53	321.39
717.873	337.43
718.216	355.74
718.559	329.98
718.902	343.76
719.246	327.94
719.589	352.35
719.932	328.17
720.275	334.5
720.617	335.85
720.96	340.15
721.303	338.79
721.646	349.19
721.989	337.43
722.331	357.77
722.674	323.2
723.016	345.12
723.359	343.31
723.701	313.93
724.044	336.3
724.386	327.27
724.729	343.99
725.071	330.66
725.413	341.28
725.755	350.77
726.097	341.05
726.439	345.12
726.782	327.72
727.124	350.32
727.465	308.73
727.807	337.21
728.149	332.69
728.491	324.55
728.833	324.1
729.175	329.07
729.516	325.68
729.858	338.34
730.199	334.04
730.541	327.04
730.882	328.85
731.224	338.11
731.565	343.08
731.906	339.47
732.248	335.85
732.589	335.4
732.93	334.27
733.271	338.34
733.612	345.12
733.953	316.42
734.294	336.98
734.635	325.01
734.976	325.01
735.317	337.43
735.658	318.45
735.999	341.05
736.339	335.63
736.68	330.2
737.021	336.76
737.361	334.5
737.702	319.81
738.042	332.91
738.383	332.91
738.723	340.15
739.063	309.19
739.404	339.47
739.744	345.12
740.084	322.97
740.424	343.54
740.764	341.28
741.104	340.82
741.444	325.46
741.784	331.11
742.124	330.43
742.464	346.47
742.804	343.76
743.143	336.76
743.483	341.28
743.823	335.17
744.162	330.2
744.502	301.5
744.841	327.72
745.181	315.74
745.52	329.98
745.86	333.59
746.199	341.05
746.538	346.25
746.877	323.65
747.216	324.33
747.556	316.87
747.895	332.01
748.234	336.76
748.573	325.01
748.911	345.57
749.25	348.51
749.589	336.08
749.928	336.76
750.267	322.52
750.605	322.07
750.944	326.36
751.283	355.06
751.621	327.27
751.96	332.01
752.298	334.95
752.636	344.67
752.975	339.69
753.313	327.49
753.651	325.23
753.989	318
754.327	329.75
754.666	332.46
755.004	326.14
755.342	343.54
755.679	313.71
756.017	312.58
756.355	332.01
756.693	336.98
757.031	326.36
757.368	334.04
757.706	338.56
758.044	348.73
758.381	330.66
758.719	316.64
759.056	328.62
759.394	331.33
759.731	326.81
760.068	337.21
760.405	324.33
760.743	334.95
761.08	323.88
761.417	343.76
761.754	325.23
762.091	324.78
762.428	338.34
762.765	310.54
763.102	320.03
763.438	360.48
763.775	321.84
764.112	334.5
764.449	315.97
764.785	309.64
765.122	337.21
765.458	315.51
765.795	321.39
766.131	324.1
766.467	325.46
766.804	346.25
767.14	312.35
767.476	323.42
767.812	310.54
768.148	322.97
768.485	337.21
768.821	342.41
769.157	325.01
769.492	332.01
769.828	329.75
770.164	329.98
770.5	346.7
770.836	337.89
771.171	329.3
771.507	312.12
771.842	308.28
772.178	327.04
772.513	330.2
772.849	331.56
773.184	319.36
773.519	304.44
773.855	354.61
774.19	329.3
774.525	328.85
774.86	348.51
775.195	335.63
775.53	327.27
775.865	322.75
776.2	323.2
776.535	333.59
776.87	331.33
777.205	353.71
777.539	299.02
777.874	338.11
778.209	336.53
778.543	308.28
778.878	328.62
779.212	340.37
779.547	319.81
779.881	312.12
780.215	320.94
780.55	352.35
780.884	315.29
781.218	332.01
781.552	311.67
781.886	321.16
782.22	327.72
782.554	316.19
782.888	332.24
783.222	327.04
783.556	311.45
783.889	306.25
784.223	327.49
784.557	327.27
784.89	305.12
785.224	326.14
785.557	333.37
785.891	336.76
786.224	329.3
786.558	320.49
786.891	333.59
787.224	332.69
787.557	338.79
787.891	360.94
788.224	315.74
788.557	330.43
788.89	311.67
