Data from No_light_on_white_reflection_standard_FLMS001491_007.txt Node
Date: Tue Feb 07 10:32:53 GMT 2017
User: dcchb
Spectrometer: FLMS00149
Trigger mode: 0
Integration Time (sec): 2.000000E-2
Scans to average: 10
Electric dark correction enabled: true
Nonlinearity correction enabled: false
Boxcar width: 0
XAxis mode: Wavelengths
Number of Pixels in Spectrum: 2048
>>>>>Begin Spectral Data<<<<<
341.393	-13.97
341.776	-13.97
342.16	-13.97
342.543	-44.02
342.927	-48.09
343.31	-58.26
343.693	-68.43
344.077	-67.53
344.46	-75.21
344.843	-63.91
345.226	-61.2
345.61	-17.36
345.993	-35.89
346.376	1.17
346.759	19.7
347.142	16.99
347.525	35.52
347.908	73.26
348.291	81.17
348.674	109.19
349.057	110.77
349.44	129.08
349.823	138.34
350.206	137.44
350.588	164.33
350.971	183.54
351.354	200.04
351.737	213.6
352.119	233.48
352.502	226.25
352.884	239.13
353.267	250.66
353.65	267.38
354.032	268.28
354.414	279.58
354.797	270.54
355.179	294.95
355.562	271
355.944	317.55
356.326	282.97
356.709	311.22
357.091	311.67
357.473	320.71
357.855	297.21
358.238	308.28
358.62	310.32
359.002	300.37
359.384	305.8
359.766	301.05
360.148	302.63
360.53	285.68
360.912	318.9
361.294	282.52
361.676	300.37
362.057	303.09
362.439	311.45
362.821	300.83
363.203	291.79
363.584	279.13
363.966	290.88
364.348	271.45
364.729	301.5
365.111	297.66
365.493	282.75
365.874	281.16
366.256	280.04
366.637	250.88
367.019	281.84
367.4	269.64
367.781	277.1
368.163	282.52
368.544	280.49
368.925	271.22
369.306	281.16
369.688	267.61
370.069	265.8
370.45	292.69
370.831	263.31
371.212	270.54
371.593	260.15
371.974	292.46
372.355	276.42
372.736	270.54
373.117	269.87
373.498	257.89
373.879	278.68
374.26	265.12
374.641	266.93
375.021	271.22
375.402	279.36
375.783	286.36
376.163	292.24
376.544	268.51
376.925	283.65
377.305	275.06
377.686	268.74
378.066	268.51
378.447	284.1
378.827	278.45
379.208	278.45
379.588	293.37
379.968	292.24
380.349	303.76
380.729	296.31
381.109	308.96
381.489	280.49
381.87	289.53
382.25	285.46
382.63	280.26
383.01	283.2
383.39	291.11
383.77	289.3
384.15	282.75
384.53	287.94
384.91	275.06
385.29	298.57
385.67	290.88
386.049	273.93
386.429	292.46
386.809	280.04
387.189	280.26
387.568	265.12
387.948	282.52
388.328	282.52
388.707	286.81
389.087	280.71
389.466	300.37
389.846	293.82
390.225	315.74
390.605	295.85
390.984	268.51
391.363	300.37
391.743	281.16
392.122	285.91
392.501	275.06
392.881	313.93
393.26	295.63
393.639	280.94
394.018	280.26
394.397	276.65
394.776	294.27
395.155	299.47
395.534	283.65
395.913	292.92
396.292	315.06
396.671	294.05
397.05	289.53
397.429	297.66
397.808	281.62
398.186	290.66
398.565	312.8
398.944	292.24
399.323	297.21
399.701	301.73
400.08	271.67
400.458	292.46
400.837	277.78
401.215	271.22
401.594	270.77
401.972	291.33
402.351	276.65
402.729	306.7
403.107	300.15
403.486	292.01
403.864	286.59
404.242	302.18
404.62	302.86
404.999	280.04
405.377	303.76
405.755	298.79
406.133	294.72
406.511	299.24
406.889	286.14
407.267	302.86
407.645	303.31
408.023	296.08
408.401	309.19
408.779	309.64
409.156	302.63
409.534	305.8
409.912	296.31
410.29	292.24
410.667	306.25
411.045	280.26
411.422	313.71
411.8	287.27
412.178	311.9
412.555	289.75
412.933	278.68
413.31	306.47
413.687	300.6
414.065	311.22
414.442	287.94
414.819	319.36
415.197	319.81
415.574	308.51
415.951	321.16
416.328	292.24
416.705	292.24
417.082	313.03
417.46	284.33
417.837	324.1
418.214	308.73
418.591	316.64
418.967	301.73
419.344	300.15
419.721	310.99
420.098	323.88
420.475	291.79
420.852	318.9
421.228	310.77
421.605	318.9
421.982	306.7
422.358	305.35
422.735	315.29
423.111	302.41
423.488	302.18
423.864	314.61
424.241	315.74
424.617	310.32
424.994	304.89
425.37	310.77
425.746	308.73
426.123	315.06
426.499	304.22
426.875	298.34
427.251	310.99
427.627	293.59
428.003	301.5
428.379	301.28
428.756	315.51
429.132	304.22
429.507	307.6
429.883	312.58
430.259	320.26
430.635	309.41
431.011	316.64
431.387	314.16
431.763	307.15
432.138	318.68
432.514	308.28
432.89	310.32
433.265	340.37
433.641	311.22
434.016	317.77
434.392	299.24
434.767	314.61
435.143	333.37
435.518	320.71
435.894	320.94
436.269	310.32
436.644	328.62
437.02	335.85
437.395	335.17
437.77	311.67
438.145	323.2
438.52	320.03
438.895	313.03
439.271	306.25
439.646	320.03
440.021	326.14
440.395	310.54
440.77	327.04
441.145	317.55
441.52	320.71
441.895	335.85
442.27	342.18
442.645	348.28
443.019	334.95
443.394	347.6
443.769	335.4
444.143	330.2
444.518	350.99
444.892	356.64
445.267	351.45
445.641	346.02
446.016	334.04
446.39	358.23
446.764	360.71
447.139	367.72
447.513	343.08
447.887	347.38
448.262	353.25
448.636	346.7
449.01	343.08
449.384	358.68
449.758	373.37
450.132	367.49
450.506	339.92
450.88	368.17
451.254	350.99
451.628	371.78
452.002	391.44
452.376	370.2
452.75	382.41
453.123	373.59
453.497	355.97
453.871	387.15
454.244	378.56
454.618	378.11
454.992	366.59
455.365	378.79
455.739	337.66
456.112	348.06
456.486	381.28
456.859	368.62
457.232	343.08
457.606	383.08
457.979	350.99
458.352	336.98
458.725	351.67
459.099	336.3
459.472	369.3
459.845	351.67
460.218	359.35
460.591	356.19
460.964	338.11
461.337	354.84
461.71	351.22
462.083	365.23
462.456	353.71
462.829	342.41
463.201	346.25
463.574	359.35
463.947	359.81
464.32	355.51
464.692	331.33
465.065	373.82
465.438	344.67
465.81	334.72
466.183	359.58
466.555	374.27
466.928	353.93
467.3	369.3
467.672	341.28
468.045	373.14
468.417	334.27
468.789	354.16
469.161	332.01
469.534	370.43
469.906	355.97
470.278	339.69
470.65	352.58
471.022	363.42
471.394	359.58
471.766	342.63
472.138	373.37
472.51	340.37
472.882	341.5
473.253	347.83
473.625	347.38
473.997	330.88
474.369	338.11
474.74	357.1
475.112	349.86
475.484	348.06
475.855	332.91
476.227	358.45
476.598	350.77
476.97	345.8
477.341	371.33
477.713	362.29
478.084	346.47
478.455	362.74
478.827	365.68
479.198	349.41
479.569	337.43
479.94	359.58
480.311	371.33
480.682	352.12
481.053	339.02
481.424	355.74
481.795	354.84
482.166	361.16
482.537	367.04
482.908	362.52
483.279	348.28
483.65	336.98
484.021	366.13
484.391	355.51
484.762	368.17
485.133	381.95
485.503	372.46
485.874	364.33
486.244	370.65
486.615	355.97
486.985	375.63
487.356	348.51
487.726	354.16
488.097	354.38
488.467	385.12
488.837	373.82
489.207	367.04
489.578	386.02
489.948	348.28
490.318	370.88
490.688	373.14
491.058	376.3
491.428	361.16
491.798	364.33
492.168	382.18
492.538	369.98
492.908	365
493.278	361.39
493.648	363.42
494.017	380.15
494.387	366.36
494.757	367.49
495.126	388.51
495.496	368.17
495.866	363.65
496.235	394.38
496.605	376.3
496.974	371.56
497.344	357.32
497.713	402.52
498.082	386.92
498.452	395.06
498.821	393.25
499.19	435.96
499.559	389.18
499.928	388.73
500.298	402.07
500.667	386.92
501.036	398.22
501.405	383.99
501.774	403.2
502.143	385.57
502.512	398.9
502.88	404.33
503.249	402.29
503.618	412.91
503.987	390.09
504.356	408.39
504.724	412.46
505.093	430.77
505.462	403.87
505.83	421.05
506.199	418.34
506.567	411.78
506.936	421.27
507.304	421.27
507.672	433.25
508.041	425.12
508.409	401.61
508.777	436.42
509.145	424.66
509.514	429.64
509.882	435.96
510.25	419.69
510.618	430.09
510.986	423.53
511.354	409.75
511.722	416.53
512.09	434.38
512.458	445.68
512.826	441.84
513.193	426.92
513.561	443.19
513.929	430.54
514.297	419.01
514.664	439.35
515.032	428.51
515.4	464.66
515.767	435.74
516.135	454.27
516.502	434.83
516.869	435.06
517.237	438.67
517.604	440.93
517.972	434.61
518.339	479.8
518.706	444.1
519.073	457.88
519.44	465.79
519.808	451.33
520.175	451.33
520.542	446.58
520.909	466.24
521.276	467.83
521.643	441.16
522.009	467.6
522.376	461.95
522.743	491.78
523.11	466.47
523.477	485.23
523.843	456.3
524.21	456.75
524.577	468.96
524.943	453.82
525.31	468.73
525.676	452.91
526.043	485.68
526.409	482.97
526.776	482.06
527.142	482.74
527.508	469.41
527.874	483.87
528.241	485.91
528.607	498.11
528.973	487.49
529.339	475.96
529.705	459.92
530.071	493.36
530.437	489.75
530.803	509.18
531.169	489.97
531.535	483.19
531.901	502.18
532.267	483.65
532.632	487.49
532.998	502.18
533.364	486.81
533.73	500.82
534.095	512.57
534.461	494.04
534.826	475.96
535.192	499.92
535.557	495.17
535.923	494.27
536.288	503.31
536.653	486.36
537.019	493.81
537.384	491.1
537.749	492.23
538.114	497.88
538.479	480.93
538.845	506.02
539.21	499.01
539.575	490.88
539.94	519.8
540.305	504.66
540.67	509.86
541.034	501.95
541.399	508.28
541.764	508.05
542.129	483.87
542.494	493.81
542.858	486.58
543.223	498.79
543.587	522.97
543.952	515.74
544.316	527.03
544.681	518.45
545.045	526.36
545.41	502.85
545.774	506.92
546.138	500.14
546.503	517.99
546.867	499.01
547.231	508.05
547.595	512.35
547.959	516.64
548.324	524.77
548.688	510.99
549.052	513.93
549.416	519.12
549.779	513.7
550.143	506.47
550.507	514.61
550.871	522.51
551.235	505.57
551.599	499.01
551.962	519.35
552.326	516.19
552.689	520.48
553.053	532.91
553.417	502.63
553.78	525.68
554.143	511.89
554.507	529.75
554.87	536.53
555.234	542.4
555.597	535.17
555.96	528.62
556.323	511.44
556.686	526.36
557.05	534.49
557.413	526.13
557.776	540.82
558.139	541.5
558.502	534.04
558.865	530.65
559.228	534.04
559.59	547.82
559.953	537.66
560.316	533.81
560.679	530.65
561.041	545.34
561.404	545.34
561.767	560.48
562.129	537.88
562.492	534.49
562.854	555.28
563.217	549.18
563.579	554.83
563.941	543.3
564.304	537.43
564.666	558.67
565.028	562.51
565.39	559.12
565.753	544.43
566.115	557.32
566.477	574.04
566.839	554.6
567.201	569.97
567.563	549.18
567.925	564.55
568.287	553.7
568.648	588.28
569.01	558.9
569.372	556.86
569.734	561.61
570.095	550.08
570.457	545.79
570.819	545.11
571.18	571.1
571.542	576.98
571.903	559.58
572.265	572
572.626	578.56
572.987	579.46
573.349	587.37
573.71	578.56
574.071	579.01
574.432	572.91
574.794	585.79
575.155	550.31
575.516	567.49
575.877	586.02
576.238	569.29
576.599	569.07
576.96	570.42
577.32	557.54
577.681	546.24
578.042	561.84
578.403	589.86
578.763	579.91
579.124	586.69
579.485	562.51
579.845	595.51
580.206	545.34
580.566	588.5
580.927	573.36
581.287	589.18
581.648	573.81
582.008	582.85
582.368	593.7
582.728	576.52
583.089	589.86
583.449	584.66
583.809	571.78
584.169	562.97
584.529	588.95
584.889	575.85
585.249	593.25
585.609	585.79
585.969	572
586.329	587.6
586.688	574.94
587.048	555.73
587.408	574.94
587.768	603.87
588.127	579.01
588.487	580.82
588.846	582.85
589.206	577.43
589.565	583.98
589.925	565.68
590.284	573.81
590.643	573.36
591.003	565.45
591.362	588.28
591.721	563.19
592.08	559.12
592.44	605.68
592.799	560.25
593.158	596.41
593.517	574.26
593.876	572.68
594.235	571.33
594.593	560.71
594.952	560.71
595.311	587.82
595.67	565.23
596.029	575.85
596.387	572
596.746	544.21
597.104	556.86
597.463	567.94
597.822	578.78
598.18	579.24
598.538	571.33
598.897	569.52
599.255	565.68
599.613	551.89
599.972	561.61
600.33	548.28
600.688	550.54
601.046	581.27
601.404	555.96
601.762	548.28
602.12	560.48
602.478	573.36
602.836	547.37
603.194	558.67
603.552	545.34
603.91	554.6
604.268	557.54
604.625	541.05
604.983	552.57
605.341	535.4
605.698	548.28
606.056	559.58
606.413	565
606.771	545.56
607.128	569.74
607.485	555.28
607.843	548.28
608.2	559.12
608.557	543.08
608.914	562.29
609.272	554.83
609.629	543.98
609.986	573.36
610.343	557.77
610.7	529.07
611.057	521.38
611.414	561.61
611.771	541.27
612.127	560.48
612.484	524.32
612.841	544.66
613.198	528.16
613.554	550.76
613.911	549.63
614.267	558.67
614.624	543.08
614.98	566.81
615.337	546.47
615.693	546.69
616.05	544.66
616.406	536.3
616.762	536.75
617.118	520.71
617.475	540.37
617.831	531.55
618.187	528.84
618.543	515.96
618.899	537.66
619.255	545.11
619.611	524.1
619.967	535.17
620.323	529.29
620.678	550.99
621.034	529.75
621.39	538.79
621.746	506.92
622.101	523.42
622.457	518.22
622.812	510.99
623.168	529.07
623.523	532.68
623.879	519.12
624.234	532.91
624.589	518.67
624.945	495.17
625.3	515.06
625.655	496.75
626.01	488.84
626.365	511.44
626.72	493.14
627.075	501.05
627.43	508.28
627.785	508.5
628.14	522.74
628.495	491.33
628.85	492.46
629.205	503.76
629.559	501.72
629.914	510.54
630.269	506.7
630.623	491.55
630.978	500.37
631.332	483.42
631.687	482.52
632.041	470.54
632.396	474.83
632.75	470.76
633.104	469.18
633.459	501.72
633.813	499.69
634.167	494.27
634.521	482.06
634.875	469.86
635.229	489.75
635.583	481.16
635.937	455.85
636.291	473.25
636.645	480.03
636.999	459.47
637.352	456.3
637.706	472.57
638.06	467.37
638.413	466.92
638.767	480.48
639.121	471.44
639.474	470.76
639.828	461.27
640.181	476.64
640.534	451.33
640.888	469.41
641.241	452.46
641.594	463.53
641.947	466.47
642.301	450.2
642.654	445.45
643.007	435.06
643.36	459.92
643.713	461.73
644.066	452.46
644.419	456.08
644.771	451.78
645.124	421.73
645.477	437.54
645.83	433.03
646.182	423.08
646.535	442.06
646.888	443.19
647.24	455.62
647.593	462.86
647.945	443.42
648.298	432.8
648.65	419.24
649.002	436.19
649.355	440.03
649.707	422.18
650.059	438.22
650.411	419.24
650.763	433.03
651.115	414.04
651.467	420.14
651.819	428.05
652.171	442.06
652.523	427.83
652.875	430.09
653.227	417.88
653.578	422.63
653.93	416.53
654.282	415.62
654.633	430.77
654.985	401.61
655.337	408.39
655.688	427.6
656.039	405
656.391	425.79
656.742	407.04
657.094	406.59
657.445	419.92
657.796	423.99
658.147	394.38
658.498	414.27
658.849	398.22
659.2	413.36
659.551	417.43
659.902	398.45
660.253	407.04
660.604	405.46
660.955	390.54
661.306	413.14
661.656	421.5
662.007	431.44
662.358	426.92
662.708	395.74
663.059	421.95
663.409	402.97
663.76	386.47
664.11	397.32
664.461	402.29
664.811	398.22
665.161	428.28
665.511	385.12
665.862	390.77
666.212	392.35
666.562	387.6
666.912	406.59
667.262	388.51
667.612	404.1
667.962	416.08
668.312	394.16
668.662	368.39
669.011	386.02
669.361	383.76
669.711	372.01
670.06	382.41
670.41	362.74
670.76	349.19
671.109	374.95
671.459	403.65
671.808	373.37
672.157	386.02
672.507	382.63
672.856	358.9
673.205	380.82
673.554	388.73
673.904	404.55
674.253	386.47
674.602	369.52
674.951	394.16
675.3	374.72
675.649	380.37
675.998	375.63
676.346	375.85
676.695	358
677.044	372.69
677.393	368.62
677.741	369.98
678.09	372.46
678.438	387.38
678.787	382.86
679.135	366.59
679.484	369.3
679.832	370.65
680.181	370.65
680.529	379.92
680.877	371.56
681.225	378.79
681.573	367.26
681.922	387.83
682.27	367.49
682.618	369.07
682.966	395.29
683.314	350.99
683.661	383.08
684.009	358.9
684.357	365.23
684.705	368.85
685.053	380.37
685.4	342.18
685.748	371.11
686.095	359.81
686.443	371.56
686.79	357.77
687.138	361.84
687.485	365.46
687.832	362.29
688.18	356.19
688.527	367.72
688.874	355.97
689.221	375.4
689.568	368.62
689.915	352.35
690.262	356.42
690.609	359.35
690.956	360.26
691.303	343.76
691.65	373.82
691.997	346.7
692.344	359.81
692.69	343.99
693.037	356.42
693.383	360.03
693.73	360.26
694.077	349.64
694.423	364.78
694.769	344.44
695.116	347.6
695.462	350.99
695.808	344.89
696.155	357.32
696.501	346.02
696.847	366.59
697.193	353.25
697.539	342.86
697.885	336.53
698.231	354.38
698.577	359.81
698.923	363.65
699.269	353.25
699.614	338.34
699.96	347.6
700.306	337.89
700.651	336.3
700.997	348.96
701.342	354.61
701.688	347.83
702.033	364.78
702.379	352.35
702.724	335.4
703.069	360.71
703.415	367.26
703.76	342.18
704.105	341.95
704.45	359.58
704.795	342.86
705.14	328.4
705.485	346.7
705.83	333.59
706.175	332.24
706.52	351.9
706.865	347.15
707.209	334.5
707.554	346.25
707.899	340.15
708.243	346.7
708.588	345.12
708.932	356.42
709.277	341.28
709.621	326.14
709.966	338.34
710.31	326.36
710.654	327.49
710.998	359.58
711.342	343.76
711.687	345.8
712.031	329.3
712.375	350.77
712.719	351.45
713.063	332.69
713.407	356.19
713.75	358.9
714.094	344.89
714.438	363.2
714.782	347.38
715.125	349.41
715.469	327.72
715.812	362.29
716.156	343.99
716.499	341.05
716.843	353.25
717.186	327.49
717.53	337.43
717.873	342.86
718.216	332.46
718.559	340.15
718.902	343.54
719.246	325.01
719.589	340.6
719.932	326.81
720.275	326.81
720.617	338.56
720.96	334.27
721.303	332.24
721.646	326.59
721.989	337.21
722.331	348.96
722.674	347.83
723.016	341.28
723.359	352.35
723.701	354.16
724.044	345.8
724.386	347.38
724.729	335.85
725.071	350.09
725.413	344.21
725.755	367.26
726.097	326.14
726.439	313.25
726.782	340.37
727.124	360.03
727.465	339.69
727.807	334.27
728.149	327.27
728.491	351.67
728.833	337.43
729.175	345.34
729.516	360.71
729.858	315.29
730.199	321.16
730.541	324.33
730.882	331.33
731.224	338.79
731.565	336.08
731.906	344.21
732.248	329.07
732.589	321.39
732.93	329.75
733.271	336.3
733.612	322.97
733.953	317.32
734.294	339.92
734.635	320.26
734.976	353.03
735.317	329.98
735.658	323.2
735.999	318.23
736.339	346.47
736.68	334.72
737.021	317.55
737.361	315.29
737.702	322.29
738.042	321.39
738.383	343.54
738.723	350.09
739.063	345.12
739.404	328.17
739.744	346.7
740.084	328.62
740.424	355.51
740.764	324.33
741.104	349.86
741.444	326.81
741.784	325.68
742.124	342.86
742.464	322.07
742.804	327.49
743.143	324.1
743.483	322.07
743.823	314.61
744.162	320.94
744.502	332.69
744.841	327.49
745.181	344.89
745.52	331.33
745.86	313.71
746.199	336.76
746.538	327.27
746.877	326.14
747.216	326.36
747.556	326.36
747.895	346.25
748.234	354.84
748.573	325.68
748.911	329.98
749.25	335.63
749.589	327.27
749.928	337.21
750.267	337.43
750.605	325.91
750.944	328.85
751.283	333.14
751.621	338.79
751.96	353.03
752.298	350.32
752.636	335.63
752.975	322.97
753.313	315.06
753.651	316.19
753.989	335.63
754.327	322.75
754.666	325.68
755.004	328.4
755.342	349.86
755.679	344.67
756.017	320.03
756.355	316.64
756.693	321.84
757.031	332.69
757.368	335.17
757.706	334.27
758.044	332.91
758.381	330.43
758.719	325.46
759.056	326.81
759.394	352.12
759.731	313.93
760.068	324.33
760.405	335.4
760.743	346.02
761.08	335.63
761.417	313.48
761.754	341.05
762.091	313.93
762.428	327.94
762.765	343.76
763.102	322.97
763.438	343.99
763.775	320.03
764.112	289.75
764.449	326.14
764.785	306.7
765.122	323.2
765.458	315.97
765.795	315.51
766.131	327.27
766.467	322.29
766.804	342.41
767.14	318.23
767.476	330.88
767.812	301.28
768.148	324.33
768.485	295.85
768.821	331.79
769.157	348.73
769.492	333.37
769.828	318.9
770.164	333.37
770.5	327.04
770.836	324.55
771.171	333.59
771.507	317.32
771.842	335.4
772.178	326.36
772.513	311.67
772.849	329.07
773.184	345.34
773.519	342.86
773.855	318.45
774.19	307.38
774.525	327.49
774.86	327.94
775.195	319.81
775.53	326.36
775.865	327.27
776.2	320.03
776.535	335.17
776.87	321.62
777.205	308.28
777.539	323.42
777.874	347.38
778.209	336.3
778.543	324.55
778.878	325.46
779.212	340.15
779.547	319.36
779.881	318.68
780.215	325.68
780.55	324.78
780.884	316.19
781.218	323.2
781.552	336.08
781.886	319.36
782.22	336.08
782.554	342.18
782.888	326.81
783.222	324.1
783.556	325.46
783.889	320.49
784.223	305.57
784.557	328.85
784.89	331.11
785.224	329.3
785.557	330.66
785.891	324.1
786.224	332.24
786.558	312.35
786.891	310.54
787.224	331.56
787.557	321.62
787.891	326.14
788.224	325.01
788.557	315.06
788.89	326.14
