Data from No_light_on_white_reflection_standard_FLMS001491_012.txt Node
Date: Tue Feb 07 10:32:54 GMT 2017
User: dcchb
Spectrometer: FLMS00149
Trigger mode: 0
Integration Time (sec): 2.000000E-2
Scans to average: 10
Electric dark correction enabled: true
Nonlinearity correction enabled: false
Boxcar width: 0
XAxis mode: Wavelengths
Number of Pixels in Spectrum: 2048
>>>>>Begin Spectral Data<<<<<
341.393	-21.54
341.776	-21.54
342.16	-21.54
342.543	-73.52
342.927	-81.2
343.31	-81.42
343.693	-68.32
344.077	-63.57
344.46	-61.54
344.843	-47.98
345.226	-39.17
345.61	-22.67
345.993	-22.22
346.376	-10.92
346.759	8.74
347.142	39.93
347.525	32.7
347.908	65.69
348.291	76.31
348.674	77.67
349.057	116.76
349.44	110.89
349.823	153.37
350.206	166.03
350.588	163.31
350.971	182.98
351.354	203.77
351.737	207.16
352.119	232.92
352.502	229.08
352.884	235.4
353.267	243.09
353.65	258.45
354.032	270.66
354.414	272.92
354.797	283.99
355.179	271.33
355.562	283.09
355.944	283.99
356.326	286.93
356.709	305.23
357.091	301.62
357.473	315.85
357.855	300.71
358.238	319.24
358.62	295.51
359.002	300.49
359.384	293.93
359.766	316.08
360.148	281.05
360.53	293.48
360.912	292.35
361.294	309.75
361.676	298.45
362.057	287.38
362.439	295.97
362.821	281.96
363.203	286.7
363.584	296.64
363.966	290.77
364.348	282.41
364.729	295.29
365.111	286.02
365.493	301.84
365.874	278.34
366.256	281.5
366.637	262.07
367.019	269.75
367.4	255.52
367.781	274.27
368.163	280.83
368.544	266.59
368.925	269.75
369.306	288.06
369.688	266.36
370.069	267.94
370.45	275.63
370.831	265.46
371.212	286.25
371.593	249.19
371.974	269.07
372.355	261.39
372.736	268.62
373.117	289.19
373.498	282.18
373.879	255.29
374.26	280.83
374.641	288.28
375.021	275.18
375.402	248.51
375.783	276.31
376.163	267.04
376.544	294.84
376.925	280.37
377.305	277.89
377.686	286.93
378.066	289.87
378.447	276.08
378.827	298.9
379.208	281.96
379.588	284.89
379.968	271.79
380.349	302.29
380.729	265.23
381.109	269.75
381.489	269.53
381.87	281.5
382.25	267.72
382.63	276.76
383.01	272.69
383.39	268.85
383.77	288.51
384.15	296.19
384.53	276.53
384.91	303.42
385.29	255.74
385.67	270.66
386.049	276.31
386.429	300.03
386.809	295.06
387.189	273.14
387.568	283.99
387.948	283.54
388.328	293.71
388.707	288.28
389.087	297.55
389.466	273.14
389.846	281.73
390.225	292.8
390.605	298.45
390.984	292.8
391.363	294.38
391.743	276.76
392.122	288.28
392.501	271.56
392.881	294.16
393.26	304.55
393.639	285.35
394.018	293.71
394.397	291
394.776	300.94
395.155	284.22
395.534	291.9
395.913	293.03
396.292	275.4
396.671	293.03
397.05	296.64
397.429	313.14
397.808	295.29
398.186	303.42
398.565	291.67
398.944	287.83
399.323	290.77
399.701	289.87
400.08	310.43
400.458	302.75
400.837	293.48
401.215	294.84
401.594	304.55
401.972	279.02
402.351	290.09
402.729	283.31
403.107	278.57
403.486	291.45
403.864	300.94
404.242	292.58
404.62	296.19
404.999	303.88
405.377	291.9
405.755	304.33
406.133	299.58
406.511	295.51
406.889	294.38
407.267	298.45
407.645	293.26
408.023	308.17
408.401	305.01
408.779	308.4
409.156	296.42
409.534	307.04
409.912	297.32
410.29	293.26
410.667	304.33
411.045	291.45
411.422	322.18
411.8	300.94
412.178	303.2
412.555	289.64
412.933	284.44
413.31	287.15
413.687	289.87
414.065	300.03
414.442	310.2
414.819	286.02
415.197	296.42
415.574	307.49
415.951	296.87
416.328	293.93
416.705	298
417.082	291.22
417.46	291
417.837	307.49
418.214	301.16
418.591	309.07
418.967	317.21
419.344	304.55
419.721	301.39
420.098	314.72
420.475	303.2
420.852	298.23
421.228	283.54
421.605	307.49
421.982	290.32
422.358	318.34
422.735	295.97
423.111	316.98
423.488	320.37
423.864	318.11
424.241	314.05
424.617	301.16
424.994	314.5
425.37	318.79
425.746	321.95
426.123	300.94
426.499	284.22
426.875	315.85
427.251	302.07
427.627	304.33
428.003	323.99
428.379	319.24
428.756	306.81
429.132	312.69
429.507	316.76
429.883	313.82
430.259	319.69
430.635	306.81
431.011	300.71
431.387	322.63
431.763	328.73
432.138	309.53
432.514	312.01
432.89	309.3
433.265	295.97
433.641	322.86
434.016	323.54
434.392	326.25
434.767	314.27
435.143	326.47
435.518	303.88
435.894	322.41
436.269	337.1
436.644	317.66
437.02	319.69
437.395	312.69
437.77	343.2
438.145	319.24
438.52	311.11
438.895	341.62
439.271	295.51
439.646	326.02
440.021	345.01
440.395	330.99
440.77	340.49
441.145	322.18
441.52	328.51
441.895	340.26
442.27	335.51
442.645	338
443.019	323.08
443.394	338.68
443.769	326.47
444.143	324.44
444.518	346.36
444.892	329.64
445.267	339.36
445.641	338.45
446.016	371.67
446.39	342.07
446.764	364.44
447.139	371.67
447.513	326.02
447.887	349.3
448.262	347.72
448.636	342.29
449.01	367.83
449.384	366.25
449.758	374.83
450.132	373.93
450.506	361.73
450.88	378.22
451.254	385
451.628	364.21
452.002	344.1
452.376	376.42
452.75	354.27
453.123	355.63
453.497	355.17
453.871	363.99
454.244	370.99
454.618	349.75
454.992	356.3
455.365	381.39
455.739	363.08
456.112	359.02
456.486	356.53
456.859	351.11
457.232	364.21
457.606	351.11
457.979	361.5
458.352	345.91
458.725	354.72
459.099	352.24
459.472	355.4
459.845	330.99
460.218	371.22
460.591	345.68
460.964	328.96
461.337	362.63
461.71	370.99
462.083	357.21
462.456	368.73
462.829	352.46
463.201	353.37
463.574	366.47
463.947	349.98
464.32	355.17
464.692	348.39
465.065	347.26
465.438	326.93
465.81	365.12
466.183	356.98
466.555	352.69
466.928	352.91
467.3	351.78
467.672	356.08
468.045	359.92
468.417	343.88
468.789	348.62
469.161	351.33
469.534	371.9
469.906	346.13
470.278	373.93
470.65	353.59
471.022	344.33
471.394	345.46
471.766	368.28
472.138	334.16
472.51	356.53
472.882	371.9
473.253	339.36
473.625	331.9
473.997	338.45
474.369	372.12
474.74	336.64
475.112	353.82
475.484	345.46
475.855	345.46
476.227	360.82
476.598	348.62
476.97	347.72
477.341	346.13
477.713	355.17
478.084	348.17
478.455	337.1
478.827	366.25
479.198	354.27
479.569	348.39
479.94	355.4
480.311	357.21
480.682	363.08
481.053	340.26
481.424	354.95
481.795	339.58
482.166	355.63
482.537	376.19
482.908	366.7
483.279	348.85
483.65	354.72
484.021	335.97
484.391	349.07
484.762	380.03
485.133	361.05
485.503	355.4
485.874	367.6
486.244	354.27
486.615	354.27
486.985	355.4
487.356	358.56
487.726	367.83
488.097	350.65
488.467	354.5
488.837	362.63
489.207	361.73
489.578	361.05
489.948	369.19
490.318	366.02
490.688	365.57
491.058	379.13
491.428	369.64
491.798	379.81
492.168	361.95
492.538	375.29
492.908	394.5
493.278	371.67
493.648	392.24
494.017	381.16
494.387	384.55
494.757	358.11
495.126	362.86
495.496	382.07
495.866	375.51
496.235	394.27
496.605	380.48
496.974	389.3
497.344	396.53
497.713	400.14
498.082	392.91
498.452	401.95
498.821	387.26
499.19	384.55
499.559	382.74
499.928	405.57
500.298	399.01
500.667	391.56
501.036	404.21
501.405	401.05
501.774	397.43
502.143	392.01
502.512	395.17
502.88	418.68
503.249	413.7
503.618	399.24
503.987	410.54
504.356	420.48
504.724	414.61
505.093	403.76
505.462	392.24
505.83	413.7
506.199	408.96
506.567	388.62
506.936	393.82
507.304	410.99
507.672	425.91
508.041	430.43
508.409	409.41
508.777	420.03
509.145	436.53
509.514	425.45
509.882	406.7
510.25	451.89
510.618	418.9
510.986	434.72
511.354	429.75
511.722	411.67
512.09	445.57
512.458	431.56
512.826	442.4
513.193	419.81
513.561	427.26
513.929	450.99
514.297	434.49
514.664	452.35
515.032	469.52
515.4	448.05
515.767	448.96
516.135	434.72
516.502	453.48
516.869	446.47
517.237	444.44
517.604	453.48
517.972	446.7
518.339	431.1
518.706	447.6
519.073	468.62
519.44	463.19
519.808	440.14
520.175	442.4
520.542	441.5
520.909	456.87
521.276	443.76
521.643	449.41
522.009	451.44
522.376	468.84
522.743	461.16
523.11	474.95
523.477	468.17
523.843	465.68
524.21	458.67
524.577	484.89
524.943	470.2
525.31	463.42
525.676	455.96
526.043	461.61
526.409	454.38
526.776	493.48
527.142	446.7
527.508	479.01
527.874	470.65
528.241	480.82
528.607	504.32
528.973	471.33
529.339	485.79
529.705	479.69
530.071	478.56
530.437	490.99
530.803	485.34
531.169	487.15
531.535	504.55
531.901	505.23
532.267	487.6
532.632	509.29
532.998	489.41
533.364	494.61
533.73	486.7
534.095	487.6
534.461	499.35
534.826	516.07
535.192	517.43
535.557	478.79
535.923	494.61
536.288	490.99
536.653	498
537.019	512.23
537.384	496.64
537.749	488.73
538.114	504.32
538.479	513.14
538.845	497.77
539.21	504.32
539.575	491.67
539.94	503.42
540.305	483.53
540.67	492.8
541.034	474.95
541.399	518.11
541.764	510.65
542.129	512.46
542.494	500.48
542.858	515.62
543.223	516.98
543.587	509.97
543.952	506.36
544.316	523.53
544.681	519.01
545.045	505.23
545.41	502.74
545.774	514.49
546.138	510.88
546.503	523.08
546.867	506.13
547.231	508.39
547.595	511.33
547.959	497.77
548.324	523.76
548.688	510.42
549.052	520.14
549.416	507.26
549.779	505.9
550.143	497.54
550.507	527.37
550.871	518.33
551.235	512.91
551.599	542.74
551.962	516.75
552.326	526.24
552.689	526.02
553.053	519.01
553.417	526.02
553.78	533.7
554.143	523.53
554.507	517.88
554.87	515.85
555.234	520.37
555.597	525.11
555.96	525.79
556.323	515.62
556.686	519.69
557.05	573.7
557.413	557.43
557.776	524.21
558.139	555.85
558.502	543.87
558.865	529.41
559.228	514.72
559.59	521.95
559.953	533.47
560.316	538.9
560.679	563.08
561.041	539.12
561.404	537.54
561.767	558.11
562.129	545.9
562.492	549.07
562.854	543.87
563.217	567.15
563.579	558.11
563.941	535.51
564.304	535.73
564.666	544.1
565.028	553.59
565.39	572.8
565.753	539.12
566.115	552.01
566.477	567.15
566.839	563.76
567.201	577.99
567.563	566.47
567.925	564.89
568.287	564.66
568.648	564.89
569.01	566.92
569.372	581.61
569.734	551.33
570.095	584.77
570.457	568.73
570.819	553.81
571.18	559.91
571.542	570.31
571.903	570.08
572.265	573.25
572.626	559.01
572.987	555.85
573.349	573.02
573.71	580.25
574.071	566.02
574.432	563.76
574.794	576.86
575.155	568.28
575.516	573.25
575.877	596.75
576.238	559.69
576.599	566.02
576.96	566.47
577.32	579.12
577.681	585.22
578.042	573.7
578.403	581.38
578.763	593.59
579.124	587.03
579.485	603.08
579.845	597.88
580.206	588.61
580.566	577.54
580.927	570.54
581.287	573.25
581.648	568.95
582.008	564.66
582.368	600.82
582.728	580.48
583.089	606.47
583.449	570.76
583.809	565.34
584.169	558.11
584.529	581.16
584.889	600.59
585.249	581.16
585.609	593.59
585.969	585.68
586.329	565.79
586.688	589.07
587.048	569.18
587.408	565.79
587.768	598.11
588.127	592.23
588.487	591.33
588.846	580.48
589.206	555.85
589.565	569.86
589.925	552.68
590.284	589.29
590.643	566.92
591.003	567.37
591.362	565.56
591.721	569.63
592.08	590.2
592.44	572.12
592.799	574.38
593.158	580.25
593.517	565.56
593.876	578.9
594.235	581.61
594.593	584.77
594.952	563.76
595.311	558.56
595.67	571.67
596.029	580.25
596.387	557.43
596.746	566.24
597.104	558.78
597.463	542.97
597.822	536.19
598.18	570.31
598.538	564.21
598.897	548.39
599.255	547.03
599.613	568.5
599.972	550.2
600.33	540.25
600.688	540.71
601.046	550.42
601.404	571.89
601.762	564.43
602.12	561.72
602.478	547.94
602.836	557.43
603.194	558.56
603.552	543.19
603.91	566.02
604.268	575.96
604.625	566.24
604.983	566.02
605.341	561.72
605.698	564.66
606.056	574.15
606.413	558.56
606.771	555.4
607.128	553.81
607.485	550.65
607.843	553.14
608.2	552.68
608.557	545.23
608.914	552.46
609.272	554.49
609.629	528.5
609.986	535.96
610.343	553.14
610.7	553.81
611.057	550.42
611.414	541.16
611.771	554.49
612.127	541.16
612.484	545.9
612.841	573.47
613.198	551.55
613.554	526.24
613.911	534.15
614.267	542.74
614.624	532.57
614.98	531.89
615.337	538.45
615.693	539.12
616.05	546.58
616.406	549.97
616.762	536.19
617.118	531.89
617.475	515.17
617.831	527.6
618.187	535.96
618.543	568.95
618.899	535.96
619.255	544.32
619.611	525.79
619.967	528.05
620.323	537.09
620.678	522.4
621.034	498.9
621.39	516.3
621.746	531.44
622.101	499.13
622.457	506.13
622.812	540.48
623.168	521.72
623.523	509.52
623.879	515.4
624.234	495.96
624.589	486.92
624.945	501.39
625.3	490.76
625.655	516.98
626.01	505.23
626.365	509.75
626.72	511.78
627.075	515.4
627.43	512.68
627.785	511.33
628.14	503.42
628.495	501.39
628.85	497.32
629.205	479.92
629.559	499.35
629.914	488.28
630.269	487.83
630.623	480.82
630.978	495.28
631.332	501.84
631.687	484.21
632.041	499.8
632.396	506.58
632.75	498
633.104	496.41
633.459	465.68
633.813	492.35
634.167	473.14
634.521	474.27
634.875	486.92
635.229	469.75
635.583	454.15
635.937	486.02
636.291	480.37
636.645	490.76
636.999	486.24
637.352	459.35
637.706	457.77
638.06	477.88
638.413	467.26
638.767	466.13
639.121	466.36
639.474	460.26
639.828	466.81
640.181	467.49
640.534	458.9
640.888	467.94
641.241	458
641.594	458
641.947	455.74
642.301	469.52
642.654	457.32
643.007	456.64
643.36	459.8
643.713	462.74
644.066	457.09
644.419	465.91
644.771	447.6
645.124	416.87
645.477	432.01
645.83	441.27
646.182	453.48
646.535	442.18
646.888	427.26
647.24	425
647.593	420.48
647.945	444.44
648.298	432.91
648.65	435.85
649.002	420.71
649.355	438.79
649.707	412.12
650.059	425.91
650.411	443.99
650.763	444.21
651.115	435.4
651.467	418
651.819	423.87
652.171	444.89
652.523	437.66
652.875	408.96
653.227	415.29
653.578	429.75
653.93	412.57
654.282	420.94
654.633	409.41
654.985	433.82
655.337	427.94
655.688	394.5
656.039	410.54
656.391	432.46
656.742	413.7
657.094	399.92
657.445	427.71
657.796	409.18
658.147	396.98
658.498	409.41
658.849	403.99
659.2	403.31
659.551	407.6
659.902	404.44
660.253	387.04
660.604	411.22
660.955	392.91
661.306	414.16
661.656	409.41
662.007	412.8
662.358	383.65
662.708	399.01
663.059	401.05
663.409	408.51
663.76	419.58
664.11	393.14
664.461	397.89
664.811	397.89
665.161	382.52
665.511	406.25
665.862	373.48
666.212	388.85
666.562	395.63
666.912	394.04
667.262	403.99
667.612	402.18
667.962	385
668.312	408.05
668.662	405.12
669.011	383.65
669.361	385
669.711	404.44
670.06	399.24
670.41	397.66
670.76	370.09
671.109	386.81
671.459	371.22
671.808	360.82
672.157	372.57
672.507	393.59
672.856	382.07
673.205	378.45
673.554	395.4
673.904	368.28
674.253	374.83
674.602	359.02
674.951	382.52
675.3	388.39
675.649	368.73
675.998	382.29
676.346	382.07
676.695	399.92
677.044	407.15
677.393	373.93
677.741	396.53
678.09	408.05
678.438	376.42
678.787	396.53
679.135	367.15
679.484	378
679.832	375.74
680.181	377.55
680.529	376.42
680.877	361.5
681.225	357.89
681.573	382.97
681.922	361.95
682.27	352.24
682.618	382.07
682.966	366.47
683.314	345.01
683.661	359.92
684.009	352.91
684.357	357.43
684.705	370.54
685.053	370.99
685.4	373.48
685.748	374.16
686.095	363.08
686.443	377.32
686.79	373.93
687.138	366.25
687.485	355.63
687.832	389.07
688.18	342.29
688.527	363.99
688.874	356.3
689.221	372.12
689.568	366.47
689.915	363.08
690.262	356.53
690.609	345.68
690.956	381.84
691.303	353.82
691.65	364.21
691.997	361.28
692.344	348.62
692.69	342.07
693.037	362.18
693.383	356.98
693.73	366.7
694.077	357.66
694.423	346.36
694.769	345.23
695.116	359.69
695.462	351.33
695.808	366.93
696.155	350.88
696.501	347.72
696.847	354.72
697.193	349.07
697.539	357.89
697.885	380.26
698.231	360.15
698.577	365.34
698.923	366.47
699.269	365.57
699.614	376.19
699.96	345.91
700.306	352.91
700.651	355.17
700.997	372.12
701.342	324.67
701.688	359.24
702.033	335.97
702.379	346.81
702.724	357.66
703.069	374.61
703.415	330.77
703.76	326.93
704.105	339.36
704.45	349.3
704.795	370.09
705.14	335.06
705.485	367.6
705.83	341.84
706.175	357.66
706.52	340.94
706.865	332.58
707.209	338
707.554	334.16
707.899	340.26
708.243	336.42
708.588	357.89
708.932	345.46
709.277	326.25
709.621	334.38
709.966	354.27
710.31	338.23
710.654	340.49
710.998	336.87
711.342	343.42
711.687	324.89
712.031	340.71
712.375	350.88
712.719	331.45
713.063	352.24
713.407	330.54
713.75	361.95
714.094	346.13
714.438	363.08
714.782	356.76
715.125	341.62
715.469	342.97
715.812	323.31
716.156	335.97
716.499	346.81
716.843	328.28
717.186	336.19
717.53	335.97
717.873	312.01
718.216	340.49
718.559	328.28
718.902	351.78
719.246	343.65
719.589	331.9
719.932	338.68
720.275	344.55
720.617	329.64
720.96	311.33
721.303	331.9
721.646	348.62
721.989	323.99
722.331	348.17
722.674	341.16
723.016	321.95
723.359	325.34
723.701	304.78
724.044	336.87
724.386	308.17
724.729	326.47
725.071	342.52
725.413	305.91
725.755	330.54
726.097	322.63
726.439	325.8
726.782	338.9
727.124	344.78
727.465	309.07
727.807	323.99
728.149	323.99
728.491	326.02
728.833	340.26
729.175	363.76
729.516	352.01
729.858	336.64
730.199	344.1
730.541	320.15
730.882	343.65
731.224	326.02
731.565	332.58
731.906	317.21
732.248	344.78
732.589	325.12
732.93	332.12
733.271	345.68
733.612	323.99
733.953	319.92
734.294	344.1
734.635	343.42
734.976	334.84
735.317	324.44
735.658	332.12
735.999	325.12
736.339	312.69
736.68	334.38
737.021	342.75
737.361	320.37
737.702	337.32
738.042	339.13
738.383	316.08
738.723	353.82
739.063	350.88
739.404	342.29
739.744	348.62
740.084	341.84
740.424	323.08
740.764	319.47
741.104	324.67
741.444	329.41
741.784	331.45
742.124	327.6
742.464	324.44
742.804	322.86
743.143	340.71
743.483	337.32
743.823	331.67
744.162	344.78
744.502	320.82
744.841	324.89
745.181	326.02
745.52	342.07
745.86	337.77
746.199	331.45
746.538	324.89
746.877	340.26
747.216	333.71
747.556	342.97
747.895	325.57
748.234	339.13
748.573	310.88
748.911	330.77
749.25	339.58
749.589	348.62
749.928	336.19
750.267	332.58
750.605	336.19
750.944	335.97
751.283	318.34
751.621	347.49
751.96	343.2
752.298	327.15
752.636	330.09
752.975	329.41
753.313	343.65
753.651	326.25
753.989	335.29
754.327	358.11
754.666	338
755.004	334.84
755.342	332.35
755.679	322.18
756.017	339.81
756.355	324.21
756.693	315.85
757.031	324.21
757.368	336.64
757.706	329.64
758.044	334.61
758.381	325.12
758.719	335.97
759.056	328.96
759.394	322.18
759.731	322.41
760.068	313.37
760.405	325.57
760.743	327.83
761.08	312.46
761.417	322.63
761.754	333.48
762.091	327.15
762.428	323.99
762.765	331.22
763.102	324.89
763.438	322.63
763.775	322.63
764.112	314.5
764.449	327.83
764.785	326.93
765.122	338.23
765.458	348.39
765.795	332.8
766.131	320.37
766.467	324.67
766.804	336.87
767.14	328.06
767.476	332.8
767.812	326.02
768.148	322.18
768.485	321.28
768.821	320.15
769.157	317.44
769.492	330.99
769.828	330.32
770.164	322.63
770.5	319.02
770.836	347.04
771.171	330.32
771.507	320.82
771.842	329.19
772.178	346.81
772.513	339.58
772.849	345.91
773.184	327.15
773.519	321.05
773.855	308.85
774.19	335.29
774.525	315.4
774.86	333.03
775.195	328.06
775.53	322.18
775.865	330.99
776.2	343.42
776.535	325.57
776.87	334.16
777.205	340.94
777.539	314.72
777.874	307.49
778.209	305.91
778.543	348.85
778.878	344.33
779.212	312.92
779.547	329.64
779.881	348.17
780.215	308.62
780.55	328.73
780.884	325.8
781.218	309.07
781.552	319.47
781.886	323.31
782.22	312.92
782.554	324.89
782.888	349.3
783.222	321.05
783.556	308.62
783.889	339.58
784.223	325.34
784.557	322.41
784.89	315.4
785.224	313.14
785.557	344.55
785.891	336.42
786.224	324.67
786.558	320.15
786.891	311.56
787.224	325.12
787.557	349.07
787.891	329.41
788.224	315.18
788.557	317.66
788.89	329.64
789.223	320.15
