Data from No_light_on_white_reflection_standard_FLMS001491_035.txt Node
Date: Tue Feb 07 10:32:59 GMT 2017
User: dcchb
Spectrometer: FLMS00149
Trigger mode: 0
Integration Time (sec): 2.000000E-2
Scans to average: 10
Electric dark correction enabled: true
Nonlinearity correction enabled: false
Boxcar width: 0
XAxis mode: Wavelengths
Number of Pixels in Spectrum: 2048
>>>>>Begin Spectral Data<<<<<
341.393	-17.17
341.776	-17.17
342.16	-17.17
342.543	-60.56
342.927	-71.64
343.31	-73.9
343.693	-70.96
344.077	-59.43
344.46	-77.06
344.843	-37.97
345.226	-35.93
345.61	-47.68
345.993	-30.51
346.376	-16.5
346.759	18.08
347.142	25.99
347.525	44.07
347.908	62.15
348.291	75.25
348.674	94.01
349.057	130.39
349.44	129.94
349.823	146.89
350.206	141.69
350.588	176.27
350.971	176.72
351.354	205.42
351.737	192.54
352.119	211.52
352.502	240.45
352.884	250.84
353.267	262.59
353.65	285.64
354.032	283.38
354.414	276.38
354.797	280.67
355.179	286.32
355.562	284.74
355.944	275.25
356.326	288.58
356.709	306.88
357.091	298.98
357.473	314.57
357.855	319.99
358.238	294.68
358.62	301.01
359.002	308.47
359.384	299.65
359.766	301.91
360.148	298.75
360.53	302.36
360.912	327.45
361.294	296.94
361.676	305.08
362.057	297.85
362.439	281.12
362.821	287.22
363.203	288.81
363.584	295.36
363.966	300.33
364.348	299.2
364.729	298.3
365.111	291.97
365.493	278.64
365.874	289.03
366.256	267.11
366.637	287.68
367.019	287.9
367.4	284.51
367.781	265.3
368.163	274.8
368.544	246.55
368.925	283.38
369.306	303.49
369.688	286.09
370.069	286.55
370.45	279.99
370.831	291.52
371.212	285.42
371.593	294.68
371.974	294.91
372.355	282.48
372.736	274.8
373.117	281.8
373.498	281.8
373.879	289.94
374.26	289.48
374.641	264.85
375.021	257.17
375.402	276.38
375.783	284.96
376.163	272.76
376.544	287.45
376.925	270.73
377.305	275.25
377.686	293.1
378.066	274.12
378.447	284.29
378.827	272.99
379.208	269.37
379.588	289.03
379.968	289.03
380.349	317.05
380.729	283.61
381.109	288.35
381.489	286.55
381.87	279.99
382.25	300.78
382.63	298.3
383.01	291.74
383.39	305.75
383.77	272.54
384.15	281.8
384.53	295.81
384.91	271.86
385.29	283.61
385.67	288.58
386.049	313.89
386.429	282.7
386.809	303.27
387.189	316.6
387.568	300.33
387.948	270.95
388.328	304.4
388.707	298.52
389.087	295.59
389.466	298.98
389.846	295.81
390.225	296.04
390.605	285.87
390.984	274.34
391.363	311.4
391.743	305.98
392.122	303.72
392.501	305.98
392.881	312.76
393.26	294.91
393.639	302.82
394.018	303.27
394.397	298.75
394.776	295.59
395.155	287.22
395.534	315.47
395.913	313.21
396.292	306.21
396.671	304.62
397.05	290.61
397.429	305.3
397.808	292.87
398.186	281.12
398.565	310.05
398.944	288.35
399.323	303.49
399.701	301.01
400.08	267.79
400.458	305.08
400.837	318.64
401.215	302.36
401.594	301.69
401.972	294.68
402.351	308.24
402.729	304.85
403.107	298.75
403.486	306.21
403.864	290.61
404.242	301.46
404.62	329.93
404.999	323.61
405.377	322.7
405.755	291.97
406.133	301.91
406.511	301.01
406.889	309.82
407.267	305.53
407.645	298.52
408.023	293.78
408.401	312.08
408.779	294
409.156	312.31
409.534	304.85
409.912	287.68
410.29	298.3
410.667	327.67
411.045	320.44
411.422	301.01
411.8	314.79
412.178	320.67
412.555	281.57
412.933	301.24
413.31	283.38
413.687	305.08
414.065	322.7
414.442	311.4
414.819	315.02
415.197	321.12
415.574	321.35
415.951	306.66
416.328	312.99
416.705	293.1
417.082	299.65
417.46	304.17
417.837	321.35
418.214	317.73
418.591	293.33
418.967	317.05
419.344	306.66
419.721	301.46
420.098	307.56
420.475	331.06
420.852	305.98
421.228	306.43
421.605	318.86
421.982	305.08
422.358	329.26
422.735	315.47
423.111	295.13
423.488	300.78
423.864	296.94
424.241	305.75
424.617	334
424.994	326.55
425.37	316.6
425.746	341.46
426.123	337.84
426.499	314.12
426.875	323.16
427.251	307.11
427.627	321.12
428.003	329.48
428.379	304.17
428.756	322.7
429.132	318.18
429.507	305.75
429.883	302.82
430.259	329.93
430.635	322.48
431.011	308.92
431.387	317.28
431.763	328.13
432.138	312.31
432.514	318.86
432.89	332.42
433.265	314.79
433.641	325.87
434.016	321.12
434.392	324.06
434.767	314.79
435.143	331.97
435.518	342.59
435.894	328.35
436.269	334.91
436.644	332.87
437.02	325.19
437.395	340.78
437.77	319.77
438.145	315.02
438.52	328.13
438.895	338.07
439.271	320.22
439.646	345.75
440.021	321.12
440.395	353.21
440.77	347.34
441.145	338.75
441.52	331.97
441.895	342.82
442.27	351.63
442.645	345.98
443.019	330.16
443.394	342.59
443.769	346.66
444.143	340.78
444.518	356.83
444.892	346.88
445.267	355.24
445.641	350.27
446.016	352.99
446.39	353.66
446.764	357.5
447.139	355.02
447.513	359.54
447.887	363.38
448.262	363.61
448.636	365.19
449.01	367.67
449.384	375.13
449.758	378.75
450.132	364.28
450.506	369.48
450.88	376.94
451.254	385.07
451.628	377.39
452.002	375.36
452.376	374.45
452.75	398.86
453.123	370.39
453.497	364.74
453.871	383.49
454.244	376.26
454.618	350.5
454.992	381.46
455.365	358.63
455.739	367.45
456.112	371.97
456.486	362.48
456.859	372.19
457.232	361.8
457.606	343.72
457.979	358.86
458.352	365.41
458.725	362.25
459.099	355.24
459.472	362.93
459.845	371.29
460.218	369.93
460.591	329.26
460.964	348.69
461.337	355.7
461.71	341.91
462.083	360.67
462.456	345.3
462.829	373.55
463.201	342.36
463.574	367
463.947	369.48
464.32	355.7
464.692	347.79
465.065	361.35
465.438	361.35
465.81	358.18
466.183	366.77
466.555	371.52
466.928	347.56
467.3	350.73
467.672	358.63
468.045	372.87
468.417	375.36
468.789	367.22
469.161	360.67
469.534	353.21
469.906	363.38
470.278	339.65
470.65	350.73
471.022	373.78
471.394	370.39
471.766	362.02
472.138	353.44
472.51	364.96
472.882	361.8
473.253	348.47
473.625	351.86
473.997	336.71
474.369	356.6
474.74	357.28
475.112	372.19
475.484	354.11
475.855	354.57
476.227	348.92
476.598	341.01
476.97	364.74
477.341	355.24
477.713	363.83
478.084	370.39
478.455	363.61
478.827	339.2
479.198	383.27
479.569	358.41
479.94	348.47
480.311	356.6
480.682	371.06
481.053	371.74
481.424	364.28
481.795	362.02
482.166	363.15
482.537	360.22
482.908	359.76
483.279	369.48
483.65	365.87
484.021	346.21
484.391	356.83
484.762	358.86
485.133	393.44
485.503	347.56
485.874	356.37
486.244	353.21
486.615	341.01
486.985	349.14
487.356	358.18
487.726	350.05
488.097	373.1
488.467	367.45
488.837	365.64
489.207	378.97
489.578	352.99
489.948	390.95
490.318	365.64
490.688	385.98
491.058	374.68
491.428	381.46
491.798	370.84
492.168	386.43
492.538	393.21
492.908	404.74
493.278	369.93
493.648	375.36
494.017	386.66
494.387	386.88
494.757	393.89
495.126	363.83
495.496	395.02
495.866	371.52
496.235	392.31
496.605	402.48
496.974	393.44
497.344	382.81
497.713	393.21
498.082	386.43
498.452	381.23
498.821	397.73
499.19	389.59
499.559	396.83
499.928	408.35
500.298	423.04
500.667	413.55
501.036	410.38
501.405	402.93
501.774	402.02
502.143	400.89
502.512	423.72
502.88	404.96
503.249	402.93
503.618	414.45
503.987	417.39
504.356	407.67
504.724	407.45
505.093	402.02
505.462	401.35
505.83	406.09
506.199	427.33
506.567	419.2
506.936	430.72
507.304	444.73
507.672	415.13
508.041	437.28
508.409	430.27
508.777	441.12
509.145	412.42
509.514	429.14
509.882	427.79
510.25	434.79
510.618	449.25
510.986	410.61
511.354	454.9
511.722	448.58
512.09	435.02
512.458	443.6
512.826	456.71
513.193	424.85
513.561	455.58
513.929	440.67
514.297	455.13
514.664	470.72
515.032	425.07
515.4	428.24
515.767	438.86
516.135	462.59
516.502	453.77
516.869	459.87
517.237	460.55
517.604	456.71
517.972	456.26
518.339	455.81
518.706	473.43
519.073	465.98
519.44	459.87
519.808	468.01
520.175	482.25
520.542	467.33
520.909	467.33
521.276	481.12
521.643	486.09
522.009	483.83
522.376	473.66
522.743	462.13
523.11	475.24
523.477	472.08
523.843	462.13
524.21	459.65
524.577	468.91
524.943	467.11
525.31	486.99
525.676	491.06
526.043	486.31
526.409	492.87
526.776	496.26
527.142	468.01
527.508	500.33
527.874	488.12
528.241	468.24
528.607	501.46
528.973	479.31
529.339	495.58
529.705	484.73
530.071	488.35
530.437	501.46
530.803	484.06
531.169	500.33
531.535	491.96
531.901	481.34
532.267	498.29
532.632	477.73
532.998	501.23
533.364	510.95
533.73	502.59
534.095	485.64
534.461	479.54
534.826	496.48
535.192	506.88
535.557	518.18
535.923	478.18
536.288	512.3
536.653	522.7
537.019	506.43
537.384	506.88
537.749	476.82
538.114	493.09
538.479	494
538.845	498.29
539.21	501.91
539.575	489.03
539.94	478.63
540.305	507.33
540.67	487.9
541.034	505.75
541.399	513.88
541.764	516.14
542.129	527.22
542.494	501.91
542.858	513.66
543.223	521.57
543.587	498.74
543.952	524.05
544.316	516.14
544.681	505.3
545.045	529.03
545.41	533.32
545.774	513.66
546.138	505.52
546.503	511.4
546.867	518.63
547.231	541.68
547.595	513.88
547.959	540.78
548.324	526.09
548.688	505.07
549.052	524.73
549.416	524.05
549.779	520.89
550.143	535.35
550.507	539.87
550.871	529.93
551.235	523.6
551.599	527.9
551.962	529.7
552.326	543.26
552.689	525.86
553.053	532.87
553.417	517.05
553.78	500.1
554.143	540.1
554.507	530.38
554.87	511.17
555.234	537.39
555.597	522.25
555.96	518.4
556.323	535.35
556.686	534
557.05	534.45
557.413	545.3
557.776	525.18
558.139	548.46
558.502	532.42
558.865	531.96
559.228	525.64
559.59	543.49
559.953	531.29
560.316	533.55
560.679	549.36
561.041	556.82
561.404	532.42
561.767	544.17
562.129	550.49
562.492	556.6
562.854	553.43
563.217	526.54
563.579	555.47
563.941	537.39
564.304	535.35
564.666	553.21
565.028	555.69
565.39	548.23
565.753	558.86
566.115	555.47
566.477	557.95
566.839	568.12
567.201	552.53
567.563	547.56
567.925	568.35
568.287	574.22
568.648	570.83
569.01	572.87
569.372	566.09
569.734	575.13
570.095	587.56
570.457	580.55
570.819	570.61
571.18	568.57
571.542	564.73
571.903	576.48
572.265	547.56
572.626	575.35
572.987	594.56
573.349	574.67
573.71	552.98
574.071	571.06
574.432	579.19
574.794	574.22
575.155	571.51
575.516	548.69
575.877	575.58
576.238	582.13
576.599	576.03
576.96	590.72
577.32	588.91
577.681	563.83
578.042	585.07
578.403	565.86
578.763	595.69
579.124	582.58
579.485	577.16
579.845	578.06
580.206	592.3
580.566	582.36
580.927	594.79
581.287	596.14
581.648	580.1
582.008	583.04
582.368	597.95
582.728	581.23
583.089	566.76
583.449	561.12
583.809	583.04
584.169	585.52
584.529	559.76
584.889	561.12
585.249	578.52
585.609	606.54
585.969	584.17
586.329	592.07
586.688	585.52
587.048	583.71
587.408	589.36
587.768	584.39
588.127	592.75
588.487	573.32
588.846	588.01
589.206	586.43
589.565	587.56
589.925	574
590.284	575.35
590.643	590.49
591.003	580.32
591.362	564.73
591.721	582.58
592.08	588.69
592.44	578.97
592.799	587.33
593.158	564.28
593.517	558.4
593.876	602.47
594.235	574
594.593	566.99
594.952	570.83
595.311	592.53
595.67	565.18
596.029	578.97
596.387	564.28
596.746	547.78
597.104	564.05
597.463	541.68
597.822	559.53
598.18	579.19
598.538	567.44
598.897	564.96
599.255	583.26
599.613	557.5
599.972	603.6
600.33	585.97
600.688	571.51
601.046	566.76
601.404	564.28
601.762	540.78
602.12	567.44
602.478	582.13
602.836	561.79
603.194	573.54
603.552	556.82
603.91	550.49
604.268	572.41
604.625	556.6
604.983	583.04
605.341	571.28
605.698	562.7
606.056	545.3
606.413	562.25
606.771	556.37
607.128	573.54
607.485	576.26
607.843	546.65
608.2	555.92
608.557	565.41
608.914	542.13
609.272	565.41
609.629	555.47
609.986	568.35
610.343	535.35
610.7	567.89
611.057	561.12
611.414	541.45
611.771	562.7
612.127	555.24
612.484	556.14
612.841	558.63
613.198	563.83
613.554	553.88
613.911	543.04
614.267	553.66
614.624	549.14
614.98	564.73
615.337	533.77
615.693	551.62
616.05	538.29
616.406	531.06
616.762	548.69
617.118	533.32
617.475	522.02
617.831	529.25
618.187	544.84
618.543	526.31
618.899	535.13
619.255	539.87
619.611	522.7
619.967	528.35
620.323	543.49
620.678	518.4
621.034	524.28
621.39	535.58
621.746	525.86
622.101	529.93
622.457	527.22
622.812	505.3
623.168	507.11
623.523	516.82
623.879	524.96
624.234	522.47
624.589	535.81
624.945	503.49
625.3	510.72
625.655	503.49
626.01	505.52
626.365	508.24
626.72	532.42
627.075	518.86
627.43	495.35
627.785	507.56
628.14	517.5
628.495	503.72
628.85	513.43
629.205	508.24
629.559	511.4
629.914	518.18
630.269	494.68
630.623	484.28
630.978	506.43
631.332	512.53
631.687	497.84
632.041	493.55
632.396	489.93
632.75	498.74
633.104	488.12
633.459	479.76
633.813	490.16
634.167	502.36
634.521	510.72
634.875	486.99
635.229	488.35
635.583	492.64
635.937	468.24
636.291	468.91
636.645	477.73
636.999	474.79
637.352	471.4
637.706	468.01
638.06	474.56
638.413	465.52
638.767	477.28
639.121	485.64
639.474	451.97
639.828	477.5
640.181	465.07
640.534	462.81
640.888	464.62
641.241	458.07
641.594	478.18
641.947	479.31
642.301	468.46
642.654	480.44
643.007	467.78
643.36	447.45
643.713	442.7
644.066	461.46
644.419	444.73
644.771	448.12
645.124	431.4
645.477	454
645.83	454
646.182	463.26
646.535	455.81
646.888	464.39
647.24	434.34
647.593	449.48
647.945	427.33
648.298	443.38
648.65	436.82
649.002	450.38
649.355	437.95
649.707	431.4
650.059	438.86
650.411	431.63
650.763	421.91
651.115	449.03
651.467	421.91
651.819	430.27
652.171	456.49
652.523	430.27
652.875	427.33
653.227	437.28
653.578	411.29
653.93	425.07
654.282	422.14
654.633	423.04
654.985	408.58
655.337	418.07
655.688	431.63
656.039	420.33
656.391	422.14
656.742	414.9
657.094	408.12
657.445	413.55
657.796	433.66
658.147	416.71
658.498	413.1
658.849	427.33
659.2	417.84
659.551	400.67
659.902	384.4
660.253	397.05
660.604	415.13
660.955	383.94
661.306	417.16
661.656	413.1
662.007	411.97
662.358	400.44
662.708	402.48
663.059	398.63
663.409	419.88
663.76	395.92
664.11	400.89
664.461	417.62
664.811	418.07
665.161	414
665.511	383.49
665.862	396.83
666.212	413.55
666.562	399.99
666.912	401.57
667.262	408.35
667.612	391.4
667.962	384.17
668.312	376.49
668.662	414.45
669.011	399.76
669.361	406.09
669.711	381.91
670.06	400.44
670.41	394.79
670.76	399.76
671.109	391.4
671.459	402.48
671.808	381.01
672.157	383.27
672.507	375.13
672.856	373.78
673.205	374
673.554	379.65
673.904	418.97
674.253	380.33
674.602	391.63
674.951	367.22
675.3	364.74
675.649	365.87
675.998	382.14
676.346	387.79
676.695	392.08
677.044	368.13
677.393	368.35
677.741	390.27
678.09	373.78
678.438	363.61
678.787	369.71
679.135	377.84
679.484	374.45
679.832	378.75
680.181	388.46
680.529	357.5
680.877	364.51
681.225	379.65
681.573	390.5
681.922	364.28
682.27	370.84
682.618	377.17
682.966	354.57
683.314	362.48
683.661	381.46
684.009	379.65
684.357	357.96
684.705	358.41
685.053	382.81
685.4	364.28
685.748	362.25
686.095	374
686.443	376.71
686.79	358.41
687.138	372.42
687.485	372.42
687.832	378.52
688.18	383.49
688.527	379.88
688.874	369.03
689.221	367.45
689.568	356.37
689.915	356.37
690.262	333.32
690.609	352.31
690.956	347.34
691.303	372.65
691.65	376.26
691.997	357.96
692.344	368.8
692.69	353.44
693.037	361.57
693.383	392.08
693.73	384.85
694.077	362.7
694.423	359.09
694.769	338.3
695.116	346.43
695.462	380.33
695.808	375.81
696.155	361.35
696.501	336.71
696.847	355.47
697.193	334.91
697.539	362.02
697.885	380.78
698.231	356.15
698.577	348.01
698.923	376.04
699.269	331.74
699.614	339.2
699.96	339.65
700.306	353.66
700.651	351.18
700.997	343.27
701.342	346.43
701.688	360.89
702.033	329.48
702.379	350.73
702.724	359.31
703.069	348.47
703.415	370.16
703.76	338.07
704.105	353.66
704.45	367.9
704.795	353.66
705.14	365.19
705.485	337.62
705.83	348.92
706.175	333.1
706.52	336.49
706.865	322.7
707.209	345.98
707.554	358.63
707.899	369.48
708.243	362.25
708.588	357.96
708.932	370.16
709.277	358.18
709.621	365.87
709.966	355.02
710.31	350.95
710.654	339.43
710.998	361.12
711.342	349.82
711.687	332.42
712.031	343.49
712.375	351.86
712.719	345.53
713.063	350.73
713.407	336.04
713.75	338.97
714.094	346.88
714.438	343.49
714.782	356.37
715.125	331.74
715.469	364.06
715.812	351.63
716.156	334.68
716.499	344.62
716.843	344.85
717.186	356.37
717.53	336.04
717.873	345.3
718.216	334.23
718.559	341.46
718.902	338.3
719.246	354.11
719.589	339.88
719.932	333.78
720.275	338.97
720.617	326.32
720.96	334.45
721.303	345.08
721.646	329.26
721.989	347.79
722.331	345.98
722.674	342.36
723.016	362.25
723.359	330.16
723.701	358.63
724.044	342.14
724.386	347.11
724.729	352.99
725.071	328.13
725.413	330.84
725.755	333.55
726.097	343.49
726.439	337.84
726.782	334.91
727.124	330.61
727.465	349.82
727.807	336.94
728.149	344.4
728.491	350.95
728.833	345.53
729.175	329.71
729.516	355.47
729.858	338.97
730.199	332.65
730.541	335.36
730.882	343.04
731.224	347.56
731.565	338.75
731.906	359.54
732.248	341.01
732.589	339.43
732.93	336.26
733.271	333.55
733.612	354.34
733.953	332.87
734.294	338.97
734.635	328.8
734.976	332.42
735.317	326.09
735.658	324.29
735.999	325.19
736.339	359.31
736.68	333.32
737.021	341.69
737.361	358.18
737.702	335.13
738.042	334.23
738.383	338.52
738.723	325.42
739.063	331.97
739.404	334.23
739.744	345.53
740.084	325.64
740.424	325.19
740.764	325.64
741.104	352.53
741.444	331.06
741.784	339.88
742.124	323.38
742.464	335.81
742.804	382.59
743.143	345.3
743.483	314.57
743.823	320.67
744.162	327.22
744.502	342.36
744.841	358.63
745.181	334.45
745.52	336.49
745.86	340.1
746.199	324.29
746.538	333.55
746.877	341.91
747.216	310.73
747.556	338.07
747.895	327.67
748.234	338.07
748.573	334.68
748.911	334
749.25	317.05
749.589	359.99
749.928	331.52
750.267	359.99
750.605	337.39
750.944	337.62
751.283	351.63
751.621	339.88
751.96	327
752.298	335.36
752.636	325.42
752.975	324.51
753.313	337.17
753.651	317.05
753.989	337.39
754.327	340.78
754.666	332.65
755.004	334.91
755.342	341.91
755.679	326.09
756.017	339.65
756.355	319.54
756.693	348.24
757.031	327.67
757.368	310.73
757.706	328.13
758.044	327.67
758.381	343.72
758.719	313.89
759.056	328.8
759.394	330.16
759.731	338.52
760.068	317.28
760.405	323.83
760.743	313.66
761.08	332.42
761.417	330.16
761.754	339.88
762.091	345.08
762.428	326.09
762.765	340.56
763.102	335.13
763.438	342.82
763.775	343.27
764.112	324.06
764.449	353.21
764.785	331.97
765.122	326.09
765.458	349.82
765.795	337.62
766.131	343.72
766.467	344.17
766.804	337.62
767.14	320.22
767.476	341.01
767.812	328.13
768.148	331.29
768.485	367.22
768.821	337.62
769.157	316.83
769.492	335.81
769.828	343.95
770.164	330.16
770.5	309.6
770.836	321.8
771.171	334.45
771.507	323.38
771.842	322.7
772.178	338.97
772.513	340.56
772.849	326.55
773.184	333.32
773.519	352.99
773.855	343.27
774.19	340.33
774.525	334.45
774.86	321.8
775.195	363.38
775.53	329.71
775.865	321.35
776.2	335.81
776.535	334.91
776.87	323.83
777.205	335.36
777.539	325.64
777.874	335.36
778.209	313.21
778.543	324.29
778.878	337.39
779.212	315.02
779.547	314.12
779.881	317.28
780.215	325.19
780.55	315.7
780.884	337.84
781.218	321.8
781.552	332.87
781.886	339.43
782.22	331.52
782.554	321.8
782.888	349.6
783.222	327.67
783.556	326.77
783.889	315.25
784.223	329.26
784.557	327.22
784.89	341.01
785.224	333.32
785.557	343.95
785.891	337.62
786.224	340.1
786.558	323.16
786.891	336.04
787.224	328.35
787.557	317.05
787.891	323.38
788.224	333.32
788.557	331.06
788.89	318.18
789.223	337.39
