Data from No_light_on_white_reflection_standard_FLMS001491_099.txt Node
Date: Tue Feb 07 10:33:12 GMT 2017
User: dcchb
Spectrometer: FLMS00149
Trigger mode: 0
Integration Time (sec): 2.000000E-2
Scans to average: 10
Electric dark correction enabled: true
Nonlinearity correction enabled: false
Boxcar width: 0
XAxis mode: Wavelengths
Number of Pixels in Spectrum: 2048
>>>>>Begin Spectral Data<<<<<
341.393	-36.58
341.776	-36.58
342.16	-36.58
342.543	-78.16
342.927	-66.64
343.31	-81.55
343.693	-76.35
344.077	-51.72
344.46	-55.34
344.843	-37.03
345.226	-63.02
345.61	-23.02
345.993	-12.17
346.376	11.1
346.759	16.98
347.142	38.45
347.525	46.35
347.908	51.78
348.291	55.39
348.674	96.3
349.057	83.87
349.44	125.9
349.823	125.45
350.206	152.57
350.588	167.93
350.971	200.47
351.354	198.67
351.737	238.21
352.119	227.14
352.502	230.3
352.884	242.06
353.267	237.54
353.65	251.1
354.032	281.15
354.414	255.61
354.797	287.25
355.179	288.83
355.562	300.81
355.944	303.98
356.326	292.22
356.709	306.01
357.091	316.4
357.473	316.63
357.855	313.92
358.238	299.68
358.62	318.44
359.002	313.01
359.384	291.77
359.766	285.9
360.148	285.67
360.53	313.01
360.912	311.21
361.294	318.21
361.676	279.57
362.057	322.96
362.439	291.55
362.821	311.66
363.203	265.56
363.584	306.69
363.966	297.65
364.348	295.84
364.729	287.48
365.111	287.48
365.493	280.7
365.874	276.86
366.256	269.85
366.637	297.65
367.019	284.54
367.4	295.84
367.781	282.05
368.163	272.34
368.544	285.22
368.925	280.92
369.306	285.44
369.688	280.92
370.069	277.31
370.45	264.65
370.831	265.56
371.212	283.18
371.593	289.96
371.974	275.28
372.355	283.18
372.736	284.99
373.117	261.72
373.498	266.24
373.879	266.24
374.26	284.31
374.641	264.65
375.021	282.05
375.402	277.31
375.783	274.82
376.163	275.73
376.544	279.12
376.925	278.89
377.305	265.78
377.686	263.3
378.066	280.25
378.447	261.94
378.827	285.9
379.208	298.1
379.588	264.2
379.968	289.96
380.349	281.15
380.729	273.24
381.109	296.74
381.489	293.13
381.87	289.74
382.25	282.05
382.63	302.17
383.01	271.66
383.39	279.12
383.77	290.19
384.15	302.39
384.53	283.18
384.91	278.21
385.29	296.29
385.67	291.32
386.049	290.42
386.429	297.2
386.809	283.86
387.189	313.92
387.568	310.53
387.948	287.7
388.328	274.15
388.707	286.57
389.087	289.06
389.466	281.83
389.846	305.1
390.225	300.13
390.605	289.74
390.984	276.86
391.363	295.39
391.743	300.13
392.122	291.55
392.501	295.39
392.881	286.8
393.26	290.64
393.639	296.97
394.018	290.42
394.397	277.31
394.776	277.31
395.155	286.57
395.534	313.47
395.913	292.9
396.292	305.56
396.671	291.77
397.05	311.66
397.429	295.84
397.808	278.66
398.186	298.55
398.565	296.97
398.944	291.09
399.323	296.52
399.701	264.88
400.08	285.9
400.458	283.86
400.837	312.11
401.215	287.03
401.594	299.46
401.972	313.69
402.351	291.32
402.729	298.78
403.107	315.95
403.486	289.29
403.864	289.51
404.242	305.56
404.62	294.48
404.999	302.17
405.377	307.82
405.755	308.27
406.133	263.75
406.511	310.75
406.889	291.09
407.267	299.68
407.645	306.01
408.023	285.44
408.401	302.85
408.779	311.21
409.156	280.25
409.534	303.3
409.912	307.36
410.29	301.94
410.667	310.53
411.045	282.05
411.422	289.96
411.8	332.22
412.178	301.94
412.555	299
412.933	285.67
413.31	286.35
413.687	311.21
414.065	304.65
414.442	318.89
414.819	302.39
415.197	320.7
415.574	319.12
415.951	304.65
416.328	322.28
416.705	298.1
417.082	301.94
417.46	306.01
417.837	304.43
418.214	308.72
418.591	303.52
418.967	306.23
419.344	327.48
419.721	331.77
420.098	294.94
420.475	325.67
420.852	307.14
421.228	314.37
421.605	318.66
421.982	314.37
422.358	313.47
422.735	304.88
423.111	307.36
423.488	307.36
423.864	296.07
424.241	311.21
424.617	317.76
424.994	320.92
425.37	312.56
425.746	316.18
426.123	308.04
426.499	317.08
426.875	320.92
427.251	326.57
427.627	312.79
428.003	299.68
428.379	303.98
428.756	316.63
429.132	336.74
429.507	331.54
429.883	312.34
430.259	321.15
430.635	327.03
431.011	301.49
431.387	333.58
431.763	299.68
432.138	325.9
432.514	303.75
432.89	321.15
433.265	297.65
433.641	317.99
434.016	307.36
434.392	314.6
434.767	305.33
435.143	332.67
435.518	317.99
435.894	315.95
436.269	327.48
436.644	316.63
437.02	343.52
437.395	325.22
437.77	319.79
438.145	340.81
438.52	303.3
438.895	326.57
439.271	323.41
439.646	324.99
440.021	321.83
440.395	340.13
440.77	340.13
441.145	321.83
441.52	330.87
441.895	349.85
442.27	338.55
442.645	331.77
443.019	343.75
443.394	327.93
443.769	347.59
444.143	335.84
444.518	347.59
444.892	341.49
445.267	357.76
445.641	366.8
446.016	336.52
446.39	364.09
446.764	359.79
447.139	354.6
447.513	342.62
447.887	362.73
448.262	353.92
448.636	364.54
449.01	367.93
449.384	364.54
449.758	372
450.132	357.98
450.506	352.34
450.88	357.76
451.254	369.74
451.628	362.05
452.002	360.92
452.376	348.95
452.75	368.38
453.123	375.16
453.497	363.41
453.871	376.06
454.244	348.72
454.618	352.34
454.992	366.12
455.365	369.06
455.739	362.05
456.112	375.61
456.486	375.16
456.859	360.7
457.232	339.91
457.606	346.69
457.979	356.18
458.352	369.96
458.725	362.28
459.099	361.15
459.472	372.22
459.845	344.43
460.218	368.61
460.591	363.63
460.964	333.8
461.337	371.09
461.71	367.25
462.083	358.66
462.456	360.7
462.829	366.12
463.201	355.5
463.574	368.15
463.947	364.31
464.32	369.06
464.692	331.32
465.065	351.43
465.438	354.6
465.81	367.25
466.183	355.05
466.555	358.44
466.928	352.56
467.3	336.52
467.672	364.99
468.045	354.37
468.417	364.31
468.789	346.01
469.161	351.66
469.534	353.92
469.906	359.57
470.278	362.73
470.65	353.69
471.022	344.43
471.394	350.08
471.766	349.85
472.138	363.63
472.51	370.87
472.882	360.7
473.253	333.58
473.625	342.39
473.997	350.75
474.369	359.57
474.74	335.84
475.112	383.75
475.484	344.65
475.855	353.47
476.227	342.84
476.598	352.11
476.97	351.88
477.341	358.66
477.713	364.99
478.084	348.27
478.455	348.49
478.827	351.66
479.198	348.95
479.569	338.78
479.94	348.95
480.311	356.63
480.682	347.36
481.053	357.31
481.424	369.28
481.795	367.7
482.166	359.11
482.537	364.76
482.908	370.19
483.279	342.84
483.65	352.34
484.021	364.54
484.391	359.34
484.762	329.06
485.133	372
485.503	373.13
485.874	356.18
486.244	365.44
486.615	387.36
486.985	383.75
487.356	354.37
487.726	368.38
488.097	355.5
488.467	386.23
488.837	376.29
489.207	365.22
489.578	380.81
489.948	352.34
490.318	368.15
490.688	401.6
491.058	376.52
491.428	397.53
491.798	379.68
492.168	384.2
492.538	369.74
492.908	383.75
493.278	367.02
493.648	379.68
494.017	396.63
494.387	386.46
494.757	375.16
495.126	382.62
495.496	390.98
495.866	414.25
496.235	378.32
496.605	385.1
496.974	411.32
497.344	390.07
497.713	402.05
498.082	393.01
498.452	398.21
498.821	410.64
499.19	376.97
499.559	405.22
499.928	419.45
500.298	402.5
500.667	388.27
501.036	364.99
501.405	414.71
501.774	400.24
502.143	405.44
502.512	418.77
502.88	402.5
503.249	423.29
503.618	389.85
503.987	415.38
504.356	433.46
504.724	426.91
505.093	441.15
505.462	403.41
505.83	433.92
506.199	415.38
506.567	409.73
506.936	399.34
507.304	424.42
507.672	427.59
508.041	421.71
508.409	417.19
508.777	421.71
509.145	417.19
509.514	440.92
509.882	441.6
510.25	428.04
510.618	437.3
510.986	436.85
511.354	444.76
511.722	439.56
512.09	428.04
512.458	419
512.826	430.53
513.193	423.75
513.561	441.15
513.929	434.37
514.297	435.05
514.664	461.71
515.032	442.95
515.4	461.26
515.767	457.87
516.135	414.48
516.502	423.29
516.869	459.9
517.237	451.32
517.604	443.86
517.972	450.86
518.339	454.48
518.706	458.55
519.073	436.63
519.44	444.54
519.808	467.13
520.175	460.13
520.542	477.08
520.909	463.07
521.276	453.35
521.643	493.8
522.009	475.04
522.376	473.46
522.743	490.86
523.11	472.11
523.477	478.43
523.843	454.25
524.21	456.29
524.577	493.8
524.943	468.26
525.31	484.08
525.676	489.51
526.043	481.15
526.409	484.76
526.776	484.08
527.142	480.47
527.508	478.89
527.874	482.5
528.241	487.47
528.607	482.95
528.973	501.48
529.339	506.46
529.705	497.87
530.071	487.25
530.437	491.77
530.803	477.76
531.169	508.04
531.535	501.94
531.901	505.55
532.267	491.54
532.632	481.6
532.998	494.25
533.364	486.8
533.73	508.49
534.095	499.9
534.461	500.81
534.826	502.39
535.192	489.51
535.557	489.28
535.923	509.85
536.288	506.23
536.653	498.77
537.019	490.18
537.384	513.69
537.749	500.58
538.114	497.64
538.479	502.61
538.845	501.71
539.21	496.06
539.575	518.88
539.94	505.33
540.305	496.29
540.67	520.01
541.034	519.56
541.399	512.11
541.764	503.07
542.129	510.75
542.494	515.04
542.858	530.64
543.223	502.84
543.587	515.27
543.952	509.39
544.316	520.01
544.681	487.93
545.045	510.3
545.41	528.83
545.774	524.53
546.138	520.69
546.503	512.56
546.867	526.12
547.231	522.5
547.595	507.81
547.959	524.53
548.324	518.43
548.688	496.74
549.052	527.92
549.416	510.07
549.779	533.8
550.143	528.83
550.507	550.52
550.871	543.06
551.235	530.18
551.599	531.09
551.962	542.61
552.326	528.6
552.689	519.34
553.053	524.99
553.417	549.62
553.78	534.03
554.143	514.14
554.507	517.75
554.87	531.09
555.234	539.9
555.597	533.8
555.96	550.52
556.323	551.2
556.686	516.17
557.05	564.08
557.413	520.24
557.776	535.83
558.139	533.12
558.502	558.66
558.865	544.65
559.228	540.35
559.59	560.24
559.953	532.22
560.316	542.84
560.679	559.79
561.041	566.57
561.404	552.78
561.767	567.7
562.129	546.68
562.492	550.97
562.854	544.65
563.217	542.61
563.579	559.56
563.941	560.69
564.304	549.84
564.666	571.54
565.028	556.17
565.39	567.24
565.753	564.08
566.115	555.49
566.477	552.1
566.839	575.83
567.201	549.84
567.563	588.94
567.925	582.16
568.287	576.28
568.648	573.35
569.01	570.63
569.372	549.39
569.734	575.38
570.095	581.48
570.457	591.43
570.819	583.29
571.18	571.99
571.542	571.09
571.903	577.19
572.265	589.17
572.626	579.9
572.987	585.1
573.349	567.7
573.71	574.48
574.071	595.27
574.432	577.64
574.794	587.81
575.155	607.02
575.516	578.09
575.877	586
576.238	591.65
576.599	582.16
576.96	591.65
577.32	583.97
577.681	570.86
578.042	566.57
578.403	594.59
578.763	602.95
579.124	585.1
579.485	574.25
579.845	587.13
580.206	585.55
580.566	583.52
580.927	593.46
581.287	594.36
581.648	590.52
582.008	590.3
582.368	597.3
582.728	594.36
583.089	576.51
583.449	587.36
583.809	580.58
584.169	590.52
584.529	595.49
584.889	589.39
585.249	588.26
585.609	581.03
585.969	582.16
586.329	581.71
586.688	592.78
587.048	590.97
587.408	571.54
587.768	575.61
588.127	597.75
588.487	575.38
588.846	586.45
589.206	582.16
589.565	582.16
589.925	572.89
590.284	599.79
590.643	586.68
591.003	575.38
591.362	589.17
591.721	566.79
592.08	590.97
592.44	554.82
592.799	601.14
593.158	601.37
593.517	574.7
593.876	567.92
594.235	570.41
594.593	584.65
594.952	583.97
595.311	588.94
595.67	580.13
596.029	582.39
596.387	583.06
596.746	597.3
597.104	585.78
597.463	576.51
597.822	568.37
598.18	571.09
598.538	580.58
598.897	574.93
599.255	579
599.613	571.54
599.972	573.12
600.33	563.86
600.688	586
601.046	575.15
601.404	589.17
601.762	564.08
602.12	572.22
602.478	582.84
602.836	553.69
603.194	571.54
603.552	571.54
603.91	560.92
604.268	555.72
604.625	548.94
604.983	583.52
605.341	553.23
605.698	533.12
606.056	567.24
606.413	571.54
606.771	551.88
607.128	561.37
607.485	566.12
607.843	559.79
608.2	577.64
608.557	560.69
608.914	561.82
609.272	567.47
609.629	561.37
609.986	538.32
610.343	561.6
610.7	560.69
611.057	576.28
611.414	548.94
611.771	531.31
612.127	569.73
612.484	544.42
612.841	556.62
613.198	555.95
613.554	551.2
613.911	543.52
614.267	541.03
614.624	543.74
614.98	533.57
615.337	532.22
615.693	555.95
616.05	541.26
616.406	537.19
616.762	533.35
617.118	509.39
617.475	540.13
617.831	539.45
618.187	544.42
618.543	534.25
618.899	543.97
619.255	525.89
619.611	514.59
619.967	530.18
620.323	553.01
620.678	519.11
621.034	516.17
621.39	529.96
621.746	526.34
622.101	515.49
622.457	522.5
622.812	526.34
623.168	507.13
623.523	511.88
623.879	520.47
624.234	526.34
624.589	523.18
624.945	519.34
625.3	521.14
625.655	510.75
626.01	511.65
626.365	517.75
626.72	493.8
627.075	509.17
627.43	502.16
627.785	510.75
628.14	510.98
628.495	508.72
628.85	500.13
629.205	523.63
629.559	512.33
629.914	519.34
630.269	513.46
630.623	520.01
630.978	518.88
631.332	504.87
631.687	460.36
632.041	480.92
632.396	499.22
632.75	503.97
633.104	484.99
633.459	499.9
633.813	482.95
634.167	486.34
634.521	487.25
634.875	468.72
635.229	488.6
635.583	476.85
635.937	484.31
636.291	480.02
636.645	493.12
636.999	489.73
637.352	475.27
637.706	470.52
638.06	484.08
638.413	501.48
638.767	477.08
639.121	471.65
639.474	459.45
639.828	477.98
640.181	476.85
640.534	459.23
640.888	463.07
641.241	461.94
641.594	462.84
641.947	485.67
642.301	454.93
642.654	463.74
643.007	462.61
643.36	463.07
643.713	479.11
644.066	445.44
644.419	466.68
644.771	455.38
645.124	469.17
645.477	450.86
645.83	460.13
646.182	461.71
646.535	444.31
646.888	444.76
647.24	448.6
647.593	449.51
647.945	435.72
648.298	442.05
648.65	414.71
649.002	437.3
649.355	430.98
649.707	432.79
650.059	437.53
650.411	414.71
650.763	446.34
651.115	449.51
651.467	427.81
651.819	436.85
652.171	429.17
652.523	415.38
652.875	419.45
653.227	430.07
653.578	408.61
653.93	428.04
654.282	433.01
654.633	431.88
654.985	411.54
655.337	433.46
655.688	422.84
656.039	419
656.391	401.15
656.742	404.09
657.094	409.51
657.445	426.91
657.796	417.64
658.147	429.62
658.498	400.7
658.849	415.38
659.2	403.86
659.551	417.87
659.902	421.03
660.253	423.52
660.604	411.77
660.955	404.31
661.306	414.71
661.656	422.84
662.007	406.8
662.358	414.93
662.708	393.24
663.059	390.75
663.409	399.79
663.76	411.32
664.11	415.38
664.461	404.99
664.811	396.18
665.161	405.22
665.511	399.34
665.862	408.15
666.212	402.05
666.562	399.79
666.912	412.45
667.262	359.11
667.612	402.73
667.962	393.69
668.312	374.26
668.662	385.78
669.011	379.23
669.361	382.39
669.711	393.24
670.06	403.18
670.41	391.88
670.76	385.1
671.109	414.93
671.459	392.56
671.808	372
672.157	383.3
672.507	401.83
672.856	395.95
673.205	373.35
673.554	389.17
673.904	368.61
674.253	402.05
674.602	395.95
674.951	378.55
675.3	397.76
675.649	396.85
675.998	396.85
676.346	383.75
676.695	387.14
677.044	359.11
677.393	376.06
677.741	375.39
678.09	380.36
678.438	383.52
678.787	369.06
679.135	367.02
679.484	383.97
679.832	368.61
680.181	387.36
680.529	375.39
680.877	373.58
681.225	363.18
681.573	372
681.922	376.52
682.27	400.24
682.618	380.81
682.966	386.01
683.314	349.62
683.661	373.8
684.009	359.11
684.357	370.19
684.705	384.2
685.053	371.77
685.4	384.42
685.748	366.8
686.095	362.5
686.443	367.25
686.79	378.32
687.138	337.87
687.485	367.7
687.832	383.97
688.18	378.55
688.527	375.39
688.874	367.48
689.221	378.32
689.568	361.15
689.915	362.28
690.262	360.24
690.609	355.5
690.956	359.57
691.303	374.26
691.65	360.7
691.997	353.01
692.344	378.1
692.69	354.6
693.037	353.47
693.383	357.53
693.73	366.12
694.077	376.74
694.423	366.12
694.769	346.23
695.116	360.02
695.462	354.37
695.808	346.91
696.155	328.83
696.501	359.34
696.847	331.77
697.193	362.96
697.539	351.66
697.885	371.32
698.231	368.38
698.577	363.63
698.923	344.65
699.269	362.96
699.614	350.75
699.96	371.09
700.306	342.17
700.651	352.79
700.997	362.5
701.342	351.21
701.688	329.96
702.033	358.21
702.379	365.89
702.724	348.27
703.069	360.47
703.415	353.01
703.76	339.68
704.105	368.15
704.45	352.56
704.795	357.53
705.14	351.88
705.485	342.17
705.83	349.17
706.175	341.26
706.52	358.66
706.865	360.02
707.209	366.12
707.554	347.59
707.899	347.82
708.243	348.49
708.588	334.71
708.932	348.72
709.277	337.65
709.621	333.13
709.966	353.01
710.31	337.65
710.654	342.39
710.998	358.44
711.342	355.05
711.687	359.57
712.031	356.86
712.375	343.52
712.719	342.84
713.063	356.4
713.407	327.7
713.75	349.4
714.094	340.36
714.438	365.89
714.782	337.42
715.125	349.4
715.469	329.29
715.812	345.56
716.156	361.6
716.499	343.75
716.843	344.2
717.186	337.19
717.53	351.66
717.873	338.78
718.216	343.97
718.559	345.56
718.902	324.09
719.246	318.44
719.589	337.19
719.932	323.18
720.275	334.71
720.617	339.23
720.96	340.13
721.303	347.14
721.646	341.26
721.989	334.03
722.331	339.91
722.674	366.35
723.016	353.69
723.359	345.1
723.701	348.27
724.044	352.34
724.386	325.22
724.729	342.39
725.071	334.48
725.413	330.64
725.755	350.53
726.097	339
726.439	328.16
726.782	324.54
727.124	356.18
727.465	341.49
727.807	345.56
728.149	345.78
728.491	339
728.833	358.89
729.175	353.01
729.516	344.43
729.858	329.29
730.199	340.81
730.541	334.93
730.882	334.03
731.224	319.34
731.565	326.57
731.906	335.61
732.248	336.06
732.589	362.96
732.93	364.99
733.271	358.66
733.612	331.09
733.953	339.45
734.294	335.84
734.635	345.1
734.976	348.49
735.317	341.26
735.658	349.17
735.999	322.73
736.339	339.91
736.68	335.16
737.021	343.75
737.361	321.83
737.702	345.1
738.042	324.77
738.383	361.6
738.723	315.95
739.063	310.98
739.404	341.26
739.744	335.16
740.084	330.87
740.424	333.8
740.764	344.2
741.104	345.78
741.444	342.17
741.784	349.4
742.124	325.67
742.464	321.6
742.804	328.83
743.143	337.42
743.483	360.92
743.823	329.74
744.162	346.46
744.502	349.85
744.841	364.54
745.181	325.22
745.52	336.06
745.86	336.06
746.199	344.88
746.538	326.8
746.877	328.83
747.216	323.18
747.556	344.2
747.895	324.54
748.234	350.53
748.573	330.64
748.911	325.9
749.25	348.95
749.589	329.06
749.928	340.36
750.267	329.06
750.605	324.77
750.944	339.23
751.283	332.45
751.621	348.72
751.96	349.85
752.298	317.53
752.636	336.06
752.975	316.4
753.313	346.91
753.651	342.62
753.989	328.16
754.327	309.85
754.666	302.62
755.004	343.97
755.342	345.78
755.679	338.1
756.017	324.77
756.355	347.82
756.693	331.77
757.031	344.43
757.368	347.82
757.706	333.8
758.044	327.7
758.381	360.7
758.719	331.32
759.056	327.48
759.394	350.75
759.731	325.67
760.068	309.85
760.405	329.29
760.743	340.13
761.08	344.43
761.417	319.79
761.754	323.41
762.091	320.92
762.428	309.4
762.765	325.9
763.102	343.07
763.438	313.24
763.775	332.22
764.112	310.75
764.449	329.96
764.785	336.97
765.122	311.43
765.458	337.87
765.795	312.79
766.131	339.45
766.467	332.22
766.804	326.57
767.14	332.22
767.476	326.12
767.812	337.65
768.148	332.45
768.485	363.41
768.821	327.03
769.157	358.66
769.492	341.04
769.828	301.26
770.164	334.48
770.5	331.09
770.836	324.09
771.171	337.87
771.507	315.5
771.842	326.12
772.178	338.55
772.513	317.76
772.849	331.77
773.184	315.95
773.519	336.52
773.855	332.67
774.19	326.35
774.525	329.74
774.86	304.2
775.195	324.99
775.53	335.84
775.865	319.57
776.2	337.19
776.535	332
776.87	341.26
777.205	323.86
777.539	307.82
777.874	341.94
778.209	334.93
778.543	335.39
778.878	328.61
779.212	315.95
779.547	316.4
779.881	311.66
780.215	303.3
780.55	352.34
780.884	340.36
781.218	334.71
781.552	322.05
781.886	341.94
782.22	340.58
782.554	340.58
782.888	327.7
783.222	324.77
783.556	327.03
783.889	324.54
784.223	325.67
784.557	313.69
784.89	305.56
785.224	334.03
785.557	333.58
785.891	314.37
786.224	334.03
786.558	350.08
786.891	343.75
787.224	324.09
787.557	310.3
787.891	321.83
788.224	310.53
788.557	324.99
788.89	327.03
789.223	305.56
789.556	319.34
