Data from No_light_on_white_reflection_standard_FLMS001491_022.txt Node
Date: Tue Feb 07 10:32:56 GMT 2017
User: dcchb
Spectrometer: FLMS00149
Trigger mode: 0
Integration Time (sec): 2.000000E-2
Scans to average: 10
Electric dark correction enabled: true
Nonlinearity correction enabled: false
Boxcar width: 0
XAxis mode: Wavelengths
Number of Pixels in Spectrum: 2048
>>>>>Begin Spectral Data<<<<<
341.393	-27.67
341.776	-27.67
342.16	-27.67
342.543	-60.89
342.927	-42.13
343.31	-69.93
343.693	-55.46
344.077	-70.38
344.46	-47.78
344.843	-61.34
345.226	-54.33
345.61	-36.93
345.993	-23.15
346.376	15.49
346.759	7.13
347.142	24.99
347.525	22.27
347.908	53.91
348.291	76.51
348.674	103.4
349.057	115.6
349.44	120.35
349.823	148.37
350.206	139.56
350.588	170.74
350.971	181.14
351.354	181.14
351.737	207.58
352.119	223.4
352.502	235.83
352.884	231.99
353.267	246.9
353.65	255.26
354.032	279.89
354.414	260.69
354.797	286.9
355.179	295.49
355.562	292.32
355.944	302.04
356.326	303.62
356.709	310.18
357.091	300.01
357.473	294.13
357.855	309.72
358.238	296.84
358.62	292.1
359.002	309.95
359.384	306.33
359.766	302.49
360.148	307.24
360.53	289.16
360.912	301.14
361.294	305.2
361.676	291.19
362.057	302.94
362.439	281.25
362.821	282.83
363.203	291.64
363.584	303.17
363.966	288.93
364.348	276.5
364.729	279.44
365.111	278.76
365.493	282.83
365.874	289.84
366.256	271.76
366.637	284.87
367.019	264.75
367.4	274.24
367.781	291.19
368.163	259.56
368.544	283.51
368.925	269.95
369.306	269.5
369.688	263.4
370.069	258.88
370.45	283.96
370.831	277.63
371.212	286.9
371.593	262.27
371.974	281.48
372.355	263.4
372.736	276.5
373.117	278.76
373.498	266.56
373.879	255.49
374.26	261.36
374.641	264.75
375.021	261.59
375.402	276.05
375.783	259.78
376.163	278.99
376.544	295.49
376.925	289.16
377.305	268.14
377.686	278.09
378.066	280.57
378.447	283.28
378.827	283.51
379.208	292.32
379.588	279.44
379.968	258.65
380.349	258.88
380.729	262.27
381.109	293.68
381.489	290.29
381.87	295.71
382.25	284.19
382.63	295.49
383.01	263.17
383.39	276.05
383.77	295.94
384.15	295.71
384.53	290.97
384.91	302.49
385.29	274.47
385.67	267.24
386.049	295.49
386.429	271.76
386.809	276.5
387.189	274.47
387.568	300.68
387.948	294.13
388.328	294.81
388.707	285.32
389.087	308.37
389.466	281.48
389.846	279.67
390.225	308.37
390.605	277.18
390.984	300.01
391.363	297.07
391.743	294.36
392.122	297.97
392.501	289.84
392.881	303.4
393.26	314.02
393.639	309.72
394.018	277.41
394.397	293.68
394.776	281.7
395.155	309.05
395.534	304.07
395.913	297.97
396.292	288.03
396.671	316.95
397.05	292.1
397.429	311.31
397.808	297.29
398.186	286
398.565	275.83
398.944	300.01
399.323	303.4
399.701	297.97
400.08	284.87
400.458	299.1
400.837	286.22
401.215	297.07
401.594	303.17
401.972	290.74
402.351	308.14
402.729	297.97
403.107	292.1
403.486	299.33
403.864	286.67
404.242	320.57
404.62	302.72
404.999	306.33
405.377	303.4
405.755	293.68
406.133	274.7
406.511	290.97
406.889	273.79
407.267	288.48
407.645	295.94
408.023	304.3
408.401	296.84
408.779	299.1
409.156	298.42
409.534	316.5
409.912	307.46
410.29	311.53
410.667	300.01
411.045	290.51
411.422	302.04
411.8	287.8
412.178	308.82
412.555	283.06
412.933	291.42
413.31	301.36
413.687	285.32
414.065	300.23
414.442	293
414.819	300.01
415.197	308.37
415.574	286
415.951	292.1
416.328	304.98
416.705	300.01
417.082	293
417.46	320.12
417.837	312.21
418.214	303.17
418.591	308.82
418.967	304.07
419.344	296.39
419.721	294.81
420.098	313.79
420.475	298.65
420.852	315.15
421.228	309.72
421.605	312.66
421.982	306.56
422.358	317.18
422.735	309.5
423.111	295.03
423.488	306.11
423.864	317.18
424.241	309.05
424.617	315.37
424.994	293
425.37	297.97
425.746	325.77
426.123	316.05
426.499	303.17
426.875	318.76
427.251	287.58
427.627	320.57
428.003	310.63
428.379	312.66
428.756	305.2
429.132	305.66
429.507	318.31
429.883	319.21
430.259	304.75
430.635	308.14
431.011	310.63
431.387	323.96
431.763	307.24
432.138	327.8
432.514	314.7
432.89	328.48
433.265	328.48
433.641	317.63
434.016	300.23
434.392	327.8
434.767	306.33
435.143	309.05
435.518	311.98
435.894	324.86
436.269	332.77
436.644	329.84
437.02	307.46
437.395	330.97
437.77	340.68
438.145	317.86
438.52	307.01
438.895	325.32
439.271	321.47
439.646	328.48
440.021	330.06
440.395	318.76
440.77	336.16
441.145	321.93
441.52	325.77
441.895	337.97
442.27	318.08
442.645	318.08
443.019	335.03
443.394	345.65
443.769	318.76
444.143	324.64
444.518	331.19
444.892	347.01
445.267	361.02
445.641	330.06
446.016	369.38
446.39	343.17
446.764	339.1
447.139	348.59
447.513	350.4
447.887	360.12
448.262	358.76
448.636	346.78
449.01	375.71
449.384	367.58
449.758	354.69
450.132	349.95
450.506	344.75
450.88	346.78
451.254	370.06
451.628	368.03
452.002	372.32
452.376	367.58
452.75	372.55
453.123	373.68
453.497	379.1
453.871	385.43
454.244	359.67
454.618	355.15
454.992	386.11
455.365	341.36
455.739	350.4
456.112	369.16
456.486	378.2
456.859	371.19
457.232	356.05
457.606	352.43
457.979	369.61
458.352	364.86
458.725	365.99
459.099	342.04
459.472	372.32
459.845	358.76
460.218	360.57
460.591	351.98
460.964	338.65
461.337	348.14
461.71	351.53
462.083	357.41
462.456	381.59
462.829	363.96
463.201	360.57
463.574	359.67
463.947	365.99
464.32	351.53
464.692	339.78
465.065	344.98
465.438	344.07
465.81	368.03
466.183	353.79
466.555	348.82
466.928	351.3
467.3	365.77
467.672	347.46
468.045	340.01
468.417	350.4
468.789	362.15
469.161	347.91
469.534	360.57
469.906	338.2
470.278	337.97
470.65	352.66
471.022	347.91
471.394	367.58
471.766	362.38
472.138	348.37
472.51	341.36
472.882	360.34
473.253	362.38
473.625	341.14
473.997	356.5
474.369	370.51
474.74	365.09
475.112	325.09
475.484	344.75
475.855	341.81
476.227	358.99
476.598	340.91
476.97	338.42
477.341	353.79
477.713	358.31
478.084	358.99
478.455	373.45
478.827	343.85
479.198	363.73
479.569	336.16
479.94	331.64
480.311	352.21
480.682	335.49
481.053	360.12
481.424	341.36
481.795	380.91
482.166	348.37
482.537	344.98
482.908	368.93
483.279	365.09
483.65	364.86
484.021	359.67
484.391	378.87
484.762	356.05
485.133	342.49
485.503	351.98
485.874	342.94
486.244	351.08
486.615	370.96
486.985	377.97
487.356	357.41
487.726	366.45
488.097	357.63
488.467	389.04
488.837	383.17
489.207	366.67
489.578	371.64
489.948	380.91
490.318	375.26
490.688	358.54
491.058	367.8
491.428	370.74
491.798	368.93
492.168	366.9
492.538	391.76
492.908	358.31
493.278	388.37
493.648	393.11
494.017	382.49
494.387	374.35
494.757	383.39
495.126	378.2
495.496	383.85
495.866	398.31
496.235	386.56
496.605	393.34
496.974	383.85
497.344	382.94
497.713	394.47
498.082	402.38
498.452	397.86
498.821	390.63
499.19	381.59
499.559	402.38
499.928	397.86
500.298	396.05
500.667	417.07
501.036	396.73
501.405	393.56
501.774	400.12
502.143	415.26
502.512	417.74
502.88	416.16
503.249	406.67
503.618	411.87
503.987	404.64
504.356	402.15
504.724	405.54
505.093	391.98
505.462	416.39
505.83	416.61
506.199	411.87
506.567	411.42
506.936	390.85
507.304	410.51
507.672	423.62
508.041	442.15
508.409	417.29
508.777	412.55
509.145	432.43
509.514	422.94
509.882	406.22
510.25	439.44
510.618	413
510.986	421.58
511.354	414.13
511.722	436.27
512.09	439.66
512.458	435.82
512.826	414.13
513.193	439.89
513.561	429.27
513.929	430.17
514.297	443.51
514.664	439.89
515.032	438.53
515.4	448.93
515.767	448.02
516.135	466.78
516.502	471.98
516.869	470.85
517.237	443.73
517.604	460
517.972	464.75
518.339	485.76
518.706	451.19
519.073	434.47
519.44	471.53
519.808	448.7
520.175	442.15
520.542	464.3
520.909	465.65
521.276	457.29
521.643	443.28
522.009	458.19
522.376	469.27
522.743	444.64
523.11	461.81
523.477	474.69
523.843	471.98
524.21	485.31
524.577	473.79
524.943	464.07
525.31	466.56
525.676	468.14
526.043	498.87
526.409	473.79
526.776	481.7
527.142	452.54
527.508	484.86
527.874	481.7
528.241	464.75
528.607	482.37
528.973	483.5
529.339	473.56
529.705	482.6
530.071	509.72
530.437	496.16
530.803	496.84
531.169	486.44
531.535	499.55
531.901	475.37
532.267	481.47
532.632	487.8
532.998	511.98
533.364	507.01
533.73	499.77
534.095	500.45
534.461	491.41
534.826	495.03
535.192	491.19
535.557	486.67
535.923	500
536.288	508.59
536.653	494.8
537.019	502.71
537.384	495.71
537.749	505.65
538.114	501.81
538.479	500
538.845	507.91
539.21	516.5
539.575	503.84
539.94	503.39
540.305	514.01
540.67	500.9
541.034	483.28
541.399	501.58
541.764	506.55
542.129	505.65
542.494	507.91
542.858	507.46
543.223	521.92
543.587	492.09
543.952	506.78
544.316	519.66
544.681	503.62
545.045	498.65
545.41	511.98
545.774	523.96
546.138	510.85
546.503	513.33
546.867	513.11
547.231	495.71
547.595	513.33
547.959	498.19
548.324	500.23
548.688	517.85
549.052	525.99
549.416	520.57
549.779	517.4
550.143	526.89
550.507	536.16
550.871	542.49
551.235	525.76
551.599	528.93
551.962	521.02
552.326	511.75
552.689	523.28
553.053	525.76
553.417	541.13
553.78	537.51
554.143	519.89
554.507	516.72
554.87	531.64
555.234	517.4
555.597	531.64
555.96	526.67
556.323	543.84
556.686	534.35
557.05	522.83
557.413	526.67
557.776	527.57
558.139	526.67
558.502	535.93
558.865	530.51
559.228	539.1
559.59	537.97
559.953	554.46
560.316	542.03
560.679	537.29
561.041	552.2
561.404	542.94
561.767	538.64
562.129	561.02
562.492	545.65
562.854	569.6
563.217	558.98
563.579	551.53
563.941	562.37
564.304	555.82
564.666	562.82
565.028	559.89
565.39	551.07
565.753	551.98
566.115	554.46
566.477	557.63
566.839	555.37
567.201	559.89
567.563	563.95
567.925	561.92
568.287	566.21
568.648	572.09
569.01	576.38
569.372	540.68
569.734	565.54
570.095	572.54
570.457	566.44
570.819	574.35
571.18	548.14
571.542	570.51
571.903	559.66
572.265	549.27
572.626	577.74
572.987	564.86
573.349	579.32
573.71	555.59
574.071	551.98
574.432	577.06
574.794	600.11
575.155	550.17
575.516	585.42
575.877	592.88
576.238	594.46
576.599	571.41
576.96	563.73
577.32	589.72
577.681	555.82
578.042	587
578.403	587.23
578.763	574.8
579.124	576.84
579.485	570.51
579.845	564.41
580.206	589.72
580.566	588.59
580.927	573.9
581.287	598.3
581.648	580
582.008	589.26
582.368	579.09
582.728	579.77
583.089	601.24
583.449	600.56
583.809	584.07
584.169	584.52
584.529	589.94
584.889	588.36
585.249	572.54
585.609	580.22
585.969	582.48
586.329	575.71
586.688	585.87
587.048	579.32
587.408	559.21
587.768	580
588.127	555.37
588.487	560.56
588.846	565.54
589.206	576.38
589.565	588.13
589.925	561.47
590.284	576.61
590.643	567.57
591.003	568.02
591.362	578.87
591.721	611.86
592.08	582.71
592.44	557.17
592.799	574.35
593.158	596.5
593.517	563.5
593.876	565.54
594.235	568.25
594.593	564.86
594.952	574.58
595.311	566.21
595.67	584.97
596.029	589.49
596.387	560.56
596.746	572.77
597.104	580.22
597.463	566.44
597.822	581.81
598.18	543.16
598.538	587.91
598.897	566.21
599.255	576.38
599.613	550.62
599.972	567.12
600.33	570.51
600.688	570.96
601.046	562.15
601.404	568.7
601.762	572.09
602.12	571.64
602.478	555.59
602.836	556.95
603.194	558.53
603.552	566.67
603.91	554.69
604.268	557.17
604.625	554.69
604.983	566.67
605.341	568.25
605.698	569.15
606.056	565.99
606.413	562.15
606.771	535.03
607.128	535.03
607.485	573.45
607.843	561.47
608.2	551.53
608.557	568.25
608.914	568.25
609.272	569.15
609.629	557.63
609.986	561.92
610.343	546.55
610.7	544.07
611.057	550.62
611.414	542.71
611.771	543.84
612.127	559.21
612.484	547.68
612.841	549.94
613.198	550.4
613.554	559.21
613.911	511.53
614.267	512.43
614.624	545.42
614.98	532.77
615.337	532.54
615.693	552.65
616.05	533.67
616.406	545.88
616.762	550.62
617.118	526.67
617.475	530.06
617.831	548.36
618.187	525.76
618.543	508.59
618.899	514.01
619.255	534.58
619.611	544.97
619.967	521.24
620.323	550.17
620.678	507.91
621.034	514.69
621.39	523.73
621.746	511.3
622.101	524.86
622.457	496.61
622.812	526.21
623.168	505.2
623.523	508.59
623.879	505.42
624.234	509.27
624.589	511.53
624.945	490.28
625.3	524.86
625.655	505.88
626.01	510.85
626.365	514.69
626.72	513.11
627.075	507.01
627.43	513.79
627.785	521.7
628.14	481.7
628.495	490.96
628.85	504.29
629.205	507.01
629.559	507.46
629.914	486.22
630.269	491.41
630.623	497.29
630.978	496.16
631.332	473.56
631.687	493.22
632.041	464.3
632.396	478.08
632.75	463.17
633.104	494.8
633.459	483.05
633.813	504.75
634.167	493
634.521	488.7
634.875	474.01
635.229	464.3
635.583	471.53
635.937	471.08
636.291	476.72
636.645	472.21
636.999	487.35
637.352	467.23
637.706	471.53
638.06	484.86
638.413	478.53
638.767	467.91
639.121	449.15
639.474	432.66
639.828	470.85
640.181	464.75
640.534	456.39
640.888	460
641.241	470.17
641.594	467.46
641.947	445.31
642.301	442.38
642.654	448.02
643.007	452.32
643.36	464.3
643.713	446.44
644.066	467.69
644.419	433.79
644.771	453
645.124	442.15
645.477	465.88
645.83	441.02
646.182	410.96
646.535	437.63
646.888	440.79
647.24	425.65
647.593	445.99
647.945	422.49
648.298	426.56
648.65	418.65
649.002	426.33
649.355	441.92
649.707	441.02
650.059	425.2
650.411	434.92
650.763	416.16
651.115	444.64
651.467	445.54
651.819	415.48
652.171	439.66
652.523	419.33
652.875	455.93
653.227	438.08
653.578	424.75
653.93	407.8
654.282	423.84
654.633	415.26
654.985	407.57
655.337	412.09
655.688	416.61
656.039	429.95
656.391	403.96
656.742	408.03
657.094	381.59
657.445	413.45
657.796	404.86
658.147	412.55
658.498	426.33
658.849	418.65
659.2	389.95
659.551	407.57
659.902	399.66
660.253	408.25
660.604	406.22
660.955	413.45
661.306	396.95
661.656	409.38
662.007	383.62
662.358	392.89
662.708	381.36
663.059	401.92
663.409	404.18
663.76	398.08
664.11	414.13
664.461	388.37
664.811	394.69
665.161	404.64
665.511	396.05
665.862	380.91
666.212	383.17
666.562	401.7
666.912	410.51
667.262	386.33
667.612	387.91
667.962	390.4
668.312	402.38
668.662	408.48
669.011	370.29
669.361	389.72
669.711	414.13
670.06	403.28
670.41	378.87
670.76	387.69
671.109	405.09
671.459	384.3
671.808	383.85
672.157	402.38
672.507	399.89
672.856	399.21
673.205	382.04
673.554	417.52
673.904	374.13
674.253	374.13
674.602	385.43
674.951	389.72
675.3	370.06
675.649	384.98
675.998	379.1
676.346	385.43
676.695	370.96
677.044	386.11
677.393	384.52
677.741	386.56
678.09	384.75
678.438	369.61
678.787	357.63
679.135	382.04
679.484	389.95
679.832	372.55
680.181	377.74
680.529	360.8
680.877	377.97
681.225	369.83
681.573	383.17
681.922	367.35
682.27	382.94
682.618	363.73
682.966	352.21
683.314	366.67
683.661	373.68
684.009	363.96
684.357	359.89
684.705	353.34
685.053	388.37
685.4	374.13
685.748	375.26
686.095	368.48
686.443	368.03
686.79	358.08
687.138	368.48
687.485	376.16
687.832	344.75
688.18	381.36
688.527	349.5
688.874	366.9
689.221	371.87
689.568	359.67
689.915	369.38
690.262	362.6
690.609	350.63
690.956	364.86
691.303	359.89
691.65	359.89
691.997	368.93
692.344	364.41
692.69	369.38
693.037	347.46
693.383	338.88
693.73	349.04
694.077	348.37
694.423	348.14
694.769	358.99
695.116	334.13
695.462	366.9
695.808	351.53
696.155	352.21
696.501	354.02
696.847	366.67
697.193	354.24
697.539	363.28
697.885	337.52
698.231	351.76
698.577	353.11
698.923	351.3
699.269	354.69
699.614	362.15
699.96	364.86
700.306	335.49
700.651	334.81
700.997	365.54
701.342	351.76
701.688	349.95
702.033	343.85
702.379	350.4
702.724	363.73
703.069	360.12
703.415	352.89
703.76	340.91
704.105	336.62
704.45	359.21
704.795	353.34
705.14	348.37
705.485	363.28
705.83	362.83
706.175	366.45
706.52	352.89
706.865	347.91
707.209	336.39
707.554	347.69
707.899	327.12
708.243	353.34
708.588	339.78
708.932	363.96
709.277	344.75
709.621	351.3
709.966	349.5
710.31	340.68
710.654	355.82
710.998	338.42
711.342	360.12
711.687	337.29
712.031	330.97
712.375	351.08
712.719	343.17
713.063	339.55
713.407	364.86
713.75	352.21
714.094	322.38
714.438	352.21
714.782	347.46
715.125	332.55
715.469	348.59
715.812	324.86
716.156	338.88
716.499	363.28
716.843	353.56
717.186	350.17
717.53	337.75
717.873	340.91
718.216	343.62
718.559	325.77
718.902	329.61
719.246	326.45
719.589	331.64
719.932	343.62
720.275	345.88
720.617	344.98
720.96	356.95
721.303	344.52
721.646	354.92
721.989	339.55
722.331	338.88
722.674	343.85
723.016	351.3
723.359	354.92
723.701	338.65
724.044	342.04
724.386	348.82
724.729	343.62
725.071	337.07
725.413	340.46
725.755	340.68
726.097	308.59
726.439	338.2
726.782	339.1
727.124	338.65
727.465	324.64
727.807	324.64
728.149	317.63
728.491	347.01
728.833	329.61
729.175	330.06
729.516	313.57
729.858	341.59
730.199	316.73
730.541	341.81
730.882	319.89
731.224	356.95
731.565	321.7
731.906	324.41
732.248	335.94
732.589	324.64
732.93	320.8
733.271	343.39
733.612	332.32
733.953	334.13
734.294	322.15
734.635	341.14
734.976	331.87
735.317	335.94
735.658	340.68
735.999	339.78
736.339	337.75
736.68	330.74
737.021	330.06
737.361	350.63
737.702	322.15
738.042	346.56
738.383	335.94
738.723	351.76
739.063	338.88
739.404	315.15
739.744	336.62
740.084	324.86
740.424	327.8
740.764	325.77
741.104	330.06
741.444	362.83
741.784	338.65
742.124	337.97
742.464	344.52
742.804	343.85
743.143	342.72
743.483	322.6
743.823	342.27
744.162	329.16
744.502	329.84
744.841	341.14
745.181	349.5
745.52	336.62
745.86	333.45
746.199	322.15
746.538	351.3
746.877	340.46
747.216	316.28
747.556	355.82
747.895	356.73
748.234	323.28
748.573	338.42
748.911	328.93
749.25	332.55
749.589	331.64
749.928	338.88
750.267	341.59
750.605	342.49
750.944	313.57
751.283	325.77
751.621	315.15
751.96	330.97
752.298	342.94
752.636	342.27
752.975	336.84
753.313	338.2
753.651	337.52
753.989	317.18
754.327	351.08
754.666	354.47
755.004	340.91
755.342	345.43
755.679	339.78
756.017	334.36
756.355	332.55
756.693	317.18
757.031	328.25
757.368	322.38
757.706	318.31
758.044	334.13
758.381	316.95
758.719	329.61
759.056	323.51
759.394	328.03
759.731	318.76
760.068	342.72
760.405	329.16
760.743	336.62
761.08	342.49
761.417	345.65
761.754	331.19
762.091	320.8
762.428	309.95
762.765	337.07
763.102	324.86
763.438	323.96
763.775	328.03
764.112	319.21
764.449	335.71
764.785	336.16
765.122	306.79
765.458	336.84
765.795	335.94
766.131	296.16
766.467	314.92
766.804	339.78
767.14	330.51
767.476	332.55
767.812	337.97
768.148	326.22
768.485	324.86
768.821	322.6
769.157	344.98
769.492	324.64
769.828	332.32
770.164	323.73
770.5	341.36
770.836	330.97
771.171	320.12
771.507	315.37
771.842	303.85
772.178	315.15
772.513	333.9
772.849	342.04
773.184	331.19
773.519	315.83
773.855	327.58
774.19	330.74
774.525	344.98
774.86	321.93
775.195	313.34
775.53	324.41
775.865	321.93
776.2	340.01
776.535	300.91
776.87	321.25
777.205	327.12
777.539	328.71
777.874	324.19
778.209	315.15
778.543	319.21
778.878	345.2
779.212	321.02
779.547	338.2
779.881	349.95
780.215	314.92
780.55	322.6
780.884	318.31
781.218	312.44
781.552	309.72
781.886	317.18
782.22	335.71
782.554	340.23
782.888	319.44
783.222	323.73
783.556	304.75
783.889	322.83
784.223	331.64
784.557	323.06
784.89	334.36
785.224	313.57
785.557	308.14
785.891	329.16
786.224	335.71
786.558	323.73
786.891	335.03
787.224	310.85
787.557	350.17
787.891	332.55
788.224	306.56
788.557	326.67
788.89	333.45
789.223	334.81
