Data from No_light_on_white_reflection_standard_FLMS001491_078.txt Node
Date: Tue Feb 07 10:33:07 GMT 2017
User: dcchb
Spectrometer: FLMS00149
Trigger mode: 0
Integration Time (sec): 2.000000E-2
Scans to average: 10
Electric dark correction enabled: true
Nonlinearity correction enabled: false
Boxcar width: 0
XAxis mode: Wavelengths
Number of Pixels in Spectrum: 2048
>>>>>Begin Spectral Data<<<<<
341.393	-5.65
341.776	-5.65
342.16	-5.65
342.543	-56.72
342.927	-48.36
343.31	-65.31
343.693	-69.38
344.077	-64.18
344.46	-53.11
344.843	-41.35
345.226	-35.93
345.61	-41.35
345.993	-19.21
346.376	-4.75
346.759	9.49
347.142	18.98
347.525	52.2
347.908	60.79
348.291	77.51
348.674	71.86
349.057	103.73
349.44	127.23
349.823	157.06
350.206	153.89
350.588	189.6
350.971	183.72
351.354	196.38
351.737	199.54
352.119	225.76
352.502	232.99
352.884	245.19
353.267	263.72
353.65	265.76
354.032	269.15
354.414	273.21
354.797	282.7
355.179	292.87
355.562	308.24
355.944	296.72
356.326	284.29
356.709	319.09
357.091	295.13
357.473	295.36
357.855	287.68
358.238	307.79
358.62	319.77
359.002	299.43
359.384	301.69
359.766	318.86
360.148	303.95
360.53	308.47
360.912	301.69
361.294	297.17
361.676	311.18
362.057	293.78
362.439	291.74
362.821	311.63
363.203	285.64
363.584	294.23
363.966	294.68
364.348	313.44
364.729	294.91
365.111	290.84
365.493	296.49
365.874	288.35
366.256	261.69
366.637	284.96
367.019	282.25
367.4	280.9
367.781	276.15
368.163	278.64
368.544	281.8
368.925	294.91
369.306	290.39
369.688	279.99
370.069	285.87
370.45	282.93
370.831	267.34
371.212	276.38
371.593	298.52
371.974	273.44
372.355	269.82
372.736	269.37
373.117	284.74
373.498	272.54
373.879	282.03
374.26	284.29
374.641	295.59
375.021	301.91
375.402	296.94
375.783	272.08
376.163	276.15
376.544	284.96
376.925	323.38
377.305	299.65
377.686	286.32
378.066	298.07
378.447	285.42
378.827	290.61
379.208	292.2
379.588	277.73
379.968	283.38
380.349	295.13
380.729	282.03
381.109	294.68
381.489	279.09
381.87	282.7
382.25	284.96
382.63	306.66
383.01	286.77
383.39	296.26
383.77	288.58
384.15	284.51
384.53	269.6
384.91	281.12
385.29	295.13
385.67	298.52
386.049	292.2
386.429	279.09
386.809	306.88
387.189	300.56
387.568	303.49
387.948	282.7
388.328	263.72
388.707	296.94
389.087	290.61
389.466	279.54
389.846	301.01
390.225	308.24
390.605	288.35
390.984	305.3
391.363	297.62
391.743	284.06
392.122	303.49
392.501	324.74
392.881	295.36
393.26	316.83
393.639	307.34
394.018	280.9
394.397	315.92
394.776	300.56
395.155	311.86
395.534	291.97
395.913	301.69
396.292	292.87
396.671	293.33
397.05	332.65
397.429	319.99
397.808	300.33
398.186	312.08
398.565	301.24
398.944	317.73
399.323	286.09
399.701	310.5
400.08	299.2
400.458	285.87
400.837	288.58
401.215	298.98
401.594	291.07
401.972	284.29
402.351	323.83
402.729	312.08
403.107	312.99
403.486	306.88
403.864	286.77
404.242	298.3
404.62	302.14
404.999	328.8
405.377	294.23
405.755	302.59
406.133	313.21
406.511	298.75
406.889	290.61
407.267	314.57
407.645	310.95
408.023	306.43
408.401	304.4
408.779	303.27
409.156	295.59
409.534	293.78
409.912	302.82
410.29	324.06
410.667	306.66
411.045	311.86
411.422	306.88
411.8	296.49
412.178	311.63
412.555	296.49
412.933	301.01
413.31	300.78
413.687	313.44
414.065	305.75
414.442	305.08
414.819	293.1
415.197	317.28
415.574	311.63
415.951	306.21
416.328	303.49
416.705	285.64
417.082	306.21
417.46	318.86
417.837	310.95
418.214	316.15
418.591	304.4
418.967	290.16
419.344	301.69
419.721	309.37
420.098	312.76
420.475	315.02
420.852	291.29
421.228	318.41
421.605	312.53
421.982	330.39
422.358	314.57
422.735	306.43
423.111	318.86
423.488	329.03
423.864	313.66
424.241	319.31
424.617	311.86
424.994	309.14
425.37	319.77
425.746	296.26
426.123	330.16
426.499	321.57
426.875	320.67
427.251	317.96
427.627	310.73
428.003	295.36
428.379	307.56
428.756	322.7
429.132	310.73
429.507	335.36
429.883	315.02
430.259	325.42
430.635	323.61
431.011	324.96
431.387	305.98
431.763	328.35
432.138	314.79
432.514	314.34
432.89	324.29
433.265	337.39
433.641	322.48
434.016	323.61
434.392	331.74
434.767	329.26
435.143	317.05
435.518	323.38
435.894	312.53
436.269	311.63
436.644	334.68
437.02	346.21
437.395	341.01
437.77	332.65
438.145	321.12
438.52	328.58
438.895	341.46
439.271	331.06
439.646	323.83
440.021	326.77
440.395	338.07
440.77	351.63
441.145	340.1
441.52	362.25
441.895	343.27
442.27	332.65
442.645	353.89
443.019	348.69
443.394	360.67
443.769	354.34
444.143	336.94
444.518	358.18
444.892	356.37
445.267	339.88
445.641	343.27
446.016	355.24
446.39	345.75
446.764	357.5
447.139	344.85
447.513	348.69
447.887	368.8
448.262	372.42
448.636	351.18
449.01	361.57
449.384	369.26
449.758	379.2
450.132	360.67
450.506	379.2
450.88	367.9
451.254	388.46
451.628	378.07
452.002	378.52
452.376	378.07
452.75	368.8
453.123	374.23
453.497	375.13
453.871	382.14
454.244	367
454.618	377.17
454.992	346.66
455.365	386.2
455.739	365.19
456.112	370.84
456.486	369.48
456.859	358.86
457.232	364.51
457.606	376.71
457.979	359.99
458.352	381.68
458.725	378.97
459.099	349.6
459.472	365.19
459.845	362.93
460.218	365.19
460.591	374.45
460.964	349.37
461.337	380.55
461.71	344.4
462.083	373.32
462.456	356.83
462.829	360.67
463.201	355.24
463.574	369.26
463.947	369.26
464.32	346.66
464.692	365.41
465.065	366.32
465.438	369.48
465.81	354.57
466.183	362.48
466.555	378.07
466.928	376.26
467.3	350.5
467.672	341.23
468.045	369.71
468.417	364.28
468.789	357.05
469.161	375.36
469.534	353.21
469.906	363.83
470.278	359.54
470.65	357.05
471.022	347.34
471.394	339.65
471.766	339.43
472.138	369.48
472.51	351.4
472.882	356.15
473.253	355.24
473.625	353.89
473.997	336.49
474.369	359.76
474.74	337.39
475.112	382.59
475.484	368.8
475.855	334
476.227	367.45
476.598	352.53
476.97	342.36
477.341	352.99
477.713	351.63
478.084	353.21
478.455	346.43
478.827	353.89
479.198	350.73
479.569	353.21
479.94	344.17
480.311	358.63
480.682	348.69
481.053	374
481.424	352.99
481.795	361.57
482.166	355.7
482.537	362.7
482.908	357.05
483.279	366.77
483.65	379.88
484.021	380.1
484.391	377.39
484.762	364.96
485.133	361.57
485.503	375.36
485.874	383.49
486.244	347.79
486.615	378.75
486.985	372.19
487.356	365.19
487.726	364.51
488.097	349.82
488.467	380.1
488.837	383.04
489.207	356.83
489.578	343.49
489.948	382.36
490.318	384.62
490.688	363.38
491.058	367.67
491.428	396.37
491.798	380.33
492.168	400.22
492.538	382.36
492.908	390.27
493.278	382.14
493.648	381.46
494.017	381.68
494.387	377.84
494.757	382.81
495.126	392.98
495.496	381.46
495.866	377.84
496.235	404.06
496.605	378.52
496.974	376.26
497.344	377.39
497.713	407.45
498.082	412.19
498.452	388.24
498.821	383.04
499.19	418.07
499.559	422.81
499.928	419.88
500.298	406.99
500.667	390.72
501.036	412.42
501.405	378.97
501.774	401.12
502.143	398.41
502.512	415.36
502.88	400.67
503.249	412.42
503.618	431.85
503.987	403.38
504.356	409.48
504.724	402.7
505.093	406.32
505.462	425.53
505.83	426.88
506.199	435.69
506.567	434.56
506.936	422.36
507.304	409.71
507.672	434.79
508.041	432.08
508.409	428.92
508.777	435.02
509.145	442.02
509.514	442.25
509.882	436.82
510.25	428.69
510.618	436.6
510.986	437.73
511.354	437.73
511.722	440.21
512.09	440.44
512.458	417.62
512.826	428.46
513.193	463.72
513.561	447.9
513.929	465.98
514.297	464.39
514.664	440.44
515.032	462.13
515.4	436.15
515.767	451.06
516.135	454.23
516.502	450.16
516.869	461
517.237	473.43
517.604	451.51
517.972	458.07
518.339	472.3
518.706	449.25
519.073	466.65
519.44	463.04
519.808	483.38
520.175	456.71
520.542	481.8
520.909	477.5
521.276	477.28
521.643	479.76
522.009	452.64
522.376	465.52
522.743	497.61
523.11	479.54
523.477	487.22
523.843	483.15
524.21	478.63
524.577	472.98
524.943	476.15
525.31	467.33
525.676	496.03
526.043	488.12
526.409	472.3
526.776	512.75
527.142	491.51
527.508	498.07
527.874	471.85
528.241	491.51
528.607	482.7
528.973	484.28
529.339	482.25
529.705	494.9
530.071	507.33
530.437	500.1
530.803	517.5
531.169	512.08
531.535	505.98
531.901	502.81
532.267	500.55
532.632	502.59
532.998	503.49
533.364	497.39
533.73	498.29
534.095	507.11
534.461	500.1
534.826	517.27
535.192	518.86
535.557	506.88
535.923	500.33
536.288	495.58
536.653	524.51
537.019	512.98
537.384	513.88
537.749	533.09
538.114	518.18
538.479	516.6
538.845	500.55
539.21	495.81
539.575	522.7
539.94	541.91
540.305	529.7
540.67	526.54
541.034	534.68
541.399	509.59
541.764	511.62
542.129	534
542.494	524.96
542.858	512.75
543.223	523.15
543.587	501.46
543.952	526.09
544.316	526.99
544.681	526.77
545.045	519.99
545.41	534.68
545.774	525.86
546.138	537.84
546.503	521.34
546.867	534
547.231	520.66
547.595	512.98
547.959	516.6
548.324	526.77
548.688	517.05
549.052	509.59
549.416	550.49
549.779	529.93
550.143	531.51
550.507	547.1
550.871	547.78
551.235	548.01
551.599	525.41
551.962	522.47
552.326	552.75
552.689	538.97
553.053	545.52
553.417	545.75
553.78	556.14
554.143	535.13
554.507	533.32
554.87	528.12
555.234	523.15
555.597	541.91
555.96	543.26
556.323	555.92
556.686	556.6
557.05	564.96
557.413	537.84
557.776	546.43
558.139	548.69
558.502	582.58
558.865	552.75
559.228	549.14
559.59	537.61
559.953	548.91
560.316	555.47
560.679	540.78
561.041	572.41
561.404	547.33
561.767	564.28
562.129	567.89
562.492	574
562.854	592.3
563.217	556.37
563.579	564.28
563.941	561.34
564.304	563.15
564.666	566.31
565.028	562.47
565.39	553.88
565.753	574.9
566.115	557.5
566.477	578.29
566.839	571.51
567.201	551.62
567.563	551.4
567.925	551.85
568.287	567.44
568.648	570.61
569.01	583.26
569.372	590.04
569.734	563.83
570.095	592.75
570.457	591.85
570.819	560.66
571.18	563.6
571.542	588.01
571.903	580.78
572.265	586.88
572.626	593.88
572.987	590.27
573.349	612.41
573.71	586.88
574.071	592.75
574.432	566.09
574.794	582.13
575.155	582.36
575.516	596.14
575.877	570.83
576.238	581.45
576.599	588.91
576.96	590.72
577.32	576.48
577.681	606.31
578.042	603.15
578.403	605.86
578.763	617.61
579.124	580.78
579.485	597.5
579.845	590.72
580.206	600.66
580.566	599.98
580.927	574.67
581.287	603.37
581.648	597.5
582.008	613.32
582.368	611.06
582.728	604.73
583.089	592.3
583.449	601.57
583.809	593.2
584.169	588.69
584.529	611.74
584.889	597.72
585.249	598.18
585.609	600.66
585.969	594.79
586.329	594.56
586.688	588.69
587.048	583.49
587.408	584.39
587.768	593.43
588.127	599.98
588.487	583.04
588.846	597.95
589.206	592.75
589.565	579.87
589.925	594.33
590.284	574.22
590.643	575.13
591.003	594.33
591.362	595.46
591.721	598.4
592.08	575.58
592.44	585.75
592.799	593.2
593.158	606.31
593.517	581.68
593.876	586.65
594.235	570.15
594.593	588.01
594.952	580.55
595.311	583.94
595.67	571.28
596.029	602.92
596.387	572.41
596.746	596.37
597.104	590.49
597.463	594.11
597.822	591.85
598.18	568.8
598.538	595.24
598.897	589.14
599.255	575.58
599.613	592.07
599.972	588.46
600.33	582.58
600.688	591.62
601.046	567.89
601.404	588.69
601.762	583.94
602.12	558.4
602.478	585.52
602.836	589.81
603.194	562.7
603.552	560.66
603.91	560.89
604.268	573.09
604.625	562.25
604.983	557.73
605.341	581
605.698	595.01
606.056	562.47
606.413	573.09
606.771	584.62
607.128	558.86
607.485	562.02
607.843	586.65
608.2	567.22
608.557	575.13
608.914	571.28
609.272	583.94
609.629	570.61
609.986	552.08
610.343	569.7
610.7	553.43
611.057	553.66
611.414	560.66
611.771	551.62
612.127	544.84
612.484	558.63
612.841	562.02
613.198	579.42
613.554	552.3
613.911	564.05
614.267	535.13
614.624	550.27
614.98	550.27
615.337	533.77
615.693	536.94
616.05	554.11
616.406	543.49
616.762	538.97
617.118	519.53
617.475	528.12
617.831	538.29
618.187	548.69
618.543	541.68
618.899	541
619.255	551.17
619.611	540.32
619.967	537.84
620.323	536.48
620.678	540.32
621.034	535.58
621.39	556.6
621.746	527.9
622.101	531.29
622.457	543.71
622.812	535.58
623.168	529.48
623.523	510.72
623.879	517.05
624.234	521.12
624.589	523.83
624.945	534.22
625.3	519.08
625.655	513.43
626.01	527.44
626.365	507.33
626.72	526.77
627.075	507.11
627.43	513.66
627.785	507.33
628.14	524.28
628.495	524.05
628.85	500.55
629.205	519.31
629.559	521.12
629.914	520.21
630.269	525.64
630.623	504.62
630.978	514.56
631.332	510.04
631.687	495.58
632.041	491.29
632.396	490.61
632.75	504.17
633.104	506.65
633.459	487.44
633.813	491.96
634.167	499.2
634.521	512.08
634.875	488.35
635.229	483.38
635.583	476.15
635.937	491.51
636.291	488.35
636.645	498.74
636.999	465.3
637.352	502.59
637.706	493.09
638.06	481.12
638.413	462.81
638.767	492.19
639.121	458.74
639.474	457.16
639.828	476.37
640.181	468.01
640.534	457.16
640.888	478.41
641.241	458.07
641.594	466.2
641.947	454.68
642.301	470.5
642.654	463.04
643.007	472.08
643.36	454.23
643.713	468.46
644.066	446.32
644.419	464.39
644.771	472.53
645.124	462.81
645.477	457.84
645.83	463.94
646.182	456.71
646.535	474.34
646.888	465.52
647.24	435.24
647.593	446.32
647.945	437.05
648.298	435.02
648.65	438.86
649.002	449.03
649.355	455.36
649.707	457.84
650.059	443.83
650.411	433.66
650.763	437.5
651.115	452.19
651.467	422.81
651.819	436.37
652.171	469.14
652.523	453.55
652.875	433.43
653.227	431.63
653.578	432.31
653.93	437.95
654.282	441.12
654.633	434.79
654.985	438.86
655.337	428.24
655.688	413.77
656.039	440.67
656.391	421.23
656.742	415.81
657.094	431.85
657.445	418.29
657.796	414
658.147	442.25
658.498	420.1
658.849	424.85
659.2	403.83
659.551	424.4
659.902	419.88
660.253	414.68
660.604	411.29
660.955	411.51
661.306	425.98
661.656	422.81
662.007	424.62
662.358	429.37
662.708	408.35
663.059	406.77
663.409	413.1
663.76	414.23
664.11	413.55
664.461	400.89
664.811	407.22
665.161	400.44
665.511	390.72
665.862	406.09
666.212	381.23
666.562	401.57
666.912	396.15
667.262	428.46
667.612	377.17
667.962	417.39
668.312	395.7
668.662	387.79
669.011	395.7
669.361	382.36
669.711	383.04
670.06	395.92
670.41	393.89
670.76	395.47
671.109	414.23
671.459	376.71
671.808	386.2
672.157	394.34
672.507	397.28
672.856	391.18
673.205	376.04
673.554	379.65
673.904	383.72
674.253	364.96
674.602	416.03
674.951	380.55
675.3	411.06
675.649	376.26
675.998	360.22
676.346	362.93
676.695	399.76
677.044	416.26
677.393	376.49
677.741	399.54
678.09	353.44
678.438	370.16
678.787	381.01
679.135	388.92
679.484	368.35
679.832	380.78
680.181	386.88
680.529	386.2
680.877	369.71
681.225	393.44
681.573	379.65
681.922	377.39
682.27	389.59
682.618	374.91
682.966	367.22
683.314	381.23
683.661	375.36
684.009	383.27
684.357	373.1
684.705	378.07
685.053	390.72
685.4	361.57
685.748	375.81
686.095	371.74
686.443	394.79
686.79	365.19
687.138	398.41
687.485	381.91
687.832	387.33
688.18	367.45
688.527	369.26
688.874	368.8
689.221	367
689.568	374.45
689.915	366.09
690.262	392.31
690.609	378.3
690.956	368.35
691.303	374.45
691.65	366.54
691.997	355.47
692.344	347.34
692.69	351.63
693.037	332.65
693.383	358.63
693.73	354.57
694.077	354.79
694.423	358.86
694.769	352.76
695.116	358.41
695.462	364.51
695.808	373.78
696.155	362.25
696.501	358.63
696.847	366.77
697.193	362.02
697.539	360.89
697.885	365.41
698.231	351.18
698.577	354.57
698.923	351.63
699.269	363.61
699.614	349.37
699.96	364.06
700.306	334.23
700.651	354.79
700.997	371.74
701.342	354.34
701.688	376.26
702.033	369.26
702.379	354.11
702.724	341.91
703.069	355.24
703.415	353.89
703.76	363.38
704.105	363.15
704.45	370.16
704.795	347.11
705.14	374.91
705.485	355.02
705.83	353.21
706.175	363.61
706.52	359.31
706.865	371.97
707.209	383.27
707.554	349.37
707.899	348.24
708.243	378.97
708.588	341.91
708.932	360.22
709.277	342.59
709.621	376.49
709.966	352.53
710.31	350.05
710.654	367.22
710.998	347.56
711.342	367.45
711.687	338.97
712.031	360.89
712.375	352.76
712.719	349.6
713.063	358.41
713.407	349.82
713.75	338.3
714.094	362.93
714.438	361.57
714.782	347.56
715.125	342.36
715.469	350.73
715.812	354.34
716.156	334
716.499	331.74
716.843	374.68
717.186	338.97
717.53	375.81
717.873	338.52
718.216	350.73
718.559	355.92
718.902	328.13
719.246	322.7
719.589	350.27
719.932	345.3
720.275	352.53
720.617	341.69
720.96	354.34
721.303	343.27
721.646	346.43
721.989	339.2
722.331	331.29
722.674	346.21
723.016	352.76
723.359	333.32
723.701	352.53
724.044	328.8
724.386	339.2
724.729	319.77
725.071	331.29
725.413	353.21
725.755	341.01
726.097	319.31
726.439	336.04
726.782	343.72
727.124	354.79
727.465	351.86
727.807	332.42
728.149	337.39
728.491	340.56
728.833	328.58
729.175	348.01
729.516	315.92
729.858	344.85
730.199	344.4
730.541	333.32
730.882	336.26
731.224	332.87
731.565	339.2
731.906	337.39
732.248	330.84
732.589	344.85
732.93	334.68
733.271	327.9
733.612	347.11
733.953	329.26
734.294	345.98
734.635	355.24
734.976	347.79
735.317	336.94
735.658	336.71
735.999	343.72
736.339	341.69
736.68	333.55
737.021	340.78
737.361	340.1
737.702	328.8
738.042	334
738.383	351.86
738.723	351.63
739.063	322.48
739.404	344.4
739.744	352.99
740.084	358.86
740.424	356.37
740.764	337.62
741.104	322.48
741.444	313.44
741.784	330.16
742.124	340.56
742.464	334.23
742.804	343.72
743.143	332.42
743.483	331.52
743.823	356.6
744.162	337.84
744.502	350.27
744.841	350.73
745.181	335.36
745.52	339.2
745.86	349.6
746.199	317.28
746.538	341.23
746.877	357.96
747.216	345.98
747.556	337.62
747.895	338.97
748.234	326.09
748.573	336.71
748.911	323.38
749.25	334.45
749.589	344.62
749.928	337.39
750.267	328.35
750.605	319.31
750.944	348.24
751.283	338.07
751.621	327
751.96	360.22
752.298	335.13
752.636	371.06
752.975	346.66
753.313	318.18
753.651	336.04
753.989	323.16
754.327	357.05
754.666	346.66
755.004	338.3
755.342	328.35
755.679	317.05
756.017	343.27
756.355	336.71
756.693	341.69
757.031	320.44
757.368	331.52
757.706	329.03
758.044	335.58
758.381	353.21
758.719	352.08
759.056	326.09
759.394	334.45
759.731	343.95
760.068	313.66
760.405	317.51
760.743	337.17
761.08	333.55
761.417	326.09
761.754	333.78
762.091	341.23
762.428	331.74
762.765	329.93
763.102	334.45
763.438	327.45
763.775	319.09
764.112	324.06
764.449	320.44
764.785	333.1
765.122	334.68
765.458	330.84
765.795	319.77
766.131	314.79
766.467	326.09
766.804	339.43
767.14	316.6
767.476	313.66
767.812	324.96
768.148	330.16
768.485	342.36
768.821	341.91
769.157	347.11
769.492	308.01
769.828	325.87
770.164	364.28
770.5	340.1
770.836	344.85
771.171	322.93
771.507	328.35
771.842	339.43
772.178	324.29
772.513	328.13
772.849	342.82
773.184	339.88
773.519	339.65
773.855	338.07
774.19	340.33
774.525	337.84
774.86	319.99
775.195	336.04
775.53	337.39
775.865	336.71
776.2	342.59
776.535	357.05
776.87	338.75
777.205	334.91
777.539	340.1
777.874	341.91
778.209	324.74
778.543	324.06
778.878	327
779.212	337.39
779.547	332.87
779.881	319.09
780.215	334.91
780.55	339.43
780.884	344.85
781.218	332.19
781.552	341.01
781.886	320.67
782.22	334.68
782.554	338.97
782.888	303.49
783.222	330.61
783.556	343.04
783.889	321.35
784.223	344.4
784.557	336.04
784.89	342.14
785.224	340.1
785.557	323.16
785.891	334
786.224	349.6
786.558	361.35
786.891	325.42
787.224	334.91
787.557	330.84
787.891	329.03
788.224	338.75
788.557	332.87
788.89	343.95
789.223	324.06
789.556	333.55
