Data from No_light_on_white_reflection_standard_FLMS001491_048.txt Node
Date: Tue Feb 07 10:33:01 GMT 2017
User: dcchb
Spectrometer: FLMS00149
Trigger mode: 0
Integration Time (sec): 2.000000E-2
Scans to average: 10
Electric dark correction enabled: true
Nonlinearity correction enabled: false
Boxcar width: 0
XAxis mode: Wavelengths
Number of Pixels in Spectrum: 2048
>>>>>Begin Spectral Data<<<<<
341.393	-19.11
341.776	-19.11
342.16	-19.11
342.543	-53.01
342.927	-46.91
343.31	-69.5
343.693	-61.14
344.077	-64.08
344.46	-67.47
344.843	-61.82
345.226	-17.75
345.61	-31.31
345.993	-16.4
346.376	-30.18
346.759	12.08
347.142	34.22
347.525	48.91
347.908	61.79
348.291	78.29
348.674	88.46
349.057	95.92
349.44	105.41
349.823	128.91
350.206	146.31
350.588	145.63
350.971	163.48
351.354	201.22
351.737	205.97
352.119	219.08
352.502	225.4
352.884	239.19
353.267	243.26
353.65	242.8
354.032	271.5
354.414	266.31
354.797	270.83
355.179	275.57
355.562	292.29
355.944	290.94
356.326	282.35
356.709	300.2
357.091	287.1
357.473	311.96
357.855	304.05
358.238	320.99
358.62	292.97
359.002	304.95
359.384	311.05
359.766	290.26
360.148	286.19
360.53	301.33
360.912	291.16
361.294	275.35
361.676	306.98
362.057	297.94
362.439	296.14
362.821	298.17
363.203	294.55
363.584	297.27
363.966	291.62
364.348	288
364.729	273.31
365.111	281.22
365.493	286.19
365.874	282.13
366.256	267.66
366.637	264.27
367.019	269.24
367.4	259.75
367.781	287.32
368.163	256.59
368.544	278.06
368.925	263.59
369.306	286.87
369.688	270.6
370.069	259.53
370.45	259.75
370.831	265.18
371.212	259.53
371.593	242.8
371.974	260.88
372.355	278.51
372.736	260.43
373.117	280.09
373.498	269.24
373.879	262.01
374.26	267.66
374.641	252.07
375.021	244.16
375.402	278.51
375.783	283.03
376.163	270.15
376.544	281.45
376.925	277.15
377.305	263.59
377.686	288.68
378.066	272.18
378.447	277.83
378.827	266.08
379.208	286.87
379.588	276.48
379.968	277.15
380.349	292.52
380.729	274.67
381.109	297.27
381.489	278.96
381.87	269.02
382.25	311.96
382.63	272.63
383.01	301.79
383.39	280.77
383.77	265.18
384.15	293.88
384.53	279.41
384.91	270.83
385.29	299.98
385.67	280.77
386.049	311.28
386.429	287.32
386.809	303.37
387.189	273.76
387.568	286.19
387.948	289.13
388.328	274.44
388.707	281.67
389.087	287.77
389.466	283.93
389.846	295.46
390.225	299.3
390.605	278.96
390.984	281.45
391.363	282.13
391.743	284.16
392.122	299.75
392.501	278.96
392.881	279.64
393.26	278.51
393.639	268.11
394.018	284.16
394.397	271.28
394.776	285.52
395.155	292.29
395.534	286.87
395.913	292.07
396.292	284.39
396.671	314.67
397.05	274.22
397.429	289.58
397.808	290.49
398.186	288.9
398.565	292.97
398.944	278.28
399.323	299.07
399.701	281.45
400.08	303.82
400.458	290.26
400.837	294.1
401.215	295.46
401.594	311.73
401.972	290.03
402.351	303.59
402.729	303.14
403.107	290.71
403.486	272.41
403.864	288
404.242	289.36
404.62	291.62
404.999	297.04
405.377	307.89
405.755	315.12
406.133	300.2
406.511	283.48
406.889	280.32
407.267	299.98
407.645	299.3
408.023	304.27
408.401	302.01
408.779	288
409.156	284.16
409.534	295.68
409.912	311.05
410.29	295.46
410.667	297.27
411.045	281.9
411.422	292.52
411.8	298.62
412.178	280.32
412.555	319.86
412.933	293.88
413.31	298.17
413.687	309.02
414.065	284.61
414.442	288.68
414.819	284.16
415.197	302.69
415.574	312.86
415.951	299.07
416.328	327.55
416.705	306.08
417.082	306.76
417.46	290.71
417.837	303.59
418.214	291.39
418.591	286.42
418.967	307.89
419.344	306.08
419.721	308.79
420.098	315.8
420.475	308.79
420.852	304.72
421.228	315.57
421.605	297.04
421.982	305.85
422.358	285.29
422.735	313.08
423.111	299.07
423.488	317.15
423.864	304.27
424.241	298.62
424.617	274.22
424.994	306.76
425.37	317.6
425.746	305.63
426.123	298.85
426.499	281.9
426.875	306.53
427.251	307.89
427.627	316.02
428.003	300.2
428.379	299.3
428.756	304.95
429.132	281.9
429.507	330.03
429.883	313.54
430.259	323.25
430.635	305.85
431.011	302.01
431.387	303.14
431.763	314.21
432.138	295.23
432.514	303.59
432.89	322.12
433.265	308.79
433.641	293.65
434.016	319.64
434.392	317.38
434.767	304.5
435.143	324.38
435.518	308.11
435.894	320.09
436.269	304.05
436.644	348.34
437.02	295.68
437.395	329.58
437.77	303.59
438.145	308.57
438.52	322.8
438.895	335.46
439.271	343.59
439.646	321.45
440.021	338.17
440.395	319.41
440.77	333.42
441.145	325.51
441.52	316.7
441.895	343.82
442.27	331.84
442.645	337.94
443.019	331.62
443.394	340.88
443.769	363.93
444.143	335.91
444.518	343.82
444.892	332.97
445.267	326.19
445.641	349.92
446.016	348.79
446.39	367.55
446.764	343.37
447.139	354.89
447.513	332.75
447.887	368.68
448.262	339.3
448.636	328.68
449.01	349.02
449.384	343.37
449.758	370.03
450.132	369.58
450.506	377.26
450.88	357.83
451.254	354.21
451.628	363.71
452.002	356.7
452.376	358.06
452.75	363.93
453.123	359.86
453.497	373.42
453.871	361.67
454.244	372.74
454.618	371.16
454.992	381.11
455.365	351.28
455.739	374.55
456.112	365.51
456.486	366.64
456.859	369.13
457.232	365.74
457.606	363.25
457.979	355.34
458.352	349.47
458.725	360.54
459.099	360.09
459.472	363.71
459.845	377.72
460.218	355.8
460.591	344.5
460.964	347.21
461.337	331.62
461.71	358.73
462.083	344.27
462.456	333.2
462.829	341.56
463.201	366.42
463.574	355.8
463.947	337.27
464.32	338.62
464.692	344.72
465.065	348.79
465.438	356.25
465.81	352.63
466.183	361.67
466.555	337.04
466.928	350.6
467.3	364.38
467.672	345.85
468.045	358.28
468.417	353.54
468.789	349.92
469.161	362.12
469.534	353.54
469.906	350.82
470.278	331.39
470.65	348.56
471.022	350.15
471.394	356.93
471.766	341.56
472.138	345.85
472.51	335.01
472.882	340.43
473.253	349.47
473.625	335.68
473.997	326.87
474.369	353.08
474.74	347.66
475.112	344.04
475.484	344.27
475.855	347.66
476.227	332.97
476.598	343.82
476.97	344.27
477.341	351.73
477.713	327.55
478.084	330.71
478.455	353.31
478.827	355.57
479.198	355.8
479.569	340.88
479.94	366.64
480.311	351.28
480.682	354.44
481.053	353.54
481.424	341.56
481.795	340.43
482.166	360.54
482.537	340.65
482.908	353.99
483.279	353.31
483.65	355.34
484.021	370.48
484.391	363.48
484.762	369.58
485.133	356.25
485.503	364.84
485.874	366.42
486.244	342.46
486.615	365.74
486.985	354.21
487.356	374.33
487.726	362.12
488.097	366.64
488.467	385.85
488.837	378.17
489.207	364.16
489.578	356.25
489.948	356.47
490.318	365.29
490.688	364.61
491.058	352.41
491.428	365.06
491.798	371.61
492.168	357.15
492.538	367.55
492.908	386.98
493.278	396.02
493.648	374.55
494.017	359.19
494.387	369.35
494.757	382.24
495.126	380.88
495.496	383.37
495.866	380.43
496.235	397.38
496.605	382.01
496.974	393.76
497.344	378.85
497.713	400.54
498.082	382.69
498.452	401.44
498.821	374.78
499.19	387.21
499.559	386.53
499.928	376.59
500.298	394.66
500.667	394.21
501.036	391.73
501.405	397.6
501.774	386.53
502.143	383.37
502.512	424.72
502.88	410.26
503.249	394.89
503.618	405.74
503.987	387.66
504.356	398.73
504.724	403.48
505.093	417.26
505.462	394.89
505.83	413.87
506.199	405.96
506.567	421.1
506.936	393.99
507.304	424.72
507.672	405.74
508.041	412.07
508.409	409.58
508.777	435.12
509.145	414.1
509.514	420.43
509.882	410.71
510.25	428.56
510.618	424.72
510.986	447.09
511.354	427.66
511.722	450.03
512.09	436.02
512.458	429.92
512.826	444.15
513.193	434.89
513.561	437.6
513.929	443.25
514.297	449.58
514.664	440.09
515.032	437.83
515.4	436.7
515.767	452.29
516.135	436.02
516.502	424.04
516.869	426.98
517.237	436.7
517.604	462.69
517.972	434.66
518.339	455
518.706	452.52
519.073	448
519.44	461.33
519.808	441.9
520.175	473.76
520.542	464.04
520.909	447.32
521.276	447.54
521.643	470.82
522.009	494.78
522.376	474.66
522.743	463.82
523.11	457.26
523.477	453.42
523.843	450.03
524.21	482.12
524.577	466.3
524.943	453.19
525.31	462.46
525.676	478.28
526.043	478.96
526.409	453.87
526.776	477.83
527.142	478.73
527.508	504.72
527.874	471.5
528.241	510.59
528.607	478.5
528.973	470.82
529.339	484.38
529.705	506.07
530.071	486.64
530.437	498.39
530.803	486.87
531.169	471.27
531.535	498.39
531.901	508.56
532.267	493.87
532.632	496.81
532.998	501.55
533.364	502.23
533.73	485.51
534.095	485.28
534.461	503.81
534.826	486.64
535.192	516.24
535.557	476.92
535.923	482.12
536.288	482.8
536.653	496.13
537.019	486.87
537.384	502.91
537.749	489.8
538.114	491.16
538.479	502.01
538.845	517.6
539.21	508.79
539.575	498.84
539.94	489.8
540.305	511.95
540.67	515.79
541.034	498.62
541.399	516.24
541.764	496.58
542.129	512.85
542.494	511.72
542.858	509.01
543.223	504.49
543.587	512.18
543.952	501.55
544.316	516.47
544.681	521.67
545.045	489.13
545.41	500.88
545.774	521.89
546.138	502.23
546.503	505.17
546.867	547.43
547.231	523.7
547.595	510.59
547.959	521.22
548.324	511.5
548.688	505.4
549.052	519.86
549.416	518.96
549.779	524.38
550.143	504.49
550.507	546.3
550.871	512.18
551.235	509.46
551.599	496.13
551.962	524.83
552.326	503.59
552.689	536.81
553.053	505.85
553.417	551.04
553.78	565.51
554.143	516.02
554.507	516.7
554.87	513.08
555.234	527.09
555.597	516.92
555.96	522.35
556.323	523.7
556.686	516.24
557.05	544.49
557.413	524.38
557.776	543.14
558.139	521.44
558.502	544.72
558.865	532.74
559.228	530.93
559.59	527.32
559.953	532.74
560.316	527.77
560.679	535.9
561.041	540.88
561.404	545.85
561.767	539.29
562.129	547.88
562.492	539.97
562.854	526.86
563.217	551.5
563.579	540.2
563.941	537.94
564.304	539.75
564.666	560.99
565.028	567.99
565.39	551.04
565.753	558.28
566.115	552.17
566.477	552.63
566.839	560.76
567.201	542.23
567.563	559.18
567.925	551.27
568.287	563.02
568.648	547.66
569.01	565.28
569.372	558.05
569.734	563.7
570.095	584.04
570.457	582
570.819	557.37
571.18	572.51
571.542	556.02
571.903	584.49
572.265	585.17
572.626	560.76
572.987	575.45
573.349	576.58
573.71	566.19
574.071	567.99
574.432	602.12
574.794	584.04
575.155	570.25
575.516	567.77
575.877	577.03
576.238	574.77
576.599	562.34
576.96	571.61
577.32	594.21
577.681	567.32
578.042	560.08
578.403	595.56
578.763	564.83
579.124	570.03
579.485	582.23
579.845	562.57
580.206	563.93
580.566	571.84
580.927	571.61
581.287	577.48
581.648	591.95
582.008	571.38
582.368	582.23
582.728	585.39
583.089	560.31
583.449	565.73
583.809	577.26
584.169	574.77
584.529	594.66
584.889	586.52
585.249	591.95
585.609	595.56
585.969	574.1
586.329	563.02
586.688	570.48
587.048	601.89
587.408	597.6
587.768	575.68
588.127	561.44
588.487	574.32
588.846	551.72
589.206	580.65
589.565	584.04
589.925	556.47
590.284	577.71
590.643	584.49
591.003	562.8
591.362	565.06
591.721	555.34
592.08	565.73
592.44	569.35
592.799	596.24
593.158	575.68
593.517	569.8
593.876	574.55
594.235	578.84
594.593	567.77
594.952	572.29
595.311	557.37
595.67	560.08
596.029	544.27
596.387	578.16
596.746	582
597.104	587.2
597.463	576.35
597.822	571.38
598.18	573.19
598.538	576.13
598.897	568.9
599.255	576.58
599.613	551.95
599.972	555.56
600.33	568.67
600.688	560.08
601.046	556.69
601.404	554.89
601.762	562.57
602.12	572.51
602.478	554.66
602.836	564.38
603.194	574.55
603.552	562.12
603.91	558.5
604.268	552.63
604.625	553.76
604.983	581.55
605.341	554.43
605.698	555.11
606.056	579.74
606.413	584.94
606.771	553.3
607.128	546.07
607.485	542.01
607.843	558.28
608.2	553.76
608.557	567.99
608.914	556.47
609.272	554.66
609.629	557.37
609.986	551.72
610.343	572.29
610.7	542.23
611.057	548.79
611.414	536.13
611.771	566.64
612.127	562.34
612.484	564.15
612.841	542.68
613.198	539.97
613.554	539.52
613.911	541.33
614.267	541.1
614.624	517.83
614.98	556.02
615.337	516.02
615.693	527.77
616.05	531.38
616.406	514.89
616.762	533.64
617.118	530.93
617.475	543.81
617.831	520.31
618.187	516.47
618.543	523.47
618.899	541.1
619.255	550.37
619.611	528.67
619.967	542.23
620.323	544.49
620.678	523.25
621.034	518.5
621.39	518.5
621.746	520.54
622.101	534.77
622.457	529.12
622.812	526.64
623.168	515.34
623.523	521.89
623.879	535.23
624.234	500.88
624.589	516.92
624.945	510.59
625.3	506.07
625.655	512.63
626.01	510.14
626.365	495.23
626.72	509.69
627.075	508.33
627.43	494.55
627.785	510.82
628.14	480.31
628.495	493.87
628.85	497.71
629.205	482.8
629.559	483.93
629.914	490.26
630.269	498.62
630.623	492.74
630.978	491.61
631.332	483.93
631.687	480.31
632.041	470.82
632.396	485.74
632.75	460.2
633.104	488.22
633.459	474.66
633.813	460.88
634.167	488.45
634.521	467.43
634.875	490.71
635.229	477.37
635.583	470.59
635.937	478.05
636.291	466.98
636.645	467.66
636.999	488.67
637.352	459.07
637.706	463.82
638.06	471.72
638.413	469.69
638.767	466.3
639.121	489.58
639.474	478.73
639.828	459.97
640.181	453.65
640.534	482.8
640.888	470.59
641.241	458.84
641.594	465.17
641.947	457.94
642.301	461.33
642.654	454.55
643.007	446.19
643.36	445.96
643.713	453.65
644.066	427.88
644.419	448.9
644.771	436.7
645.124	457.49
645.477	455.23
645.83	422.69
646.182	439.41
646.535	434.89
646.888	431.73
647.24	442.8
647.593	426.98
647.945	427.66
648.298	430.6
648.65	430.37
649.002	409.58
649.355	454.55
649.707	437.38
650.059	435.34
650.411	416.36
650.763	433.76
651.115	416.13
651.467	429.69
651.819	420.43
652.171	432.18
652.523	419.97
652.875	419.97
653.227	412.07
653.578	410.26
653.93	415.68
654.282	416.13
654.633	422.91
654.985	410.94
655.337	395.57
655.688	433.76
656.039	415.23
656.391	411.84
656.742	410.71
657.094	393.53
657.445	414.1
657.796	422.91
658.147	403.7
658.498	398.96
658.849	420.43
659.2	404.16
659.551	405.51
659.902	420.43
660.253	446.19
660.604	400.77
660.955	433.08
661.306	414.1
661.656	397.83
662.007	406.64
662.358	405.74
662.708	415.91
663.059	411.39
663.409	414.33
663.76	386.53
664.11	388.56
664.461	392.63
664.811	390.82
665.161	411.16
665.511	385.4
665.862	379.75
666.212	405.96
666.562	365.74
666.912	390.37
667.262	401.44
667.612	395.79
667.962	408
668.312	381.11
668.662	390.82
669.011	377.26
669.361	379.75
669.711	354.44
670.06	399.18
670.41	380.43
670.76	377.94
671.109	377.72
671.459	391.28
671.808	380.65
672.157	381.33
672.507	369.35
672.856	385.4
673.205	366.87
673.554	366.64
673.904	386.53
674.253	366.19
674.602	348.56
674.951	388.11
675.3	366.19
675.649	381.78
675.998	372.74
676.346	383.59
676.695	363.25
677.044	375
677.393	381.11
677.741	379.3
678.09	371.61
678.438	370.48
678.787	370.26
679.135	365.51
679.484	360.09
679.832	359.64
680.181	358.51
680.529	387.43
680.877	373.2
681.225	362.35
681.573	349.47
681.922	358.96
682.27	363.25
682.618	366.19
682.966	386.76
683.314	378.85
683.661	375.46
684.009	352.18
684.357	360.99
684.705	341.56
685.053	337.72
685.4	369.35
685.748	377.49
686.095	377.49
686.443	359.19
686.79	368
687.138	360.09
687.485	359.41
687.832	353.08
688.18	342.69
688.527	370.94
688.874	380.2
689.221	356.02
689.568	347.66
689.915	361.45
690.262	343.82
690.609	350.82
690.956	343.14
691.303	360.77
691.65	345.4
691.997	325.06
692.344	343.37
692.69	335.23
693.037	356.25
693.383	361.22
693.73	359.19
694.077	335.46
694.423	365.96
694.769	350.82
695.116	338.62
695.462	333.88
695.808	363.03
696.155	333.2
696.501	359.19
696.847	370.26
697.193	362.12
697.539	343.14
697.885	368.22
698.231	350.15
698.577	343.14
698.923	336.81
699.269	342.46
699.614	328
699.96	354.44
700.306	337.72
700.651	334.33
700.997	339.52
701.342	348.34
701.688	335.23
702.033	334.1
702.379	344.04
702.724	338.4
703.069	344.72
703.415	349.24
703.76	338.4
704.105	374.55
704.45	312.18
704.795	355.57
705.14	354.44
705.485	328.23
705.83	346.3
706.175	351.05
706.52	351.28
706.865	349.24
707.209	335.91
707.554	337.49
707.899	333.65
708.243	337.49
708.588	344.27
708.932	339.07
709.277	321.67
709.621	338.4
709.966	346.76
710.31	350.15
710.654	354.89
710.998	355.34
711.342	344.72
711.687	340.2
712.031	329.81
712.375	352.41
712.719	346.76
713.063	320.09
713.407	325.97
713.75	334.1
714.094	327.55
714.438	334.1
714.782	330.49
715.125	334.1
715.469	340.88
715.812	343.14
716.156	321.67
716.499	317.6
716.843	347.89
717.186	350.15
717.53	316.7
717.873	349.69
718.216	329.58
718.559	313.08
718.902	331.62
719.246	314.67
719.589	341.78
719.932	359.19
720.275	343.59
720.617	339.98
720.96	325.51
721.303	341.56
721.646	344.95
721.989	335.23
722.331	329.36
722.674	322.35
723.016	344.27
723.359	321.22
723.701	344.04
724.044	315.12
724.386	335.46
724.729	354.67
725.071	323.48
725.413	341.11
725.755	341.78
726.097	339.75
726.439	336.59
726.782	317.15
727.124	327.32
727.465	308.11
727.807	324.38
728.149	332.97
728.491	332.29
728.833	341.78
729.175	340.65
729.516	327.32
729.858	319.86
730.199	318.51
730.541	312.63
730.882	334.33
731.224	327.55
731.565	353.54
731.906	329.58
732.248	320.09
732.589	349.92
732.93	334.55
733.271	332.29
733.612	341.56
733.953	321.67
734.294	325.06
734.635	331.84
734.976	331.16
735.317	352.86
735.658	331.39
735.999	329.13
736.339	345.85
736.68	353.76
737.021	343.82
737.361	323.71
737.702	341.11
738.042	317.83
738.383	308.11
738.723	328
739.063	334.55
739.404	322.8
739.744	328.68
740.084	332.97
740.424	352.41
740.764	340.65
741.104	330.49
741.444	320.09
741.784	337.04
742.124	335.01
742.464	331.62
742.804	330.49
743.143	333.88
743.483	336.36
743.823	333.2
744.162	328.23
744.502	340.43
744.841	325.29
745.181	330.71
745.52	320.54
745.86	337.27
746.199	340.65
746.538	349.24
746.877	342.69
747.216	323.25
747.556	340.88
747.895	338.17
748.234	326.42
748.573	329.13
748.911	318.73
749.25	313.54
749.589	318.51
749.928	334.1
750.267	335.46
750.605	344.04
750.944	340.43
751.283	325.29
751.621	343.14
751.96	347.43
752.298	329.58
752.636	318.28
752.975	334.33
753.313	334.1
753.651	319.86
753.989	325.06
754.327	315.8
754.666	333.2
755.004	328.68
755.342	333.88
755.679	323.03
756.017	352.86
756.355	304.95
756.693	325.51
757.031	338.17
757.368	333.42
757.706	330.94
758.044	338.62
758.381	352.41
758.719	323.71
759.056	341.56
759.394	326.42
759.731	337.27
760.068	331.16
760.405	324.38
760.743	321.22
761.08	310.15
761.417	297.49
761.754	320.54
762.091	299.75
762.428	313.99
762.765	335.23
763.102	308.79
763.438	305.63
763.775	301.79
764.112	316.47
764.449	311.96
764.785	315.8
765.122	317.15
765.458	325.29
765.795	311.28
766.131	318.96
766.467	340.43
766.804	326.42
767.14	309.47
767.476	312.18
767.812	314.67
768.148	322.35
768.485	309.24
768.821	306.08
769.157	312.86
769.492	332.97
769.828	323.25
770.164	320.09
770.5	329.81
770.836	331.84
771.171	327.1
771.507	329.81
771.842	310.37
772.178	309.02
772.513	328.68
772.849	319.64
773.184	319.86
773.519	309.47
773.855	317.83
774.19	330.49
774.525	325.74
774.86	336.81
775.195	303.14
775.53	325.06
775.865	336.36
776.2	309.02
776.535	326.19
776.87	326.42
777.205	318.51
777.539	326.64
777.874	337.04
778.209	337.04
778.543	311.5
778.878	321.22
779.212	322.8
779.547	308.57
779.881	321.45
780.215	312.41
780.55	328.9
780.884	327.77
781.218	313.08
781.552	330.94
781.886	323.48
782.22	315.34
782.554	314.21
782.888	334.55
783.222	336.14
783.556	317.15
783.889	342.24
784.223	311.73
784.557	327.1
784.89	316.7
785.224	338.17
785.557	313.99
785.891	334.1
786.224	329.81
786.558	331.39
786.891	316.02
787.224	343.14
787.557	330.26
787.891	332.52
788.224	327.1
788.557	311.96
788.89	339.07
789.223	282.13
