Data from No_light_on_white_reflection_standard_FLMS001491_039.txt Node
Date: Tue Feb 07 10:33:00 GMT 2017
User: dcchb
Spectrometer: FLMS00149
Trigger mode: 0
Integration Time (sec): 2.000000E-2
Scans to average: 10
Electric dark correction enabled: true
Nonlinearity correction enabled: false
Boxcar width: 0
XAxis mode: Wavelengths
Number of Pixels in Spectrum: 2048
>>>>>Begin Spectral Data<<<<<
341.393	-16.61
341.776	-16.61
342.16	-16.61
342.543	-63.39
342.927	-83.05
343.31	-87.57
343.693	-80.34
344.077	-60
344.46	-61.35
344.843	-43.95
345.226	-41.47
345.61	-34.24
345.993	-8.7
346.376	-30.85
346.759	9.6
347.142	44.41
347.525	41.69
347.908	59.77
348.291	75.59
348.674	100.45
349.057	116.95
349.44	139.09
349.823	136.61
350.206	157.85
350.588	163.5
350.971	172.09
351.354	162.37
351.737	201.46
352.119	210.95
352.502	227.9
352.884	245.53
353.267	228.58
353.65	256.38
354.032	269.94
354.414	256.83
354.797	264.74
355.179	300.67
355.562	300.9
355.944	288.24
356.326	304.74
356.709	303.83
357.091	286.21
357.473	312.2
357.855	300.44
358.238	316.94
358.62	297.28
359.002	305.64
359.384	317.62
359.766	325.08
360.148	295.7
360.53	302.03
360.912	315.13
361.294	304.96
361.676	313.33
362.057	306.55
362.439	293.44
362.821	278.75
363.203	279.2
363.584	276.72
363.966	302.25
364.348	283.04
364.729	288.47
365.111	272.42
365.493	290.05
365.874	302.25
366.256	289.6
366.637	283.04
367.019	273.55
367.4	260.67
367.781	260.22
368.163	267
368.544	263.16
368.925	284.63
369.306	296.15
369.688	272.87
370.069	289.82
370.45	278.98
370.831	271.07
371.212	282.82
371.593	271.07
371.974	266.77
372.355	278.52
372.736	276.49
373.117	268.13
373.498	276.26
373.879	262.48
374.26	265.19
374.641	270.84
375.021	274.23
375.402	268.81
375.783	291.18
376.163	272.87
376.544	270.61
376.925	294.12
377.305	281.69
377.686	276.49
378.066	285.08
378.447	267.45
378.827	258.64
379.208	286.21
379.588	275.59
379.968	276.49
380.349	298.18
380.729	284.17
381.109	285.3
381.489	268.58
381.87	274
382.25	278.98
382.63	288.69
383.01	275.36
383.39	300.22
383.77	279.43
384.15	278.98
384.53	264.06
384.91	292.08
385.29	276.04
385.67	287.34
386.049	297.96
386.429	284.85
386.809	297.28
387.189	277.39
387.568	276.04
387.948	300.67
388.328	286.89
388.707	292.31
389.087	307.9
389.466	285.08
389.846	298.18
390.225	297.28
390.605	287.56
390.984	295.02
391.363	293.44
391.743	277.62
392.122	293.21
392.501	299.31
392.881	287.56
393.26	291.18
393.639	302.7
394.018	306.77
394.397	298.86
394.776	295.02
395.155	278.98
395.534	290.95
395.913	299.09
396.292	305.42
396.671	292.53
397.05	288.92
397.429	306.09
397.808	292.99
398.186	290.27
398.565	261.12
398.944	295.47
399.323	274
399.701	310.39
400.08	285.3
400.458	298.86
400.837	297.96
401.215	302.48
401.594	291.4
401.972	302.7
402.351	282.82
402.729	289.82
403.107	299.77
403.486	301.8
403.864	286.43
404.242	291.63
404.62	276.04
404.999	291.86
405.377	309.48
405.755	293.66
406.133	295.25
406.511	292.99
406.889	286.43
407.267	288.69
407.645	289.37
408.023	297.51
408.401	298.18
408.779	286.66
409.156	298.18
409.534	312.87
409.912	304.51
410.29	312.65
410.667	314.46
411.045	294.57
411.422	286.89
411.8	303.83
412.178	294.12
412.555	324.62
412.933	299.31
413.31	313.78
413.687	290.95
414.065	319.2
414.442	287.79
414.819	290.95
415.197	292.53
415.574	309.03
415.951	309.71
416.328	300.9
416.705	302.48
417.082	296.6
417.46	304.06
417.837	300.44
418.214	304.06
418.591	303.38
418.967	318.52
419.344	286.21
419.721	303.38
420.098	303.16
420.475	282.14
420.852	295.02
421.228	302.93
421.605	300.44
421.982	332.53
422.358	299.31
422.735	311.74
423.111	328.24
423.488	300.67
423.864	319.65
424.241	304.51
424.617	305.87
424.994	302.25
425.37	308.35
425.746	309.26
426.123	309.94
426.499	311.74
426.875	299.99
427.251	295.7
427.627	304.06
428.003	295.25
428.379	304.74
428.756	315.13
429.132	290.95
429.507	327.11
429.883	317.17
430.259	300.22
430.635	308.81
431.011	301.12
431.387	304.06
431.763	305.64
432.138	321.69
432.514	324.4
432.89	331.63
433.265	329.37
433.641	325.3
434.016	340.22
434.392	330.95
434.767	321.23
435.143	314.91
435.518	316.71
435.894	309.26
436.269	308.58
436.644	329.6
437.02	335.25
437.395	302.25
437.77	316.26
438.145	333.44
438.52	325.75
438.895	311.29
439.271	325.75
439.646	322.59
440.021	313.33
440.395	341.12
440.77	324.62
441.145	344.28
441.52	344.96
441.895	332.31
442.27	360.78
442.645	330.27
443.019	338.64
443.394	337.73
443.769	339.31
444.143	347.45
444.518	327.34
444.892	321.69
445.267	347.45
445.641	330.95
446.016	355.13
446.39	340.89
446.764	367.56
447.139	343.61
447.513	354.91
447.887	390.16
448.262	356.49
448.636	342.7
449.01	372.31
449.384	352.87
449.758	352.42
450.132	356.26
450.506	358.3
450.88	366.88
451.254	356.26
451.628	386.09
452.002	337.28
452.376	366.88
452.75	368.46
453.123	384.28
453.497	361.69
453.871	362.59
454.244	360.78
454.618	366.43
454.992	354
455.365	373.21
455.739	364.85
456.112	362.14
456.486	350.61
456.859	356.26
457.232	354.23
457.606	372.08
457.979	356.49
458.352	352.87
458.725	369.37
459.099	357.17
459.472	359.88
459.845	356.49
460.218	342.93
460.591	358.75
460.964	352.19
461.337	377.96
461.71	331.63
462.083	352.19
462.456	372.53
462.829	371.85
463.201	376.6
463.574	367.79
463.947	357.84
464.32	358.52
464.692	356.26
465.065	331.86
465.438	357.84
465.81	360.1
466.183	348.8
466.555	334.12
466.928	363.95
467.3	351.52
467.672	353.78
468.045	367.79
468.417	356.04
468.789	360.56
469.161	342.93
469.534	355.58
469.906	347.67
470.278	358.52
470.65	352.19
471.022	352.19
471.394	342.25
471.766	356.94
472.138	356.71
472.51	344.96
472.882	348.35
473.253	351.06
473.625	354.68
473.997	351.52
474.369	345.19
474.74	322.14
475.112	350.16
475.484	356.71
475.855	351.06
476.227	358.75
476.598	348.58
476.97	346.32
477.341	345.41
477.713	360.33
478.084	327.56
478.455	344.28
478.827	350.16
479.198	356.26
479.569	361.23
479.94	354.23
480.311	347.67
480.682	350.84
481.053	357.62
481.424	360.56
481.795	332.99
482.166	351.74
482.537	380.67
482.908	345.41
483.279	360.78
483.65	354.23
484.021	367.56
484.391	360.33
484.762	379.31
485.133	368.24
485.503	376.83
485.874	365.75
486.244	358.3
486.615	364.62
486.985	348.35
487.356	362.82
487.726	367.33
488.097	346.32
488.467	361.23
488.837	366.66
489.207	376.37
489.578	381.8
489.948	356.04
490.318	346.77
490.688	384.06
491.058	364.62
491.428	400.55
491.798	370.95
492.168	378.86
492.538	367.56
492.908	385.41
493.278	365.08
493.648	365.98
494.017	390.61
494.387	368.01
494.757	377.96
495.126	396.26
495.496	377.5
495.866	383.38
496.235	390.39
496.605	413.44
496.974	377.73
497.344	393.1
497.713	382.7
498.082	396.71
498.452	382.25
498.821	386.09
499.19	403.72
499.559	397.84
499.928	396.49
500.298	398.52
500.667	403.72
501.036	405.98
501.405	418.86
501.774	392.65
502.143	389.48
502.512	402.14
502.88	395.81
503.249	421.57
503.618	404.17
503.987	414.57
504.356	414.57
504.724	418.86
505.093	387.67
505.462	419.54
505.83	405.53
506.199	416.37
506.567	426.32
506.936	410.72
507.304	415.7
507.672	439.65
508.041	414.57
508.409	415.7
508.777	421.34
509.145	434.45
509.514	425.41
509.882	414.79
510.25	427.45
510.618	453.43
510.986	423.6
511.354	439.42
511.722	431.51
512.09	417.96
512.458	449.59
512.826	418.41
513.193	434.68
513.561	438.52
513.929	429.25
514.297	431.97
514.664	432.64
515.032	443.27
515.4	441.46
515.767	445.07
516.135	451.85
516.502	423.6
516.869	439.2
517.237	432.64
517.604	452.3
517.972	459.99
518.339	434.68
518.706	461.12
519.073	461.8
519.44	458.63
519.808	468.58
520.175	469.93
520.542	465.41
520.909	462.47
521.276	482.81
521.643	476.26
522.009	474.68
522.376	465.19
522.743	462.47
523.11	466.09
523.477	471.96
523.843	477.16
524.21	461.57
524.577	446.88
524.943	476.48
525.31	472.64
525.676	469.93
526.043	456.6
526.409	482.13
526.776	472.64
527.142	471.51
527.508	468.8
527.874	507.44
528.241	457.5
528.607	481.91
528.973	473.09
529.339	481.23
529.705	497.73
530.071	498.63
530.437	493.66
530.803	469.03
531.169	459.31
531.535	483.26
531.901	498.4
532.267	469.71
532.632	485.75
532.998	487.56
533.364	480.33
533.73	499.53
534.095	509.93
534.461	511.29
534.826	484.62
535.192	496.37
535.557	517.39
535.923	529.82
536.288	502.7
536.653	483.72
537.019	481.91
537.384	487.11
537.749	488.69
538.114	492.08
538.479	511.96
538.845	520.55
539.21	490.95
539.575	500.44
539.94	502.25
540.305	511.29
540.67	489.82
541.034	501.34
541.399	518.29
541.764	511.51
542.129	512.42
542.494	496.15
542.858	504.96
543.223	501.34
543.587	520.55
543.952	528.91
544.316	518.07
544.681	518.74
545.045	499.53
545.41	506.99
545.774	505.86
546.138	521
546.503	523.94
546.867	517.84
547.231	518.74
547.595	506.54
547.959	525.52
548.324	501.79
548.688	510.61
549.052	534.79
549.416	520.55
549.779	506.31
550.143	506.09
550.507	532.53
550.871	526.43
551.235	536.37
551.599	501.79
551.962	541.57
552.326	509.93
552.689	531.62
553.053	509.03
553.417	533.66
553.78	521.46
554.143	537.27
554.507	554.9
554.87	525.97
555.234	533.43
555.597	541.34
555.96	532.08
556.323	530.49
556.686	531.62
557.05	516.03
557.413	543.6
557.776	544.51
558.139	549.03
558.502	552.64
558.865	550.38
559.228	506.77
559.59	555.13
559.953	543.6
560.316	541.79
560.679	540.66
561.041	556.48
561.404	559.87
561.767	547.22
562.129	547.67
562.492	552.41
562.854	533.88
563.217	540.44
563.579	532.98
563.941	550.38
564.304	557.16
564.666	548.57
565.028	563.94
565.39	559.65
565.753	547.22
566.115	550.16
566.477	552.87
566.839	557.39
567.201	563.94
567.563	562.58
567.925	570.49
568.287	556.71
568.648	556.93
569.01	573.88
569.372	556.93
569.734	566.65
570.095	572.08
570.457	561.68
570.819	585.63
571.18	550.16
571.542	580.44
571.903	583.83
572.265	573.66
572.626	572.98
572.987	588.12
573.349	560.32
573.71	571.4
574.071	555.35
574.432	562.36
574.794	579.76
575.155	549.93
575.516	596.93
575.877	584.5
576.238	575.92
576.599	575.24
576.96	586.54
577.32	559.87
577.681	582.02
578.042	591.74
578.403	577.05
578.763	576.82
579.124	589.7
579.485	574.79
579.845	582.24
580.206	579.08
580.566	585.18
580.927	572.08
581.287	573.88
581.648	584.73
582.008	577.5
582.368	589.7
582.728	583.83
583.089	575.92
583.449	551.74
583.809	579.31
584.169	584.28
584.529	576.37
584.889	610.04
585.249	577.05
585.609	572.75
585.969	586.09
586.329	578.63
586.688	589.25
587.048	601
587.408	596.26
587.768	589.48
588.127	572.98
588.487	582.24
588.846	581.11
589.206	559.42
589.565	573.21
589.925	578.63
590.284	583.15
590.643	585.86
591.003	578.85
591.362	576.82
591.721	568.69
592.08	577.95
592.44	567.56
592.799	570.49
593.158	567.78
593.517	578.18
593.876	567.33
594.235	557.61
594.593	560.78
594.952	552.87
595.311	551.06
595.67	577.95
596.029	594
596.387	581.34
596.746	554
597.104	579.53
597.463	572.3
597.822	575.24
598.18	558.06
598.538	550.61
598.897	552.19
599.255	569.59
599.613	559.65
599.972	561.91
600.33	562.13
600.688	557.39
601.046	557.16
601.404	560.78
601.762	583.6
602.12	553.54
602.478	573.43
602.836	571.85
603.194	541.34
603.552	565.52
603.91	548.35
604.268	553.77
604.625	545.18
604.983	563.26
605.341	542.92
605.698	556.48
606.056	554
606.413	552.87
606.771	561
607.128	553.54
607.485	554.67
607.843	580.21
608.2	529.14
608.557	560.1
608.914	543.6
609.272	540.21
609.629	549.25
609.986	552.41
610.343	534.34
610.7	551.51
611.057	531.62
611.414	549.03
611.771	537.05
612.127	548.57
612.484	543.38
612.841	544.73
613.198	560.1
613.554	547.9
613.911	526.43
614.267	545.64
614.624	552.41
614.98	525.75
615.337	533.43
615.693	535.01
616.05	537.05
616.406	525.3
616.762	518.52
617.118	524.62
617.475	522.59
617.831	525.52
618.187	530.27
618.543	526.65
618.899	528.01
619.255	512.42
619.611	533.43
619.967	538.63
620.323	524.17
620.678	519.87
621.034	523.26
621.39	514.9
621.746	521.46
622.101	556.03
622.457	498.63
622.812	506.54
623.168	533.43
623.523	505.18
623.879	514.9
624.234	498.63
624.589	497.05
624.945	492.53
625.3	522.13
625.655	494.79
626.01	501.57
626.365	490.5
626.72	494.79
627.075	495.69
627.43	521.23
627.785	492.08
628.14	490.04
628.495	502.7
628.85	470.61
629.205	505.18
629.559	484.39
629.914	487.56
630.269	478.29
630.623	494.56
630.978	478.29
631.332	503.38
631.687	502.02
632.041	497.28
632.396	499.08
632.75	494.79
633.104	481.91
633.459	464.28
633.813	495.02
634.167	474.22
634.521	473.77
634.875	502.25
635.229	496.82
635.583	472.42
635.937	459.99
636.291	483.72
636.645	462.25
636.999	459.99
637.352	492.08
637.706	477.16
638.06	475.35
638.413	469.93
638.767	472.64
639.121	469.93
639.474	471.74
639.828	450.72
640.181	476.71
640.534	457.5
640.888	476.94
641.241	466.54
641.594	441.91
641.947	451.17
642.301	431.74
642.654	437.16
643.007	431.29
643.36	456.6
643.713	465.41
644.066	437.62
644.419	469.93
644.771	446.65
645.124	447.78
645.477	466.09
645.83	443.04
646.182	466.99
646.535	443.49
646.888	434
647.24	430.84
647.593	444.62
647.945	428.12
648.298	416.15
648.65	438.97
649.002	439.2
649.355	462.7
649.707	421.34
650.059	417.73
650.411	422.02
650.763	425.86
651.115	427.67
651.467	444.62
651.819	438.97
652.171	448.24
652.523	438.29
652.875	423.38
653.227	426.99
653.578	424.51
653.93	421.57
654.282	407.79
654.633	410.95
654.985	422.25
655.337	399.88
655.688	416.83
656.039	416.15
656.391	404.4
656.742	403.94
657.094	397.84
657.445	424.96
657.796	428.35
658.147	421.34
658.498	436.71
658.849	421.8
659.2	415.02
659.551	386.54
659.902	406.2
660.253	413.21
660.604	405.3
660.955	392.87
661.306	405.3
661.656	390.16
662.007	399.42
662.358	410.05
662.708	400.33
663.059	382.7
663.409	393.77
663.76	403.49
664.11	418.63
664.461	406.2
664.811	397.62
665.161	392.19
665.511	401.46
665.862	389.26
666.212	374.34
666.562	401.23
666.912	397.84
667.262	403.27
667.612	386.77
667.962	410.5
668.312	385.87
668.662	393.55
669.011	377.28
669.361	383.15
669.711	398.52
670.06	385.87
670.41	376.83
670.76	375.7
671.109	394.23
671.459	391.97
671.808	387.67
672.157	395.36
672.507	387
672.856	387.22
673.205	389.03
673.554	375.47
673.904	391.29
674.253	382.7
674.602	410.95
674.951	396.94
675.3	369.82
675.649	379.76
675.998	386.32
676.346	360.78
676.695	365.53
677.044	384.28
677.393	387.9
677.741	386.09
678.09	370.72
678.438	368.69
678.787	376.37
679.135	388.58
679.484	391.74
679.832	383.15
680.181	369.82
680.529	370.72
680.877	350.84
681.225	344.74
681.573	362.14
681.922	373.44
682.27	364.62
682.618	365.53
682.966	382.7
683.314	368.92
683.661	383.61
684.009	391.06
684.357	361.91
684.705	372.76
685.053	370.72
685.4	364.17
685.748	363.04
686.095	361.01
686.443	379.54
686.79	373.66
687.138	354
687.485	358.52
687.832	354.23
688.18	347
688.527	370.5
688.874	365.53
689.221	364.4
689.568	340.89
689.915	363.04
690.262	359.2
690.609	378.63
690.956	346.09
691.303	352.65
691.65	351.52
691.997	361.01
692.344	361.69
692.69	358.52
693.037	352.19
693.383	358.75
693.73	365.08
694.077	351.74
694.423	354.23
694.769	350.16
695.116	352.87
695.462	350.39
695.808	351.52
696.155	345.19
696.501	359.43
696.847	344.28
697.193	347
697.539	364.62
697.885	354.68
698.231	348.35
698.577	346.09
698.923	340.22
699.269	359.88
699.614	357.17
699.96	343.61
700.306	368.69
700.651	370.5
700.997	348.35
701.342	340.67
701.688	372.53
702.033	349.03
702.379	339.99
702.724	368.69
703.069	354.23
703.415	322.82
703.76	328.69
704.105	351.74
704.45	349.93
704.795	367.11
705.14	344.74
705.485	335.92
705.83	330.5
706.175	325.08
706.52	348.58
706.865	338.41
707.209	348.35
707.554	345.64
707.899	329.37
708.243	362.36
708.588	358.3
708.932	343.61
709.277	359.65
709.621	342.93
709.966	356.49
710.31	353.32
710.654	356.04
710.998	343.15
711.342	356.94
711.687	317.17
712.031	349.03
712.375	364.4
712.719	337.96
713.063	339.54
713.407	338.64
713.75	330.27
714.094	339.54
714.438	345.19
714.782	334.34
715.125	326.21
715.469	341.8
715.812	351.74
716.156	350.84
716.499	341.12
716.843	354.45
717.186	357.62
717.53	323.95
717.873	341.35
718.216	330.95
718.559	347.9
718.902	330.5
719.246	342.25
719.589	354
719.932	334.79
720.275	330.05
720.617	334.57
720.96	334.12
721.303	329.6
721.646	338.64
721.989	329.37
722.331	349.48
722.674	343.38
723.016	337.51
723.359	333.89
723.701	347.45
724.044	323.04
724.386	327.34
724.729	346.32
725.071	316.94
725.413	339.09
725.755	338.64
726.097	349.48
726.439	324.17
726.782	331.4
727.124	319.88
727.465	329.82
727.807	335.92
728.149	324.62
728.491	323.95
728.833	333.21
729.175	314.23
729.516	321.23
729.858	338.18
730.199	345.64
730.541	333.66
730.882	321.69
731.224	317.39
731.565	343.15
731.906	334.34
732.248	335.25
732.589	345.19
732.93	344.06
733.271	338.18
733.612	320.1
733.953	315.13
734.294	341.35
734.635	334.34
734.976	346.09
735.317	343.61
735.658	332.53
735.999	321.46
736.339	325.98
736.68	334.12
737.021	350.84
737.361	327.79
737.702	323.95
738.042	347.9
738.383	337.05
738.723	342.48
739.063	325.08
739.404	325.08
739.744	334.34
740.084	334.34
740.424	345.64
740.764	337.05
741.104	334.34
741.444	334.57
741.784	331.4
742.124	321.69
742.464	333.44
742.804	331.86
743.143	321.91
743.483	323.04
743.823	352.19
744.162	318.52
744.502	343.61
744.841	326.88
745.181	336.15
745.52	315.36
745.86	332.08
746.199	335.92
746.538	314.46
746.877	336.15
747.216	325.53
747.556	328.01
747.895	349.26
748.234	318.3
748.573	321.01
748.911	335.7
749.25	315.36
749.589	317.39
749.928	332.08
750.267	347.22
750.605	325.3
750.944	324.62
751.283	348.13
751.621	337.05
751.96	323.49
752.298	317.84
752.636	332.31
752.975	341.12
753.313	332.53
753.651	335.25
753.989	327.34
754.327	346.32
754.666	313.33
755.004	310.16
755.342	318.75
755.679	336.83
756.017	332.99
756.355	325.53
756.693	336.6
757.031	342.25
757.368	349.48
757.706	338.41
758.044	333.89
758.381	327.56
758.719	328.69
759.056	337.73
759.394	327.56
759.731	325.53
760.068	322.59
760.405	323.72
760.743	323.49
761.08	312.2
761.417	326.21
761.754	340.67
762.091	319.88
762.428	316.04
762.765	339.99
763.102	329.14
763.438	313.55
763.775	318.3
764.112	309.03
764.449	331.63
764.785	313.78
765.122	329.14
765.458	335.25
765.795	332.08
766.131	333.89
766.467	312.65
766.804	343.15
767.14	309.71
767.476	330.73
767.812	319.88
768.148	323.95
768.485	312.42
768.821	317.17
769.157	326.88
769.492	331.4
769.828	331.18
770.164	327.56
770.5	335.7
770.836	327.11
771.171	327.34
771.507	344.28
771.842	322.36
772.178	337.28
772.513	312.2
772.849	321.01
773.184	328.01
773.519	336.15
773.855	343.61
774.19	332.08
774.525	321.69
774.86	320.56
775.195	312.65
775.53	326.66
775.865	323.04
776.2	334.12
776.535	328.47
776.87	332.31
777.205	334.12
777.539	330.73
777.874	327.11
778.209	329.6
778.543	323.04
778.878	350.39
779.212	356.49
779.547	319.65
779.881	338.18
780.215	323.27
780.55	326.21
780.884	329.14
781.218	324.62
781.552	351.29
781.886	340.44
782.22	336.83
782.554	339.54
782.888	342.7
783.222	304.06
783.556	317.17
783.889	322.82
784.223	337.05
784.557	326.43
784.89	331.4
785.224	322.14
785.557	326.88
785.891	333.21
786.224	330.73
786.558	335.7
786.891	339.31
787.224	332.76
787.557	319.88
787.891	324.85
788.224	322.82
788.557	330.95
788.89	319.43
789.223	328.24
789.556	329.6
