Data from No_light_on_white_reflection_standard_FLMS001491_020.txt Node
Date: Tue Feb 07 10:32:56 GMT 2017
User: dcchb
Spectrometer: FLMS00149
Trigger mode: 0
Integration Time (sec): 2.000000E-2
Scans to average: 10
Electric dark correction enabled: true
Nonlinearity correction enabled: false
Boxcar width: 0
XAxis mode: Wavelengths
Number of Pixels in Spectrum: 2048
>>>>>Begin Spectral Data<<<<<
341.393	-6.79
341.776	-6.79
342.16	-6.79
342.543	-83.63
342.927	-82.27
343.31	-74.36
343.693	-47.92
344.077	-79.11
344.46	-48.15
344.843	-44.53
345.226	-51.99
345.61	-38.21
345.993	-32.78
346.376	3.6
346.759	-6.12
347.142	32.3
347.525	53.54
347.908	54.45
348.291	71.85
348.674	96.25
349.057	111.17
349.44	115.24
349.823	142.36
350.206	160.89
350.588	141.9
350.971	168.34
351.354	194.56
351.737	209.47
352.119	226.19
352.502	258.28
352.884	241.56
353.267	249.02
353.65	256.93
354.032	270.49
354.414	252.41
354.797	270.04
355.179	288.57
355.562	278.62
355.944	283.37
356.326	292.63
356.709	322.69
357.091	289.24
357.473	306.42
357.855	310.71
358.238	301.22
358.62	303.93
359.002	321.56
359.384	301.45
359.766	292.41
360.148	315.46
360.53	286.76
360.912	289.02
361.294	316.14
361.676	300.99
362.057	275.46
362.439	285.4
362.821	284.72
363.203	280.43
363.584	278.17
363.966	280.43
364.348	279.3
364.729	280.88
365.111	260.32
365.493	288.11
365.874	266.65
366.256	284.27
366.637	256.25
367.019	262.58
367.4	280.88
367.781	280.66
368.163	270.71
368.544	250.37
368.925	249.47
369.306	270.71
369.688	254.89
370.069	276.59
370.45	253.31
370.831	293.09
371.212	274.1
371.593	264.16
371.974	269.13
372.355	268
372.736	241.79
373.117	271.84
373.498	256.25
373.879	259.41
374.26	274.78
374.641	270.04
375.021	267.1
375.402	291.73
375.783	287.89
376.163	258.28
376.544	284.95
376.925	274.78
377.305	241.11
377.686	284.95
378.066	281.79
378.447	272.75
378.827	290.15
379.208	287.89
379.588	279.75
379.968	271.39
380.349	273.65
380.729	286.98
381.109	277.49
381.489	275.01
381.87	272.75
382.25	284.95
382.63	287.89
383.01	275.23
383.39	282.24
383.77	311.39
384.15	257.61
384.53	284.72
384.91	261
385.29	268.68
385.67	281.33
386.049	292.18
386.429	272.07
386.809	291.28
387.189	285.18
387.568	263.93
387.948	292.86
388.328	277.04
388.707	293.76
389.087	280.88
389.466	264.39
389.846	272.75
390.225	301.45
390.605	289.24
390.984	273.43
391.363	273.88
391.743	284.5
392.122	278.17
392.501	300.77
392.881	280.2
393.26	300.54
393.639	280.2
394.018	296.02
394.397	290.37
394.776	291.96
395.155	292.18
395.534	292.86
395.913	287.66
396.292	287.44
396.671	297.61
397.05	293.09
397.429	288.79
397.808	298.51
398.186	288.34
398.565	282.92
398.944	287.21
399.323	287.89
399.701	283.59
400.08	275.68
400.458	285.63
400.837	279.75
401.215	288.79
401.594	300.54
401.972	287.89
402.351	290.83
402.729	310.03
403.107	273.65
403.486	290.15
403.864	303.71
404.242	294.22
404.62	282.01
404.999	317.27
405.377	292.63
405.755	300.77
406.133	274.55
406.511	300.99
406.889	282.69
407.267	306.19
407.645	286.76
408.023	286.08
408.401	310.94
408.779	305.29
409.156	305.97
409.534	293.54
409.912	299.41
410.29	299.86
410.667	313.2
411.045	293.54
411.422	292.86
411.8	320.43
412.178	289.47
412.555	304.16
412.933	297.15
413.31	305.29
413.687	315.91
414.065	297.83
414.442	324.05
414.819	293.76
415.197	310.71
415.574	319.3
415.951	314.1
416.328	315.91
416.705	306.42
417.082	318.4
417.46	307.1
417.837	310.94
418.214	296.25
418.591	290.6
418.967	296.02
419.344	279.98
419.721	310.49
420.098	287.66
420.475	306.19
420.852	302.58
421.228	310.03
421.605	298.51
421.982	306.64
422.358	300.09
422.735	307.77
423.111	303.03
423.488	338.06
423.864	308.23
424.241	319.75
424.617	313.65
424.994	303.25
425.37	319.07
425.746	290.6
426.123	299.86
426.499	297.61
426.875	319.53
427.251	309.81
427.627	314.33
428.003	310.26
428.379	305.97
428.756	298.06
429.132	315.46
429.507	309.13
429.883	323.82
430.259	315.68
430.635	306.19
431.011	309.58
431.387	304.84
431.763	313.42
432.138	307.1
432.514	323.37
432.89	318.85
433.265	322.01
433.641	313.65
434.016	302.58
434.392	315.01
434.767	344.38
435.143	309.81
435.518	333.31
435.894	324.72
436.269	318.17
436.644	316.81
437.02	318.4
437.395	331.73
437.77	324.72
438.145	325.63
438.52	304.61
438.895	331.28
439.271	325.85
439.646	317.49
440.021	327.43
440.395	306.42
440.77	329.69
441.145	327.89
441.52	322.92
441.895	330.82
442.27	332.41
442.645	332.63
443.019	348.68
443.394	328.34
443.769	343.93
444.143	325.4
444.518	333.08
444.892	334.44
445.267	342.35
445.641	318.85
446.016	348.9
446.39	339.19
446.764	373.08
447.139	381.44
447.513	341.22
447.887	349.36
448.262	346.19
448.636	343.71
449.01	366.3
449.384	388.45
449.758	348
450.132	352.52
450.506	354.55
450.88	367.43
451.254	335.8
451.628	367.21
452.002	374.89
452.376	351.62
452.75	360.65
453.123	339.64
453.497	355.23
453.871	360.65
454.244	371.73
454.618	378.06
454.992	374.89
455.365	344.16
455.739	376.02
456.112	357.49
456.486	355.91
456.859	353.42
457.232	369.69
457.606	366.08
457.979	374.21
458.352	357.94
458.725	356.81
459.099	336.47
459.472	358.17
459.845	370.82
460.218	337.15
460.591	350.03
460.964	342.58
461.337	355
461.71	357.72
462.083	366.3
462.456	351.39
462.829	363.37
463.201	334.89
463.574	344.61
463.947	350.71
464.32	355.68
464.692	353.2
465.065	346.87
465.438	348.23
465.81	337.15
466.183	332.41
466.555	352.74
466.928	348
467.3	327.21
467.672	362.01
468.045	344.16
468.417	350.71
468.789	367.66
469.161	348
469.534	342.12
469.906	346.42
470.278	346.19
470.65	347.77
471.022	353.87
471.394	344.84
471.766	342.35
472.138	339.64
472.51	364.04
472.882	330.6
473.253	362.01
473.625	357.94
473.997	354.78
474.369	355.46
474.74	347.32
475.112	330.6
475.484	331.28
475.855	351.16
476.227	340.77
476.598	354.55
476.97	360.2
477.341	341.67
477.713	334.67
478.084	337.38
478.455	337.83
478.827	351.16
479.198	341.67
479.569	364.95
479.94	348.68
480.311	343.93
480.682	348.9
481.053	344.16
481.424	364.27
481.795	351.62
482.166	356.13
482.537	364.27
482.908	362.01
483.279	352.07
483.65	356.59
484.021	349.36
484.391	339.41
484.762	342.58
485.133	359.52
485.503	357.26
485.874	343.25
486.244	360.65
486.615	354.33
486.985	372.86
487.356	348.9
487.726	373.99
488.097	339.41
488.467	378.51
488.837	347.55
489.207	379.41
489.578	372.18
489.948	387.09
490.318	344.84
490.688	378.96
491.058	370.82
491.428	368.56
491.798	388.9
492.168	384.38
492.538	367.21
492.908	365.4
493.278	391.39
493.648	364.27
494.017	378.73
494.387	393.65
494.757	358.39
495.126	370.6
495.496	377.15
495.866	379.18
496.235	392.52
496.605	376.02
496.974	390.94
497.344	387.77
497.713	384.83
498.082	391.84
498.452	386.87
498.821	392.07
499.19	404.27
499.559	389.58
499.928	391.61
500.298	398.85
500.667	398.39
501.036	408.34
501.405	395
501.774	393.2
502.143	372.41
502.512	393.87
502.88	401.56
503.249	411.05
503.618	404.04
503.987	392.07
504.356	399.07
504.724	401.78
505.093	402.91
505.462	403.14
505.83	409.92
506.199	414.66
506.567	409.69
506.936	406.08
507.304	412.63
507.672	419.64
508.041	404.72
508.409	406.98
508.777	423.93
509.145	446.3
509.514	428.45
509.882	418.96
510.25	423.03
510.618	406.3
510.986	423.48
511.354	438.39
511.722	421.67
512.09	415.57
512.458	408.11
512.826	419.18
513.193	414.66
513.561	444.95
513.929	429.13
514.297	431.84
514.664	435.68
515.032	417.6
515.4	444.72
515.767	423.7
516.135	424.61
516.502	442.01
516.869	460.54
517.237	422.8
517.604	442.01
517.972	460.31
518.339	448.79
518.706	441.33
519.073	440.43
519.44	452.63
519.808	451.73
520.175	430.26
520.542	460.31
520.909	451.95
521.276	440.88
521.643	461.89
522.009	467.54
522.376	466.19
522.743	489.46
523.11	464.15
523.477	454.21
523.843	474.1
524.21	475.91
524.577	467.54
524.943	458.28
525.31	462.12
525.676	475.68
526.043	471.84
526.409	482.23
526.776	463.7
527.142	457.6
527.508	492.63
527.874	496.02
528.241	477.26
528.607	484.27
528.973	472.29
529.339	479.97
529.705	492.18
530.071	491.72
530.437	468.45
530.803	485.62
531.169	477.71
531.535	490.37
531.901	469.35
532.267	469.8
532.632	474.55
532.998	476.58
533.364	481.78
533.73	497.37
534.095	512.29
534.461	499.41
534.826	494.44
535.192	494.89
535.557	493.76
535.923	483.14
536.288	490.37
536.653	508
537.019	495.34
537.384	501.44
537.749	496.7
538.114	523.14
538.479	471.84
538.845	528.79
539.21	513.64
539.575	498.96
539.94	493.31
540.305	500.76
540.67	496.92
541.034	510.48
541.399	497.15
541.764	499.41
542.129	512.74
542.494	500.54
542.858	524.27
543.223	502.57
543.587	484.94
543.952	491.95
544.316	496.02
544.681	521.1
545.045	476.13
545.41	494.44
545.774	523.14
546.138	497.15
546.503	492.18
546.867	524.49
547.231	501.44
547.595	504.61
547.959	517.49
548.324	502.57
548.688	505.74
549.052	526.3
549.416	536.69
549.779	505.28
550.143	511.84
550.507	512.97
550.871	542.12
551.235	523.81
551.599	513.87
551.962	525.62
552.326	528.79
552.689	535.79
553.053	526.75
553.417	512.06
553.78	526.53
554.143	520.2
554.507	528.11
554.87	521.78
555.234	502.57
555.597	525.17
555.96	530.59
556.323	526.07
556.686	507.09
557.05	545.96
557.413	525.17
557.776	541.67
558.139	530.37
558.502	536.02
558.865	535.11
559.228	536.02
559.59	523.14
559.953	554.1
560.316	532.18
560.679	557.71
561.041	536.47
561.404	540.76
561.767	543.25
562.129	555.45
562.492	529.69
562.854	555.45
563.217	535.79
563.579	531.05
563.941	523.36
564.304	531.72
564.666	534.44
565.028	572.85
565.39	573.76
565.753	567.65
566.115	551.84
566.477	566.98
566.839	574.89
567.201	550.03
567.563	544.6
567.925	554.32
568.287	536.47
568.648	578.5
569.01	570.14
569.372	566.07
569.734	563.36
570.095	589.57
570.457	559.97
570.819	570.14
571.18	564.04
571.542	580.54
571.903	556.58
572.265	562
572.626	579.86
572.987	552.29
573.349	598.16
573.71	572.63
574.071	560.88
574.432	557.94
574.794	559.29
575.155	571.04
575.516	562.23
575.877	567.65
576.238	557.94
576.599	575.11
576.96	596.35
577.32	588.9
577.681	566.75
578.042	585.51
578.403	597.94
578.763	581.44
579.124	581.67
579.485	572.17
579.845	564.72
580.206	562.23
580.566	569.01
580.927	582.12
581.287	562.91
581.648	573.3
582.008	594.55
582.368	579.63
582.728	576.24
583.089	590.7
583.449	575.79
583.809	575.34
584.169	599.07
584.529	596.13
584.889	597.94
585.249	589.8
585.609	548.22
585.969	575.56
586.329	573.76
586.688	584.38
587.048	567.2
587.408	578.73
587.768	573.76
588.127	584.15
588.487	580.54
588.846	590.25
589.206	564.94
589.565	562.68
589.925	553.19
590.284	567.88
590.643	583.93
591.003	558.16
591.362	556.81
591.721	564.26
592.08	561.78
592.44	571.95
592.799	566.07
593.158	577.6
593.517	572.85
593.876	557.71
594.235	569.01
594.593	559.29
594.952	571.27
595.311	575.56
595.67	576.24
596.029	560.42
596.387	575.11
596.746	565.39
597.104	578.95
597.463	558.16
597.822	549.8
598.18	548.67
598.538	549.8
598.897	566.98
599.255	548.67
599.613	548.22
599.972	571.04
600.33	582.12
600.688	566.98
601.046	549.8
601.404	546.19
601.762	550.93
602.12	563.81
602.478	585.51
602.836	553.87
603.194	547.32
603.552	549.58
603.91	546.19
604.268	580.54
604.625	546.64
604.983	575.11
605.341	548.22
605.698	542.34
606.056	554.77
606.413	546.41
606.771	569.69
607.128	540.31
607.485	558.16
607.843	560.2
608.2	544.38
608.557	555.9
608.914	540.31
609.272	551.38
609.629	556.81
609.986	552.06
610.343	540.76
610.7	573.08
611.057	551.38
611.414	545.06
611.771	529.01
612.127	542.8
612.484	546.41
612.841	542.57
613.198	552.29
613.554	557.26
613.911	567.43
614.267	549.35
614.624	547.32
614.98	517.71
615.337	547.09
615.693	519.52
616.05	538.05
616.406	535.34
616.762	534.44
617.118	525.62
617.475	536.24
617.831	531.72
618.187	546.41
618.543	525.85
618.899	519.29
619.255	511.61
619.611	523.36
619.967	519.07
620.323	525.4
620.678	528.11
621.034	521.78
621.39	539.86
621.746	511.84
622.101	524.72
622.457	489.24
622.812	489.24
623.168	538.95
623.523	515.68
623.879	501.89
624.234	481.1
624.589	497.37
624.945	517.49
625.3	489.69
625.655	515.9
626.01	511.38
626.365	503.25
626.72	498.96
627.075	507.32
627.43	498.5
627.785	489.92
628.14	503.93
628.495	487.66
628.85	472.52
629.205	509.58
629.559	516.81
629.914	478.17
630.269	492.4
630.623	499.18
630.978	502.57
631.332	467.77
631.687	485.17
632.041	483.81
632.396	493.53
632.75	480.43
633.104	477.94
633.459	473.87
633.813	460.09
634.167	473.42
634.521	474.1
634.875	477.94
635.229	479.07
635.583	489.69
635.937	479.07
636.291	475.23
636.645	491.27
636.999	481.33
637.352	465.06
637.706	485.4
638.06	482.91
638.413	479.3
638.767	470.71
639.121	451.95
639.474	462.12
639.828	488.11
640.181	455.79
640.534	464.15
640.888	462.57
641.241	432.97
641.594	452.63
641.947	473.42
642.301	457.83
642.654	457.37
643.007	445.62
643.36	451.5
643.713	453.76
644.066	459.63
644.419	439.75
644.771	439.52
645.124	425.74
645.477	448.56
645.83	428.9
646.182	431.16
646.535	434.78
646.888	422.12
647.24	414.66
647.593	442.46
647.945	432.06
648.298	426.64
648.65	423.48
649.002	437.04
649.355	424.83
649.707	403.82
650.059	425.51
650.411	424.83
650.763	429.81
651.115	427.32
651.467	444.95
651.819	412.4
652.171	453.99
652.523	423.93
652.875	442.69
653.227	438.84
653.578	432.52
653.93	403.82
654.282	438.39
654.633	411.95
654.985	401.78
655.337	418.28
655.688	420.09
656.039	430.71
656.391	402.01
656.742	420.09
657.094	418.28
657.445	418.51
657.796	409.47
658.147	409.69
658.498	408.56
658.849	400.2
659.2	421.22
659.551	407.21
659.902	418.28
660.253	391.39
660.604	392.97
660.955	401.78
661.306	391.61
661.656	397.49
662.007	406.08
662.358	387.32
662.708	398.17
663.059	404.5
663.409	410.14
663.76	377.15
664.11	392.07
664.461	419.64
664.811	399.98
665.161	382.35
665.511	411.73
665.862	374.89
666.212	376.7
666.562	364.27
666.912	387.32
667.262	371.73
667.612	406.08
667.962	391.61
668.312	402.69
668.662	387.32
669.011	375.57
669.361	379.86
669.711	384.61
670.06	373.31
670.41	378.73
670.76	404.5
671.109	391.84
671.459	371.5
671.808	387.77
672.157	375.34
672.507	382.35
672.856	380.99
673.205	389.13
673.554	374.21
673.904	377.83
674.253	372.63
674.602	378.73
674.951	391.61
675.3	370.15
675.649	380.09
675.998	396.36
676.346	377.83
676.695	384.16
677.044	357.94
677.393	362.24
677.741	380.31
678.09	389.13
678.438	367.66
678.787	359.07
679.135	354.1
679.484	389.81
679.832	351.16
680.181	388
680.529	379.41
680.877	384.16
681.225	362.69
681.573	376.25
681.922	360.2
682.27	366.3
682.618	359.75
682.966	383.25
683.314	370.82
683.661	356.13
684.009	365.85
684.357	384.83
684.705	359.52
685.053	363.82
685.4	342.58
685.748	349.13
686.095	347.32
686.443	350.94
686.79	353.42
687.138	359.98
687.485	347.1
687.832	351.84
688.18	353.65
688.527	365.4
688.874	372.63
689.221	356.81
689.568	340.54
689.915	355
690.262	348
690.609	360.88
690.956	338.73
691.303	346.87
691.65	355.23
691.997	346.87
692.344	338.51
692.69	366.98
693.037	325.85
693.383	342.8
693.73	338.96
694.077	341.67
694.423	376.47
694.769	341.45
695.116	364.72
695.462	354.78
695.808	345.97
696.155	361.11
696.501	361.33
696.847	365.85
697.193	347.77
697.539	337.38
697.885	355.23
698.231	349.58
698.577	358.17
698.923	358.85
699.269	365.17
699.614	368.56
699.96	360.65
700.306	355.91
700.651	342.12
700.997	346.64
701.342	349.13
701.688	336.02
702.033	338.51
702.379	359.3
702.724	354.1
703.069	331.05
703.415	341.9
703.76	355.46
704.105	350.26
704.45	333.76
704.795	346.19
705.14	340.99
705.485	354.78
705.83	342.8
706.175	354.1
706.52	337.38
706.865	325.85
707.209	358.17
707.554	352.29
707.899	332.18
708.243	333.99
708.588	329.69
708.932	367.21
709.277	329.47
709.621	341.9
709.966	317.27
710.31	353.65
710.654	339.86
710.998	332.18
711.342	360.88
711.687	333.99
712.031	332.86
712.375	348
712.719	332.18
713.063	333.54
713.407	322.24
713.75	331.5
714.094	315.01
714.438	334.89
714.782	334.21
715.125	326.98
715.469	337.83
715.812	340.77
716.156	338.73
716.499	318.62
716.843	347.77
717.186	343.71
717.53	332.63
717.873	331.73
718.216	329.47
718.559	355.46
718.902	344.16
719.246	335.12
719.589	330.37
719.932	326.76
720.275	324.72
720.617	324.05
720.96	337.38
721.303	319.98
721.646	328.34
721.989	324.27
722.331	329.24
722.674	334.89
723.016	337.15
723.359	328.11
723.701	337.38
724.044	335.34
724.386	341.22
724.729	322.46
725.071	345.51
725.413	334.89
725.755	324.95
726.097	326.3
726.439	314.1
726.782	331.28
727.124	330.82
727.465	322.24
727.807	307.55
728.149	312.97
728.491	338.96
728.833	330.82
729.175	334.44
729.516	326.08
729.858	353.42
730.199	342.58
730.541	345.74
730.882	334.44
731.224	324.05
731.565	326.08
731.906	335.57
732.248	327.89
732.589	319.98
732.93	343.25
733.271	341.22
733.612	333.54
733.953	345.51
734.294	324.72
734.635	347.77
734.976	294.89
735.317	333.54
735.658	338.96
735.999	325.18
736.339	341.67
736.68	328.11
737.021	335.8
737.361	343.71
737.702	323.37
738.042	334.89
738.383	319.75
738.723	341.9
739.063	329.02
739.404	340.32
739.744	343.48
740.084	337.15
740.424	328.79
740.764	317.27
741.104	327.43
741.444	318.85
741.784	321.79
742.124	315.91
742.464	345.06
742.804	343.48
743.143	330.82
743.483	325.18
743.823	336.02
744.162	325.63
744.502	329.47
744.841	312.29
745.181	327.21
745.52	330.6
745.86	329.69
746.199	326.08
746.538	345.97
746.877	312.75
747.216	338.51
747.556	333.76
747.895	348.45
748.234	330.6
748.573	323.14
748.911	327.89
749.25	331.95
749.589	315.91
749.928	326.08
750.267	314.78
750.605	334.67
750.944	315.23
751.283	341.67
751.621	339.86
751.96	333.99
752.298	320.43
752.636	332.18
752.975	336.7
753.313	320.88
753.651	353.42
753.989	331.5
754.327	311.39
754.666	316.81
755.004	321.56
755.342	322.92
755.679	322.24
756.017	323.14
756.355	330.82
756.693	342.8
757.031	338.73
757.368	318.4
757.706	344.16
758.044	330.82
758.381	307.55
758.719	344.84
759.056	342.58
759.394	305.97
759.731	333.31
760.068	316.59
760.405	316.59
760.743	315.23
761.08	338.28
761.417	324.95
761.754	332.86
762.091	306.64
762.428	323.82
762.765	320.43
763.102	326.08
763.438	324.05
763.775	333.54
764.112	332.18
764.449	331.73
764.785	329.47
765.122	328.34
765.458	313.2
765.795	309.81
766.131	305.06
766.467	317.94
766.804	302.8
767.14	317.72
767.476	321.33
767.812	313.2
768.148	333.76
768.485	337.83
768.821	323.59
769.157	334.21
769.492	327.43
769.828	324.95
770.164	322.24
770.5	324.72
770.836	337.15
771.171	310.71
771.507	323.14
771.842	322.46
772.178	333.31
772.513	333.54
772.849	342.35
773.184	305.51
773.519	328.11
773.855	342.58
774.19	328.56
774.525	345.97
774.86	311.39
775.195	329.69
775.53	316.36
775.865	353.42
776.2	339.64
776.535	321.11
776.87	322.46
777.205	346.42
777.539	312.29
777.874	326.53
778.209	335.57
778.543	319.98
778.878	310.03
779.212	332.63
779.547	335.12
779.881	322.01
780.215	304.84
780.55	328.56
780.884	306.19
781.218	328.56
781.552	344.61
781.886	313.2
782.22	336.02
782.554	334.89
782.888	321.33
783.222	303.93
783.556	316.14
783.889	322.24
784.223	343.48
784.557	322.46
784.89	317.72
785.224	304.84
785.557	332.41
785.891	319.75
786.224	318.17
786.558	341.22
786.891	338.51
787.224	327.66
787.557	330.37
787.891	310.94
788.224	319.3
788.557	308.23
788.89	330.82
789.223	326.3
