Data from No_light_on_white_reflection_standard_FLMS001491_056.txt Node
Date: Tue Feb 07 10:33:03 GMT 2017
User: dcchb
Spectrometer: FLMS00149
Trigger mode: 0
Integration Time (sec): 2.000000E-2
Scans to average: 10
Electric dark correction enabled: true
Nonlinearity correction enabled: false
Boxcar width: 0
XAxis mode: Wavelengths
Number of Pixels in Spectrum: 2048
>>>>>Begin Spectral Data<<<<<
341.393	-22.7
341.776	-22.7
342.16	-22.7
342.543	-48.01
342.927	-81.9
343.31	-77.61
343.693	-78.06
344.077	-61.57
344.46	-44.84
344.843	-47.56
345.226	-26.54
345.61	-33.09
345.993	-27.44
346.376	-21.34
346.759	-10.04
347.142	34.02
347.525	54.36
347.908	67.02
348.291	80.58
348.674	82.16
349.057	109.95
349.44	135.94
349.823	170.74
350.206	161.03
350.588	154.02
350.971	180.69
351.354	188.37
351.737	226.34
352.119	230.18
352.502	240.8
352.884	247.35
353.267	242.83
353.65	253.23
354.032	253.45
354.414	289.84
354.797	266.33
355.179	273.79
355.562	307.24
355.944	308.37
356.326	302.49
356.709	321.25
357.091	305.66
357.473	327.12
357.855	315.6
358.238	312.66
358.62	305.88
359.002	310.85
359.384	296.84
359.766	313.79
360.148	299.1
360.53	302.94
360.912	300.91
361.294	304.3
361.676	308.59
362.057	292.55
362.439	302.04
362.821	286
363.203	286.9
363.584	294.13
363.966	298.88
364.348	299.1
364.729	303.85
365.111	295.94
365.493	278.76
365.874	275.37
366.256	293.9
366.637	269.05
367.019	286.9
367.4	271.31
367.781	276.96
368.163	274.92
368.544	242.61
368.925	274.47
369.306	284.41
369.688	284.41
370.069	290.29
370.45	272.66
370.831	264.3
371.212	272.89
371.593	271.76
371.974	282.61
372.355	279.89
372.736	268.37
373.117	293.9
373.498	266.33
373.879	274.24
374.26	296.39
374.641	278.09
375.021	280.35
375.402	268.59
375.783	271.53
376.163	288.93
376.544	290.29
376.925	288.03
377.305	270.4
377.686	268.82
378.066	276.28
378.447	308.14
378.827	302.72
379.208	283.06
379.588	280.8
379.968	277.41
380.349	276.28
380.729	274.92
381.109	294.81
381.489	285.54
381.87	273.34
382.25	296.39
382.63	242.83
383.01	310.4
383.39	283.96
383.77	289.39
384.15	298.42
384.53	274.7
384.91	304.53
385.29	281.7
385.67	289.61
386.049	311.08
386.429	300.01
386.809	318.31
387.189	286.9
387.568	304.98
387.948	284.41
388.328	286.9
388.707	283.28
389.087	304.07
389.466	291.64
389.846	314.24
390.225	315.15
390.605	297.97
390.984	280.8
391.363	271.53
391.743	300.23
392.122	313.57
392.501	272.66
392.881	292.1
393.26	308.82
393.639	302.72
394.018	282.38
394.397	274.92
394.776	278.99
395.155	295.26
395.534	293.45
395.913	296.39
396.292	294.58
396.671	306.79
397.05	296.39
397.429	300.23
397.808	303.85
398.186	293.45
398.565	288.93
398.944	309.5
399.323	294.58
399.701	299.78
400.08	301.36
400.458	308.82
400.837	288.93
401.215	320.8
401.594	291.64
401.972	295.26
402.351	316.05
402.729	297.75
403.107	313.34
403.486	306.56
403.864	296.84
404.242	301.14
404.62	284.87
404.999	296.62
405.377	303.17
405.755	318.76
406.133	304.3
406.511	311.98
406.889	318.54
407.267	301.14
407.645	309.27
408.023	295.03
408.401	283.74
408.779	292.1
409.156	271.08
409.534	302.27
409.912	296.39
410.29	300.91
410.667	278.54
411.045	300.68
411.422	316.73
411.8	312.66
412.178	313.57
412.555	310.85
412.933	312.21
413.31	292.55
413.687	317.41
414.065	305.43
414.442	291.42
414.819	302.49
415.197	321.47
415.574	300.46
415.951	302.72
416.328	294.58
416.705	306.56
417.082	295.03
417.46	295.03
417.837	297.29
418.214	305.66
418.591	300.46
418.967	264.07
419.344	310.63
419.721	312.21
420.098	309.27
420.475	324.19
420.852	308.14
421.228	314.02
421.605	308.37
421.982	307.46
422.358	297.75
422.735	293.9
423.111	305.43
423.488	319.21
423.864	314.02
424.241	303.85
424.617	315.6
424.994	319.67
425.37	314.47
425.746	314.47
426.123	283.51
426.499	302.49
426.875	310.85
427.251	311.98
427.627	321.7
428.003	337.52
428.379	291.87
428.756	316.73
429.132	299.55
429.507	306.56
429.883	323.96
430.259	323.73
430.635	309.05
431.011	322.15
431.387	309.27
431.763	314.24
432.138	329.16
432.514	326.45
432.89	318.54
433.265	311.53
433.641	323.73
434.016	321.93
434.392	313.57
434.767	323.73
435.143	324.86
435.518	300.91
435.894	314.7
436.269	311.76
436.644	330.51
437.02	316.28
437.395	322.6
437.77	322.83
438.145	318.54
438.52	317.41
438.895	327.35
439.271	326.67
439.646	325.32
440.021	323.28
440.395	340.01
440.77	344.75
441.145	334.13
441.52	337.07
441.895	348.37
442.27	350.85
442.645	354.92
443.019	347.46
443.394	343.17
443.769	333.45
444.143	361.02
444.518	340.23
444.892	355.82
445.267	344.98
445.641	352.43
446.016	357.86
446.39	359.67
446.764	364.86
447.139	349.27
447.513	348.37
447.887	372.55
448.262	344.3
448.636	362.6
449.01	375.48
449.384	341.59
449.758	358.08
450.132	364.64
450.506	375.03
450.88	371.64
451.254	370.51
451.628	381.36
452.002	390.17
452.376	381.36
452.75	358.54
453.123	380.68
453.497	358.54
453.871	369.16
454.244	358.99
454.618	381.13
454.992	388.82
455.365	370.96
455.739	371.42
456.112	379.55
456.486	364.64
456.859	368.93
457.232	364.41
457.606	350.17
457.979	367.35
458.352	366.45
458.725	367.8
459.099	369.16
459.472	376.39
459.845	370.06
460.218	368.7
460.591	376.39
460.964	359.44
461.337	375.94
461.71	369.83
462.083	358.08
462.456	366.9
462.829	356.5
463.201	382.49
463.574	351.3
463.947	368.93
464.32	331.42
464.692	359.67
465.065	359.89
465.438	365.77
465.81	359.67
466.183	333.68
466.555	360.34
466.928	359.67
467.3	337.07
467.672	364.19
468.045	357.41
468.417	357.41
468.789	356.05
469.161	357.63
469.534	361.47
469.906	345.88
470.278	364.64
470.65	347.46
471.022	355.37
471.394	334.36
471.766	344.98
472.138	355.82
472.51	340.23
472.882	331.87
473.253	360.57
473.625	352.89
473.997	346.11
474.369	336.62
474.74	344.3
475.112	354.24
475.484	347.69
475.855	371.19
476.227	348.82
476.598	347.01
476.97	354.69
477.341	347.24
477.713	356.05
478.084	324.64
478.455	350.4
478.827	368.25
479.198	358.31
479.569	366.45
479.94	370.29
480.311	351.08
480.682	355.6
481.053	351.08
481.424	372.55
481.795	347.91
482.166	363.51
482.537	348.37
482.908	342.49
483.279	366.45
483.65	365.77
484.021	382.94
484.391	386.33
484.762	359.89
485.133	360.8
485.503	350.85
485.874	366.9
486.244	354.47
486.615	370.06
486.985	344.75
487.356	334.58
487.726	373
488.097	354.92
488.467	356.05
488.837	365.54
489.207	361.25
489.578	398.76
489.948	365.09
490.318	359.44
490.688	352.66
491.058	380.46
491.428	366.22
491.798	386.11
492.168	360.8
492.538	374.13
492.908	393.56
493.278	382.72
493.648	382.94
494.017	396.5
494.387	395.37
494.757	363.96
495.126	394.02
495.496	379.55
495.866	393.79
496.235	378.42
496.605	389.27
496.974	387.46
497.344	417.52
497.713	391.53
498.082	410.29
498.452	403.51
498.821	399.89
499.19	410.29
499.559	409.38
499.928	393.11
500.298	412.77
500.667	436.73
501.036	400.57
501.405	403.73
501.774	389.72
502.143	407.35
502.512	386.33
502.88	399.89
503.249	398.76
503.618	404.86
503.987	426.1
504.356	401.02
504.724	410.96
505.093	406.22
505.462	419.55
505.83	414.81
506.199	415.03
506.567	419.78
506.936	433.56
507.304	424.3
507.672	437.86
508.041	437.86
508.409	433.11
508.777	444.86
509.145	424.07
509.514	412.55
509.882	420.68
510.25	467.69
510.618	450.74
510.986	429.04
511.354	436.05
511.722	445.54
512.09	438.76
512.458	469.49
512.826	438.08
513.193	437.86
513.561	447.8
513.929	440.34
514.297	438.08
514.664	447.12
515.032	447.57
515.4	434.92
515.767	435.6
516.135	463.84
516.502	457.06
516.869	452.09
517.237	465.65
517.604	461.13
517.972	458.42
518.339	450.74
518.706	451.64
519.073	474.24
519.44	479.89
519.808	464.3
520.175	462.49
520.542	469.49
520.909	479.21
521.276	449.61
521.643	467.23
522.009	483.5
522.376	482.37
522.743	465.65
523.11	474.46
523.477	465.43
523.843	475.59
524.21	485.31
524.577	492.54
524.943	481.47
525.31	474.01
525.676	500.23
526.043	499.77
526.409	478.08
526.776	484.41
527.142	511.53
527.508	515.82
527.874	484.86
528.241	494.8
528.607	493.45
528.973	498.42
529.339	501.81
529.705	487.12
530.071	499.55
530.437	514.92
530.803	511.3
531.169	506.55
531.535	477.4
531.901	501.58
532.267	485.31
532.632	512.88
532.998	503.39
533.364	496.16
533.73	512.43
534.095	519.44
534.461	505.2
534.826	528.25
535.192	507.46
535.557	497.74
535.923	517.85
536.288	531.41
536.653	527.12
537.019	530.51
537.384	508.59
537.749	486.67
538.114	511.75
538.479	525.09
538.845	516.27
539.21	515.82
539.575	512.43
539.94	525.31
540.305	515.14
540.67	514.46
541.034	517.4
541.399	516.5
541.764	530.06
542.129	506.33
542.494	523.28
542.858	537.74
543.223	518.98
543.587	514.92
543.952	552.2
544.316	549.49
544.681	514.69
545.045	518.76
545.41	528.47
545.774	529.38
546.138	517.18
546.503	534.35
546.867	523.5
547.231	540.9
547.595	510.17
547.959	520.11
548.324	511.3
548.688	521.7
549.052	548.81
549.416	544.07
549.779	519.44
550.143	548.36
550.507	511.98
550.871	527.8
551.235	515.14
551.599	536.16
551.962	534.12
552.326	539.32
552.689	536.16
553.053	542.71
553.417	532.54
553.78	534.35
554.143	547.91
554.507	560.34
554.87	562.6
555.234	537.51
555.597	537.97
555.96	530.28
556.323	550.17
556.686	547.46
557.05	543.39
557.413	565.08
557.776	540
558.139	532.77
558.502	534.58
558.865	542.94
559.228	547.01
559.59	550.17
559.953	547.68
560.316	559.21
560.679	540.45
561.041	546.78
561.404	559.89
561.767	573.45
562.129	554.24
562.492	565.08
562.854	568.7
563.217	564.41
563.579	552.88
563.941	554.24
564.304	566.21
564.666	579.77
565.028	578.42
565.39	574.8
565.753	554.69
566.115	576.38
566.477	569.6
566.839	574.12
567.201	561.02
567.563	576.84
567.925	581.81
568.287	589.72
568.648	570.96
569.01	569.38
569.372	577.74
569.734	571.19
570.095	564.18
570.457	582.26
570.819	594.91
571.18	588.13
571.542	569.38
571.903	582.03
572.265	598.3
572.626	580.45
572.987	582.71
573.349	587.46
573.71	570.51
574.071	590.39
574.432	600.34
574.794	581.13
575.155	590.17
575.516	600.56
575.877	603.28
576.238	590.39
576.599	593.33
576.96	597.17
577.32	576.84
577.681	596.27
578.042	597.17
578.403	587.46
578.763	601.69
579.124	607.34
579.485	565.54
579.845	578.19
580.206	564.63
580.566	604.41
580.927	582.71
581.287	587.46
581.648	582.48
582.008	577.51
582.368	612.54
582.728	578.64
583.089	597.63
583.449	585.87
583.809	580.68
584.169	588.13
584.529	597.85
584.889	591.3
585.249	608.7
585.609	603.5
585.969	568.02
586.329	595.37
586.688	601.47
587.048	614.8
587.408	579.09
587.768	599.66
588.127	578.64
588.487	599.66
588.846	560.34
589.206	576.84
589.565	587.23
589.925	589.49
590.284	591.75
590.643	574.58
591.003	604.41
591.362	601.02
591.721	584.97
592.08	595.14
592.44	595.37
592.799	587.23
593.158	577.74
593.517	592.2
593.876	588.13
594.235	576.38
594.593	587.68
594.952	617.06
595.311	587
595.67	586.1
596.029	596.5
596.387	593.11
596.746	584.74
597.104	582.94
597.463	577.74
597.822	603.5
598.18	582.94
598.538	577.97
598.897	581.58
599.255	587.68
599.613	561.24
599.972	570.51
600.33	562.82
600.688	555.82
601.046	573.67
601.404	577.06
601.762	554.46
602.12	584.74
602.478	579.32
602.836	571.19
603.194	564.18
603.552	580.9
603.91	566.44
604.268	573.22
604.625	579.77
604.983	581.13
605.341	560.34
605.698	550.17
606.056	573.45
606.413	578.19
606.771	566.89
607.128	553.78
607.485	567.12
607.843	554.24
608.2	552.65
608.557	551.75
608.914	569.83
609.272	558.3
609.629	560.34
609.986	589.94
610.343	578.42
610.7	551.3
611.057	575.48
611.414	557.4
611.771	544.29
612.127	540.45
612.484	571.41
612.841	560.56
613.198	576.84
613.554	537.97
613.911	548.14
614.267	537.51
614.624	547.23
614.98	548.81
615.337	541.13
615.693	539.55
616.05	557.4
616.406	554.91
616.762	553.78
617.118	542.49
617.475	549.49
617.831	551.07
618.187	553.78
618.543	558.53
618.899	552.2
619.255	559.21
619.611	566.89
619.967	542.49
620.323	528.25
620.678	521.02
621.034	550.17
621.39	549.49
621.746	535.25
622.101	540.9
622.457	548.36
622.812	528.93
623.168	545.42
623.523	522.37
623.879	530.51
624.234	526.21
624.589	528.02
624.945	504.75
625.3	513.79
625.655	521.02
626.01	546.78
626.365	525.54
626.72	514.01
627.075	488.02
627.43	528.47
627.785	490.06
628.14	501.81
628.495	502.26
628.85	517.4
629.205	506.1
629.559	496.84
629.914	499.1
630.269	515.37
630.623	503.39
630.978	511.98
631.332	496.39
631.687	483.28
632.041	499.1
632.396	493.67
632.75	483.96
633.104	485.09
633.459	495.93
633.813	485.76
634.167	474.01
634.521	490.06
634.875	503.39
635.229	470.62
635.583	495.71
635.937	459.78
636.291	461.36
636.645	480.11
636.999	467.46
637.352	493.45
637.706	478.31
638.06	458.42
638.413	487.8
638.767	466.1
639.121	474.46
639.474	457.06
639.828	483.28
640.181	489.38
640.534	483.73
640.888	480.34
641.241	468.14
641.594	476.27
641.947	466.1
642.301	445.54
642.654	488.02
643.007	426.33
643.36	471.08
643.713	455.71
644.066	462.04
644.419	443.05
644.771	452.32
645.124	436.05
645.477	452.32
645.83	448.7
646.182	462.49
646.535	447.35
646.888	448.02
647.24	446.9
647.593	462.26
647.945	455.93
648.298	444.64
648.65	447.12
649.002	450.51
649.355	435.37
649.707	447.12
650.059	446.44
650.411	431.98
650.763	433.34
651.115	436.73
651.467	446.22
651.819	452.77
652.171	448.7
652.523	429.04
652.875	429.04
653.227	440.34
653.578	443.28
653.93	421.81
654.282	445.54
654.633	416.39
654.985	427.23
655.337	425.65
655.688	431.3
656.039	418.87
656.391	408.25
656.742	440.57
657.094	419.1
657.445	412.09
657.796	408.93
658.147	398.31
658.498	402.83
658.849	423.62
659.2	437.63
659.551	415.26
659.902	404.18
660.253	420.68
660.604	432.21
660.955	403.28
661.306	424.07
661.656	401.25
662.007	439.44
662.358	423.17
662.708	393.11
663.059	398.99
663.409	399.89
663.76	387.91
664.11	408.25
664.461	398.31
664.811	394.69
665.161	405.09
665.511	394.47
665.862	410.74
666.212	410.96
666.562	405.09
666.912	405.77
667.262	397.86
667.612	388.14
667.962	390.63
668.312	414.13
668.662	389.04
669.011	382.94
669.361	382.49
669.711	385.43
670.06	364.19
670.41	410.29
670.76	419.55
671.109	407.35
671.459	396.5
671.808	396.95
672.157	390.17
672.507	384.07
672.856	384.52
673.205	374.35
673.554	391.08
673.904	382.26
674.253	387.01
674.602	378.65
674.951	397.18
675.3	384.75
675.649	395.6
675.998	400.79
676.346	403.05
676.695	389.04
677.044	386.78
677.393	374.58
677.741	376.61
678.09	354.02
678.438	367.12
678.787	380.68
679.135	399.66
679.484	366.45
679.832	383.17
680.181	378.42
680.529	380.68
680.877	345.2
681.225	386.56
681.573	381.81
681.922	383.17
682.27	367.12
682.618	362.83
682.966	358.31
683.314	358.99
683.661	384.98
684.009	366.67
684.357	381.59
684.705	370.51
685.053	369.61
685.4	362.6
685.748	389.27
686.095	362.15
686.443	371.42
686.79	353.79
687.138	368.48
687.485	370.74
687.832	355.15
688.18	372.09
688.527	371.42
688.874	379.1
689.221	378.87
689.568	379.1
689.915	361.93
690.262	364.64
690.609	346.11
690.956	358.31
691.303	370.06
691.65	375.71
691.997	368.25
692.344	366.45
692.69	356.28
693.037	359.21
693.383	334.58
693.73	372.55
694.077	374.35
694.423	344.52
694.769	354.69
695.116	376.16
695.462	375.03
695.808	370.96
696.155	346.78
696.501	351.98
696.847	366.9
697.193	351.98
697.539	350.63
697.885	351.76
698.231	354.24
698.577	353.34
698.923	317.18
699.269	360.8
699.614	370.06
699.96	356.95
700.306	353.79
700.651	356.95
700.997	344.98
701.342	346.56
701.688	358.54
702.033	350.63
702.379	357.63
702.724	356.05
703.069	355.82
703.415	374.58
703.76	356.5
704.105	360.12
704.45	362.38
704.795	351.76
705.14	350.17
705.485	314.24
705.83	341.14
706.175	353.34
706.52	353.56
706.865	370.29
707.209	347.91
707.554	362.83
707.899	357.63
708.243	330.29
708.588	357.18
708.932	341.14
709.277	357.18
709.621	356.28
709.966	355.82
710.31	357.63
710.654	349.5
710.998	347.69
711.342	333.45
711.687	350.4
712.031	349.27
712.375	340.46
712.719	341.59
713.063	352.66
713.407	333.23
713.75	351.98
714.094	338.88
714.438	343.62
714.782	338.42
715.125	334.13
715.469	368.25
715.812	338.42
716.156	360.34
716.499	360.8
716.843	323.73
717.186	347.01
717.53	354.02
717.873	346.11
718.216	336.62
718.559	330.29
718.902	341.36
719.246	329.84
719.589	330.06
719.932	338.2
720.275	342.27
720.617	340.46
720.96	356.5
721.303	337.97
721.646	335.94
721.989	334.81
722.331	335.26
722.674	317.86
723.016	331.87
723.359	333
723.701	325.32
724.044	331.87
724.386	335.03
724.729	342.72
725.071	349.27
725.413	328.25
725.755	315.83
726.097	330.51
726.439	342.27
726.782	323.51
727.124	336.39
727.465	349.72
727.807	334.13
728.149	349.27
728.491	346.33
728.833	340.91
729.175	322.15
729.516	343.85
729.858	352.89
730.199	338.88
730.541	330.06
730.882	340.23
731.224	327.8
731.565	314.92
731.906	340.01
732.248	321.47
732.589	323.73
732.93	335.26
733.271	325.54
733.612	355.82
733.953	345.65
734.294	324.41
734.635	344.3
734.976	347.69
735.317	343.62
735.658	339.55
735.999	343.17
736.339	339.33
736.68	324.86
737.021	348.14
737.361	331.87
737.702	330.29
738.042	323.28
738.383	347.01
738.723	328.71
739.063	324.19
739.404	338.65
739.744	336.62
740.084	339.1
740.424	318.76
740.764	329.38
741.104	318.08
741.444	354.69
741.784	339.55
742.124	336.84
742.464	335.49
742.804	316.95
743.143	324.19
743.483	332.1
743.823	340.91
744.162	311.08
744.502	328.03
744.841	340.01
745.181	334.81
745.52	339.33
745.86	337.29
746.199	333.23
746.538	336.16
746.877	330.97
747.216	327.35
747.556	321.25
747.895	336.62
748.234	339.33
748.573	323.28
748.911	319.67
749.25	317.41
749.589	333.23
749.928	333.23
750.267	329.84
750.605	321.7
750.944	343.62
751.283	329.38
751.621	360.57
751.96	340.68
752.298	344.75
752.636	346.33
752.975	343.85
753.313	324.41
753.651	336.39
753.989	329.38
754.327	340.23
754.666	321.25
755.004	357.86
755.342	320.57
755.679	343.62
756.017	325.99
756.355	352.21
756.693	332.32
757.031	333.9
757.368	321.7
757.706	344.98
758.044	328.25
758.381	348.82
758.719	326.67
759.056	329.38
759.394	330.06
759.731	319.89
760.068	328.25
760.405	336.62
760.743	336.62
761.08	330.74
761.417	320.34
761.754	324.86
762.091	312.44
762.428	329.84
762.765	327.8
763.102	319.21
763.438	316.5
763.775	340.68
764.112	331.64
764.449	311.53
764.785	325.09
765.122	326.22
765.458	314.7
765.795	322.6
766.131	342.72
766.467	333.23
766.804	330.51
767.14	350.17
767.476	317.41
767.812	330.06
768.148	315.83
768.485	321.02
768.821	321.25
769.157	345.2
769.492	332.32
769.828	325.77
770.164	310.63
770.5	336.62
770.836	320.12
771.171	323.73
771.507	330.97
771.842	339.78
772.178	341.81
772.513	336.16
772.849	328.03
773.184	335.49
773.519	311.08
773.855	327.12
774.19	328.71
774.525	344.98
774.86	323.96
775.195	324.86
775.53	320.8
775.865	338.42
776.2	340.46
776.535	324.86
776.87	316.73
777.205	337.97
777.539	354.02
777.874	320.12
778.209	312.89
778.543	343.39
778.878	340.91
779.212	328.71
779.547	342.94
779.881	321.93
780.215	342.49
780.55	327.12
780.884	303.4
781.218	309.95
781.552	327.58
781.886	322.6
782.22	345.2
782.554	309.72
782.888	336.39
783.222	336.62
783.556	321.02
783.889	327.12
784.223	326.67
784.557	324.64
784.89	328.25
785.224	323.73
785.557	300.23
785.891	344.98
786.224	341.59
786.558	330.74
786.891	328.93
787.224	330.74
787.557	337.29
787.891	325.77
788.224	309.5
788.557	321.25
788.89	330.29
789.223	344.52
