Data from No_light_on_white_reflection_standard_FLMS001491_073.txt Node
Date: Tue Feb 07 10:33:06 GMT 2017
User: dcchb
Spectrometer: FLMS00149
Trigger mode: 0
Integration Time (sec): 2.000000E-2
Scans to average: 10
Electric dark correction enabled: true
Nonlinearity correction enabled: false
Boxcar width: 0
XAxis mode: Wavelengths
Number of Pixels in Spectrum: 2048
>>>>>Begin Spectral Data<<<<<
341.393	-10.85
341.776	-10.85
342.16	-10.85
342.543	-51.3
342.927	-56.5
343.31	-66.44
343.693	-67.79
344.077	-66.89
344.46	-44.07
344.843	-63.95
345.226	-46.33
345.61	-27.34
345.993	0.68
346.376	-1.13
346.759	-5.42
347.142	22.15
347.525	40.68
347.908	72.77
348.291	68.7
348.674	89.04
349.057	95.36
349.44	132.65
349.823	142.6
350.206	163.84
350.588	171.07
350.971	199.99
351.354	184.85
351.737	212.65
352.119	227.56
352.502	254
352.884	249.71
353.267	282.25
353.65	257.39
354.032	256.72
354.414	270.73
354.797	267.56
355.179	274.57
355.562	287.68
355.944	323.83
356.326	287
356.709	296.94
357.091	296.04
357.473	303.27
357.855	314.34
358.238	305.75
358.62	306.21
359.002	307.34
359.384	305.08
359.766	306.66
360.148	295.13
360.53	315.47
360.912	298.3
361.294	278.41
361.676	317.28
362.057	291.74
362.439	294.91
362.821	302.14
363.203	296.26
363.584	306.66
363.966	294
364.348	306.21
364.729	288.58
365.111	285.87
365.493	270.95
365.874	295.59
366.256	292.2
366.637	274.12
367.019	288.58
367.4	261.91
367.781	260.56
368.163	250.84
368.544	281.12
368.925	272.08
369.306	279.99
369.688	296.94
370.069	268.92
370.45	275.02
370.831	275.92
371.212	269.15
371.593	280.22
371.974	276.15
372.355	284.74
372.736	257.62
373.117	276.15
373.498	262.14
373.879	277.51
374.26	271.86
374.641	264.85
375.021	283.38
375.402	289.94
375.783	288.35
376.163	287.9
376.544	297.17
376.925	276.38
377.305	288.13
377.686	271.86
378.066	278.41
378.447	262.14
378.827	282.48
379.208	288.58
379.588	290.39
379.968	280.9
380.349	277.28
380.729	270.5
381.109	277.96
381.489	275.25
381.87	278.41
382.25	285.64
382.63	279.99
383.01	282.48
383.39	274.8
383.77	287.45
384.15	293.78
384.53	287.9
384.91	300.11
385.29	303.04
385.67	276.83
386.049	302.36
386.429	273.21
386.809	294
387.189	274.57
387.568	294.91
387.948	281.8
388.328	299.43
388.707	285.19
389.087	278.41
389.466	279.99
389.846	294.91
390.225	311.18
390.605	292.42
390.984	292.2
391.363	283.38
391.743	302.36
392.122	306.21
392.501	290.16
392.881	294.68
393.26	282.93
393.639	301.69
394.018	289.03
394.397	274.8
394.776	292.42
395.155	301.46
395.534	292.2
395.913	282.93
396.292	296.04
396.671	289.26
397.05	311.63
397.429	309.82
397.808	296.94
398.186	319.31
398.565	291.29
398.944	299.88
399.323	296.94
399.701	289.48
400.08	276.6
400.458	297.39
400.837	304.62
401.215	301.01
401.594	300.78
401.972	324.29
402.351	308.92
402.729	303.27
403.107	289.48
403.486	294.91
403.864	304.4
404.242	301.46
404.62	295.59
404.999	279.09
405.377	325.64
405.755	294.91
406.133	300.11
406.511	291.07
406.889	327.67
407.267	309.82
407.645	297.62
408.023	294.23
408.401	317.51
408.779	313.66
409.156	304.4
409.534	326.32
409.912	297.17
410.29	296.72
410.667	306.21
411.045	293.1
411.422	325.87
411.8	295.59
412.178	310.73
412.555	290.39
412.933	289.94
413.31	310.5
413.687	308.92
414.065	315.25
414.442	321.12
414.819	306.66
415.197	296.72
415.574	282.25
415.951	305.75
416.328	303.27
416.705	285.64
417.082	312.53
417.46	303.04
417.837	326.09
418.214	320.22
418.591	313.21
418.967	315.25
419.344	301.91
419.721	339.65
420.098	307.11
420.475	301.91
420.852	322.03
421.228	308.01
421.605	298.52
421.982	316.83
422.358	316.38
422.735	328.8
423.111	323.61
423.488	302.82
423.864	310.05
424.241	317.73
424.617	308.47
424.994	317.05
425.37	310.05
425.746	323.83
426.123	324.74
426.499	298.3
426.875	314.34
427.251	330.39
427.627	312.99
428.003	319.77
428.379	330.39
428.756	329.48
429.132	295.13
429.507	310.5
429.883	312.08
430.259	317.51
430.635	315.25
431.011	292.87
431.387	315.02
431.763	329.93
432.138	312.08
432.514	315.47
432.89	322.48
433.265	312.08
433.641	325.87
434.016	343.49
434.392	315.02
434.767	321.35
435.143	333.1
435.518	342.36
435.894	334.68
436.269	317.28
436.644	308.69
437.02	317.51
437.395	330.61
437.77	338.52
438.145	336.94
438.52	351.4
438.895	305.75
439.271	324.74
439.646	312.08
440.021	358.63
440.395	327.9
440.77	323.61
441.145	330.16
441.52	328.13
441.895	329.03
442.27	331.52
442.645	350.5
443.019	346.21
443.394	353.44
443.769	334.23
444.143	340.56
444.518	357.05
444.892	350.95
445.267	355.24
445.641	361.35
446.016	332.65
446.39	355.24
446.764	349.37
447.139	359.09
447.513	372.87
447.887	351.18
448.262	343.49
448.636	375.13
449.01	363.15
449.384	356.6
449.758	355.92
450.132	363.38
450.506	381.46
450.88	353.66
451.254	369.26
451.628	360.44
452.002	365.19
452.376	357.73
452.75	361.12
453.123	374.68
453.497	360.44
453.871	368.58
454.244	376.71
454.618	350.27
454.992	364.51
455.365	376.71
455.739	370.61
456.112	363.38
456.486	355.47
456.859	368.8
457.232	368.13
457.606	372.42
457.979	354.11
458.352	346.88
458.725	373.32
459.099	342.14
459.472	365.64
459.845	368.58
460.218	391.63
460.591	378.07
460.964	365.41
461.337	356.15
461.71	347.11
462.083	378.52
462.456	368.13
462.829	355.92
463.201	367.45
463.574	342.59
463.947	346.66
464.32	349.6
464.692	361.57
465.065	347.56
465.438	347.79
465.81	356.83
466.183	335.13
466.555	339.88
466.928	349.82
467.3	357.28
467.672	367.67
468.045	356.83
468.417	351.4
468.789	368.13
469.161	338.97
469.534	346.88
469.906	352.76
470.278	348.92
470.65	353.66
471.022	371.29
471.394	335.58
471.766	348.24
472.138	356.83
472.51	358.63
472.882	342.59
473.253	330.84
473.625	356.6
473.997	354.57
474.369	366.32
474.74	357.73
475.112	338.75
475.484	339.43
475.855	364.51
476.227	348.69
476.598	335.81
476.97	345.3
477.341	350.5
477.713	349.37
478.084	347.56
478.455	348.47
478.827	339.43
479.198	357.96
479.569	376.71
479.94	359.31
480.311	353.44
480.682	365.64
481.053	355.02
481.424	357.28
481.795	358.63
482.166	356.37
482.537	356.83
482.908	363.15
483.279	335.36
483.65	374.45
484.021	365.64
484.391	373.78
484.762	351.18
485.133	364.51
485.503	362.02
485.874	365.19
486.244	345.3
486.615	364.06
486.985	374.23
487.356	371.97
487.726	378.97
488.097	370.16
488.467	379.2
488.837	374.45
489.207	361.8
489.578	374.91
489.948	366.32
490.318	361.57
490.688	368.35
491.058	389.14
491.428	369.93
491.798	372.42
492.168	392.98
492.538	386.43
492.908	360.89
493.278	360.44
493.648	376.94
494.017	385.07
494.387	394.34
494.757	392.08
495.126	375.58
495.496	382.81
495.866	370.61
496.235	392.76
496.605	368.35
496.974	380.1
497.344	397.05
497.713	395.24
498.082	390.05
498.452	382.14
498.821	417.84
499.19	393.89
499.559	405.64
499.928	406.32
500.298	403.83
500.667	406.99
501.036	381.23
501.405	401.35
501.774	401.8
502.143	412.87
502.512	422.14
502.88	411.97
503.249	417.16
503.618	409.25
503.987	421.01
504.356	413.55
504.724	432.53
505.093	426.66
505.462	397.5
505.83	418.29
506.199	404.06
506.567	410.84
506.936	423.94
507.304	426.88
507.672	432.98
508.041	414.23
508.409	437.95
508.777	418.97
509.145	435.92
509.514	403.38
509.882	437.73
510.25	451.51
510.618	463.26
510.986	430.5
511.354	432.31
511.722	431.85
512.09	453.77
512.458	439.76
512.826	425.98
513.193	460.78
513.561	453.1
513.929	446.32
514.297	445.19
514.664	429.59
515.032	439.54
515.4	438.63
515.767	458.75
516.135	453.1
516.502	438.18
516.869	463.72
517.237	464.62
517.604	465.75
517.972	449.93
518.339	436.82
518.706	453.1
519.073	455.58
519.44	477.05
519.808	456.71
520.175	460.33
520.542	449.93
520.909	460.55
521.276	478.41
521.643	469.37
522.009	457.39
522.376	455.81
522.743	458.29
523.11	471.85
523.477	462.13
523.843	478.41
524.21	487.67
524.577	489.48
524.943	486.31
525.31	473.43
525.676	470.5
526.043	494.68
526.409	501
526.776	490.38
527.142	500.55
527.508	479.54
527.874	480.44
528.241	494.22
528.607	475.02
528.973	470.27
529.339	492.19
529.705	494.9
530.071	483.15
530.437	486.31
530.803	518.63
531.169	518.86
531.535	494.9
531.901	497.39
532.267	516.14
532.632	483.38
532.998	493.32
533.364	477.5
533.73	514.34
534.095	510.95
534.461	495.81
534.826	512.08
535.192	521.57
535.557	499.2
535.923	512.53
536.288	507.56
536.653	498.52
537.019	510.04
537.384	509.59
537.749	497.16
538.114	495.13
538.479	486.31
538.845	483.83
539.21	510.27
539.575	518.4
539.94	506.2
540.305	503.49
540.67	512.3
541.034	497.61
541.399	516.82
541.764	516.37
542.129	510.27
542.494	522.7
542.858	507.11
543.223	519.53
543.587	510.04
543.952	541.45
544.316	502.59
544.681	529.93
545.045	533.09
545.41	521.34
545.774	547.33
546.138	531.96
546.503	503.72
546.867	510.95
547.231	535.81
547.595	527.9
547.959	527.22
548.324	517.95
548.688	529.93
549.052	525.64
549.416	526.31
549.779	519.31
550.143	527.9
550.507	537.39
550.871	525.41
551.235	517.27
551.599	527.9
551.962	545.52
552.326	541.68
552.689	528.8
553.053	510.95
553.417	517.73
553.78	540.78
554.143	536.26
554.507	536.03
554.87	544.84
555.234	562.02
555.597	529.93
555.96	550.04
556.323	525.86
556.686	537.16
557.05	544.84
557.413	551.62
557.776	552.08
558.139	543.71
558.502	542.58
558.865	559.31
559.228	537.61
559.59	549.14
559.953	524.96
560.316	565.86
560.679	566.31
561.041	551.17
561.404	550.95
561.767	554.34
562.129	571.74
562.492	568.8
562.854	544.62
563.217	559.53
563.579	566.99
563.941	562.47
564.304	569.93
564.666	571.28
565.028	567.44
565.39	557.73
565.753	553.21
566.115	570.61
566.477	578.06
566.839	578.06
567.201	558.86
567.563	565.18
567.925	583.49
568.287	560.66
568.648	569.48
569.01	574.9
569.372	577.61
569.734	571.96
570.095	582.36
570.457	574.22
570.819	580.1
571.18	575.35
571.542	586.2
571.903	551.62
572.265	592.53
572.626	577.84
572.987	590.27
573.349	592.98
573.71	587.56
574.071	564.05
574.432	599.76
574.794	608.35
575.155	591.62
575.516	602.24
575.877	564.5
576.238	595.69
576.599	580.1
576.96	583.94
577.32	594.11
577.681	582.81
578.042	572.87
578.403	578.29
578.763	597.05
579.124	585.97
579.485	610.38
579.845	598.85
580.206	597.5
580.566	602.7
580.927	582.36
581.287	603.37
581.648	572.41
582.008	589.36
582.368	595.69
582.728	584.39
583.089	587.56
583.449	593.66
583.809	593.88
584.169	604.28
584.529	598.85
584.889	597.5
585.249	625.29
585.609	608.35
585.969	608.12
586.329	592.07
586.688	578.74
587.048	552.3
587.408	593.43
587.768	595.24
588.127	551.62
588.487	583.49
588.846	591.4
589.206	573.54
589.565	578.97
589.925	577.84
590.284	581.23
590.643	589.14
591.003	594.79
591.362	596.82
591.721	562.7
592.08	587.56
592.44	579.65
592.799	578.06
593.158	571.06
593.517	598.85
593.876	567.44
594.235	581.45
594.593	565.18
594.952	597.27
595.311	587.56
595.67	597.72
596.029	584.62
596.387	593.43
596.746	575.58
597.104	581.91
597.463	583.94
597.822	582.58
598.18	592.53
598.538	568.35
598.897	590.94
599.255	569.25
599.613	562.92
599.972	586.2
600.33	576.71
600.688	574.9
601.046	569.7
601.404	559.76
601.762	560.66
602.12	584.39
602.478	568.35
602.836	574
603.194	563.83
603.552	578.52
603.91	571.74
604.268	570.83
604.625	561.34
604.983	584.39
605.341	565.86
605.698	562.47
606.056	565.18
606.413	555.24
606.771	562.47
607.128	577.84
607.485	564.05
607.843	547.56
608.2	569.7
608.557	549.36
608.914	551.17
609.272	551.62
609.629	550.27
609.986	577.84
610.343	541.45
610.7	553.43
611.057	569.25
611.414	544.84
611.771	559.53
612.127	558.4
612.484	545.97
612.841	545.52
613.198	546.43
613.554	551.17
613.911	541.68
614.267	536.26
614.624	558.18
614.98	533.77
615.337	549.36
615.693	530.16
616.05	555.01
616.406	547.56
616.762	550.95
617.118	540.55
617.475	550.95
617.831	529.7
618.187	543.04
618.543	529.25
618.899	540.1
619.255	545.3
619.611	542.58
619.967	522.92
620.323	538.52
620.678	537.39
621.034	537.16
621.39	544.84
621.746	520.44
622.101	527.22
622.457	529.48
622.812	527.67
623.168	527.44
623.523	514.34
623.879	528.35
624.234	533.77
624.589	520.66
624.945	522.47
625.3	538.52
625.655	518.4
626.01	491.51
626.365	519.31
626.72	509.82
627.075	505.3
627.43	507.78
627.785	513.88
628.14	509.37
628.495	509.14
628.85	518.63
629.205	503.94
629.559	509.59
629.914	524.28
630.269	503.49
630.623	520.21
630.978	489.7
631.332	505.07
631.687	495.13
632.041	489.48
632.396	510.72
632.75	511.62
633.104	499.2
633.459	503.94
633.813	496.94
634.167	481.57
634.521	484.06
634.875	494.68
635.229	496.03
635.583	458.74
635.937	475.92
636.291	495.81
636.645	481.57
636.999	472.3
637.352	477.28
637.706	494.68
638.06	463.72
638.413	500.1
638.767	476.6
639.121	456.71
639.474	474.79
639.828	467.56
640.181	479.31
640.534	477.05
640.888	459.42
641.241	472.3
641.594	459.87
641.947	450.61
642.301	459.2
642.654	454.23
643.007	464.62
643.36	456.03
643.713	459.42
644.066	486.99
644.419	432.31
644.771	448.8
645.124	452.42
645.477	461.91
645.83	442.93
646.182	439.54
646.535	435.24
646.888	455.81
647.24	464.62
647.593	429.82
647.945	439.31
648.298	440.67
648.65	423.04
649.002	441.8
649.355	451.51
649.707	439.99
650.059	451.97
650.411	430.05
650.763	436.6
651.115	435.69
651.467	453.55
651.819	421.46
652.171	449.03
652.523	439.08
652.875	426.43
653.227	443.6
653.578	430.72
653.93	448.58
654.282	445.19
654.633	425.98
654.985	427.33
655.337	422.59
655.688	423.27
656.039	422.14
656.391	416.71
656.742	405.64
657.094	395.47
657.445	421.01
657.796	427.33
658.147	432.31
658.498	425.07
658.849	403.61
659.2	417.16
659.551	413.32
659.902	421.91
660.253	407.67
660.604	390.95
660.955	425.75
661.306	411.97
661.656	409.93
662.007	407.45
662.358	401.12
662.708	393.66
663.059	399.99
663.409	391.4
663.76	409.71
664.11	404.06
664.461	404.96
664.811	415.36
665.161	402.48
665.511	413.55
665.862	391.63
666.212	409.03
666.562	405.64
666.912	393.44
667.262	401.8
667.612	385.75
667.962	387.33
668.312	406.99
668.662	404.74
669.011	402.02
669.361	385.07
669.711	378.97
670.06	377.84
670.41	376.94
670.76	388.01
671.109	417.84
671.459	384.4
671.808	399.54
672.157	402.25
672.507	372.65
672.856	383.04
673.205	390.95
673.554	391.63
673.904	383.04
674.253	373.55
674.602	396.83
674.951	372.42
675.3	383.27
675.649	383.04
675.998	389.82
676.346	384.62
676.695	385.3
677.044	382.59
677.393	367
677.741	386.66
678.09	368.8
678.438	383.72
678.787	375.36
679.135	377.62
679.484	375.36
679.832	382.14
680.181	369.26
680.529	371.29
680.877	385.53
681.225	392.31
681.573	381.01
681.922	391.63
682.27	355.47
682.618	367.67
682.966	381.23
683.314	376.26
683.661	362.7
684.009	395.92
684.357	395.92
684.705	389.59
685.053	369.26
685.4	382.81
685.748	375.81
686.095	372.87
686.443	374.23
686.79	364.96
687.138	367.67
687.485	368.8
687.832	362.7
688.18	372.87
688.527	370.84
688.874	366.09
689.221	359.99
689.568	358.18
689.915	363.15
690.262	346.43
690.609	363.38
690.956	343.95
691.303	362.02
691.65	367.67
691.997	369.93
692.344	339.65
692.69	363.83
693.037	349.82
693.383	342.36
693.73	356.6
694.077	358.41
694.423	357.5
694.769	359.09
695.116	352.53
695.462	360.22
695.808	340.56
696.155	360.44
696.501	375.36
696.847	367.22
697.193	350.27
697.539	358.63
697.885	340.33
698.231	332.42
698.577	364.51
698.923	367.22
699.269	351.86
699.614	364.06
699.96	373.55
700.306	362.25
700.651	354.11
700.997	345.3
701.342	347.56
701.688	341.69
702.033	375.36
702.379	345.98
702.724	345.3
703.069	339.88
703.415	341.23
703.76	340.56
704.105	357.28
704.45	350.73
704.795	345.98
705.14	352.99
705.485	364.51
705.83	336.04
706.175	357.05
706.52	370.84
706.865	349.37
707.209	356.15
707.554	357.05
707.899	363.83
708.243	330.39
708.588	348.69
708.932	367.67
709.277	349.14
709.621	329.71
709.966	341.91
710.31	344.85
710.654	354.11
710.998	354.57
711.342	359.09
711.687	340.1
712.031	357.05
712.375	346.21
712.719	335.13
713.063	355.92
713.407	355.24
713.75	346.21
714.094	337.17
714.438	355.02
714.782	358.86
715.125	337.39
715.469	333.55
715.812	362.93
716.156	347.34
716.499	336.94
716.843	347.79
717.186	315.47
717.53	325.42
717.873	321.57
718.216	338.07
718.559	349.82
718.902	319.31
719.246	357.5
719.589	323.38
719.932	333.32
720.275	336.71
720.617	331.97
720.96	334.45
721.303	316.15
721.646	333.32
721.989	337.39
722.331	325.42
722.674	344.17
723.016	333.78
723.359	322.7
723.701	315.47
724.044	322.03
724.386	355.02
724.729	353.21
725.071	345.53
725.413	327.68
725.755	326.77
726.097	348.92
726.439	341.69
726.782	321.35
727.124	347.34
727.465	339.43
727.807	344.4
728.149	333.1
728.491	334.23
728.833	330.16
729.175	335.81
729.516	348.69
729.858	354.57
730.199	346.21
730.541	320.9
730.882	345.75
731.224	341.46
731.565	333.55
731.906	326.09
732.248	328.35
732.589	319.09
732.93	325.64
733.271	347.79
733.612	341.46
733.953	331.74
734.294	343.95
734.635	344.17
734.976	343.49
735.317	351.63
735.658	336.04
735.999	343.72
736.339	327.45
736.68	326.77
737.021	346.66
737.361	361.12
737.702	324.06
738.042	324.29
738.383	334.68
738.723	331.97
739.063	348.47
739.404	329.26
739.744	346.21
740.084	344.4
740.424	351.63
740.764	314.12
741.104	338.3
741.444	356.37
741.784	331.06
742.124	325.42
742.464	341.23
742.804	338.97
743.143	338.97
743.483	346.43
743.823	340.1
744.162	331.06
744.502	303.95
744.841	334.23
745.181	338.97
745.52	371.74
745.86	340.56
746.199	314.79
746.538	328.35
746.877	332.65
747.216	319.77
747.556	329.93
747.895	335.58
748.234	337.62
748.573	331.52
748.911	311.63
749.25	349.14
749.589	337.84
749.928	341.46
750.267	322.93
750.605	345.3
750.944	357.73
751.283	340.1
751.621	344.17
751.96	324.51
752.298	318.64
752.636	330.16
752.975	328.13
753.313	324.96
753.651	318.86
753.989	339.88
754.327	337.39
754.666	322.25
755.004	336.04
755.342	314.34
755.679	325.19
756.017	338.75
756.355	339.43
756.693	349.14
757.031	327.22
757.368	305.98
757.706	335.36
758.044	342.36
758.381	346.21
758.719	332.65
759.056	322.03
759.394	335.13
759.731	332.42
760.068	323.61
760.405	336.26
760.743	323.16
761.08	321.8
761.417	334.45
761.754	329.26
762.091	336.04
762.428	335.13
762.765	307.79
763.102	312.99
763.438	314.12
763.775	328.8
764.112	335.81
764.449	331.06
764.785	340.78
765.122	322.03
765.458	323.38
765.795	319.09
766.131	319.54
766.467	344.4
766.804	320.22
767.14	343.27
767.476	318.41
767.812	331.52
768.148	328.8
768.485	343.49
768.821	327.22
769.157	347.79
769.492	324.29
769.828	319.31
770.164	327.45
770.5	338.07
770.836	327
771.171	319.77
771.507	349.6
771.842	330.16
772.178	322.48
772.513	325.64
772.849	333.55
773.184	322.7
773.519	315.7
773.855	336.49
774.19	326.55
774.525	327.45
774.86	345.08
775.195	317.73
775.53	347.56
775.865	347.34
776.2	331.52
776.535	332.65
776.87	315.25
777.205	335.13
777.539	336.71
777.874	338.3
778.209	340.33
778.543	332.19
778.878	332.87
779.212	321.35
779.547	360.22
779.881	347.56
780.215	328.8
780.55	333.78
780.884	340.33
781.218	350.95
781.552	327.9
781.886	335.81
782.22	329.03
782.554	322.03
782.888	308.47
783.222	315.92
783.556	322.93
783.889	331.74
784.223	311.86
784.557	316.38
784.89	317.28
785.224	329.48
785.557	327.45
785.891	306.43
786.224	333.1
786.558	332.19
786.891	334.91
787.224	316.6
787.557	333.78
787.891	320.67
788.224	344.85
788.557	323.16
788.89	326.32
789.223	335.81
