Data from No_light_on_white_reflection_standard_FLMS001491_082.txt Node
Date: Tue Feb 07 10:33:08 GMT 2017
User: dcchb
Spectrometer: FLMS00149
Trigger mode: 0
Integration Time (sec): 2.000000E-2
Scans to average: 10
Electric dark correction enabled: true
Nonlinearity correction enabled: false
Boxcar width: 0
XAxis mode: Wavelengths
Number of Pixels in Spectrum: 2048
>>>>>Begin Spectral Data<<<<<
341.393	-7.74
341.776	-7.74
342.16	-7.74
342.543	-56.1
342.927	-61.75
343.31	-58.59
343.693	-66.27
344.077	-42.99
344.46	-61.07
344.843	-61.75
345.226	-67.63
345.61	-38.93
345.993	-24.01
346.376	-7.74
346.759	14.18
347.142	29.77
347.525	44.01
347.908	53.95
348.291	76.33
348.674	101.64
349.057	109.09
349.44	121.07
349.823	152.48
350.206	152.26
350.588	170.11
350.971	185.48
351.354	204.46
351.737	199.71
352.119	231.35
352.502	255.3
352.884	247.62
353.267	248.3
353.65	260.28
354.032	267.73
354.414	278.81
354.797	288.3
355.179	293.72
355.562	294.4
355.944	289.65
356.326	306.6
356.709	288.52
357.091	320.84
357.473	290.78
357.855	307.96
358.238	302.31
358.62	310.44
359.002	304.57
359.384	298.47
359.766	320.39
360.148	322.65
360.53	298.69
360.912	313.16
361.294	316.09
361.676	281.07
362.057	307.96
362.439	302.31
362.821	310.44
363.203	306.6
363.584	303.66
363.966	305.47
364.348	281.74
364.729	306.38
365.111	293.04
365.493	287.62
365.874	276.32
366.256	262.76
366.637	277.68
367.019	286.94
367.4	286.04
367.781	276.55
368.163	290.78
368.544	272.7
368.925	283.33
369.306	280.39
369.688	270.22
370.069	279.48
370.45	274.29
370.831	283.33
371.212	263.21
371.593	288.07
371.974	268.64
372.355	279.48
372.736	267.73
373.117	287.17
373.498	281.52
373.879	284.91
374.26	298.69
374.641	292.59
375.021	278.58
375.402	280.16
375.783	282.87
376.163	283.78
376.544	279.71
376.925	302.76
377.305	257.79
377.686	298.92
378.066	291.46
378.447	291.91
378.827	274.74
379.208	298.01
379.588	261.86
379.968	283.78
380.349	305.92
380.729	278.58
381.109	314.74
381.489	283.55
381.87	271.12
382.25	274.06
382.63	295.53
383.01	282.87
383.39	283.55
383.77	307.05
384.15	279.71
384.53	276.09
384.91	270.44
385.29	295.75
385.67	286.94
386.049	301.86
386.429	286.72
386.809	289.65
387.189	288.75
387.568	283.78
387.948	292.37
388.328	303.44
388.707	286.49
389.087	294.4
389.466	278.81
389.846	296.43
390.225	301.4
390.605	286.26
390.984	282.87
391.363	296.21
391.743	297.56
392.122	302.76
392.501	296.21
392.881	305.47
393.26	286.72
393.639	309.99
394.018	298.47
394.397	291.46
394.776	299.82
395.155	291.69
395.534	309.77
395.913	285.13
396.292	301.63
396.671	281.97
397.05	294.4
397.429	303.21
397.808	297.79
398.186	303.44
398.565	291.01
398.944	300.05
399.323	309.31
399.701	292.82
400.08	299.82
400.458	318.35
400.837	298.92
401.215	297.34
401.594	317.22
401.972	302.31
402.351	288.75
402.729	293.27
403.107	277.45
403.486	307.05
403.864	286.49
404.242	292.37
404.62	306.15
404.999	290.11
405.377	305.92
405.755	316.77
406.133	295.75
406.511	316.55
406.889	325.13
407.267	296.66
407.645	310.22
408.023	318.35
408.401	333.49
408.779	308.41
409.156	316.32
409.534	311.35
409.912	291.46
410.29	299.6
410.667	313.83
411.045	310.67
411.422	314.74
411.8	311.8
412.178	313.83
412.555	323.32
412.933	318.35
413.31	297.56
413.687	306.15
414.065	314.06
414.442	310.9
414.819	312.7
415.197	305.02
415.574	294.4
415.951	303.44
416.328	303.89
416.705	306.38
417.082	305.25
417.46	300.05
417.837	293.95
418.214	312.25
418.591	333.27
418.967	306.38
419.344	320.84
419.721	322.65
420.098	320.39
420.475	316.55
420.852	304.79
421.228	299.14
421.605	310.67
421.982	303.44
422.358	321.74
422.735	301.4
423.111	307.73
423.488	301.18
423.864	298.24
424.241	320.39
424.617	316.77
424.994	299.6
425.37	326.04
425.746	313.16
426.123	330.33
426.499	321.74
426.875	324.45
427.251	309.99
427.627	312.03
428.003	314.96
428.379	318.81
428.756	308.18
429.132	328.52
429.507	308.86
429.883	330.56
430.259	331.01
430.635	321.52
431.011	329.88
431.387	318.58
431.763	331.69
432.138	322.87
432.514	314.29
432.89	306.38
433.265	301.63
433.641	304.57
434.016	321.52
434.392	331.46
434.767	321.29
435.143	335.98
435.518	340.5
435.894	313.61
436.269	312.48
436.644	319.48
437.02	328.07
437.395	321.52
437.77	332.82
438.145	321.29
438.52	335.75
438.895	342.31
439.271	323.1
439.646	323.55
440.021	337.11
440.395	345.7
440.77	344.34
441.145	325.58
441.52	337.34
441.895	343.44
442.27	346.15
442.645	337.79
443.019	340.05
443.394	338.24
443.769	322.42
444.143	331.46
444.518	336.88
444.892	347.05
445.267	352.25
445.641	351.8
446.016	348.41
446.39	367.17
446.764	378.69
447.139	369.88
447.513	355.41
447.887	371.69
448.262	382.76
448.636	366.26
449.01	373.49
449.384	362.87
449.758	376.43
450.132	384.79
450.506	358.35
450.88	370.78
451.254	339.82
451.628	371.46
452.002	370.78
452.376	362.65
452.75	385.24
453.123	371.46
453.497	384.79
453.871	383.44
454.244	373.04
454.618	380.27
454.992	357
455.365	341.63
455.739	387.96
456.112	366.04
456.486	388.63
456.859	369.88
457.232	373.94
457.606	374.4
457.979	392.7
458.352	355.41
458.725	354.06
459.099	367.39
459.472	369.2
459.845	359.93
460.218	341.86
460.591	364.68
460.964	335.75
461.337	380.05
461.71	354.51
462.083	362.65
462.456	347.05
462.829	395.19
463.201	345.25
463.574	344.79
463.947	364.45
464.32	371.23
464.692	357.22
465.065	383.44
465.438	366.04
465.81	359.71
466.183	362.42
466.555	349.99
466.928	329.2
467.3	345.02
467.672	351.12
468.045	360.84
468.417	345.7
468.789	346.38
469.161	363.78
469.534	358.35
469.906	364.68
470.278	364.68
470.65	345.92
471.022	347.73
471.394	369.2
471.766	379.37
472.138	354.96
472.51	356.54
472.882	359.26
473.253	354.96
473.625	368.3
473.997	338.47
474.369	351.12
474.74	367.39
475.112	348.41
475.484	352.02
475.855	353.83
476.227	348.18
476.598	355.19
476.97	359.26
477.341	351.12
477.713	384.79
478.084	349.31
478.455	373.94
478.827	351.57
479.198	349.31
479.569	352.7
479.94	358.13
480.311	353.61
480.682	343.66
481.053	366.04
481.424	344.57
481.795	359.03
482.166	352.25
482.537	350.22
482.908	363.1
483.279	374.4
483.65	336.43
484.021	373.94
484.391	358.8
484.762	382.08
485.133	379.82
485.503	361.52
485.874	368.3
486.244	349.99
486.615	374.62
486.985	358.8
487.356	375.75
487.726	350.89
488.097	357.45
488.467	377.33
488.837	385.24
489.207	375.98
489.578	381.63
489.948	378.92
490.318	373.27
490.688	370.1
491.058	377.11
491.428	365.36
491.798	388.63
492.168	382.08
492.538	391.35
492.908	382.53
493.278	380.72
493.648	359.48
494.017	390.89
494.387	382.98
494.757	388.41
495.126	369.88
495.496	412.36
495.866	383.66
496.235	374.4
496.605	378.24
496.974	421.4
497.344	392.02
497.713	400.84
498.082	389.31
498.452	379.82
498.821	381.85
499.19	381.63
499.559	393.15
499.928	388.41
500.298	396.09
500.667	383.66
501.036	404.9
501.405	407.84
501.774	420.27
502.143	404.9
502.512	418.69
502.88	398.35
503.249	396.77
503.618	393.83
503.987	427.5
504.356	395.64
504.724	403.1
505.093	423.44
505.462	418.24
505.83	424.11
506.199	425.92
506.567	446.26
506.936	400.16
507.304	412.36
507.672	433.38
508.041	415.75
508.409	425.47
508.777	427.28
509.145	420.72
509.514	429.54
509.882	433.15
510.25	431.8
510.618	433.6
510.986	450.1
511.354	461.17
511.722	435.86
512.09	413.94
512.458	429.76
512.826	429.76
513.193	438.12
513.561	433.15
513.929	434.73
514.297	443.32
514.664	446.26
515.032	436.77
515.4	449.88
515.767	447.39
516.135	437.45
516.502	445.36
516.869	455.07
517.237	452.14
517.604	453.49
517.972	464.34
518.339	473.6
518.706	454.85
519.073	464.56
519.44	480.61
519.808	472.93
520.175	463.89
520.542	461.4
520.909	480.38
521.276	467.73
521.643	475.86
522.009	475.19
522.376	483.55
522.743	467.05
523.11	486.26
523.477	469.54
523.843	476.32
524.21	494.85
524.577	483.32
524.943	507.73
525.31	484.9
525.676	467.95
526.043	473.15
526.409	474.51
526.776	499.59
527.142	499.37
527.508	479.48
527.874	483.77
528.241	495.3
528.607	500.72
528.973	492.13
529.339	493.49
529.705	488.29
530.071	478.12
530.437	505.47
530.803	493.04
531.169	486.71
531.535	506.37
531.901	485.81
532.267	507.73
532.632	512.02
532.998	499.82
533.364	515.86
533.73	493.72
534.095	494.39
534.461	521.74
534.826	497.78
535.192	522.19
535.557	515.86
535.923	483.77
536.288	490.1
536.653	509.08
537.019	509.76
537.384	504.11
537.749	500.72
538.114	517.67
538.479	511.57
538.845	529.2
539.21	515.86
539.575	511.79
539.94	528.52
540.305	540.04
540.67	505.69
541.034	523.09
541.399	509.08
541.764	518.35
542.129	527.16
542.494	528.97
542.858	513.15
543.223	526.94
543.587	512.7
543.952	524
544.316	522.19
544.681	512.25
545.045	531
545.41	525.35
545.774	513.83
546.138	516.09
546.503	521.96
546.867	520.38
547.231	516.77
547.595	516.54
547.959	511.57
548.324	535.97
548.688	527.84
549.052	526.26
549.416	523.32
549.779	525.35
550.143	560.15
550.507	542.08
550.871	539.59
551.235	528.29
551.599	552.92
551.962	542.08
552.326	531.91
552.689	545.24
553.053	509.76
553.417	532.13
553.78	540.04
554.143	522.64
554.507	559.02
554.87	564
555.234	542.75
555.597	561.06
555.96	554.96
556.323	535.07
556.686	551.12
557.05	554.51
557.413	558.35
557.776	553.6
558.139	566.03
558.502	552.25
558.865	554.96
559.228	540.49
559.59	570.55
559.953	546.82
560.316	535.75
560.679	545.24
561.041	562.19
561.404	535.07
561.767	545.92
562.129	554.51
562.492	559.48
562.854	562.41
563.217	539.14
563.579	568.52
563.941	559.7
564.304	548.86
564.666	578.23
565.028	586.37
565.39	563.09
565.753	558.12
566.115	590.66
566.477	572.58
566.839	589.98
567.201	560.83
567.563	572.58
567.925	563.77
568.287	572.58
568.648	592.7
569.01	566.03
569.372	589.76
569.734	580.27
570.095	585.46
570.457	585.92
570.819	583.88
571.18	585.46
571.542	581.85
571.903	566.93
572.265	576.2
572.626	584.33
572.987	588.18
573.349	585.24
573.71	582.53
574.071	595.18
574.432	605.8
574.794	592.02
575.155	610.32
575.516	564.22
575.877	591.34
576.238	586.37
576.599	601.51
576.96	575.97
577.32	573.71
577.681	602.87
578.042	607.61
578.403	572.13
578.763	600.83
579.124	582.3
579.485	571
579.845	611.45
580.206	612.36
580.566	604.67
580.927	581.4
581.287	589.53
581.648	583.66
582.008	582.53
582.368	596.54
582.728	575.97
583.089	594.28
583.449	604.45
583.809	588.4
584.169	597.67
584.529	594.28
584.889	596.76
585.249	585.01
585.609	602.19
585.969	577.33
586.329	595.63
586.688	587.95
587.048	601.74
587.408	576.2
587.768	574.84
588.127	576.65
588.487	589.31
588.846	565.8
589.206	600.15
589.565	586.59
589.925	580.72
590.284	582.53
590.643	586.37
591.003	585.92
591.362	593.37
591.721	595.18
592.08	590.21
592.44	592.02
592.799	588.85
593.158	601.28
593.517	575.75
593.876	599.02
594.235	581.17
594.593	588.85
594.952	571.91
595.311	596.31
595.67	599.02
596.029	591.57
596.387	573.71
596.746	569.65
597.104	589.53
597.463	589.08
597.822	564.22
598.18	575.52
598.538	579.36
598.897	585.24
599.255	575.07
599.613	593.83
599.972	568.06
600.33	562.41
600.688	575.97
601.046	572.13
601.404	579.14
601.762	560.83
602.12	576.2
602.478	577.33
602.836	594.96
603.194	582.98
603.552	577.56
603.91	533.26
604.268	566.48
604.625	580.49
604.983	584.79
605.341	568.29
605.698	561.96
606.056	565.58
606.413	558.57
606.771	591.57
607.128	577.78
607.485	562.87
607.843	561.06
608.2	556.54
608.557	551.79
608.914	564.67
609.272	553.83
609.629	570.32
609.986	578.23
610.343	555.64
610.7	539.59
611.057	587.72
611.414	547.27
611.771	551.34
612.127	573.49
612.484	559.93
612.841	561.06
613.198	554.28
613.554	560.61
613.911	550.89
614.267	559.02
614.624	550.44
614.98	566.93
615.337	533.71
615.693	560.83
616.05	539.36
616.406	537.78
616.762	554.73
617.118	560.61
617.475	536.2
617.831	543.43
618.187	544.79
618.543	556.99
618.899	545.69
619.255	548.18
619.611	538.91
619.967	542.75
620.323	520.38
620.678	545.47
621.034	541.4
621.39	537.78
621.746	532.81
622.101	512.02
622.457	549.53
622.812	541.4
623.168	528.97
623.523	530.33
623.879	537.56
624.234	530.78
624.589	512.02
624.945	526.26
625.3	515.64
625.655	528.97
626.01	502.3
626.365	524.45
626.72	522.19
627.075	524.22
627.43	501.4
627.785	498.01
628.14	513.38
628.495	509.76
628.85	509.99
629.205	518.35
629.559	528.97
629.914	514.96
630.269	499.59
630.623	510.44
630.978	501.17
631.332	505.69
631.687	499.37
632.041	496.88
632.396	510.66
632.75	488.29
633.104	503.43
633.459	496.65
633.813	493.72
634.167	486.26
634.521	491.91
634.875	461.85
635.229	481.96
635.583	475.41
635.937	484.68
636.291	496.2
636.645	477.67
636.999	491
637.352	481.29
637.706	488.29
638.06	498.46
638.413	469.76
638.767	478.12
639.121	482.64
639.474	482.64
639.828	469.99
640.181	495.98
640.534	462.3
640.888	446.94
641.241	476.54
641.594	463.89
641.947	482.87
642.301	472.7
642.654	474.96
643.007	480.38
643.36	459.14
643.713	437.45
644.066	471.8
644.419	435.86
644.771	437.22
645.124	450.33
645.477	459.59
645.83	448.75
646.182	452.81
646.535	438.35
646.888	446.26
647.24	445.58
647.593	446.71
647.945	441.06
648.298	422.31
648.65	443.55
649.002	432.7
649.355	426.6
649.707	439.71
650.059	447.39
650.411	432.93
650.763	442.87
651.115	459.37
651.467	428.63
651.819	440.38
652.171	451.46
652.523	446.49
652.875	404
653.227	413.49
653.578	438.8
653.93	435.64
654.282	431.34
654.633	427.05
654.985	413.27
655.337	418.92
655.688	424.34
656.039	427.5
656.391	396.54
656.742	414.85
657.094	411.23
657.445	416.2
657.796	429.31
658.147	431.34
658.498	418.69
658.849	422.53
659.2	411.23
659.551	432.47
659.902	419.82
660.253	420.27
660.604	429.31
660.955	413.27
661.306	419.59
661.656	425.47
662.007	422.98
662.358	397.9
662.708	404.9
663.059	405.36
663.409	401.51
663.76	400.38
664.11	377.79
664.461	403.77
664.811	399.71
665.161	404.9
665.511	427.73
665.862	384.11
666.212	384.57
666.562	400.61
666.912	418.01
667.262	391.8
667.612	392.93
667.962	410.1
668.312	409.2
668.662	386.83
669.011	406.26
669.361	393.61
669.711	403.55
670.06	425.02
670.41	387.73
670.76	397
671.109	381.63
671.459	397
671.808	364
672.157	392.93
672.507	406.71
672.856	404.23
673.205	391.12
673.554	385.92
673.904	393.38
674.253	371.69
674.602	388.41
674.951	401.06
675.3	393.83
675.649	374.17
675.998	376.88
676.346	375.07
676.695	383.66
677.044	389.54
677.393	369.43
677.741	376.43
678.09	359.03
678.438	379.14
678.787	393.38
679.135	399.03
679.484	380.27
679.832	396.09
680.181	392.7
680.529	373.94
680.877	382.53
681.225	387.5
681.573	381.18
681.922	381.63
682.27	382.31
682.618	363.1
682.966	373.49
683.314	374.62
683.661	378.24
684.009	374.17
684.357	380.72
684.705	374.85
685.053	370.1
685.4	362.19
685.748	396.77
686.095	372.36
686.443	379.14
686.79	366.49
687.138	360.61
687.485	364.45
687.832	370.78
688.18	361.74
688.527	365.81
688.874	362.42
689.221	361.29
689.568	375.3
689.915	363.32
690.262	365.81
690.609	356.32
690.956	389.31
691.303	363.32
691.65	360.16
691.997	339.82
692.344	367.84
692.69	343.21
693.037	368.52
693.383	381.85
693.73	370.78
694.077	377.79
694.423	361.29
694.769	370.78
695.116	366.49
695.462	379.59
695.808	352.02
696.155	374.85
696.501	354.28
696.847	354.06
697.193	354.96
697.539	385.7
697.885	344.12
698.231	355.87
698.577	350.22
698.923	339.37
699.269	347.96
699.614	350.67
699.96	338.69
700.306	357.9
700.651	360.61
700.997	346.38
701.342	357.22
701.688	363.32
702.033	346.15
702.379	347.28
702.724	345.92
703.069	331.23
703.415	356.09
703.76	353.38
704.105	337.34
704.45	360.16
704.795	359.48
705.14	352.02
705.485	340.05
705.83	373.49
706.175	357.45
706.52	359.26
706.865	357.9
707.209	362.19
707.554	364.23
707.899	337.34
708.243	364.45
708.588	353.61
708.932	332.59
709.277	335.08
709.621	352.93
709.966	349.09
710.31	355.19
710.654	342.76
710.998	353.38
711.342	338.92
711.687	346.15
712.031	359.93
712.375	342.08
712.719	365.58
713.063	357.9
713.407	367.17
713.75	362.19
714.094	333.04
714.438	342.99
714.782	340.27
715.125	347.28
715.469	342.99
715.812	350.89
716.156	348.41
716.499	346.6
716.843	349.99
717.186	340.27
717.53	329.43
717.873	351.12
718.216	337.56
718.559	332.14
718.902	329.65
719.246	362.42
719.589	347.96
719.932	345.47
720.275	347.28
720.617	328.52
720.96	336.66
721.303	329.88
721.646	345.92
721.989	338.01
722.331	355.19
722.674	344.79
723.016	327.39
723.359	345.25
723.701	354.74
724.044	324.23
724.386	332.82
724.729	352.25
725.071	333.27
725.413	341.18
725.755	326.49
726.097	331.91
726.439	364.68
726.782	340.95
727.124	335.98
727.465	342.31
727.807	336.21
728.149	330.56
728.491	347.96
728.833	325.81
729.175	337.11
729.516	334.62
729.858	326.94
730.199	342.99
730.541	332.59
730.882	349.54
731.224	339.6
731.565	350.44
731.906	343.44
732.248	325.36
732.589	354.96
732.93	347.96
733.271	343.21
733.612	346.38
733.953	342.31
734.294	334.17
734.635	333.27
734.976	335.3
735.317	352.02
735.658	347.73
735.999	322.19
736.339	357.67
736.68	351.12
737.021	345.25
737.361	347.5
737.702	340.05
738.042	346.15
738.383	340.05
738.723	343.44
739.063	340.73
739.404	362.87
739.744	343.44
740.084	321.07
740.424	337.79
740.764	313.61
741.104	338.24
741.444	326.26
741.784	339.14
742.124	338.24
742.464	317.22
742.804	326.71
743.143	336.43
743.483	337.79
743.823	337.11
744.162	322.19
744.502	349.09
744.841	328.07
745.181	340.73
745.52	356.32
745.86	340.27
746.199	334.4
746.538	325.58
746.877	342.99
747.216	332.36
747.556	327.17
747.895	340.73
748.234	338.69
748.573	329.2
748.911	347.96
749.25	354.28
749.589	349.54
749.928	345.47
750.267	349.76
750.605	325.13
750.944	356.09
751.283	328.3
751.621	332.14
751.96	349.54
752.298	341.86
752.636	349.54
752.975	326.04
753.313	320.16
753.651	324.23
753.989	328.75
754.327	340.95
754.666	336.66
755.004	338.01
755.342	345.47
755.679	339.6
756.017	337.56
756.355	337.34
756.693	324.91
757.031	338.24
757.368	340.73
757.706	317
758.044	324.68
758.381	343.89
758.719	326.26
759.056	339.37
759.394	325.81
759.731	346.83
760.068	337.11
760.405	325.13
760.743	356.32
761.08	322.42
761.417	307.96
761.754	334.17
762.091	333.04
762.428	336.66
762.765	340.95
763.102	342.08
763.438	316.55
763.775	334.62
764.112	331.23
764.449	332.14
764.785	327.62
765.122	316.32
765.458	338.24
765.795	309.31
766.131	319.48
766.467	335.75
766.804	347.28
767.14	338.47
767.476	325.13
767.812	323.55
768.148	335.08
768.485	331.69
768.821	346.38
769.157	325.58
769.492	338.92
769.828	311.8
770.164	342.31
770.5	333.72
770.836	344.34
771.171	337.79
771.507	329.2
771.842	328.07
772.178	323.55
772.513	322.87
772.849	321.74
773.184	333.04
773.519	349.09
773.855	326.26
774.19	324.23
774.525	313.38
774.86	328.07
775.195	333.04
775.53	337.56
775.865	317.68
776.2	337.56
776.535	327.84
776.87	351.8
777.205	324
777.539	316.55
777.874	322.19
778.209	353.15
778.543	320.61
778.878	340.05
779.212	322.42
779.547	319.03
779.881	317.9
780.215	326.49
780.55	357.22
780.884	341.86
781.218	356.77
781.552	333.95
781.886	334.62
782.22	317
782.554	312.25
782.888	326.26
783.222	339.14
783.556	323.32
783.889	351.12
784.223	329.88
784.557	317.45
784.89	336.88
785.224	331.69
785.557	326.71
785.891	330.1
786.224	331.69
786.558	338.69
786.891	325.81
787.224	323.32
787.557	338.69
787.891	324
788.224	336.88
788.557	353.15
788.89	319.03
789.223	316.55
