Data from No_light_on_white_reflection_standard_FLMS001491_041.txt Node
Date: Tue Feb 07 10:33:00 GMT 2017
User: dcchb
Spectrometer: FLMS00149
Trigger mode: 0
Integration Time (sec): 2.000000E-2
Scans to average: 10
Electric dark correction enabled: true
Nonlinearity correction enabled: false
Boxcar width: 0
XAxis mode: Wavelengths
Number of Pixels in Spectrum: 2048
>>>>>Begin Spectral Data<<<<<
341.393	-28.36
341.776	-28.36
342.16	-28.36
342.543	-64.52
342.927	-68.36
343.31	-59.77
343.693	-54.35
344.077	-62.26
344.46	-62.71
344.843	-55.03
345.226	-35.37
345.61	-37.85
345.993	-9.83
346.376	-11.41
346.759	11.19
347.142	17.51
347.525	53.67
347.908	47.12
348.291	69.72
348.674	85.08
349.057	104.29
349.44	120.34
349.823	135.93
350.206	153.78
350.588	146.1
350.971	180.22
351.354	164.63
351.737	196.94
352.119	212.54
352.502	243.72
352.884	257.28
353.267	248.69
353.65	268.58
354.032	273.33
354.414	270.61
354.797	301.35
355.179	274.91
355.562	293.89
355.944	281.46
356.326	316.04
356.709	303.83
357.091	291.18
357.473	316.49
357.855	309.48
358.238	317.39
358.62	299.77
359.002	317.62
359.384	298.64
359.766	326.66
360.148	288.47
360.53	295.7
360.912	315.81
361.294	282.14
361.676	302.7
362.057	308.13
362.439	280.78
362.821	301.57
363.203	283.04
363.584	274.46
363.966	286.21
364.348	285.08
364.729	309.03
365.111	316.71
365.493	288.02
365.874	293.66
366.256	291.63
366.637	279.65
367.019	264.29
367.4	273.33
367.781	287.56
368.163	280.78
368.544	287.11
368.925	272.65
369.306	271.97
369.688	272.42
370.069	286.66
370.45	278.75
370.831	262.48
371.212	301.57
371.593	268.13
371.974	262.93
372.355	277.39
372.736	249.15
373.117	267.68
373.498	262.25
373.879	261.8
374.26	281.46
374.641	287.11
375.021	282.59
375.402	279.65
375.783	287.11
376.163	273.1
376.544	286.66
376.925	278.98
377.305	268.81
377.686	286.66
378.066	283.5
378.447	275.59
378.827	277.85
379.208	257.51
379.588	286.89
379.968	291.63
380.349	299.54
380.729	286.66
381.109	284.63
381.489	290.27
381.87	291.18
382.25	275.59
382.63	276.26
383.01	276.49
383.39	285.08
383.77	296.38
384.15	295.47
384.53	280.56
384.91	278.07
385.29	299.54
385.67	304.74
386.049	279.65
386.429	283.27
386.809	268.81
387.189	290.27
387.568	282.59
387.948	293.66
388.328	270.84
388.707	282.82
389.087	291.18
389.466	307.45
389.846	288.47
390.225	280.11
390.605	308.13
390.984	299.54
391.363	303.38
391.743	304.51
392.122	291.63
392.501	288.24
392.881	297.73
393.26	299.31
393.639	285.98
394.018	306.09
394.397	276.26
394.776	298.18
395.155	297.51
395.534	276.72
395.913	282.59
396.292	290.05
396.671	291.4
397.05	276.72
397.429	297.51
397.808	307.22
398.186	281.69
398.565	277.17
398.944	298.41
399.323	297.05
399.701	294.34
400.08	288.69
400.458	319.65
400.837	289.37
401.215	307.22
401.594	298.18
401.972	292.76
402.351	284.85
402.729	308.13
403.107	284.17
403.486	278.75
403.864	289.14
404.242	296.15
404.62	308.35
404.999	311.07
405.377	276.94
405.755	313.33
406.133	289.6
406.511	291.86
406.889	291.86
407.267	309.26
407.645	299.99
408.023	277.85
408.401	285.3
408.779	315.36
409.156	302.25
409.534	310.39
409.912	295.7
410.29	294.34
410.667	304.29
411.045	290.05
411.422	292.31
411.8	293.44
412.178	299.99
412.555	292.53
412.933	298.86
413.31	286.21
413.687	298.41
414.065	292.76
414.442	310.61
414.819	291.4
415.197	324.17
415.574	293.89
415.951	304.96
416.328	301.35
416.705	303.61
417.082	305.87
417.46	311.74
417.837	299.77
418.214	298.41
418.591	278.52
418.967	287.56
419.344	323.72
419.721	300.22
420.098	311.74
420.475	296.83
420.852	290.73
421.228	308.58
421.605	294.34
421.982	304.96
422.358	313.78
422.735	303.61
423.111	293.44
423.488	311.52
423.864	339.31
424.241	299.09
424.617	307.9
424.994	298.86
425.37	288.24
425.746	321.23
426.123	325.08
426.499	309.71
426.875	324.62
427.251	329.37
427.627	332.08
428.003	288.24
428.379	302.93
428.756	308.81
429.132	324.85
429.507	319.88
429.883	311.52
430.259	295.7
430.635	302.48
431.011	323.72
431.387	326.88
431.763	331.18
432.138	306.77
432.514	330.5
432.89	307.22
433.265	309.26
433.641	321.23
434.016	303.83
434.392	314
434.767	329.6
435.143	350.39
435.518	330.95
435.894	315.13
436.269	314.68
436.644	324.62
437.02	326.43
437.395	331.18
437.77	314.68
438.145	326.21
438.52	319.2
438.895	341.8
439.271	315.81
439.646	330.27
440.021	328.24
440.395	332.31
440.77	326.66
441.145	332.08
441.52	339.09
441.895	329.14
442.27	348.58
442.645	333.21
443.019	328.69
443.394	338.86
443.769	336.38
444.143	354.23
444.518	351.52
444.892	343.38
445.267	357.39
445.641	332.76
446.016	332.99
446.39	362.14
446.764	348.58
447.139	362.36
447.513	365.53
447.887	374.34
448.262	371.85
448.636	363.49
449.01	357.39
449.384	364.4
449.758	361.46
450.132	355.36
450.506	356.26
450.88	342.93
451.254	351.52
451.628	355.36
452.002	358.3
452.376	380.67
452.75	382.7
453.123	376.6
453.497	358.75
453.871	369.82
454.244	371.85
454.618	376.15
454.992	371.4
455.365	360.1
455.739	385.19
456.112	375.02
456.486	375.47
456.859	375.7
457.232	382.02
457.606	368.92
457.979	360.33
458.352	346.32
458.725	356.04
459.099	339.77
459.472	367.11
459.845	354.68
460.218	367.79
460.591	368.46
460.964	363.49
461.337	364.4
461.71	368.92
462.083	350.39
462.456	350.39
462.829	332.31
463.201	344.06
463.574	351.06
463.947	348.35
464.32	356.94
464.692	350.16
465.065	359.2
465.438	336.38
465.81	359.88
466.183	356.04
466.555	340.22
466.928	356.71
467.3	361.69
467.672	365.98
468.045	355.13
468.417	356.94
468.789	352.87
469.161	336.38
469.534	357.17
469.906	366.43
470.278	367.33
470.65	339.77
471.022	337.51
471.394	342.48
471.766	349.93
472.138	359.43
472.51	359.88
472.882	337.05
473.253	345.64
473.625	350.84
473.997	355.81
474.369	345.64
474.74	341.35
475.112	358.75
475.484	357.62
475.855	352.42
476.227	338.64
476.598	346.32
476.97	350.61
477.341	349.03
477.713	344.96
478.084	349.26
478.455	345.87
478.827	349.03
479.198	356.04
479.569	346.09
479.94	340.89
480.311	330.5
480.682	365.75
481.053	359.43
481.424	351.29
481.795	342.48
482.166	373.89
482.537	350.16
482.908	345.19
483.279	334.12
483.65	374.79
484.021	363.95
484.391	349.48
484.762	356.94
485.133	349.26
485.503	360.56
485.874	344.74
486.244	352.87
486.615	372.76
486.985	365.98
487.356	367.79
487.726	347.67
488.097	363.27
488.467	361.23
488.837	381.12
489.207	363.72
489.578	381.35
489.948	370.72
490.318	378.63
490.688	371.18
491.058	356.04
491.428	371.85
491.798	371.63
492.168	372.53
492.538	364.62
492.908	381.57
493.278	377.5
493.648	358.97
494.017	371.4
494.387	362.36
494.757	394.45
495.126	375.02
495.496	379.54
495.866	410.5
496.235	389.03
496.605	385.64
496.974	401.68
497.344	377.73
497.713	372.08
498.082	394.9
498.452	391.74
498.821	403.72
499.19	395.13
499.559	399.88
499.928	402.59
500.298	401.01
500.667	404.4
501.036	407.11
501.405	389.03
501.774	424.96
502.143	396.03
502.512	406.88
502.88	388.8
503.249	389.48
503.618	393.55
503.987	387.9
504.356	418.41
504.724	417.28
505.093	407.79
505.462	411.63
505.83	414.34
506.199	412.08
506.567	408.92
506.936	437.84
507.304	432.64
507.672	417.05
508.041	433.55
508.409	431.06
508.777	409.37
509.145	427.45
509.514	395.58
509.882	425.41
510.25	431.29
510.618	410.95
510.986	424.28
511.354	427.22
511.722	417.73
512.09	438.29
512.458	430.61
512.826	426.32
513.193	431.06
513.561	424.73
513.929	447.56
514.297	450.27
514.664	433.32
515.032	433.32
515.4	454.34
515.767	435.58
516.135	441.23
516.502	440.78
516.869	440.55
517.237	437.62
517.604	430.84
517.972	445.75
518.339	452.08
518.706	426.54
519.073	462.47
519.44	466.77
519.808	478.52
520.175	459.08
520.542	447.11
520.909	464.51
521.276	470.84
521.643	478.97
522.009	468.12
522.376	485.98
522.743	487.11
523.11	454.34
523.477	453.66
523.843	469.48
524.21	472.87
524.577	451.85
524.943	464.96
525.31	485.75
525.676	482.59
526.043	478.74
526.409	488.01
526.776	489.14
527.142	489.37
527.508	492.3
527.874	478.97
528.241	476.03
528.607	471.51
528.973	490.72
529.339	471.74
529.705	497.73
530.071	506.54
530.437	499.53
530.803	462.7
531.169	481.46
531.535	496.82
531.901	496.6
532.267	489.37
532.632	491.17
532.998	492.08
533.364	477.39
533.73	486.2
534.095	500.89
534.461	483.94
534.826	500.44
535.192	509.93
535.557	498.18
535.923	505.41
536.288	530.27
536.653	495.24
537.019	513.32
537.384	490.04
537.749	499.76
538.114	499.31
538.479	491.4
538.845	523.04
539.21	481.91
539.575	485.75
539.94	511.96
540.305	518.07
540.67	514.45
541.034	535.01
541.399	518.07
541.764	488.91
542.129	514.45
542.494	510.38
542.858	521.23
543.223	526.43
543.587	501.34
543.952	493.89
544.316	506.99
544.681	500.44
545.045	506.31
545.41	516.03
545.774	507.44
546.138	512.87
546.503	508.35
546.867	506.31
547.231	514
547.595	483.72
547.959	530.72
548.324	522.81
548.688	528.01
549.052	514.68
549.416	521
549.779	518.97
550.143	526.65
550.507	502.47
550.871	523.04
551.235	532.98
551.599	525.52
551.962	518.52
552.326	549.48
552.689	544.96
553.053	537.05
553.417	524.62
553.78	532.08
554.143	540.21
554.507	545.41
554.87	534.79
555.234	534.79
555.597	532.53
555.96	528.23
556.323	531.17
556.686	529.59
557.05	536.14
557.413	523.26
557.776	546.77
558.139	532.08
558.502	530.49
558.865	569.36
559.228	547.22
559.59	532.3
559.953	506.99
560.316	556.03
560.679	537.27
561.041	533.21
561.404	558.06
561.767	571.4
562.129	550.38
562.492	538.63
562.854	555.35
563.217	549.93
563.579	549.7
563.941	556.03
564.304	540.89
564.666	548.35
565.028	559.19
565.39	538.86
565.753	557.16
566.115	545.41
566.477	551.28
566.839	552.19
567.201	573.21
567.563	534.11
567.925	564.39
568.287	545.64
568.648	557.16
569.01	577.5
569.372	565.52
569.734	568.69
570.095	572.53
570.457	558.97
570.819	614.33
571.18	566.65
571.542	578.63
571.903	556.03
572.265	586.99
572.626	569.82
572.987	592.41
573.349	581.79
573.71	578.63
574.071	580.89
574.432	579.53
574.794	582.02
575.155	562.36
575.516	597.39
575.877	595.58
576.238	570.72
576.599	602.36
576.96	572.98
577.32	581.57
577.681	582.7
578.042	583.37
578.403	575.47
578.763	589.7
579.124	569.36
579.485	564.17
579.845	577.05
580.206	572.53
580.566	575.92
580.927	586.31
581.287	564.62
581.648	571.85
582.008	585.41
582.368	576.14
582.728	584.5
583.089	588.8
583.449	565.07
583.809	584.73
584.169	590.83
584.529	569.82
584.889	579.76
585.249	574.34
585.609	570.49
585.969	573.43
586.329	579.98
586.688	592.64
587.048	577.5
587.408	563.94
587.768	573.43
588.127	581.11
588.487	596.93
588.846	582.24
589.206	546.54
589.565	573.43
589.925	572.53
590.284	567.33
590.643	577.05
591.003	570.49
591.362	557.84
591.721	558.74
592.08	574.11
592.44	584.96
592.799	597.39
593.158	583.15
593.517	576.37
593.876	585.63
594.235	561.45
594.593	563.49
594.952	558.52
595.311	570.04
595.67	562.81
596.029	568.91
596.387	568.46
596.746	568.69
597.104	558.29
597.463	562.58
597.822	572.3
598.18	563.94
598.538	559.42
598.897	561
599.255	565.3
599.613	548.8
599.972	562.13
600.33	560.78
600.688	568.23
601.046	549.48
601.404	564.84
601.762	568.91
602.12	550.83
602.478	555.58
602.836	570.72
603.194	577.05
603.552	542.02
603.91	555.8
604.268	577.72
604.625	577.05
604.983	565.97
605.341	540.89
605.698	574.34
606.056	571.4
606.413	549.48
606.771	572.53
607.128	574.34
607.485	531.62
607.843	552.41
608.2	541.34
608.557	555.8
608.914	569.82
609.272	546.77
609.629	557.84
609.986	548.57
610.343	539.31
610.7	541.34
611.057	553.09
611.414	544.96
611.771	556.71
612.127	539.31
612.484	559.19
612.841	539.76
613.198	525.75
613.554	525.07
613.911	549.93
614.267	553.54
614.624	533.66
614.98	529.36
615.337	534.34
615.693	538.86
616.05	534.11
616.406	506.31
616.762	537.5
617.118	532.75
617.475	528.91
617.831	527.33
618.187	514.45
618.543	513.09
618.899	526.43
619.255	530.27
619.611	536.82
619.967	522.13
620.323	528.46
620.678	496.37
621.034	527.78
621.39	522.59
621.746	508.12
622.101	517.16
622.457	537.27
622.812	511.74
623.168	508.57
623.523	492.3
623.879	513.55
624.234	511.51
624.589	503.83
624.945	504.28
625.3	530.49
625.655	501.79
626.01	519.42
626.365	499.31
626.72	519.65
627.075	517.39
627.43	507.22
627.785	510.38
628.14	514.68
628.495	517.16
628.85	492.3
629.205	501.12
629.559	504.28
629.914	491.85
630.269	505.41
630.623	483.94
630.978	493.43
631.332	506.77
631.687	496.15
632.041	477.39
632.396	508.57
632.75	474.22
633.104	480.78
633.459	495.02
633.813	479.65
634.167	464.51
634.521	456.15
634.875	485.07
635.229	460.21
635.583	484.17
635.937	486.65
636.291	470.38
636.645	476.26
636.999	448.69
637.352	479.65
637.706	494.79
638.06	473.77
638.413	463.15
638.767	485.07
639.121	464.96
639.474	484.39
639.828	482.36
640.181	468.12
640.534	473.32
640.888	488.69
641.241	466.32
641.594	468.58
641.947	469.03
642.301	442.36
642.654	459.08
643.007	444.85
643.36	459.08
643.713	454.79
644.066	442.14
644.419	468.35
644.771	459.99
645.124	431.74
645.477	435.13
645.83	427.67
646.182	428.12
646.535	464.28
646.888	421.8
647.24	416.15
647.593	442.36
647.945	450.95
648.298	440.78
648.65	416.6
649.002	437.39
649.355	419.99
649.707	432.19
650.059	425.19
650.411	449.59
650.763	399.2
651.115	441.46
651.467	436.71
651.819	434.68
652.171	452.53
652.523	424.96
652.875	411.63
653.227	425.41
653.578	424.51
653.93	415.7
654.282	425.41
654.633	408.46
654.985	409.59
655.337	402.81
655.688	414.11
656.039	427.67
656.391	417.96
656.742	415.24
657.094	427.45
657.445	401.46
657.796	422.93
658.147	414.57
658.498	417.96
658.849	423.38
659.2	416.83
659.551	400.1
659.902	423.15
660.253	417.5
660.604	418.86
660.955	407.11
661.306	407.11
661.656	422.47
662.007	398.52
662.358	403.72
662.708	380.67
663.059	379.99
663.409	415.47
663.76	389.48
664.11	399.2
664.461	388.35
664.811	401.46
665.161	372.08
665.511	393.1
665.862	383.38
666.212	395.58
666.562	399.42
666.912	376.37
667.262	375.7
667.612	392.42
667.962	389.71
668.312	393.32
668.662	401.91
669.011	412.53
669.361	381.8
669.711	400.33
670.06	388.8
670.41	378.86
670.76	374.57
671.109	395.81
671.459	390.16
671.808	391.06
672.157	392.65
672.507	384.74
672.856	381.35
673.205	398.29
673.554	384.51
673.904	375.47
674.253	394
674.602	400.55
674.951	391.74
675.3	369.37
675.649	379.76
675.998	377.73
676.346	370.05
676.695	388.8
677.044	376.15
677.393	387.45
677.741	379.76
678.09	374.79
678.438	361.91
678.787	382.02
679.135	385.41
679.484	374.79
679.832	395.81
680.181	372.76
680.529	350.39
680.877	369.37
681.225	367.56
681.573	392.19
681.922	381.57
682.27	372.53
682.618	369.14
682.966	364.4
683.314	358.3
683.661	363.72
684.009	372.08
684.357	372.31
684.705	365.75
685.053	357.62
685.4	366.43
685.748	369.14
686.095	383.83
686.443	371.4
686.79	367.56
687.138	358.07
687.485	372.53
687.832	358.75
688.18	346.09
688.527	364.4
688.874	353.1
689.221	351.74
689.568	347.45
689.915	360.56
690.262	354.23
690.609	358.3
690.956	355.36
691.303	349.71
691.65	353.32
691.997	355.58
692.344	341.35
692.69	348.35
693.037	367.79
693.383	355.81
693.73	380.44
694.077	356.04
694.423	364.4
694.769	352.87
695.116	346.32
695.462	350.84
695.808	343.61
696.155	351.52
696.501	356.71
696.847	348.13
697.193	353.1
697.539	356.26
697.885	369.37
698.231	354.68
698.577	347.67
698.923	345.64
699.269	356.49
699.614	340.89
699.96	362.14
700.306	354.68
700.651	360.1
700.997	354.23
701.342	356.49
701.688	342.02
702.033	344.28
702.379	336.6
702.724	350.39
703.069	333.44
703.415	351.29
703.76	361.23
704.105	355.13
704.45	348.8
704.795	339.09
705.14	347
705.485	342.02
705.83	360.78
706.175	353.32
706.52	348.13
706.865	349.71
707.209	355.13
707.554	344.51
707.899	360.1
708.243	335.92
708.588	347.22
708.932	352.42
709.277	342.48
709.621	352.42
709.966	336.6
710.31	319.2
710.654	333.44
710.998	347.67
711.342	349.26
711.687	354.68
712.031	333.66
712.375	339.31
712.719	333.89
713.063	336.6
713.407	358.75
713.75	350.16
714.094	339.54
714.438	351.74
714.782	329.37
715.125	346.09
715.469	332.08
715.812	338.64
716.156	340.22
716.499	342.93
716.843	328.69
717.186	347.22
717.53	336.6
717.873	346.32
718.216	337.05
718.559	329.14
718.902	349.93
719.246	345.19
719.589	351.06
719.932	335.25
720.275	303.61
720.617	334.12
720.96	342.93
721.303	330.27
721.646	345.41
721.989	320.56
722.331	329.82
722.674	349.93
723.016	345.41
723.359	314.68
723.701	335.7
724.044	320.33
724.386	343.83
724.729	349.93
725.071	336.15
725.413	335.7
725.755	345.87
726.097	344.06
726.439	351.97
726.782	328.01
727.124	335.02
727.465	337.28
727.807	337.51
728.149	330.05
728.491	325.75
728.833	328.92
729.175	330.27
729.516	327.34
729.858	333.44
730.199	340.22
730.541	321.69
730.882	349.03
731.224	330.95
731.565	321.91
731.906	340.89
732.248	341.35
732.589	355.13
732.93	329.82
733.271	335.25
733.612	336.83
733.953	343.83
734.294	333.21
734.635	333.89
734.976	333.66
735.317	323.95
735.658	318.07
735.999	339.09
736.339	316.26
736.68	337.28
737.021	324.17
737.361	328.01
737.702	343.38
738.042	317.39
738.383	334.12
738.723	327.79
739.063	350.39
739.404	324.4
739.744	345.64
740.084	348.13
740.424	331.86
740.764	321.46
741.104	333.66
741.444	323.95
741.784	333.21
742.124	330.5
742.464	307
742.804	325.98
743.143	337.96
743.483	337.05
743.823	329.82
744.162	335.47
744.502	336.15
744.841	326.21
745.181	318.3
745.52	333.89
745.86	337.28
746.199	330.95
746.538	328.01
746.877	340.89
747.216	328.24
747.556	343.38
747.895	337.28
748.234	345.41
748.573	322.59
748.911	343.15
749.25	337.96
749.589	316.71
749.928	331.4
750.267	342.02
750.605	324.62
750.944	339.54
751.283	316.04
751.621	342.7
751.96	332.08
752.298	322.59
752.636	323.49
752.975	343.83
753.313	352.19
753.651	333.89
753.989	339.77
754.327	323.95
754.666	325.3
755.004	332.53
755.342	343.38
755.679	326.66
756.017	326.21
756.355	325.75
756.693	350.39
757.031	328.01
757.368	345.19
757.706	334.34
758.044	333.21
758.381	328.01
758.719	333.66
759.056	334.34
759.394	327.34
759.731	339.54
760.068	344.51
760.405	325.3
760.743	317.39
761.08	307.22
761.417	326.21
761.754	309.26
762.091	325.75
762.428	348.35
762.765	344.28
763.102	321.23
763.438	331.18
763.775	315.81
764.112	309.26
764.449	352.87
764.785	332.08
765.122	320.56
765.458	320.1
765.795	338.86
766.131	324.62
766.467	326.43
766.804	314.68
767.14	310.39
767.476	333.21
767.812	354
768.148	306.32
768.485	328.24
768.821	337.96
769.157	332.99
769.492	334.79
769.828	330.27
770.164	325.98
770.5	314.46
770.836	334.79
771.171	331.18
771.507	318.75
771.842	332.53
772.178	334.34
772.513	318.52
772.849	339.09
773.184	328.92
773.519	338.41
773.855	337.96
774.19	321.91
774.525	315.13
774.86	317.17
775.195	332.99
775.53	316.71
775.865	312.2
776.2	326.43
776.535	332.53
776.87	322.36
777.205	331.63
777.539	336.38
777.874	334.34
778.209	332.53
778.543	319.65
778.878	333.66
779.212	337.05
779.547	316.71
779.881	343.15
780.215	325.53
780.55	323.49
780.884	331.63
781.218	335.47
781.552	338.64
781.886	334.12
782.22	325.3
782.554	309.26
782.888	332.76
783.222	343.83
783.556	318.3
783.889	312.2
784.223	325.98
784.557	313.78
784.89	311.97
785.224	335.47
785.557	324.4
785.891	342.02
786.224	327.34
786.558	326.21
786.891	329.6
787.224	313.1
787.557	327.79
787.891	316.71
788.224	321.91
788.557	333.89
788.89	330.95
