Data from No_light_on_white_reflection_standard_FLMS001491_071.txt Node
Date: Tue Feb 07 10:33:06 GMT 2017
User: dcchb
Spectrometer: FLMS00149
Trigger mode: 0
Integration Time (sec): 2.000000E-2
Scans to average: 10
Electric dark correction enabled: true
Nonlinearity correction enabled: false
Boxcar width: 0
XAxis mode: Wavelengths
Number of Pixels in Spectrum: 2048
>>>>>Begin Spectral Data<<<<<
341.393	2.73
341.776	2.73
342.16	2.73
342.543	-64.84
342.927	-62.81
343.31	-84.73
343.693	-70.27
344.077	-69.59
344.46	-54.45
344.843	-71.17
345.226	-44.73
345.61	-46.99
345.993	-3.83
346.376	6.79
346.759	14.7
347.142	26.91
347.525	39.79
347.908	78.88
348.291	90.63
348.674	71.88
349.057	116.17
349.44	110.07
349.823	143.06
350.206	165.66
350.588	129.28
350.971	183.96
351.354	180.35
351.737	196.39
352.119	218.99
352.502	220.8
352.884	230.29
353.267	267.8
353.65	270.06
354.032	265.32
354.414	280.01
354.797	277.75
355.179	288.82
355.562	292.21
355.944	285.88
356.326	306.22
356.709	309.84
357.091	303.96
357.473	301.02
357.855	316.62
358.238	313.68
358.62	289.27
359.002	311.42
359.384	297.86
359.766	323.17
360.148	302.83
360.53	317.75
360.912	296.05
361.294	309.38
361.676	309.38
362.057	288.14
362.439	303.73
362.821	292.66
363.203	289.5
363.584	270.06
363.966	289.05
364.348	279.55
364.729	280.23
365.111	307.12
365.493	285.88
365.874	282.04
366.256	299.44
366.637	284.75
367.019	289.95
367.4	258.09
367.781	270.06
368.163	287.69
368.544	284.53
368.925	283.62
369.306	269.16
369.688	247.24
370.069	283.85
370.45	278.88
370.831	286.56
371.212	265.09
371.593	288.59
371.974	282.94
372.355	270.97
372.736	264.64
373.117	253.57
373.498	272.32
373.879	272.32
374.26	282.72
374.641	267.35
375.021	274.36
375.402	248.14
375.783	270.74
376.163	272.1
376.544	266.9
376.925	289.72
377.305	278.2
377.686	293.11
378.066	273
378.447	263.06
378.827	281.14
379.208	278.65
379.588	302.38
379.968	270.74
380.349	258.31
380.729	286.33
381.109	270.06
381.489	298.99
381.87	292.21
382.25	301.7
382.63	284.75
383.01	300.35
383.39	282.94
383.77	277.52
384.15	270.74
384.53	282.27
384.91	291.53
385.29	276.39
385.67	292.89
386.049	298.54
386.429	293.57
386.809	297.41
387.189	308.25
387.568	288.82
387.948	280.91
388.328	304.86
388.707	288.59
389.087	286.56
389.466	276.62
389.846	284.98
390.225	274.58
390.605	292.66
390.984	264.87
391.363	289.5
391.743	289.72
392.122	299.44
392.501	281.59
392.881	273.45
393.26	277.29
393.639	294.24
394.018	298.76
394.397	288.37
394.776	282.72
395.155	291.76
395.534	284.3
395.913	291.53
396.292	290.63
396.671	288.82
397.05	283.4
397.429	304.19
397.808	304.19
398.186	300.8
398.565	288.82
398.944	287.01
399.323	305.54
399.701	294.47
400.08	302.38
400.458	307.8
400.837	303.28
401.215	291.31
401.594	296.73
401.972	295.83
402.351	300.35
402.729	285.2
403.107	301.48
403.486	282.49
403.864	289.95
404.242	288.82
404.62	298.31
404.999	313
405.377	315.26
405.755	285.43
406.133	312.55
406.511	287.92
406.889	299.89
407.267	294.92
407.645	314.13
408.023	300.12
408.401	294.92
408.779	307.12
409.156	302.83
409.534	302.38
409.912	286.56
410.29	311.42
410.667	304.86
411.045	295.6
411.422	293.79
411.8	311.87
412.178	296.05
412.555	321.14
412.933	291.31
413.31	295.83
413.687	317.29
414.065	312.32
414.442	306.22
414.819	305.09
415.197	305.77
415.574	293.11
415.951	320.23
416.328	298.31
416.705	289.05
417.082	301.93
417.46	289.05
417.837	314.58
418.214	314.58
418.591	307.12
418.967	340.8
419.344	286.33
419.721	293.57
420.098	317.75
420.475	298.54
420.852	300.57
421.228	309.61
421.605	317.29
421.982	314.58
422.358	324.53
422.735	306.22
423.111	305.32
423.488	312.77
423.864	304.41
424.241	287.92
424.617	297.41
424.994	301.25
425.37	305.99
425.746	324.98
426.123	287.01
426.499	293.11
426.875	304.41
427.251	295.83
427.627	308.25
428.003	310.29
428.379	327.46
428.756	327.46
429.132	330.4
429.507	318.88
429.883	307.35
430.259	309.84
430.635	309.38
431.011	326.33
431.387	306.45
431.763	323.4
432.138	309.84
432.514	321.81
432.89	304.41
433.265	308.03
433.641	297.63
434.016	322.94
434.392	324.53
434.767	326.33
435.143	300.57
435.518	303.73
435.894	311.87
436.269	317.97
436.644	313.45
437.02	315.49
437.395	325.43
437.77	317.52
438.145	315.03
438.52	321.81
438.895	328.82
439.271	310.74
439.646	363.39
440.021	341.47
440.395	334.92
440.77	325.66
441.145	315.71
441.52	343.73
441.895	327.24
442.27	319.33
442.645	329.05
443.019	351.19
443.394	338.54
443.769	336.05
444.143	358.2
444.518	353.45
444.892	342.6
445.267	335.6
445.641	363.85
446.016	339.67
446.39	359.55
446.764	360.91
447.139	352.32
447.513	344.86
447.887	360.46
448.262	350.97
448.636	373.34
449.01	356.16
449.384	348.71
449.758	378.31
450.132	363.39
450.506	361.81
450.88	374.24
451.254	347.35
451.628	373.34
452.002	362.04
452.376	388.7
452.75	383.51
453.123	372.43
453.497	360
453.871	376.73
454.244	364.75
454.618	384.41
454.992	385.54
455.365	365.43
455.739	359.33
456.112	364.07
456.486	363.17
456.859	373.56
457.232	347.12
457.606	353.68
457.979	347.35
458.352	359.1
458.725	382.6
459.099	380.8
459.472	364.3
459.845	364.3
460.218	367.69
460.591	366.11
460.964	341.25
461.337	347.8
461.71	355.26
462.083	352.77
462.456	345.54
462.829	374.47
463.201	374.24
463.574	353
463.947	353
464.32	341.7
464.692	363.62
465.065	357.07
465.438	358.42
465.81	380.34
466.183	356.84
466.555	385.99
466.928	360
467.3	358.65
467.672	352.1
468.045	336.28
468.417	331.53
468.789	359.55
469.161	342.38
469.534	349.61
469.906	351.42
470.278	360.23
470.65	348.71
471.022	349.38
471.394	351.64
471.766	340.8
472.138	329.5
472.51	356.84
472.882	350.74
473.253	353.23
473.625	333.79
473.997	328.82
474.369	341.7
474.74	343.28
475.112	332.43
475.484	342.38
475.855	352.77
476.227	350.29
476.598	369.5
476.97	335.37
477.341	365.65
477.713	337.41
478.084	342.38
478.455	352.1
478.827	356.84
479.198	366.11
479.569	339.21
479.94	361.13
480.311	356.39
480.682	359.33
481.053	343.73
481.424	356.61
481.795	361.81
482.166	348.93
482.537	362.94
482.908	359.1
483.279	357.74
483.65	360.68
484.021	369.04
484.391	366.56
484.762	353.68
485.133	365.2
485.503	362.72
485.874	358.65
486.244	349.38
486.615	348.25
486.985	370.85
487.356	350.74
487.726	369.72
488.097	362.94
488.467	382.83
488.837	343.51
489.207	385.99
489.578	346.67
489.948	365.2
490.318	361.59
490.688	392.55
491.058	386.22
491.428	371.08
491.798	378.08
492.168	369.95
492.538	370.63
492.908	387.35
493.278	378.31
493.648	395.03
494.017	392.09
494.387	381.7
494.757	381.25
495.126	361.36
495.496	399.78
495.866	393.68
496.235	388.7
496.605	397.97
496.974	382.15
497.344	385.77
497.713	397.07
498.082	411.53
498.452	406.56
498.821	390.51
499.19	391.87
499.559	409.27
499.928	403.39
500.298	384.41
500.667	380.8
501.036	399.55
501.405	410.85
501.774	397.97
502.143	400.46
502.512	411.3
502.88	405.43
503.249	413.79
503.618	423.73
503.987	432.55
504.356	407.69
504.724	412.88
505.093	418.53
505.462	414.47
505.83	427.8
506.199	417.4
506.567	416.5
506.936	413.56
507.304	419.89
507.672	435.48
508.041	433
508.409	411.3
508.777	428.25
509.145	419.44
509.514	439.32
509.882	444.97
510.25	422.38
510.618	435.48
510.986	441.13
511.354	434.8
511.722	437.52
512.09	448.59
512.458	436.61
512.826	436.39
513.193	441.36
513.561	428.7
513.929	440.45
514.297	414.01
514.664	443.39
515.032	423.96
515.4	440.23
515.767	432.77
516.135	452.21
516.502	436.39
516.869	451.3
517.237	447.69
517.604	464.86
517.972	452.21
518.339	448.82
518.706	467.8
519.073	464.18
519.44	459.21
519.808	468.7
520.175	475.03
520.542	477.52
520.909	472.77
521.276	447.23
521.643	479.55
522.009	466.67
522.376	465.09
522.743	471.87
523.11	473.22
523.477	458.08
523.843	492.66
524.21	447.01
524.577	462.37
524.943	484.75
525.31	470.28
525.676	487.46
526.043	454.92
526.409	477.29
526.776	482.71
527.142	474.13
527.508	455.37
527.874	484.75
528.241	456.73
528.607	475.48
528.973	484.3
529.339	489.94
529.705	480
530.071	497.18
530.437	485.43
530.803	491.53
531.169	501.24
531.535	474.58
531.901	505.09
532.267	505.09
532.632	502.15
532.998	503.96
533.364	499.44
533.73	502.6
534.095	496.5
534.461	498.98
534.826	491.75
535.192	497.63
535.557	510.28
535.923	491.3
536.288	494.92
536.653	488.59
537.019	501.02
537.384	496.27
537.749	494.69
538.114	504.86
538.479	505.09
538.845	523.84
539.21	505.54
539.575	518.19
539.94	508.7
540.305	516.61
540.67	506.89
541.034	507.12
541.399	501.7
541.764	496.05
542.129	518.42
542.494	491.98
542.858	523.62
543.223	523.84
543.587	539.89
543.952	510.06
544.316	506.89
544.681	508.25
545.045	519.32
545.41	514.58
545.774	526.1
546.138	522.49
546.503	522.03
546.867	515.25
547.231	539.66
547.595	524.97
547.959	521.58
548.324	496.72
548.688	519.1
549.052	522.03
549.416	516.84
549.779	540.34
550.143	499.66
550.507	519.77
550.871	521.81
551.235	519.55
551.599	527.68
551.962	532.2
552.326	516.61
552.689	548.47
553.053	543.73
553.417	524.07
553.78	520.23
554.143	540.34
554.507	531.53
554.87	551.19
555.234	560.23
555.597	558.64
555.96	537.18
556.323	559.77
556.686	516.84
557.05	548.47
557.413	544.18
557.776	538.98
558.139	546.89
558.502	531.07
558.865	523.16
559.228	557.97
559.59	560.9
559.953	576.95
560.316	544.63
560.679	555.25
561.041	552.77
561.404	556.84
561.767	536.05
562.129	542.82
562.492	550.96
562.854	549.6
563.217	553.45
563.579	556.61
563.941	550.73
564.304	543.05
564.666	567.68
565.028	586.89
565.39	584.86
565.753	561.13
566.115	570.85
566.477	552.54
566.839	573.78
567.201	571.3
567.563	549.83
567.925	559.32
568.287	557.74
568.648	575.37
569.01	585.76
569.372	579.66
569.734	543.73
570.095	585.08
570.457	577.85
570.819	581.92
571.18	570.39
571.542	589.38
571.903	579.43
572.265	578.3
572.626	592.54
572.987	567.91
573.349	587.12
573.71	574.01
574.071	605.65
574.432	555.93
574.794	589.6
575.155	594.12
575.516	551.19
575.877	586.44
576.238	593.22
576.599	588.47
576.96	578.98
577.32	581.24
577.681	595.93
578.042	604.74
578.403	588.7
578.763	598.42
579.124	582.15
579.485	588.47
579.845	585.76
580.206	588.02
580.566	586.44
580.927	589.83
581.287	622.82
581.648	620.79
582.008	577.63
582.368	583.73
582.728	586.67
583.089	590.28
583.449	611.98
583.809	587.8
584.169	597.74
584.529	602.48
584.889	584.86
585.249	573.11
585.609	576.72
585.969	596.83
586.329	588.02
586.688	563.62
587.048	571.52
587.408	599.32
587.768	587.8
588.127	582.37
588.487	556.38
588.846	582.82
589.206	590.51
589.565	583.28
589.925	579.21
590.284	603.39
590.643	586.21
591.003	566.55
591.362	573.11
591.721	573.11
592.08	592.54
592.44	590.96
592.799	592.54
593.158	558.19
593.517	576.95
593.876	567.23
594.235	560.68
594.593	583.28
594.952	576.04
595.311	589.6
595.67	599.77
596.029	567.91
596.387	583.28
596.746	582.37
597.104	583.73
597.463	569.49
597.822	576.04
598.18	562.71
598.538	580.79
598.897	576.04
599.255	567
599.613	568.36
599.972	561.36
600.33	559.55
600.688	545.31
601.046	564.75
601.404	574.69
601.762	563.84
602.12	592.99
602.478	575.14
602.836	562.26
603.194	575.14
603.552	555.03
603.91	567
604.268	575.14
604.625	562.71
604.983	569.72
605.341	567.23
605.698	571.98
606.056	565.87
606.413	547.12
606.771	563.84
607.128	554.12
607.485	569.04
607.843	569.49
608.2	556.84
608.557	572.43
608.914	550.06
609.272	565.42
609.629	544.41
609.986	544.18
610.343	570.62
610.7	552.77
611.057	555.48
611.414	563.16
611.771	556.84
612.127	565.65
612.484	549.38
612.841	567
613.198	562.26
613.554	550.06
613.911	530.62
614.267	544.63
614.624	533.11
614.98	545.31
615.337	563.62
615.693	555.93
616.05	531.75
616.406	569.04
616.762	539.89
617.118	555.25
617.475	538.08
617.831	536.27
618.187	536.05
618.543	511.19
618.899	538.98
619.255	536.95
619.611	539.43
619.967	512.54
620.323	535.59
620.678	523.39
621.034	530.17
621.39	500.34
621.746	522.49
622.101	523.62
622.457	527.91
622.812	531.98
623.168	512.32
623.523	524.75
623.879	515.03
624.234	534.92
624.589	538.31
624.945	514.58
625.3	518.87
625.655	504.18
626.01	541.92
626.365	518.87
626.72	515.03
627.075	529.04
627.43	528.36
627.785	513.45
628.14	496.95
628.495	514.35
628.85	489.27
629.205	495.59
629.559	505.99
629.914	490.85
630.269	499.21
630.623	481.58
630.978	494.24
631.332	480.23
631.687	481.36
632.041	483.39
632.396	490.17
632.75	477.97
633.104	491.3
633.459	487.68
633.813	502.6
634.167	492.88
634.521	493.33
634.875	495.82
635.229	463.96
635.583	489.04
635.937	495.14
636.291	496.5
636.645	475.48
636.999	481.58
637.352	475.48
637.706	456.5
638.06	451.3
638.413	470.74
638.767	482.26
639.121	471.19
639.474	469.61
639.828	435.03
640.181	463.96
640.534	465.09
640.888	445.2
641.241	465.54
641.594	459.66
641.947	462.37
642.301	455.6
642.654	466.22
643.007	460.79
643.36	456.5
643.713	456.05
644.066	449.04
644.419	469.83
644.771	444.52
645.124	451.98
645.477	452.21
645.83	431.42
646.182	447.46
646.535	441.36
646.888	449.95
647.24	428.48
647.593	436.61
647.945	430.06
648.298	447.23
648.65	440.68
649.002	445.65
649.355	440
649.707	415.6
650.059	408.36
650.411	423.51
650.763	426.67
651.115	448.59
651.467	439.78
651.819	435.03
652.171	436.61
652.523	443.84
652.875	420.79
653.227	415.14
653.578	408.36
653.93	437.29
654.282	436.84
654.633	421.02
654.985	421.02
655.337	425.77
655.688	421.92
656.039	430.29
656.391	414.24
656.742	405.88
657.094	408.82
657.445	419.89
657.796	413.11
658.147	418.99
658.498	414.92
658.849	407.46
659.2	403.85
659.551	418.53
659.902	415.37
660.253	425.09
660.604	407.24
660.955	416.27
661.306	395.94
661.656	415.37
662.007	382.6
662.358	407.91
662.708	402.94
663.059	414.47
663.409	390.29
663.76	409.49
664.11	404.07
664.461	409.49
664.811	385.09
665.161	385.54
665.511	411.98
665.862	383.73
666.212	384.86
666.562	400.46
666.912	395.03
667.262	382.6
667.612	395.48
667.962	407.91
668.312	382.6
668.662	391.64
669.011	391.87
669.361	387.12
669.711	379.21
670.06	367.46
670.41	376.5
670.76	393.68
671.109	389.83
671.459	395.48
671.808	393
672.157	396.39
672.507	391.64
672.856	390.74
673.205	364.3
673.554	372.21
673.904	384.64
674.253	381.02
674.602	389.38
674.951	374.92
675.3	392.55
675.649	384.64
675.998	420.57
676.346	395.03
676.695	368.37
677.044	381.25
677.393	364.3
677.741	372.21
678.09	368.37
678.438	403.39
678.787	377.41
679.135	382.6
679.484	394.13
679.832	345.77
680.181	378.76
680.529	379.44
680.877	364.07
681.225	378.54
681.573	370.63
681.922	376.73
682.27	368.14
682.618	376.05
682.966	353
683.314	363.85
683.661	361.36
684.009	364.3
684.357	351.87
684.705	360.46
685.053	347.8
685.4	381.02
685.748	388.7
686.095	344.41
686.443	373.34
686.79	361.13
687.138	375.15
687.485	368.59
687.832	356.16
688.18	368.37
688.527	366.11
688.874	384.64
689.221	369.72
689.568	356.39
689.915	370.85
690.262	375.37
690.609	346.22
690.956	363.39
691.303	371.98
691.65	374.02
691.997	363.39
692.344	349.16
692.69	354.81
693.037	341.7
693.383	348.03
693.73	340.8
694.077	372.21
694.423	356.84
694.769	370.85
695.116	354.81
695.462	336.95
695.808	358.2
696.155	350.29
696.501	343.28
696.847	373.56
697.193	347.58
697.539	360.23
697.885	355.26
698.231	359.78
698.577	343.51
698.923	350.29
699.269	353.45
699.614	355.03
699.96	346.67
700.306	354.36
700.651	361.36
700.997	351.64
701.342	347.8
701.688	337.18
702.033	357.52
702.379	349.84
702.724	339.89
703.069	332.43
703.415	341.02
703.76	327.46
704.105	348.25
704.45	337.41
704.795	339.21
705.14	340.8
705.485	348.93
705.83	351.87
706.175	353.23
706.52	342.83
706.865	357.74
707.209	356.16
707.554	353.23
707.899	339.21
708.243	350.06
708.588	338.31
708.932	345.77
709.277	334.47
709.621	345.54
709.966	338.99
710.31	330.17
710.654	349.84
710.998	347.12
711.342	352.55
711.687	368.59
712.031	336.05
712.375	331.08
712.719	346.22
713.063	348.93
713.407	340.57
713.75	348.03
714.094	380.12
714.438	333.79
714.782	357.07
715.125	339.67
715.469	351.42
715.812	348.48
716.156	345.99
716.499	335.37
716.843	358.87
717.186	347.35
717.53	345.54
717.873	356.61
718.216	331.3
718.559	327.92
718.902	342.6
719.246	337.63
719.589	342.15
719.932	348.48
720.275	343.96
720.617	318.65
720.96	336.5
721.303	349.16
721.646	341.93
721.989	334.69
722.331	350.06
722.674	353.9
723.016	335.15
723.359	331.08
723.701	325.2
724.044	323.17
724.386	353.68
724.729	331.08
725.071	344.41
725.413	329.72
725.755	355.71
726.097	330.17
726.439	333.34
726.782	336.5
727.124	320.91
727.465	350.51
727.807	334.24
728.149	337.41
728.491	320.46
728.833	315.94
729.175	315.49
729.516	325.66
729.858	331.08
730.199	333.11
730.541	335.15
730.882	317.52
731.224	340.34
731.565	339.44
731.906	329.72
732.248	339.67
732.589	338.76
732.93	338.31
733.271	347.12
733.612	342.6
733.953	331.08
734.294	349.84
734.635	334.92
734.976	357.74
735.317	329.72
735.658	324.53
735.999	334.47
736.339	322.72
736.68	334.02
737.021	321.36
737.361	343.51
737.702	340.57
738.042	321.14
738.383	336.5
738.723	341.02
739.063	333.56
739.404	328.37
739.744	344.41
740.084	324.53
740.424	322.94
740.764	321.81
741.104	339.44
741.444	355.49
741.784	356.84
742.124	336.95
742.464	353.23
742.804	335.37
743.143	353.68
743.483	336.73
743.823	339.44
744.162	326.56
744.502	336.95
744.841	338.76
745.181	336.28
745.52	335.37
745.86	347.12
746.199	323.4
746.538	315.03
746.877	340.57
747.216	324.53
747.556	325.2
747.895	331.08
748.234	327.01
748.573	320.68
748.911	325.2
749.25	329.05
749.589	357.07
749.928	328.37
750.267	332.21
750.605	334.69
750.944	339.89
751.283	346.9
751.621	353.68
751.96	346.67
752.298	338.99
752.636	336.73
752.975	345.77
753.313	309.16
753.651	331.76
753.989	362.26
754.327	346.67
754.666	318.2
755.004	315.49
755.342	334.24
755.679	342.6
756.017	348.25
756.355	346.45
756.693	341.25
757.031	348.48
757.368	316.16
757.706	327.92
758.044	338.99
758.381	306.45
758.719	338.54
759.056	302.61
759.394	322.94
759.731	327.69
760.068	326.33
760.405	315.26
760.743	340.57
761.08	334.24
761.417	322.27
761.754	325.66
762.091	309.38
762.428	316.39
762.765	330.85
763.102	331.08
763.438	324.53
763.775	320.68
764.112	323.85
764.449	304.19
764.785	322.94
765.122	334.92
765.458	323.4
765.795	330.4
766.131	327.24
766.467	338.54
766.804	333.56
767.14	331.98
767.476	339.89
767.812	318.88
768.148	313.68
768.485	323.17
768.821	306.9
769.157	349.16
769.492	317.52
769.828	324.75
770.164	310.51
770.5	342.83
770.836	315.26
771.171	337.63
771.507	324.75
771.842	333.79
772.178	341.02
772.513	336.28
772.849	341.7
773.184	335.37
773.519	317.07
773.855	315.49
774.19	322.49
774.525	349.38
774.86	342.83
775.195	320.46
775.53	343.51
775.865	321.14
776.2	317.29
776.535	333.56
776.87	325.43
777.205	331.76
777.539	333.11
777.874	308.93
778.209	336.05
778.543	331.08
778.878	334.69
779.212	326.56
779.547	336.73
779.881	343.06
780.215	327.24
780.55	322.27
780.884	316.84
781.218	323.4
781.552	338.99
781.886	332.21
782.22	326.33
782.554	301.93
782.888	322.49
783.222	320.68
783.556	322.49
783.889	300.8
784.223	341.25
784.557	315.71
784.89	349.61
785.224	329.95
785.557	307.35
785.891	312.32
786.224	317.07
786.558	318.42
786.891	324.53
787.224	320.91
787.557	324.07
787.891	320.23
788.224	331.53
788.557	316.39
788.89	329.72
789.223	332.43
789.556	328.59
