Data from No_light_on_white_reflection_standard_FLMS001491_086.txt Node
Date: Tue Feb 07 10:33:09 GMT 2017
User: dcchb
Spectrometer: FLMS00149
Trigger mode: 0
Integration Time (sec): 2.000000E-2
Scans to average: 10
Electric dark correction enabled: true
Nonlinearity correction enabled: false
Boxcar width: 0
XAxis mode: Wavelengths
Number of Pixels in Spectrum: 2048
>>>>>Begin Spectral Data<<<<<
341.393	-12.99
341.776	-12.99
342.16	-12.99
342.543	-37.85
342.927	-61.81
343.31	-74.69
343.693	-58.64
344.077	-65.87
344.46	-52.32
344.843	-64.29
345.226	-55.48
345.61	-12.99
345.993	-10.73
346.376	-1.47
346.759	24.75
347.142	23.39
347.525	33.11
347.908	48.02
348.291	96.61
348.674	78.08
349.057	92.54
349.44	127.34
349.823	160.33
350.206	147.23
350.588	164.63
350.971	175.48
351.354	196.49
351.737	214.8
352.119	224.29
352.502	244.17
352.884	233.1
353.267	254.34
353.65	273.1
354.032	275.36
354.414	271.52
354.797	286.89
355.179	287.34
355.562	294.12
355.944	304.96
356.326	312.2
356.709	316.04
357.091	312.65
357.473	313.1
357.855	304.29
358.238	294.34
358.62	307.45
359.002	306.77
359.384	304.96
359.766	278.52
360.148	296.15
360.53	306.55
360.912	301.8
361.294	305.42
361.676	290.95
362.057	285.76
362.439	306.32
362.821	315.13
363.203	312.65
363.584	292.31
363.966	297.96
364.348	276.26
364.729	278.07
365.111	281.01
365.493	272.65
365.874	275.36
366.256	282.14
366.637	273.33
367.019	289.6
367.4	284.17
367.781	277.39
368.163	278.52
368.544	267.9
368.925	274.23
369.306	277.39
369.688	275.13
370.069	290.95
370.45	276.04
370.831	272.2
371.212	269.26
371.593	257.51
371.974	269.48
372.355	273.1
372.736	288.69
373.117	287.79
373.498	274.68
373.879	288.47
374.26	270.39
374.641	287.34
375.021	251.18
375.402	281.01
375.783	300.44
376.163	278.07
376.544	290.95
376.925	297.51
377.305	272.65
377.686	284.63
378.066	283.95
378.447	281.24
378.827	284.4
379.208	268.35
379.588	278.98
379.968	274.91
380.349	281.24
380.729	281.01
381.109	285.76
381.489	276.94
381.87	264.29
382.25	311.29
382.63	291.4
383.01	297.96
383.39	285.08
383.77	308.13
384.15	296.15
384.53	279.2
384.91	290.73
385.29	284.17
385.67	295.7
386.049	292.53
386.429	278.07
386.809	281.24
387.189	298.64
387.568	278.75
387.948	277.17
388.328	299.77
388.707	264.74
389.087	282.82
389.466	285.76
389.846	285.98
390.225	301.57
390.605	289.14
390.984	284.4
391.363	286.43
391.743	294.34
392.122	288.47
392.501	298.41
392.881	300.22
393.26	307.22
393.639	323.04
394.018	307.22
394.397	289.82
394.776	286.43
395.155	311.07
395.534	289.6
395.913	277.39
396.292	308.35
396.671	323.04
397.05	283.95
397.429	309.94
397.808	283.5
398.186	313.33
398.565	308.58
398.944	298.18
399.323	288.24
399.701	291.86
400.08	293.21
400.458	286.66
400.837	308.58
401.215	300.67
401.594	299.99
401.972	302.25
402.351	285.53
402.729	290.5
403.107	292.99
403.486	298.64
403.864	307.68
404.242	280.33
404.62	298.41
404.999	302.03
405.377	306.32
405.755	295.02
406.133	299.99
406.511	288.02
406.889	305.19
407.267	316.26
407.645	315.81
408.023	292.99
408.401	329.14
408.779	310.39
409.156	296.6
409.534	316.71
409.912	282.37
410.29	315.13
410.667	294.57
411.045	307
411.422	283.27
411.8	312.42
412.178	288.92
412.555	316.94
412.933	330.73
413.31	321.69
413.687	314
414.065	296.38
414.442	279.2
414.819	309.48
415.197	308.13
415.574	298.86
415.951	299.09
416.328	310.16
416.705	298.18
417.082	301.12
417.46	306.55
417.837	296.38
418.214	304.74
418.591	307.9
418.967	307.9
419.344	320.78
419.721	315.81
420.098	314
420.475	315.58
420.852	318.97
421.228	285.98
421.605	289.6
421.982	287.34
422.358	316.04
422.735	315.58
423.111	308.35
423.488	321.91
423.864	320.78
424.241	307.9
424.617	321.23
424.994	302.25
425.37	316.26
425.746	322.82
426.123	303.38
426.499	321.91
426.875	312.42
427.251	312.65
427.627	306.77
428.003	321.23
428.379	324.85
428.756	304.96
429.132	344.51
429.507	328.24
429.883	320.33
430.259	313.33
430.635	307.22
431.011	330.27
431.387	342.48
431.763	331.4
432.138	319.88
432.514	317.84
432.89	305.87
433.265	335.92
433.641	338.41
434.016	320.78
434.392	318.07
434.767	335.7
435.143	329.6
435.518	313.1
435.894	295.02
436.269	336.15
436.644	336.83
437.02	315.13
437.395	327.56
437.77	318.52
438.145	342.7
438.52	302.48
438.895	329.82
439.271	316.49
439.646	323.04
440.021	331.63
440.395	317.39
440.77	330.73
441.145	311.74
441.52	332.53
441.895	347.45
442.27	336.38
442.645	355.13
443.019	341.8
443.394	325.3
443.769	345.41
444.143	345.41
444.518	343.83
444.892	357.39
445.267	366.43
445.641	367.11
446.016	363.27
446.39	359.43
446.764	342.48
447.139	353.55
447.513	365.3
447.887	367.33
448.262	361.23
448.636	344.06
449.01	354.91
449.384	360.78
449.758	370.95
450.132	358.97
450.506	360.56
450.88	359.43
451.254	361.91
451.628	369.59
452.002	398.52
452.376	376.15
452.75	380.22
453.123	361.01
453.497	359.65
453.871	372.76
454.244	381.57
454.618	368.24
454.992	370.95
455.365	392.19
455.739	350.39
456.112	356.71
456.486	361.69
456.859	371.18
457.232	360.56
457.606	378.86
457.979	356.04
458.352	377.5
458.725	358.75
459.099	369.14
459.472	365.98
459.845	374.79
460.218	365.53
460.591	361.01
460.964	364.17
461.337	358.97
461.71	372.76
462.083	383.61
462.456	361.01
462.829	349.93
463.201	363.95
463.574	366.88
463.947	365.98
464.32	349.26
464.692	359.65
465.065	355.81
465.438	344.28
465.81	352.19
466.183	356.49
466.555	354.68
466.928	351.52
467.3	373.44
467.672	370.05
468.045	370.5
468.417	367.56
468.789	361.23
469.161	361.01
469.534	337.96
469.906	381.57
470.278	345.87
470.65	370.5
471.022	361.91
471.394	345.64
471.766	348.58
472.138	350.61
472.51	344.28
472.882	356.71
473.253	346.54
473.625	354.45
473.997	345.64
474.369	353.32
474.74	358.97
475.112	341.12
475.484	347.9
475.855	344.06
476.227	360.33
476.598	337.73
476.97	359.2
477.341	355.81
477.713	364.62
478.084	356.26
478.455	362.36
478.827	345.41
479.198	358.75
479.569	356.04
479.94	360.1
480.311	344.96
480.682	346.77
481.053	329.6
481.424	366.21
481.795	363.72
482.166	332.99
482.537	350.39
482.908	338.64
483.279	354.91
483.65	340.89
484.021	350.84
484.391	343.38
484.762	377.73
485.133	367.33
485.503	394.23
485.874	352.42
486.244	374.57
486.615	340.67
486.985	358.3
487.356	384.06
487.726	363.95
488.097	353.78
488.467	374.57
488.837	376.37
489.207	369.59
489.578	349.03
489.948	380.44
490.318	375.92
490.688	396.03
491.058	375.47
491.428	379.99
491.798	368.01
492.168	373.44
492.538	381.35
492.908	374.57
493.278	380.89
493.648	384.06
494.017	387.9
494.387	373.44
494.757	377.73
495.126	394.23
495.496	392.87
495.866	406.2
496.235	385.64
496.605	389.71
496.974	385.87
497.344	394.23
497.713	393.55
498.082	396.49
498.452	404.17
498.821	401.91
499.19	395.13
499.559	414.57
499.928	417.28
500.298	406.2
500.667	397.84
501.036	408.01
501.405	419.76
501.774	400.1
502.143	417.5
502.512	412.53
502.88	404.62
503.249	399.2
503.618	420.89
503.987	414.11
504.356	408.69
504.724	412.76
505.093	419.54
505.462	401.91
505.83	428.8
506.199	413.44
506.567	442.59
506.936	432.87
507.304	412.76
507.672	424.06
508.041	435.36
508.409	443.27
508.777	438.07
509.145	419.76
509.514	441.23
509.882	430.38
510.25	421.34
510.618	441.68
510.986	427.22
511.354	445.07
511.722	438.29
512.09	448.46
512.458	444.85
512.826	441.68
513.193	455.24
513.561	459.76
513.929	436.94
514.297	455.47
514.664	440.78
515.032	443.94
515.4	466.77
515.767	457.05
516.135	465.41
516.502	455.02
516.869	445.75
517.237	457.28
517.604	460.89
517.972	460.67
518.339	458.63
518.706	498.18
519.073	472.87
519.44	459.08
519.808	465.41
520.175	466.99
520.542	462.7
520.909	451.85
521.276	471.96
521.643	462.47
522.009	453.21
522.376	474.45
522.743	476.48
523.11	469.48
523.477	490.04
523.843	491.85
524.21	460.89
524.577	469.25
524.943	497.28
525.31	481.46
525.676	492.3
526.043	497.28
526.409	486.88
526.776	474
527.142	491.85
527.508	474.68
527.874	500.66
528.241	481.91
528.607	480.55
528.973	495.02
529.339	485.52
529.705	504.28
530.071	505.86
530.437	486.65
530.803	504.05
531.169	500.89
531.535	497.5
531.901	497.28
532.267	481.91
532.632	516.71
532.998	500.44
533.364	515.58
533.73	506.77
534.095	485.52
534.461	496.82
534.826	506.09
535.192	496.82
535.557	525.3
535.923	523.49
536.288	502.25
536.653	513.55
537.019	495.69
537.384	522.59
537.749	497.5
538.114	505.41
538.479	541.34
538.845	509.25
539.21	516.71
539.575	515.81
539.94	509.48
540.305	508.12
540.67	494.34
541.034	531.62
541.399	517.39
541.764	510.38
542.129	538.4
542.494	511.06
542.858	508.35
543.223	525.75
543.587	508.57
543.952	520.1
544.316	527.56
544.681	525.3
545.045	523.72
545.41	534.79
545.774	544.05
546.138	525.52
546.503	527.78
546.867	507.22
547.231	541.12
547.595	518.29
547.959	528.69
548.324	503.6
548.688	547.67
549.052	537.5
549.416	521.91
549.779	522.81
550.143	520.33
550.507	524.39
550.871	533.21
551.235	504.05
551.599	540.89
551.962	551.06
552.326	536.14
552.689	537.05
553.053	562.81
553.417	528.46
553.78	560.32
554.143	536.6
554.507	534.11
554.87	527.33
555.234	543.15
555.597	545.64
555.96	558.52
556.323	540.66
556.686	549.7
557.05	549.93
557.413	554
557.776	560.1
558.139	546.99
558.502	555.8
558.865	533.43
559.228	548.8
559.59	544.96
559.953	570.72
560.316	570.49
560.679	570.27
561.041	546.99
561.404	546.99
561.767	546.31
562.129	568.69
562.492	551.28
562.854	569.59
563.217	572.98
563.579	574.34
563.941	568.23
564.304	567.56
564.666	581.34
565.028	575.47
565.39	572.53
565.753	575.92
566.115	585.63
566.477	573.66
566.839	585.41
567.201	575.92
567.563	573.21
567.925	570.72
568.287	567.78
568.648	578.18
569.01	559.87
569.372	558.29
569.734	589.48
570.095	590.38
570.457	587.44
570.819	572.08
571.18	583.37
571.542	576.82
571.903	570.95
572.265	604.39
572.626	576.14
572.987	584.96
573.349	577.72
573.71	574.11
574.071	590.61
574.432	582.47
574.794	593.54
575.155	573.43
575.516	578.18
575.877	577.5
576.238	594.45
576.599	581.34
576.96	583.6
577.32	576.37
577.681	610.27
578.042	597.39
578.403	593.32
578.763	595.13
579.124	578.4
579.485	568.91
579.845	577.95
580.206	605.52
580.566	586.09
580.927	591.74
581.287	595.8
581.648	588.35
582.008	586.99
582.368	600.55
582.728	587.67
583.089	599.87
583.449	606.88
583.809	602.36
584.169	583.37
584.529	600.32
584.889	608.23
585.249	607.1
585.609	594.9
585.969	594.67
586.329	587.89
586.688	571.62
587.048	583.6
587.408	588.57
587.768	595.8
588.127	586.76
588.487	574.11
588.846	572.98
589.206	613.2
589.565	596.26
589.925	585.63
590.284	597.84
590.643	597.39
591.003	580.21
591.362	577.72
591.721	564.84
592.08	570.72
592.44	583.83
592.799	582.24
593.158	586.54
593.517	585.86
593.876	598.06
594.235	604.16
594.593	588.35
594.952	579.76
595.311	579.76
595.67	568.46
596.029	592.19
596.387	584.5
596.746	600.55
597.104	577.05
597.463	585.41
597.822	603.03
598.18	577.27
598.538	584.28
598.897	588.57
599.255	588.8
599.613	586.31
599.972	579.98
600.33	558.52
600.688	577.05
601.046	585.86
601.404	577.5
601.762	587.22
602.12	589.02
602.478	580.66
602.836	575.24
603.194	583.15
603.552	583.6
603.91	562.13
604.268	581.57
604.625	575.47
604.983	570.27
605.341	594.45
605.698	571.62
606.056	581.11
606.413	584.73
606.771	549.7
607.128	581.11
607.485	562.13
607.843	574.56
608.2	578.18
608.557	563.49
608.914	570.95
609.272	573.66
609.629	561.68
609.986	550.61
610.343	556.03
610.7	570.72
611.057	550.61
611.414	538.18
611.771	555.58
612.127	577.95
612.484	561.91
612.841	579.98
613.198	552.19
613.554	535.47
613.911	553.32
614.267	544.96
614.624	558.52
614.98	545.18
615.337	527.56
615.693	541.57
616.05	541.79
616.406	523.04
616.762	569.59
617.118	551.96
617.475	567.33
617.831	549.7
618.187	541.57
618.543	562.81
618.899	548.8
619.255	539.99
619.611	551.74
619.967	516.94
620.323	512.42
620.678	540.21
621.034	546.54
621.39	535.01
621.746	535.24
622.101	542.02
622.457	542.47
622.812	514.45
623.168	525.52
623.523	535.47
623.879	520.1
624.234	519.87
624.589	517.16
624.945	504.73
625.3	510.38
625.655	520.78
626.01	523.94
626.365	515.81
626.72	515.35
627.075	502.47
627.43	512.87
627.785	514.68
628.14	499.99
628.495	520.1
628.85	504.73
629.205	507.22
629.559	497.73
629.914	505.86
630.269	522.81
630.623	518.07
630.978	497.5
631.332	483.04
631.687	497.5
632.041	505.64
632.396	497.95
632.75	481
633.104	485.98
633.459	486.43
633.813	502.92
634.167	497.28
634.521	479.65
634.875	487.56
635.229	495.24
635.583	480.33
635.937	501.57
636.291	487.33
636.645	502.7
636.999	486.88
637.352	488.46
637.706	472.19
638.06	481.68
638.413	480.1
638.767	484.85
639.121	480.55
639.474	459.99
639.828	475.13
640.181	471.06
640.534	451.4
640.888	466.32
641.241	483.94
641.594	462.7
641.947	455.24
642.301	463.38
642.654	471.06
643.007	467.67
643.36	454.11
643.713	466.09
644.066	487.56
644.419	450.95
644.771	463.6
645.124	469.48
645.477	451.4
645.83	455.47
646.182	447.33
646.535	435.36
646.888	438.75
647.24	435.13
647.593	455.02
647.945	423.15
648.298	428.12
648.65	454.11
649.002	451.4
649.355	457.5
649.707	450.5
650.059	433.77
650.411	442.81
650.763	457.73
651.115	438.29
651.467	450.27
651.819	440.33
652.171	429.03
652.523	440.1
652.875	440.78
653.227	430.38
653.578	428.58
653.93	405.98
654.282	436.03
654.633	416.37
654.985	417.73
655.337	430.16
655.688	400.33
656.039	427.9
656.391	429.93
656.742	430.61
657.094	421.34
657.445	427.22
657.796	416.83
658.147	422.47
658.498	431.29
658.849	424.06
659.2	418.41
659.551	410.72
659.902	424.28
660.253	428.8
660.604	417.73
660.955	410.95
661.306	438.75
661.656	404.17
662.007	402.59
662.358	394.23
662.708	429.48
663.059	417.28
663.409	407.56
663.76	412.08
664.11	409.82
664.461	401.91
664.811	390.84
665.161	401.91
665.511	410.27
665.862	382.25
666.212	405.53
666.562	399.2
666.912	392.87
667.262	395.81
667.612	401.68
667.962	405.07
668.312	398.52
668.662	409.82
669.011	403.27
669.361	401.01
669.711	388.58
670.06	381.35
670.41	363.95
670.76	388.58
671.109	395.81
671.459	377.28
671.808	402.14
672.157	417.96
672.507	383.83
672.856	364.62
673.205	388.58
673.554	383.83
673.904	373.89
674.253	386.32
674.602	375.92
674.951	382.25
675.3	369.14
675.649	368.01
675.998	372.53
676.346	391.06
676.695	382.02
677.044	393.1
677.393	385.19
677.741	375.47
678.09	386.54
678.438	393.32
678.787	378.86
679.135	377.73
679.484	364.85
679.832	373.44
680.181	368.69
680.529	376.15
680.877	365.75
681.225	386.09
681.573	390.84
681.922	351.29
682.27	382.7
682.618	382.25
682.966	375.7
683.314	368.69
683.661	388.58
684.009	380.89
684.357	393.77
684.705	376.83
685.053	363.49
685.4	382.25
685.748	361.01
686.095	367.11
686.443	373.66
686.79	392.19
687.138	376.6
687.485	361.23
687.832	358.07
688.18	372.08
688.527	370.27
688.874	380.89
689.221	375.92
689.568	376.6
689.915	369.59
690.262	378.41
690.609	375.7
690.956	351.74
691.303	350.39
691.65	357.84
691.997	354.68
692.344	380.67
692.69	354.68
693.037	351.06
693.383	357.62
693.73	361.69
694.077	358.07
694.423	378.86
694.769	359.43
695.116	355.58
695.462	362.82
695.808	343.61
696.155	365.75
696.501	365.53
696.847	365.53
697.193	370.72
697.539	351.74
697.885	341.12
698.231	366.66
698.577	355.58
698.923	323.72
699.269	366.88
699.614	363.72
699.96	357.62
700.306	339.54
700.651	365.75
700.997	366.21
701.342	338.86
701.688	348.8
702.033	353.1
702.379	348.13
702.724	336.6
703.069	342.48
703.415	355.81
703.76	339.77
704.105	366.66
704.45	347
704.795	347.67
705.14	362.82
705.485	351.74
705.83	368.01
706.175	344.74
706.52	340.22
706.865	361.01
707.209	375.24
707.554	346.77
707.899	340.22
708.243	357.84
708.588	374.79
708.932	332.53
709.277	344.74
709.621	363.04
709.966	348.8
710.31	334.12
710.654	359.65
710.998	335.47
711.342	339.54
711.687	328.01
712.031	348.8
712.375	352.42
712.719	361.91
713.063	355.58
713.407	342.25
713.75	342.25
714.094	332.53
714.438	367.33
714.782	341.57
715.125	348.35
715.469	334.12
715.812	339.31
716.156	342.25
716.499	369.82
716.843	340.44
717.186	313.78
717.53	342.25
717.873	340.67
718.216	326.66
718.559	349.26
718.902	349.93
719.246	316.94
719.589	344.28
719.932	342.02
720.275	356.26
720.617	335.47
720.96	351.52
721.303	343.38
721.646	333.21
721.989	332.53
722.331	344.28
722.674	354.91
723.016	333.89
723.359	342.25
723.701	348.8
724.044	343.61
724.386	342.02
724.729	335.92
725.071	327.34
725.413	338.41
725.755	336.6
726.097	335.7
726.439	352.87
726.782	346.09
727.124	329.14
727.465	340.67
727.807	348.58
728.149	344.74
728.491	345.41
728.833	351.52
729.175	355.36
729.516	334.57
729.858	331.86
730.199	324.17
730.541	335.47
730.882	325.75
731.224	361.91
731.565	344.74
731.906	347.9
732.248	329.37
732.589	336.38
732.93	332.31
733.271	337.05
733.612	335.25
733.953	346.77
734.294	343.15
734.635	326.21
734.976	342.7
735.317	335.25
735.658	333.89
735.999	311.74
736.339	331.18
736.68	345.19
737.021	331.86
737.361	327.56
737.702	329.14
738.042	335.47
738.383	354.68
738.723	356.49
739.063	339.31
739.404	320.56
739.744	329.6
740.084	332.99
740.424	336.6
740.764	328.24
741.104	339.31
741.444	335.92
741.784	345.19
742.124	309.71
742.464	333.21
742.804	351.52
743.143	338.18
743.483	332.99
743.823	340.89
744.162	338.64
744.502	317.17
744.841	335.02
745.181	337.96
745.52	316.94
745.86	346.32
746.199	353.32
746.538	340.67
746.877	366.43
747.216	332.08
747.556	316.94
747.895	335.25
748.234	331.4
748.573	339.99
748.911	308.58
749.25	334.79
749.589	357.84
749.928	323.72
750.267	339.09
750.605	342.25
750.944	327.56
751.283	326.66
751.621	348.13
751.96	326.88
752.298	345.87
752.636	340.67
752.975	350.61
753.313	339.99
753.651	340.44
753.989	339.31
754.327	325.3
754.666	335.02
755.004	346.54
755.342	349.03
755.679	328.47
756.017	349.93
756.355	349.93
756.693	337.51
757.031	319.88
757.368	342.02
757.706	328.01
758.044	313.1
758.381	322.59
758.719	348.8
759.056	312.42
759.394	338.41
759.731	332.53
760.068	350.61
760.405	341.12
760.743	331.86
761.08	326.66
761.417	313.33
761.754	315.81
762.091	339.99
762.428	314.68
762.765	339.31
763.102	334.34
763.438	330.27
763.775	324.62
764.112	333.21
764.449	337.05
764.785	324.4
765.122	330.95
765.458	337.73
765.795	329.6
766.131	332.31
766.467	339.77
766.804	333.66
767.14	322.36
767.476	329.82
767.812	318.75
768.148	327.11
768.485	313.78
768.821	330.73
769.157	348.8
769.492	344.28
769.828	330.95
770.164	336.38
770.5	332.53
770.836	331.63
771.171	348.35
771.507	338.86
771.842	341.8
772.178	338.41
772.513	337.28
772.849	339.77
773.184	325.3
773.519	339.99
773.855	338.86
774.19	326.88
774.525	321.46
774.86	327.79
775.195	327.79
775.53	368.24
775.865	315.81
776.2	330.73
776.535	336.38
776.87	320.78
777.205	330.27
777.539	341.12
777.874	327.79
778.209	323.49
778.543	324.85
778.878	323.27
779.212	318.07
779.547	324.17
779.881	322.59
780.215	327.11
780.55	304.74
780.884	339.09
781.218	347.22
781.552	331.63
781.886	325.08
782.22	338.41
782.554	325.53
782.888	350.16
783.222	337.51
783.556	321.69
783.889	337.96
784.223	343.61
784.557	338.18
784.89	339.31
785.224	328.47
785.557	314.68
785.891	330.5
786.224	327.79
786.558	333.21
786.891	327.11
787.224	320.33
787.557	326.43
787.891	328.24
788.224	332.99
788.557	294.57
788.89	314
789.223	333.21
