Data from No_light_on_white_reflection_standard_FLMS001491_001.txt Node
Date: Tue Feb 07 10:32:52 GMT 2017
User: dcchb
Spectrometer: FLMS00149
Trigger mode: 0
Integration Time (sec): 2.000000E-2
Scans to average: 10
Electric dark correction enabled: true
Nonlinearity correction enabled: false
Boxcar width: 0
XAxis mode: Wavelengths
Number of Pixels in Spectrum: 2048
>>>>>Begin Spectral Data<<<<<
341.393	-14.48
341.776	-14.48
342.16	-14.48
342.543	-61.48
342.927	-83.18
343.31	-80.92
343.693	-64.42
344.077	-70.97
344.46	-43.63
344.843	-60.58
345.226	-54.93
345.61	-20.8
345.993	-18.77
346.376	5.18
346.759	16.93
347.142	16.48
347.525	56.93
347.908	51.96
348.291	82.92
348.674	89.02
349.057	95.58
349.44	111.4
349.823	153.2
350.206	158.85
350.588	148.91
350.971	196.14
351.354	176.48
351.737	201.34
352.119	202.69
352.502	226.42
352.884	210.83
353.267	237.49
353.65	237.04
354.032	267.78
354.414	283.59
354.797	277.94
355.179	270.04
355.562	284.27
355.944	286.31
356.326	268.68
356.709	305.51
357.091	299.19
357.473	288.57
357.855	296.48
358.238	295.57
358.62	312.75
359.002	309.13
359.384	306.87
359.766	294.67
360.148	310.03
360.53	301.67
360.912	287.21
361.294	300.09
361.676	290.15
362.057	290.83
362.439	286.53
362.821	283.37
363.203	302.12
363.584	281.11
363.966	289.47
364.348	290.83
364.729	280.2
365.111	270.71
365.493	279.07
365.874	280.2
366.256	277.04
366.637	292.86
367.019	274.1
367.4	256.7
367.781	263.03
368.163	244.05
368.544	277.04
368.925	269.58
369.306	265.06
369.688	281.11
370.069	253.31
370.45	271.62
370.831	259.41
371.212	251.73
371.593	274.78
371.974	261.67
372.355	266.87
372.736	263.93
373.117	248.57
373.498	255.57
373.879	251.73
374.26	253.54
374.641	248.11
375.021	256.02
375.402	262.8
375.783	277.94
376.163	271.17
376.544	276.81
376.925	263.93
377.305	295.35
377.686	261.9
378.066	271.17
378.447	271.17
378.827	292.63
379.208	257.61
379.588	261.45
379.968	255.8
380.349	279.3
380.729	289.47
381.109	280.66
381.489	274.33
381.87	265.29
382.25	268
382.63	286.08
383.01	281.33
383.39	284.95
383.77	266.87
384.15	278.85
384.53	297.61
384.91	280.66
385.29	292.41
385.67	280.88
386.049	279.75
386.429	283.82
386.809	272.75
387.189	268
387.568	277.94
387.948	292.18
388.328	284.95
388.707	268
389.087	303.71
389.466	280.66
389.846	291.05
390.225	280.43
390.605	268.91
390.984	273.88
391.363	290.37
391.743	292.18
392.122	272.75
392.501	276.36
392.881	276.14
393.26	279.98
393.639	292.41
394.018	258.96
394.397	281.11
394.776	277.94
395.155	287.89
395.534	292.41
395.913	275.68
396.292	296.02
396.671	279.07
397.05	277.49
397.429	290.83
397.808	281.33
398.186	287.89
398.565	285.85
398.944	286.53
399.323	291.96
399.701	280.2
400.08	275.46
400.458	289.92
400.837	297.38
401.215	288.57
401.594	289.24
401.972	279.98
402.351	299.19
402.729	284.05
403.107	306.42
403.486	265.29
403.864	302.35
404.242	299.64
404.62	291.5
404.999	300.32
405.377	298.28
405.755	293.99
406.133	284.72
406.511	280.2
406.889	285.63
407.267	300.77
407.645	277.94
408.023	296.7
408.401	305.29
408.779	291.73
409.156	275.23
409.534	288.79
409.912	297.61
410.29	308.9
410.667	295.8
411.045	294.89
411.422	284.95
411.8	292.41
412.178	285.4
412.555	293.76
412.933	291.96
413.31	307.55
413.687	293.31
414.065	289.47
414.442	301.22
414.819	288.34
415.197	301.67
415.574	307.1
415.951	283.37
416.328	297.15
416.705	292.86
417.082	287.66
417.46	298.51
417.837	322.01
418.214	284.72
418.591	320.66
418.967	292.63
419.344	274.78
419.721	305.06
420.098	276.81
420.475	289.24
420.852	282.24
421.228	295.12
421.605	278.85
421.982	318.17
422.358	322.46
422.735	301.45
423.111	305.51
423.488	292.41
423.864	302.35
424.241	312.75
424.617	311.39
424.994	309.81
425.37	314.78
425.746	312.29
426.123	281.33
426.499	303.93
426.875	306.42
427.251	302.35
427.627	305.06
428.003	282.69
428.379	310.49
428.756	313.65
429.132	317.04
429.507	296.25
429.883	323.59
430.259	299.41
430.635	295.35
431.011	277.04
431.387	288.79
431.763	315.23
432.138	317.72
432.514	319.07
432.89	310.03
433.265	309.36
433.641	320.2
434.016	306.42
434.392	296.93
434.767	299.19
435.143	327.21
435.518	312.97
435.894	304.84
436.269	320.66
436.644	307.32
437.02	305.06
437.395	333.08
437.77	322.46
438.145	329.02
438.52	307.32
438.895	330.82
439.271	330.37
439.646	326.98
440.021	338.96
440.395	314.1
440.77	324.5
441.145	313.42
441.52	309.36
441.895	340.09
442.27	333.99
442.645	326.98
443.019	338.73
443.394	327.66
443.769	329.24
444.143	324.72
444.518	342.35
444.892	315.68
445.267	315.68
445.641	342.35
446.016	336.93
446.39	348.45
446.764	325.4
447.139	334.21
447.513	358.39
447.887	358.62
448.262	351.16
448.636	371.5
449.01	360.88
449.384	349.13
449.758	365.4
450.132	357.72
450.506	352.29
450.88	335.8
451.254	351.16
451.628	362.91
452.002	361.11
452.376	355.23
452.75	352.29
453.123	366.08
453.497	357.49
453.871	363.82
454.244	368.34
454.618	373.54
454.992	352.74
455.365	338.06
455.739	363.82
456.112	378.96
456.486	343.71
456.859	361.11
457.232	353.87
457.606	340.54
457.979	346.87
458.352	365.63
458.725	349.81
459.099	353.65
459.472	344.16
459.845	357.26
460.218	354.78
460.591	359.75
460.964	345.97
461.337	372.86
461.71	345.29
462.083	354.55
462.456	346.19
462.829	325.63
463.201	321.56
463.574	330.37
463.947	338.28
464.32	346.19
464.692	355
465.065	357.94
465.438	347.32
465.81	346.19
466.183	336.93
466.555	357.04
466.928	315.23
467.3	350.26
467.672	327.89
468.045	363.59
468.417	338.28
468.789	345.06
469.161	340.32
469.534	356.13
469.906	348.45
470.278	341.22
470.65	341.22
471.022	345.51
471.394	352.97
471.766	336.25
472.138	363.37
472.51	344.16
472.882	349.58
473.253	343.71
473.625	330.6
473.997	330.6
474.369	319.3
474.74	336.47
475.112	347.77
475.484	350.94
475.855	368.56
476.227	347.1
476.598	336.02
476.97	338.06
477.341	354.55
477.713	347.77
478.084	310.26
478.455	350.26
478.827	321.33
479.198	345.06
479.569	328.11
479.94	349.81
480.311	335.12
480.682	336.93
481.053	328.79
481.424	355.91
481.795	349.81
482.166	353.42
482.537	334.89
482.908	355.68
483.279	352.07
483.65	340.77
484.021	350.71
484.391	359.98
484.762	338.06
485.133	364.95
485.503	348.23
485.874	337.6
486.244	355.46
486.615	358.62
486.985	364.95
487.356	357.04
487.726	366.08
488.097	372.41
488.467	352.52
488.837	351.39
489.207	364.5
489.578	366.53
489.948	366.76
490.318	364.95
490.688	345.97
491.058	363.37
491.428	361.56
491.798	377.38
492.168	339.41
492.538	359.98
492.908	356.13
493.278	388.45
493.648	376.93
494.017	374.21
494.387	377.83
494.757	374.21
495.126	383.93
495.496	368.56
495.866	374.44
496.235	379.86
496.605	379.64
496.974	377.15
497.344	374.44
497.713	397.26
498.082	378.73
498.452	385.51
498.821	370.37
499.19	389.35
499.559	392.97
499.928	394.33
500.298	375.57
500.667	357.26
501.036	391.84
501.405	397.49
501.774	393.87
502.143	397.72
502.512	375.8
502.88	406.75
503.249	426.42
503.618	420.09
503.987	409.69
504.356	405.85
504.724	390.26
505.093	399.98
505.462	422.12
505.83	389.13
506.199	413.76
506.567	404.72
506.936	416.02
507.304	414.21
507.672	409.24
508.041	408.56
508.409	396.13
508.777	418.51
509.145	399.3
509.514	439.52
509.882	409.47
510.25	415.34
510.618	423.93
510.986	421.44
511.354	411.05
511.722	430.71
512.09	430.93
512.458	432.74
512.826	426.64
513.193	429.13
513.561	438.84
513.929	413.31
514.297	438.62
514.664	422.8
515.032	415.57
515.4	431.16
515.767	431.61
516.135	441.78
516.502	439.75
516.869	431.84
517.237	427.77
517.604	435.68
517.972	453.76
518.339	435.91
518.706	439.52
519.073	445.4
519.44	450.82
519.808	456.92
520.175	442.91
520.542	439.3
520.909	445.62
521.276	470.93
521.643	454.89
522.009	456.25
522.376	461.44
522.743	463.93
523.11	469.13
523.477	451.27
523.843	466.19
524.21	465.96
524.577	460.09
524.943	482.46
525.31	475
525.676	484.04
526.043	492.4
526.409	453.31
526.776	472.97
527.142	462.57
527.508	467.32
527.874	477.94
528.241	446.3
528.607	474.78
528.973	475.45
529.339	498.05
529.705	488.33
530.071	459.41
530.437	470.48
530.803	485.4
531.169	491.95
531.535	501.89
531.901	483.14
532.267	494.89
532.632	483.36
532.998	478.17
533.364	484.04
533.73	495.34
534.095	483.59
534.461	478.62
534.826	473.87
535.192	484.94
535.557	503.48
535.923	503.48
536.288	512.51
536.653	487.88
537.019	496.02
537.384	513.64
537.749	499.41
538.114	488.33
538.479	511.16
538.845	491.5
539.21	492.63
539.575	500.09
539.94	491.27
540.305	503.25
540.67	488.56
541.034	496.24
541.399	482.23
541.764	512.74
542.129	481.78
542.494	493.08
542.858	505.96
543.223	499.41
543.587	505.28
543.952	492.85
544.316	481.33
544.681	501.44
545.045	511.38
545.41	534.44
545.774	504.61
546.138	519.75
546.503	498.73
546.867	491.95
547.231	507.32
547.595	516.36
547.959	519.52
548.324	517.71
548.688	495.57
549.052	515.23
549.416	529.92
549.779	544.38
550.143	508
550.507	524.72
550.871	520.2
551.235	509.8
551.599	510.25
551.962	521.1
552.326	508.45
552.689	512.74
553.053	511.61
553.417	533.08
553.78	516.13
554.143	530.37
554.507	526.07
554.87	525.62
555.234	529.92
555.597	535.57
555.96	533.76
556.323	503.93
556.686	515.68
557.05	547.99
557.413	508.9
557.776	526.53
558.139	538.73
558.502	559.29
558.865	526.75
559.228	526.53
559.59	524.27
559.953	514.77
560.316	525.17
560.679	541.67
561.041	539.63
561.404	536.24
561.767	523.59
562.129	559.29
562.492	541.21
562.854	542.34
563.217	538.73
563.579	543.7
563.941	555
564.304	549.8
564.666	547.32
565.028	553.42
565.39	554.1
565.753	536.47
566.115	557.03
566.477	544.83
566.839	553.87
567.201	548.22
567.563	539.41
567.925	558.39
568.287	546.86
568.648	558.39
569.01	563.13
569.372	566.52
569.734	554.55
570.095	576.02
570.457	579.41
570.819	576.47
571.18	568.78
571.542	576.47
571.903	563.13
572.265	549.35
572.626	558.62
572.987	565.62
573.349	556.58
573.71	551.38
574.071	564.04
574.432	572.85
574.794	566.52
575.155	564.26
575.516	577.6
575.877	577.6
576.238	583.47
576.599	568.56
576.96	556.13
577.32	580.08
577.681	583.25
578.042	574.21
578.403	554.32
578.763	561.55
579.124	556.36
579.485	590.93
579.845	561.55
580.206	576.69
580.566	575.11
580.927	595
581.287	571.72
581.648	566.75
582.008	574.21
582.368	559.97
582.728	566.52
583.089	587.77
583.449	566.98
583.809	575.56
584.169	569.24
584.529	596.13
584.889	579.18
585.249	558.39
585.609	579.18
585.969	590.25
586.329	604.72
586.688	576.24
587.048	590.48
587.408	569.46
587.768	582.12
588.127	562.68
588.487	568.56
588.846	566.75
589.206	566.3
589.565	563.81
589.925	558.16
590.284	577.15
590.643	568.78
591.003	553.64
591.362	566.98
591.721	555.9
592.08	557.71
592.44	563.36
592.799	572.17
593.158	559.52
593.517	576.92
593.876	568.78
594.235	537.6
594.593	570.59
594.952	565.62
595.311	535.57
595.67	589.35
596.029	576.02
596.387	578.95
596.746	556.81
597.104	563.59
597.463	551.16
597.822	533.76
598.18	550.48
598.538	555.9
598.897	549.58
599.255	552.97
599.613	566.98
599.972	566.75
600.33	564.49
600.688	538.73
601.046	596.13
601.404	553.19
601.762	557.03
602.12	570.14
602.478	560.42
602.836	556.36
603.194	540.31
603.552	526.75
603.91	552.29
604.268	569.01
604.625	536.92
604.983	527.2
605.341	545.28
605.698	549.58
606.056	545.06
606.413	552.06
606.771	540.99
607.128	564.26
607.485	567.88
607.843	561.33
608.2	564.72
608.557	540.76
608.914	523.36
609.272	546.86
609.629	547.99
609.986	545.28
610.343	535.57
610.7	546.64
611.057	532.4
611.414	507.77
611.771	520.65
612.127	513.19
612.484	556.13
612.841	503.25
613.198	546.64
613.554	539.63
613.911	532.63
614.267	535.57
614.624	533.31
614.98	519.07
615.337	531.05
615.693	534.66
616.05	521.1
616.406	516.13
616.762	513.87
617.118	533.98
617.475	521.1
617.831	516.81
618.187	503.48
618.543	503.48
618.899	514.55
619.255	519.07
619.611	530.82
619.967	514.1
620.323	520.2
620.678	526.3
621.034	512.97
621.39	521.33
621.746	528.33
622.101	505.06
622.457	492.18
622.812	521.55
623.168	489.92
623.523	498.5
623.879	500.54
624.234	490.82
624.589	499.86
624.945	490.14
625.3	503.93
625.655	501.89
626.01	506.41
626.365	503.48
626.72	487.66
627.075	505.06
627.43	481.1
627.785	507.54
628.14	507.77
628.495	496.24
628.85	477.04
629.205	472.06
629.559	489.24
629.914	483.81
630.269	487.88
630.623	467.77
630.978	479.3
631.332	493.08
631.687	491.5
632.041	475.45
632.396	494.44
632.75	477.71
633.104	460.99
633.459	486.98
633.813	485.85
634.167	456.02
634.521	477.49
634.875	469.13
635.229	477.04
635.583	472.74
635.937	446.08
636.291	465.74
636.645	468.9
636.999	484.04
637.352	458.96
637.706	461.44
638.06	450.6
638.413	439.07
638.767	438.39
639.121	475.68
639.474	470.26
639.828	447.66
640.181	466.87
640.534	475.68
640.888	466.87
641.241	451.73
641.594	437.94
641.947	457.83
642.301	433.42
642.654	446.53
643.007	448.11
643.36	472.06
643.713	453.76
644.066	423.48
644.419	452.63
644.771	427.55
645.124	445.62
645.477	448.11
645.83	435.23
646.182	442.01
646.535	435.23
646.888	447.21
647.24	437.49
647.593	417.83
647.945	434.1
648.298	432.52
648.65	424.16
649.002	434.1
649.355	434.1
649.707	421.67
650.059	425.06
650.411	405.85
650.763	425.51
651.115	414.66
651.467	434.32
651.819	426.87
652.171	430.71
652.523	419.86
652.875	409.92
653.227	411.73
653.578	418.05
653.93	406.3
654.282	408.34
654.633	400.2
654.985	404.04
655.337	411.5
655.688	408.56
656.039	400.43
656.391	407.21
656.742	395.91
657.094	411.5
657.445	385.29
657.796	383.7
658.147	392.52
658.498	406.08
658.849	416.7
659.2	410.37
659.551	394.1
659.902	397.04
660.253	396.81
660.604	392.52
660.955	383.7
661.306	388.68
661.656	409.47
662.007	397.94
662.358	396.59
662.708	422.57
663.059	394.55
663.409	413.76
663.76	371.05
664.11	392.07
664.461	389.58
664.811	404.72
665.161	388
665.511	398.17
665.862	393.2
666.212	390.48
666.562	375.57
666.912	386.19
667.262	383.93
667.612	404.27
667.962	393.2
668.312	391.16
668.662	375.8
669.011	391.84
669.361	378.06
669.711	400.65
670.06	370.37
670.41	396.36
670.76	410.6
671.109	373.31
671.459	351.62
671.808	369.02
672.157	396.59
672.507	376.7
672.856	373.76
673.205	371.05
673.554	349.58
673.904	359.07
674.253	395.46
674.602	364.95
674.951	378.96
675.3	367.66
675.649	359.98
675.998	361.56
676.346	352.07
676.695	372.41
677.044	358.39
677.393	372.41
677.741	363.59
678.09	374.44
678.438	354.33
678.787	366.76
679.135	354.33
679.484	356.13
679.832	356.36
680.181	359.52
680.529	385.29
680.877	366.76
681.225	337.6
681.573	351.84
681.922	357.94
682.27	351.16
682.618	379.64
682.966	356.81
683.314	349.81
683.661	353.2
684.009	339.64
684.357	345.51
684.705	365.63
685.053	350.71
685.4	353.2
685.748	375.34
686.095	366.53
686.443	370.15
686.79	350.03
687.138	362.91
687.485	347.55
687.832	349.58
688.18	351.84
688.527	347.1
688.874	319.75
689.221	346.64
689.568	339.64
689.915	346.19
690.262	352.29
690.609	355.46
690.956	355.23
691.303	341.9
691.65	335.8
691.997	344.16
692.344	355.46
692.69	353.65
693.037	350.26
693.383	350.03
693.73	357.94
694.077	336.02
694.423	352.97
694.769	337.6
695.116	347.1
695.462	362.46
695.808	333.76
696.155	339.41
696.501	343.93
696.847	333.76
697.193	348.23
697.539	349.58
697.885	345.51
698.231	340.32
698.577	354.33
698.923	343.03
699.269	340.09
699.614	323.82
699.96	325.85
700.306	350.49
700.651	353.2
700.997	332.63
701.342	334.21
701.688	328.79
702.033	341.9
702.379	340.77
702.724	335.57
703.069	349.81
703.415	359.07
703.76	333.08
704.105	325.85
704.45	328.11
704.795	348.68
705.14	327.89
705.485	337.6
705.83	341.45
706.175	355.91
706.52	335.57
706.865	348.68
707.209	338.73
707.554	319.98
707.899	318.62
708.243	324.05
708.588	339.86
708.932	333.54
709.277	335.34
709.621	357.72
709.966	338.28
710.31	324.95
710.654	322.46
710.998	331.05
711.342	313.42
711.687	346.19
712.031	331.95
712.375	327.43
712.719	331.5
713.063	328.56
713.407	355.68
713.75	327.66
714.094	336.93
714.438	342.58
714.782	336.25
715.125	337.38
715.469	326.08
715.812	336.47
716.156	341.22
716.499	332.18
716.843	326.76
717.186	338.73
717.53	345.51
717.873	325.4
718.216	338.06
718.559	333.54
718.902	329.24
719.246	311.16
719.589	313.2
719.932	330.37
720.275	348.23
720.617	340.54
720.96	342.8
721.303	318.85
721.646	343.71
721.989	333.54
722.331	333.08
722.674	350.26
723.016	312.97
723.359	335.12
723.701	335.12
724.044	332.86
724.386	323.37
724.729	331.05
725.071	318.4
725.413	336.25
725.755	343.71
726.097	317.94
726.439	324.27
726.782	329.24
727.124	323.14
727.465	316.59
727.807	343.03
728.149	331.5
728.491	318.85
728.833	342.58
729.175	331.73
729.516	317.94
729.858	329.24
730.199	331.5
730.541	337.83
730.882	342.8
731.224	319.3
731.565	329.02
731.906	313.2
732.248	343.93
732.589	306.87
732.93	323.82
733.271	318.17
733.612	310.03
733.953	323.37
734.294	348
734.635	307.55
734.976	329.47
735.317	322.92
735.658	327.89
735.999	316.36
736.339	318.17
736.68	328.79
737.021	319.98
737.361	315.23
737.702	325.63
738.042	318.17
738.383	329.02
738.723	300.54
739.063	314.78
739.404	320.66
739.744	341.9
740.084	309.58
740.424	308
740.764	311.84
741.104	330.82
741.444	312.75
741.784	319.98
742.124	343.25
742.464	319.3
742.804	335.12
743.143	311.39
743.483	338.96
743.823	333.31
744.162	329.47
744.502	346.19
744.841	326.98
745.181	335.8
745.52	310.49
745.86	323.82
746.199	321.56
746.538	326.08
746.877	317.49
747.216	321.56
747.556	323.82
747.895	323.14
748.234	317.94
748.573	317.72
748.911	337.83
749.25	316.81
749.589	347.77
749.928	322.46
750.267	347.77
750.605	324.27
750.944	323.82
751.283	340.77
751.621	338.06
751.96	316.81
752.298	317.27
752.636	341.67
752.975	303.25
753.313	323.14
753.651	330.6
753.989	305.74
754.327	308.68
754.666	322.24
755.004	314.55
755.342	330.6
755.679	336.25
756.017	343.25
756.355	324.27
756.693	318.4
757.031	321.56
757.368	329.47
757.706	321.11
758.044	348
758.381	318.17
758.719	316.14
759.056	329.69
759.394	308.9
759.731	328.56
760.068	348
760.405	309.13
760.743	333.99
761.08	317.94
761.417	329.69
761.754	316.81
762.091	297.61
762.428	325.18
762.765	333.31
763.102	310.03
763.438	315.23
763.775	314.55
764.112	310.71
764.449	311.84
764.785	312.07
765.122	344.38
765.458	308.45
765.795	324.95
766.131	300.09
766.467	317.04
766.804	313.42
767.14	313.88
767.476	326.08
767.812	322.01
768.148	314.1
768.485	319.3
768.821	331.05
769.157	307.32
769.492	335.8
769.828	315.01
770.164	335.12
770.5	328.34
770.836	311.39
771.171	319.75
771.507	315.23
771.842	321.11
772.178	327.89
772.513	327.89
772.849	327.89
773.184	326.53
773.519	319.53
773.855	325.85
774.19	294.44
774.525	306.64
774.86	319.53
775.195	315.91
775.53	311.62
775.865	330.37
776.2	315.91
776.535	315.91
776.87	322.01
777.205	315.23
777.539	323.82
777.874	317.49
778.209	299.19
778.543	321.33
778.878	335.8
779.212	326.08
779.547	299.64
779.881	332.18
780.215	311.84
780.55	321.33
780.884	294.44
781.218	313.42
781.552	313.2
781.886	308.45
782.22	316.36
782.554	345.51
782.888	321.33
783.222	322.24
783.556	321.33
783.889	327.89
784.223	313.88
784.557	306.64
784.89	320.66
785.224	313.2
785.557	325.18
785.891	322.92
786.224	316.59
786.558	329.24
786.891	312.29
787.224	312.75
787.557	327.89
787.891	329.92
788.224	326.53
788.557	301.22
788.89	324.5
789.223	315.91
789.556	312.07
