Data from No_light_on_white_reflection_standard_FLMS001491_054.txt Node
Date: Tue Feb 07 10:33:03 GMT 2017
User: dcchb
Spectrometer: FLMS00149
Trigger mode: 0
Integration Time (sec): 2.000000E-2
Scans to average: 10
Electric dark correction enabled: true
Nonlinearity correction enabled: false
Boxcar width: 0
XAxis mode: Wavelengths
Number of Pixels in Spectrum: 2048
>>>>>Begin Spectral Data<<<<<
341.393	5.07
341.776	5.07
342.16	5.07
342.543	-44.19
342.927	-46
343.31	-59.11
343.693	-71.31
344.077	-69.73
344.46	-61.59
344.843	-49.62
345.226	-49.39
345.61	-18.88
345.993	-10.52
346.376	6.43
346.759	-3.52
347.142	25.41
347.525	43.71
347.908	73.77
348.291	52.07
348.674	86.88
349.057	105.41
349.44	114.22
349.823	120.55
350.206	165.07
350.588	160.09
350.971	169.13
351.354	200.77
351.737	193.54
352.119	220.21
352.502	211.39
352.884	232.64
353.267	240.09
353.65	259.53
354.032	274.22
354.414	273.31
354.797	299.98
355.179	294.78
355.562	302.24
355.944	297.72
356.326	306.53
356.709	304.72
357.091	318.51
357.473	310.6
357.855	303.59
358.238	307.66
358.62	330.94
359.002	323.48
359.384	295.91
359.766	298.85
360.148	332.75
360.53	301.56
360.912	305.4
361.294	325.74
361.676	296.59
362.057	313.54
362.439	292.07
362.821	300.88
363.203	312.18
363.584	297.27
363.966	288.9
364.348	283.03
364.729	299.3
365.111	285.97
365.493	269.92
365.874	283.48
366.256	283.71
366.637	279.41
367.019	297.94
367.4	292.97
367.781	277.15
368.163	287.55
368.544	271.5
368.925	285.52
369.306	286.87
369.688	289.58
370.069	296.14
370.45	266.31
370.831	273.31
371.212	264.27
371.593	287.55
371.974	274.67
372.355	267.89
372.736	279.64
373.117	282.35
373.498	276.48
373.879	260.88
374.26	275.8
374.641	269.92
375.021	275.8
375.402	269.92
375.783	291.39
376.163	288
376.544	272.18
376.925	298.17
377.305	270.15
377.686	272.86
378.066	255.91
378.447	273.31
378.827	284.61
379.208	296.14
379.588	290.94
379.968	273.54
380.349	273.54
380.729	286.65
381.109	281
381.489	282.58
381.87	281.67
382.25	295.46
382.63	290.03
383.01	263.82
383.39	288.9
383.77	293.88
384.15	283.71
384.53	300.66
384.91	295.23
385.29	286.19
385.67	313.08
386.049	293.2
386.429	281.9
386.809	292.52
387.189	275.8
387.568	289.81
387.948	289.81
388.328	292.75
388.707	283.03
389.087	302.24
389.466	279.64
389.846	302.92
390.225	311.5
390.605	300.66
390.984	292.29
391.363	281.9
391.743	286.87
392.122	297.27
392.501	285.29
392.881	297.94
393.26	293.42
393.639	284.16
394.018	288.68
394.397	312.63
394.776	304.95
395.155	294.55
395.534	298.62
395.913	276.93
396.292	306.53
396.671	328
397.05	288.45
397.429	312.18
397.808	273.54
398.186	290.26
398.565	299.53
398.944	288.23
399.323	304.95
399.701	296.36
400.08	281.45
400.458	303.82
400.837	313.99
401.215	302.69
401.594	292.29
401.972	310.37
402.351	293.2
402.729	288.23
403.107	301.56
403.486	273.09
403.864	304.27
404.242	289.36
404.62	293.2
404.999	293.88
405.377	284.61
405.755	289.58
406.133	288.23
406.511	296.59
406.889	292.97
407.267	295.01
407.645	309.02
408.023	303.82
408.401	296.14
408.779	293.65
409.156	306.53
409.534	296.59
409.912	309.02
410.29	302.46
410.667	296.14
411.045	292.97
411.422	305.4
411.8	314.89
412.178	311.73
412.555	311.96
412.933	296.81
413.31	306.53
413.687	309.47
414.065	282.13
414.442	309.02
414.819	302.69
415.197	286.87
415.574	291.16
415.951	309.02
416.328	303.82
416.705	292.75
417.082	313.31
417.46	310.15
417.837	299.3
418.214	306.08
418.591	310.15
418.967	313.31
419.344	295.46
419.721	293.2
420.098	331.62
420.475	307.21
420.852	302.24
421.228	313.31
421.605	327.55
421.982	289.58
422.358	313.54
422.735	317.6
423.111	344.95
423.488	303.59
423.864	302.69
424.241	304.27
424.617	300.88
424.994	327.1
425.37	312.63
425.746	302.92
426.123	299.98
426.499	297.94
426.875	295.68
427.251	314.67
427.627	323.48
428.003	315.34
428.379	321.22
428.756	311.05
429.132	308.34
429.507	311.73
429.883	308.34
430.259	286.65
430.635	317.6
431.011	313.76
431.387	316.7
431.763	321.9
432.138	327.32
432.514	322.8
432.89	334.1
433.265	313.31
433.641	329.36
434.016	318.06
434.392	331.84
434.767	322.58
435.143	331.84
435.518	329.36
435.894	307.66
436.269	328.45
436.644	327.1
437.02	309.02
437.395	334.33
437.77	327.77
438.145	312.86
438.52	338.62
438.895	339.07
439.271	330.49
439.646	336.59
440.021	336.14
440.395	323.71
440.77	336.14
441.145	334.1
441.52	339.98
441.895	336.14
442.27	336.14
442.645	336.81
443.019	346.3
443.394	355.57
443.769	340.65
444.143	346.3
444.518	349.69
444.892	344.95
445.267	347.66
445.641	331.39
446.016	360.09
446.39	356.93
446.764	364.61
447.139	346.76
447.513	341.33
447.887	342.01
448.262	351.5
448.636	360.77
449.01	357.6
449.384	353.76
449.758	383.82
450.132	338.62
450.506	367.32
450.88	356.25
451.254	363.25
451.628	373.87
452.002	365.51
452.376	372.97
452.75	355.8
453.123	372.74
453.497	378.39
453.871	356.47
454.244	377.72
454.618	362.8
454.992	366.87
455.365	384.04
455.739	386.3
456.112	369.81
456.486	379.52
456.859	388.79
457.232	374.55
457.606	375.68
457.979	396.02
458.352	366.19
458.725	363.93
459.099	345.85
459.472	353.31
459.845	353.31
460.218	376.81
460.591	366.42
460.964	378.39
461.337	358.06
461.71	333.2
462.083	360.99
462.456	339.52
462.829	339.75
463.201	365.74
463.574	351.28
463.947	349.02
464.32	365.06
464.692	377.04
465.065	353.31
465.438	380.88
465.81	343.82
466.183	356.7
466.555	348.34
466.928	349.92
467.3	349.92
467.672	361.9
468.045	359.19
468.417	372.29
468.789	358.96
469.161	351.05
469.534	352.41
469.906	355.57
470.278	362.8
470.65	375.68
471.022	351.05
471.394	355.12
471.766	363.48
472.138	347.89
472.51	346.53
472.882	350.82
473.253	356.47
473.625	347.21
473.997	350.6
474.369	375.46
474.74	360.32
475.112	350.15
475.484	339.98
475.855	353.99
476.227	333.88
476.598	355.57
476.97	342.91
477.341	341.78
477.713	344.95
478.084	340.2
478.455	358.96
478.827	354.67
479.198	346.76
479.569	337.72
479.94	353.54
480.311	369.35
480.682	328.68
481.053	350.37
481.424	349.47
481.795	367.32
482.166	371.39
482.537	368.45
482.908	346.76
483.279	350.37
483.65	343.82
484.021	359.41
484.391	349.47
484.762	350.6
485.133	357.83
485.503	358.73
485.874	377.26
486.244	352.63
486.615	359.86
486.985	356.02
487.356	375
487.726	357.15
488.097	385.85
488.467	366.64
488.837	371.16
489.207	367.09
489.578	366.19
489.948	352.41
490.318	365.06
490.688	386.08
491.058	377.26
491.428	363.25
491.798	395.34
492.168	366.19
492.538	368.45
492.908	384.72
493.278	385.85
493.648	394.89
494.017	364.38
494.387	363.71
494.757	393.08
495.126	400.09
495.496	393.08
495.866	388.79
496.235	379.75
496.605	370.94
496.974	387.43
497.344	385.85
497.713	388.34
498.082	388.56
498.452	381.78
498.821	409.13
499.19	402.8
499.559	397.38
499.928	416.13
500.298	398.96
500.667	404.83
501.036	390.37
501.405	418.84
501.774	395.34
502.143	422.23
502.512	389.24
502.88	416.36
503.249	410.03
503.618	402.35
503.987	391.28
504.356	438.96
504.724	417.72
505.093	419.52
505.462	433.31
505.83	409.35
506.199	418.84
506.567	420.43
506.936	423.59
507.304	442.35
507.672	425.17
508.041	439.64
508.409	417.49
508.777	411.61
509.145	444.83
509.514	411.84
509.882	444.38
510.25	443.25
510.618	445.96
510.986	437.83
511.354	443.93
511.722	440.77
512.09	440.54
512.458	430.37
512.826	452.06
513.193	454.1
513.561	449.13
513.929	436.02
514.297	441.44
514.664	446.87
515.032	431.05
515.4	450.71
515.767	431.95
516.135	459.07
516.502	438.05
516.869	460.65
517.237	466.3
517.604	473.08
517.972	461.33
518.339	469.01
518.706	464.04
519.073	447.77
519.44	472.63
519.808	462.69
520.175	441.22
520.542	462.91
520.909	457.49
521.276	464.27
521.643	473.98
522.009	457.26
522.376	477.83
522.743	471.95
523.11	468.79
523.477	463.14
523.843	455.68
524.21	476.92
524.577	490.93
524.943	487.54
525.31	484.61
525.676	483.93
526.043	481.22
526.409	496.36
526.776	480.09
527.142	480.09
527.508	496.36
527.874	484.61
528.241	467.21
528.607	493.87
528.973	493.42
529.339	490.03
529.705	498.39
530.071	482.12
530.437	499.07
530.803	507.88
531.169	507.43
531.535	492.06
531.901	510.82
532.267	488.67
532.632	500.2
532.998	508.33
533.364	493.65
533.73	503.81
534.095	485.06
534.461	503.59
534.826	502.91
535.192	493.42
535.557	510.37
535.923	508.11
536.288	497.03
536.653	516.02
537.019	500.2
537.384	506.07
537.749	487.77
538.114	505.4
538.479	513.08
538.845	495.91
539.21	502.68
539.575	513.31
539.94	505.62
540.305	511.05
540.67	505.85
541.034	519.63
541.399	511.27
541.764	527.54
542.129	501.55
542.494	522.57
542.858	539.75
543.223	519.18
543.587	531.16
543.952	523.25
544.316	522.12
544.681	535.9
545.045	521.44
545.41	514.89
545.774	507.43
546.138	516.92
546.503	514.66
546.867	506.3
547.231	532.97
547.595	553.53
547.959	529.12
548.324	520.54
548.688	541.78
549.052	527.09
549.416	514.66
549.779	529.35
550.143	549.69
550.507	522.12
550.871	564.15
551.235	516.24
551.599	519.41
551.962	540.42
552.326	541.78
552.689	535.9
553.053	527.54
553.417	527.09
553.78	535.68
554.143	531.16
554.507	538.16
554.87	541.33
555.234	554.43
555.597	545.62
555.96	556.69
556.323	543.14
556.686	548.79
557.05	536.36
557.413	557.82
557.776	544.94
558.139	555.11
558.502	563.93
558.865	540.2
559.228	548.79
559.59	556.47
559.953	569.8
560.316	529.12
560.679	530.48
561.041	589.69
561.404	556.24
561.767	539.97
562.129	554.21
562.492	567.99
562.854	562.12
563.217	571.16
563.579	549.46
563.941	569.58
564.304	555.11
564.666	539.29
565.028	584.94
565.39	573.42
565.753	565.28
566.115	585.62
566.477	568.9
566.839	587.43
567.201	588.11
567.563	582.91
567.925	571.16
568.287	558.95
568.648	574.32
569.01	556.92
569.372	596.69
569.734	570.93
570.095	596.02
570.457	583.59
570.819	579.52
571.18	592.85
571.542	582.23
571.903	572.97
572.265	567.54
572.626	586.52
572.987	569.12
573.349	572.97
573.71	592.85
574.071	598.28
574.432	607.09
574.794	591.72
575.155	572.51
575.516	584.04
575.877	587.65
576.238	602.34
576.599	581.78
576.96	583.36
577.32	597.37
577.681	586.98
578.042	584.26
578.403	582.68
578.763	583.59
579.124	592.17
579.485	595.79
579.845	592.4
580.206	574.1
580.566	596.92
580.927	595.56
581.287	609.35
581.648	585.85
582.008	587.43
582.368	597.82
582.728	573.42
583.089	592.17
583.449	583.13
583.809	590.37
584.169	589.46
584.529	598.5
584.889	580.65
585.249	580.87
585.609	586.98
585.969	612.51
586.329	587.43
586.688	605.05
587.048	584.26
587.408	600.31
587.768	597.82
588.127	578.16
588.487	596.92
588.846	584.49
589.206	586.75
589.565	568.9
589.925	560.99
590.284	575.68
590.643	590.59
591.003	600.08
591.362	578.39
591.721	596.47
592.08	573.64
592.44	603.47
592.799	580.2
593.158	571.38
593.517	580.65
593.876	575.68
594.235	563.47
594.593	590.82
594.952	593.3
595.311	575.22
595.67	567.77
596.029	577.03
596.387	608.22
596.746	586.52
597.104	585.39
597.463	579.07
597.822	575
598.18	597.37
598.538	569.58
598.897	571.16
599.255	586.3
599.613	592.63
599.972	577.03
600.33	553.53
600.688	570.48
601.046	568.22
601.404	571.16
601.762	582.68
602.12	591.04
602.478	555.34
602.836	564.15
603.194	561.44
603.552	584.49
603.91	566.86
604.268	562.34
604.625	566.19
604.983	577.03
605.341	554.89
605.698	558.5
606.056	585.62
606.413	588.56
606.771	579.74
607.128	572.51
607.485	552.4
607.843	550.59
608.2	588.33
608.557	551.95
608.914	567.99
609.272	591.72
609.629	569.12
609.986	549.91
610.343	559.18
610.7	569.12
611.057	561.21
611.414	543.59
611.771	570.93
612.127	563.25
612.484	546.75
612.841	543.59
613.198	564.38
613.554	587.65
613.911	541.1
614.267	552.17
614.624	545.62
614.98	552.85
615.337	551.95
615.693	530.93
616.05	562.8
616.406	553.3
616.762	545.85
617.118	540.88
617.475	561.89
617.831	526.19
618.187	556.02
618.543	543.81
618.899	539.29
619.255	536.81
619.611	550.14
619.967	530.48
620.323	536.58
620.678	532.74
621.034	525.51
621.39	516.92
621.746	529.58
622.101	532.51
622.457	538.39
622.812	527.09
623.168	518.28
623.523	540.88
623.879	523.47
624.234	519.41
624.589	516.7
624.945	531.38
625.3	527.99
625.655	496.58
626.01	523.25
626.365	518.05
626.72	533.87
627.075	513.76
627.43	511.72
627.785	500.2
628.14	517.37
628.495	510.14
628.85	500.88
629.205	516.47
629.559	501.33
629.914	501.55
630.269	485.74
630.623	492.97
630.978	483.02
631.332	518.73
631.687	480.54
632.041	501.1
632.396	489.35
632.75	503.81
633.104	494.1
633.459	485.28
633.813	478.28
634.167	496.36
634.521	492.97
634.875	505.4
635.229	498.62
635.583	495.23
635.937	499.07
636.291	484.38
636.645	485.74
636.999	494.55
637.352	461.33
637.706	482.12
638.06	486.41
638.413	466.75
638.767	458.84
639.121	465.62
639.474	477.6
639.828	464.27
640.181	470.14
640.534	461.78
640.888	475.79
641.241	459.3
641.594	489.8
641.947	499.97
642.301	471.05
642.654	465.62
643.007	456.13
643.36	462.46
643.713	452.06
644.066	457.71
644.419	464.72
644.771	444.38
645.124	468.34
645.477	448.45
645.83	433.53
646.182	467.43
646.535	427.88
646.888	438.05
647.24	453.42
647.593	449.35
647.945	467.43
648.298	451.16
648.65	452.74
649.002	437.15
649.355	434.89
649.707	436.47
650.059	439.41
650.411	439.64
650.763	428.11
651.115	435.34
651.467	445.28
651.819	446.41
652.171	447.09
652.523	440.77
652.875	434.66
653.227	419.52
653.578	429.47
653.93	406.87
654.282	418.39
654.633	437.15
654.985	413.2
655.337	414.78
655.688	424.04
656.039	417.72
656.391	421.56
656.742	436.7
657.094	400.54
657.445	417.26
657.796	417.72
658.147	426.53
658.498	414.78
658.849	428.56
659.2	407.55
659.551	390.37
659.902	415
660.253	408.68
660.604	419.07
660.955	406.42
661.306	409.58
661.656	413.42
662.007	394.44
662.358	411.39
662.708	406.87
663.059	421.78
663.409	382.91
663.76	402.8
664.11	411.39
664.461	400.09
664.811	391.95
665.161	377.72
665.511	395.57
665.862	401.22
666.212	388.11
666.562	408.22
666.912	396.02
667.262	388.79
667.612	404.16
667.962	385.85
668.312	393.99
668.662	395.57
669.011	382.46
669.361	389.92
669.711	409.35
670.06	394.21
670.41	384.5
670.76	389.02
671.109	387.89
671.459	384.72
671.808	393.76
672.157	399.18
672.507	400.54
672.856	389.02
673.205	386.08
673.554	391.73
673.904	385.63
674.253	387.89
674.602	398.51
674.951	404.83
675.3	393.76
675.649	384.04
675.998	362.35
676.346	372.52
676.695	389.92
677.044	361.67
677.393	375
677.741	392.4
678.09	373.42
678.438	374.33
678.787	389.24
679.135	381.33
679.484	380.88
679.832	373.42
680.181	382.91
680.529	368.68
680.877	365.74
681.225	391.28
681.573	371.39
681.922	370.71
682.27	387.43
682.618	384.5
682.966	396.02
683.314	385.17
683.661	362.12
684.009	376.59
684.357	397.38
684.705	409.81
685.053	369.58
685.4	359.64
685.748	367.55
686.095	373.2
686.443	368
686.79	361.45
687.138	365.51
687.485	370.71
687.832	356.93
688.18	367.09
688.527	357.15
688.874	372.74
689.221	364.84
689.568	380.2
689.915	350.15
690.262	359.86
690.609	363.48
690.956	359.41
691.303	363.71
691.65	361.22
691.997	372.52
692.344	345.63
692.69	387.66
693.037	379.52
693.383	350.6
693.73	349.02
694.077	364.16
694.423	347.89
694.769	362.12
695.116	369.35
695.462	346.76
695.808	356.47
696.155	386.08
696.501	369.81
696.847	352.18
697.193	376.59
697.539	358.06
697.885	349.47
698.231	363.93
698.577	366.87
698.923	335.68
699.269	344.5
699.614	352.18
699.96	360.32
700.306	375
700.651	332.97
700.997	353.08
701.342	359.64
701.688	331.39
702.033	339.98
702.379	338.17
702.724	365.96
703.069	333.88
703.415	358.28
703.76	354.44
704.105	347.21
704.45	370.03
704.795	347.21
705.14	353.54
705.485	359.41
705.83	347.66
706.175	361.45
706.52	333.88
706.865	339.07
707.209	360.09
707.554	326.19
707.899	363.71
708.243	370.48
708.588	369.81
708.932	330.94
709.277	345.63
709.621	351.28
709.966	333.42
710.31	342.01
710.654	328
710.998	352.41
711.342	356.93
711.687	346.08
712.031	325.06
712.375	350.37
712.719	365.74
713.063	351.5
713.407	353.99
713.75	332.97
714.094	352.86
714.438	353.99
714.782	341.33
715.125	358.96
715.469	345.17
715.812	362.58
716.156	354.67
716.499	331.62
716.843	351.28
717.186	350.37
717.53	339.75
717.873	341.78
718.216	351.5
718.559	335.46
718.902	353.08
719.246	350.37
719.589	370.94
719.932	340.65
720.275	355.12
720.617	337.49
720.96	341.33
721.303	338.85
721.646	348.56
721.989	341.33
722.331	337.49
722.674	351.5
723.016	334.78
723.359	352.18
723.701	332.52
724.044	343.14
724.386	337.72
724.729	342.46
725.071	354.44
725.413	337.27
725.755	324.84
726.097	359.19
726.439	348.56
726.782	348.79
727.124	331.62
727.465	348.34
727.807	335.23
728.149	343.59
728.491	340.2
728.833	320.54
729.175	325.74
729.516	316.47
729.858	324.61
730.199	325.29
730.541	336.59
730.882	330.26
731.224	326.87
731.565	339.3
731.906	335.01
732.248	350.82
732.589	327.32
732.93	344.5
733.271	326.42
733.612	319.41
733.953	327.77
734.294	354.44
734.635	354.89
734.976	309.47
735.317	323.71
735.658	343.82
735.999	341.78
736.339	354.21
736.68	340.65
737.021	332.97
737.361	332.29
737.702	329.58
738.042	345.17
738.383	350.15
738.723	336.59
739.063	325.51
739.404	328.45
739.744	327.77
740.084	340.2
740.424	339.07
740.764	334.55
741.104	358.73
741.444	311.05
741.784	318.28
742.124	328.9
742.464	349.69
742.804	341.33
743.143	340.2
743.483	337.49
743.823	341.56
744.162	367.09
744.502	356.93
744.841	341.56
745.181	318.06
745.52	359.41
745.86	327.1
746.199	340.2
746.538	334.78
746.877	310.15
747.216	333.42
747.556	339.3
747.895	350.6
748.234	335.91
748.573	327.32
748.911	350.37
749.25	354.89
749.589	346.76
749.928	332.07
750.267	346.76
750.605	351.73
750.944	336.81
751.283	339.75
751.621	334.33
751.96	336.36
752.298	332.75
752.636	342.46
752.975	326.64
753.313	325.97
753.651	342.69
753.989	351.95
754.327	313.08
754.666	354.89
755.004	341.78
755.342	333.88
755.679	338.4
756.017	342.46
756.355	327.1
756.693	327.32
757.031	326.42
757.368	327.1
757.706	331.39
758.044	334.55
758.381	338.85
758.719	337.94
759.056	322.58
759.394	329.58
759.731	325.29
760.068	351.28
760.405	325.29
760.743	321.9
761.08	315.8
761.417	319.19
761.754	348.34
762.091	350.37
762.428	323.48
762.765	312.41
763.102	329.81
763.438	330.26
763.775	342.69
764.112	346.98
764.449	334.78
764.785	328.23
765.122	319.19
765.458	340.43
765.795	333.2
766.131	318.06
766.467	325.29
766.804	340.2
767.14	332.29
767.476	336.59
767.812	350.15
768.148	329.36
768.485	309.02
768.821	335.23
769.157	325.74
769.492	344.27
769.828	330.71
770.164	341.11
770.5	344.27
770.836	326.42
771.171	326.87
771.507	346.76
771.842	336.81
772.178	335.91
772.513	323.03
772.849	338.85
773.184	336.81
773.519	343.37
773.855	331.16
774.19	313.99
774.525	311.28
774.86	327.32
775.195	336.81
775.53	328.9
775.865	340.43
776.2	322.35
776.535	328.68
776.87	330.49
777.205	349.92
777.539	330.94
777.874	330.49
778.209	331.62
778.543	326.19
778.878	332.07
779.212	326.42
779.547	320.54
779.881	340.2
780.215	340.2
780.55	343.59
780.884	333.65
781.218	330.49
781.552	315.34
781.886	332.29
782.22	320.77
782.554	321.67
782.888	348.11
783.222	332.29
783.556	334.1
783.889	316.25
784.223	320.09
784.557	324.16
784.89	338.17
785.224	336.36
785.557	312.18
785.891	324.38
786.224	313.54
786.558	329.81
786.891	328.9
787.224	332.75
787.557	310.83
787.891	327.32
788.224	314.44
788.557	325.74
788.89	326.19
789.223	317.83
