Data from No_light_on_white_reflection_standard_FLMS001491_046.txt Node
Date: Tue Feb 07 10:33:01 GMT 2017
User: dcchb
Spectrometer: FLMS00149
Trigger mode: 0
Integration Time (sec): 2.000000E-2
Scans to average: 10
Electric dark correction enabled: true
Nonlinearity correction enabled: false
Boxcar width: 0
XAxis mode: Wavelengths
Number of Pixels in Spectrum: 2048
>>>>>Begin Spectral Data<<<<<
341.393	2.46
341.776	2.46
342.16	2.46
342.543	-63.76
342.927	-56.07
343.31	-61.5
343.693	-71.66
344.077	-64.66
344.46	-64.89
344.843	-63.76
345.226	-35.96
345.61	-13.14
345.993	-8.39
346.376	-3.87
346.759	19.86
347.142	6.98
347.525	50.82
347.908	49.24
348.291	68.67
348.674	91.49
349.057	100.76
349.44	107.31
349.823	111.83
350.206	161.1
350.588	182.34
350.971	183.7
351.354	192.51
351.737	221.89
352.119	208.1
352.502	221.89
352.884	225.28
353.267	235.22
353.65	246.97
354.032	259.17
354.414	272.73
354.797	280.19
355.179	302.34
355.562	290.59
355.944	297.82
356.326	286.52
356.709	314.77
357.091	305.5
357.473	301.88
357.855	299.4
358.238	317.25
358.62	307.53
359.002	298.27
359.384	316.35
359.766	302.11
360.148	294.88
360.53	314.99
360.912	308.21
361.294	298.04
361.676	309.12
362.057	300.75
362.439	300.98
362.821	319.96
363.203	295.33
363.584	298.95
363.966	277.7
364.348	280.19
364.729	292.39
365.111	289
365.493	279.74
365.874	281.09
366.256	263.92
366.637	258.5
367.019	275.9
367.4	280.87
367.781	275.67
368.163	296.91
368.544	286.74
368.925	271.15
369.306	280.42
369.688	263.92
370.069	266.63
370.45	279.51
370.831	269.57
371.212	272.51
371.593	283.35
371.974	271.83
372.355	257.37
372.736	273.18
373.117	286.74
373.498	278.83
373.879	251.72
374.26	254.88
374.641	258.72
375.021	274.31
375.402	264.15
375.783	258.27
376.163	267.08
376.544	269.57
376.925	286.97
377.305	275.67
377.686	263.69
378.066	270.02
378.447	276.57
378.827	283.81
379.208	288.55
379.588	281.09
379.968	289.91
380.349	275.67
380.729	285.39
381.109	290.81
381.489	282
381.87	280.42
382.25	281.32
382.63	287.65
383.01	258.27
383.39	269.34
383.77	290.81
384.15	279.74
384.53	268.89
384.91	281.55
385.29	292.62
385.67	290.13
386.049	282
386.429	263.24
386.809	292.85
387.189	281.77
387.568	277.93
387.948	284.71
388.328	281.77
388.707	265.95
389.087	284.94
389.466	282.9
389.846	278.38
390.225	300.53
390.605	307.76
390.984	288.1
391.363	312.73
391.743	287.2
392.122	289.68
392.501	289.91
392.881	287.42
393.26	307.08
393.639	287.2
394.018	302.34
394.397	296.91
394.776	305.05
395.155	274.31
395.534	268.21
395.913	288.55
396.292	289.23
396.671	295.11
397.05	286.29
397.429	276.8
397.808	297.14
398.186	284.48
398.565	278.61
398.944	304.14
399.323	290.81
399.701	278.38
400.08	292.62
400.458	298.04
400.837	279.96
401.215	298.04
401.594	289.46
401.972	300.08
402.351	298.72
402.729	287.2
403.107	305.27
403.486	270.7
403.864	286.74
404.242	284.94
404.62	300.53
404.999	292.17
405.377	299.62
405.755	288.55
406.133	286.74
406.511	325.84
406.889	283.81
407.267	285.84
407.645	306.86
408.023	317.48
408.401	302.56
408.779	307.31
409.156	275.9
409.534	286.07
409.912	302.34
410.29	298.49
410.667	297.14
411.045	295.11
411.422	310.25
411.8	295.11
412.178	297.37
412.555	314.09
412.933	303.24
413.31	288.78
413.687	286.74
414.065	298.49
414.442	297.37
414.819	291.49
415.197	298.04
415.574	297.37
415.951	288.78
416.328	294.43
416.705	296.46
417.082	292.85
417.46	311.38
417.837	293.07
418.214	312.28
418.591	289.23
418.967	295.33
419.344	307.31
419.721	309.12
420.098	313.86
420.475	303.24
420.852	305.27
421.228	325.84
421.605	299.17
421.982	317.48
422.358	308.44
422.735	306.4
423.111	308.89
423.488	312.28
423.864	322.22
424.241	317.7
424.617	302.79
424.994	301.43
425.37	290.59
425.746	297.59
426.123	317.48
426.499	291.94
426.875	313.18
427.251	305.05
427.627	302.34
428.003	302.79
428.379	319.51
428.756	315.44
429.132	318.83
429.507	329.68
429.883	341.21
430.259	323.58
430.635	311.6
431.011	310.02
431.387	310.47
431.763	296.24
432.138	318.16
432.514	308.44
432.89	300.98
433.265	330.36
433.641	311.38
434.016	302.56
434.392	329.68
434.767	280.64
435.143	333.3
435.518	322.9
435.894	305.5
436.269	315.9
436.644	322.68
437.02	318.61
437.395	310.7
437.77	322.9
438.145	339.4
438.52	318.83
438.895	330.36
439.271	330.36
439.646	321.32
440.021	327.19
440.395	312.28
440.77	312.51
441.145	307.99
441.52	318.61
441.895	328.78
442.27	318.83
442.645	312.51
443.019	351.6
443.394	319.96
443.769	323.13
444.143	333.97
444.518	349.57
444.892	346.4
445.267	351.6
445.641	341.43
446.016	345.5
446.39	347.99
446.764	339.85
447.139	350.47
447.513	359.28
447.887	339.62
448.262	333.07
448.636	349.34
449.01	339.17
449.384	350.92
449.758	350.7
450.132	349.79
450.506	364.71
450.88	362.22
451.254	366.29
451.628	367.19
452.002	363.13
452.376	378.72
452.75	373.97
453.123	352.28
453.497	367.87
453.871	350.25
454.244	355.67
454.618	351.6
454.992	363.13
455.365	363.8
455.739	361.09
456.112	377.59
456.486	372.62
456.859	361.54
457.232	361.09
457.606	371.71
457.979	360.64
458.352	355.44
458.725	344.6
459.099	338.27
459.472	359.51
459.845	355.44
460.218	345.27
460.591	361.77
460.964	363.35
461.337	368.78
461.71	331.71
462.083	357.7
462.456	342.79
462.829	367.87
463.201	345.5
463.574	340.3
463.947	331.26
464.32	353.86
464.692	353.63
465.065	361.09
465.438	380.3
465.81	351.6
466.183	346.18
466.555	347.76
466.928	351.6
467.3	346.86
467.672	367.87
468.045	342.56
468.417	338.72
468.789	358.83
469.161	340.98
469.534	364.26
469.906	350.02
470.278	337.82
470.65	334.65
471.022	352.96
471.394	352.96
471.766	359.96
472.138	361.09
472.51	357.25
472.882	354.99
473.253	366.97
473.625	336.91
473.997	337.82
474.369	346.18
474.74	360.64
475.112	362.45
475.484	334.2
475.855	356.8
476.227	346.63
476.598	347.08
476.97	343.92
477.341	339.62
477.713	369
478.084	343.24
478.455	337.14
478.827	343.24
479.198	355.89
479.569	333.75
479.94	353.41
480.311	353.86
480.682	360.41
481.053	353.41
481.424	342.11
481.795	333.97
482.166	371.49
482.537	367.42
482.908	357.7
483.279	360.87
483.65	354.09
484.021	368.55
484.391	354.31
484.762	361.32
485.133	346.4
485.503	354.09
485.874	364.93
486.244	372.17
486.615	347.31
486.985	362.9
487.356	373.3
487.726	345.95
488.097	375.33
488.467	362.22
488.837	375.56
489.207	368.78
489.578	376.46
489.948	377.14
490.318	386.4
490.688	366.52
491.058	382.11
491.428	389.79
491.798	394.76
492.168	376.91
492.538	366.29
492.908	364.26
493.278	385.95
493.648	381.66
494.017	373.3
494.387	388.66
494.757	377.81
495.126	378.04
495.496	363.58
495.866	389.11
496.235	375.33
496.605	392.96
496.974	391.15
497.344	401.54
497.713	392.05
498.082	388.44
498.452	376.91
498.821	399.96
499.19	401.32
499.559	369
499.928	408.32
500.298	383.01
500.667	409.9
501.036	417.81
501.405	391.37
501.774	407.64
502.143	393.18
502.512	419.4
502.88	412.39
503.249	412.39
503.618	398.83
503.987	413.07
504.356	400.87
504.724	405.84
505.093	412.84
505.462	405.38
505.83	399.51
506.199	398.15
506.567	401.54
506.936	400.64
507.304	403.35
507.672	432.73
508.041	412.84
508.409	422.79
508.777	405.16
509.145	415.78
509.514	410.58
509.882	413.52
510.25	419.17
510.618	421.66
510.986	418.27
511.354	452.16
511.722	423.69
512.09	425.05
512.458	444.03
512.826	432.73
513.193	424.14
513.561	426.63
513.929	419.85
514.297	434.99
514.664	440.86
515.032	436.8
515.4	454.42
515.767	450.13
516.135	420.3
516.502	417.59
516.869	444.71
517.237	430.02
517.604	450.58
517.972	466.63
518.339	437.25
518.706	430.92
519.073	445.84
519.44	452.39
519.808	467.98
520.175	460.07
520.542	432.5
520.909	446.06
521.276	464.14
521.643	467.98
522.009	462.56
522.376	482.67
522.743	458.04
523.11	463.01
523.477	450.13
523.843	466.63
524.21	477.02
524.577	463.01
524.943	487.19
525.31	462.56
525.676	486.74
526.043	440.86
526.409	479.06
526.776	454.42
527.142	468.21
527.508	447.19
527.874	464.59
528.241	448.55
528.607	455.55
528.973	468.43
529.339	468.66
529.705	492.84
530.071	486.51
530.437	483.12
530.803	481.32
531.169	482.22
531.535	494.42
531.901	490.35
532.267	489
532.632	467.98
532.998	480.19
533.364	496.68
533.73	487.87
534.095	492.39
534.461	489.22
534.826	470.69
535.192	462.56
535.557	505.04
535.923	500.98
536.288	497.36
536.653	524.93
537.019	481.09
537.384	493.74
537.749	481.99
538.114	506.17
538.479	498.94
538.845	471.15
539.21	509.11
539.575	507.98
539.94	499.39
540.305	498.49
540.67	496
541.034	494.65
541.399	506.17
541.764	514.76
542.129	494.87
542.494	504.59
542.858	504.37
543.223	516.12
543.587	515.21
543.952	503.91
544.316	500.3
544.681	489
545.045	498.94
545.41	509.34
545.774	503.01
546.138	493.74
546.503	502.33
546.867	517.02
547.231	516.79
547.595	527.42
547.959	521.77
548.324	513.63
548.688	501.88
549.052	513.18
549.416	509.34
549.779	511.37
550.143	529
550.507	513.63
550.871	523.8
551.235	533.29
551.599	535.32
551.962	504.82
552.326	526.51
552.689	534.19
553.053	541.43
553.417	512.95
553.78	541.88
554.143	521.31
554.507	554.76
554.87	531.48
555.234	521.54
555.597	530.81
555.96	515.44
556.323	529.22
556.686	513.18
557.05	549.11
557.413	538.94
557.776	541.88
558.139	532.39
558.502	549.34
558.865	550.69
559.228	549.34
559.59	548.21
559.953	540.97
560.316	541.88
560.679	528.55
561.041	557.7
561.404	547.75
561.767	541.88
562.129	552.5
562.492	560.18
562.854	556.79
563.217	561.54
563.579	550.92
563.941	552.05
564.304	536
564.666	548.21
565.028	571.93
565.39	543.91
565.753	576
566.115	568.54
566.477	561.31
566.839	533.52
567.201	550.69
567.563	568.77
567.925	562.44
568.287	577.36
568.648	571.03
569.01	552.73
569.372	581.65
569.734	561.54
570.095	588.66
570.457	553.86
570.819	553.18
571.18	529.22
571.542	552.95
571.903	579.62
572.265	543.01
572.626	557.25
572.987	569.45
573.349	557.47
573.71	566.96
574.071	570.13
574.432	556.12
574.794	568.54
575.155	582.33
575.516	596.79
575.877	584.82
576.238	550.92
576.599	569.9
576.96	557.47
577.32	571.48
577.681	538.71
578.042	565.15
578.403	576
578.763	580.52
579.124	581.88
579.485	551.82
579.845	576
580.206	585.95
580.566	574.19
580.927	592.27
581.287	584.36
581.648	616.68
582.008	568.77
582.368	570.8
582.728	578.71
583.089	582.1
583.449	578.49
583.809	589.79
584.169	560.18
584.529	560.18
584.889	560.18
585.249	569.67
585.609	584.82
585.969	576.23
586.329	579.39
586.688	569.67
587.048	570.35
587.408	571.03
587.768	579.84
588.127	587.53
588.487	581.88
588.846	585.27
589.206	558.83
589.565	551.37
589.925	574.87
590.284	588.88
590.643	584.82
591.003	587.75
591.362	572.16
591.721	583.23
592.08	582.78
592.44	570.13
592.799	566.51
593.158	583.01
593.517	571.48
593.876	579.17
594.235	589.56
594.593	575.1
594.952	580.75
595.311	573.29
595.67	583.23
596.029	565.83
596.387	561.76
596.746	569
597.104	570.13
597.463	587.3
597.822	559.51
598.18	563.8
598.538	551.37
598.897	575.55
599.255	566.28
599.613	562.44
599.972	550.47
600.33	573.74
600.688	545.04
601.046	575.55
601.404	553.18
601.762	570.35
602.12	549.79
602.478	564.48
602.836	558.83
603.194	562.22
603.552	554.08
603.91	565.38
604.268	539.84
604.625	561.99
604.983	550.24
605.341	562.89
605.698	554.08
606.056	563.12
606.413	566.06
606.771	563.8
607.128	560.18
607.485	540.75
607.843	542.56
608.2	575.55
608.557	541.2
608.914	561.54
609.272	557.02
609.629	538.71
609.986	545.04
610.343	557.25
610.7	526.74
611.057	549.79
611.414	553.63
611.771	548.43
612.127	538.94
612.484	542.56
612.841	538.04
613.198	532.39
613.554	546.17
613.911	545.72
614.267	536.91
614.624	535.78
614.98	569.22
615.337	531.48
615.693	523.35
616.05	566.74
616.406	531.03
616.762	530.13
617.118	532.84
617.475	514.53
617.831	536.68
618.187	530.35
618.543	544.36
618.899	516.79
619.255	514.76
619.611	511.14
619.967	514.76
620.323	523.57
620.678	500.75
621.034	534.87
621.39	507.98
621.746	508.43
622.101	522.44
622.457	517.47
622.812	505.72
623.168	518.38
623.523	505.5
623.879	529.45
624.234	497.13
624.589	498.94
624.945	504.37
625.3	523.12
625.655	512.73
626.01	503.24
626.365	496.68
626.72	510.24
627.075	494.65
627.43	501.43
627.785	499.62
628.14	503.24
628.495	478.6
628.85	480.64
629.205	486.06
629.559	488.09
629.914	480.19
630.269	497.13
630.623	478.15
630.978	497.59
631.332	492.84
631.687	482.9
632.041	506.17
632.396	477.93
632.75	481.54
633.104	473.86
633.459	454.42
633.813	496
634.167	485.16
634.521	469.79
634.875	456.91
635.229	478.38
635.583	455.33
635.937	472.28
636.291	483.8
636.645	461.43
636.999	457.81
637.352	474.99
637.706	451.94
638.06	466.63
638.413	459.62
638.767	466.17
639.121	460.3
639.474	455.33
639.828	467.3
640.181	460.98
640.534	463.69
640.888	453.97
641.241	474.08
641.594	442.45
641.947	441.99
642.301	455.1
642.654	471.6
643.007	446.06
643.36	462.33
643.713	437.93
644.066	447.42
644.419	447.19
644.771	454.2
645.124	473.86
645.477	444.71
645.83	436.8
646.182	418.04
646.535	443.58
646.888	435.67
647.24	425.95
647.593	436.34
647.945	449
648.298	422.33
648.65	416.01
649.002	423.46
649.355	441.09
649.707	418.27
650.059	423.46
650.411	426.4
650.763	427.53
651.115	421.66
651.467	432.28
651.819	414.88
652.171	444.93
652.523	420.3
652.875	406.97
653.227	415.1
653.578	418.72
653.93	426.85
654.282	423.69
654.633	425.5
654.985	402.9
655.337	446.51
655.688	406.06
656.039	403.12
656.391	399.06
656.742	401.09
657.094	413.29
657.445	385.5
657.796	420.75
658.147	407.42
658.498	421.88
658.849	405.84
659.2	404.48
659.551	410.36
659.902	396.57
660.253	401.09
660.604	412.39
660.955	400.87
661.306	395.22
661.656	410.36
662.007	411.26
662.358	422.11
662.708	389.11
663.059	408.77
663.409	394.99
663.76	415.1
664.11	370.58
664.461	401.77
664.811	396.12
665.161	402.22
665.511	392.96
665.862	393.63
666.212	380.3
666.562	369.23
666.912	394.31
667.262	388.44
667.612	410.58
667.962	380.3
668.312	401.54
668.662	386.18
669.011	392.73
669.361	387.53
669.711	390.92
670.06	388.89
670.41	376.91
670.76	407.42
671.109	382.33
671.459	382.11
671.808	385.27
672.157	409
672.507	378.27
672.856	392.73
673.205	378.49
673.554	374.88
673.904	380.75
674.253	364.48
674.602	371.71
674.951	391.83
675.3	369
675.649	396.8
675.998	389.57
676.346	375.56
676.695	371.26
677.044	377.36
677.393	365.39
677.741	382.56
678.09	356.8
678.438	359.51
678.787	386.18
679.135	395.22
679.484	335.78
679.832	364.26
680.181	367.65
680.529	356.8
680.877	345.95
681.225	355.44
681.573	376.69
681.922	371.94
682.27	367.42
682.618	381.66
682.966	355.22
683.314	362.67
683.661	365.16
684.009	353.63
684.357	363.13
684.705	386.85
685.053	363.58
685.4	353.86
685.748	357.7
686.095	377.36
686.443	371.49
686.79	374.65
687.138	358.15
687.485	348.66
687.832	363.35
688.18	343.24
688.527	362.67
688.874	374.65
689.221	377.81
689.568	350.02
689.915	365.39
690.262	363.8
690.609	374.65
690.956	354.54
691.303	348.66
691.65	353.63
691.997	340.3
692.344	331.71
692.69	356.57
693.037	340.53
693.383	367.65
693.73	356.8
694.077	353.41
694.423	366.29
694.769	342.34
695.116	354.99
695.462	349.79
695.808	338.04
696.155	355.67
696.501	334.88
696.847	346.4
697.193	346.63
697.539	344.6
697.885	350.7
698.231	349.57
698.577	346.63
698.923	340.98
699.269	334.65
699.614	340.53
699.96	339.17
700.306	344.14
700.651	325.61
700.997	361.32
701.342	350.47
701.688	336.01
702.033	372.39
702.379	353.41
702.724	344.6
703.069	329.23
703.415	343.69
703.76	361.77
704.105	362.45
704.45	351.37
704.795	362.45
705.14	344.14
705.485	332.39
705.83	350.02
706.175	331.04
706.52	353.18
706.865	352.05
707.209	356.8
707.554	319.51
707.899	339.85
708.243	339.4
708.588	348.44
708.932	336.23
709.277	343.47
709.621	350.02
709.966	355.44
710.31	370.13
710.654	360.41
710.998	353.63
711.342	345.27
711.687	335.1
712.031	354.31
712.375	338.72
712.719	329.68
713.063	359.74
713.407	351.37
713.75	328.55
714.094	330.36
714.438	339.62
714.782	356.12
715.125	340.53
715.469	373.3
715.812	348.21
716.156	340.3
716.499	330.36
716.843	352.05
717.186	329.23
717.53	349.57
717.873	346.63
718.216	321.77
718.559	336.23
718.902	336.23
719.246	339.85
719.589	325.61
719.932	311.15
720.275	353.41
720.617	339.85
720.96	338.95
721.303	322
721.646	332.17
721.989	338.95
722.331	333.52
722.674	336.91
723.016	315.67
723.359	330.58
723.701	331.94
724.044	355.22
724.386	335.56
724.729	341.43
725.071	339.17
725.413	347.53
725.755	342.34
726.097	332.84
726.439	340.75
726.782	326.29
727.124	325.61
727.465	316.12
727.807	341.66
728.149	331.94
728.491	351.83
728.833	331.04
729.175	333.07
729.516	324.48
729.858	328.78
730.199	318.83
730.541	329.23
730.882	322.45
731.224	317.25
731.565	326.52
731.906	352.5
732.248	337.59
732.589	319.74
732.93	332.39
733.271	335.78
733.612	340.75
733.953	312.73
734.294	322
734.635	314.54
734.976	326.06
735.317	324.48
735.658	324.03
735.999	332.17
736.339	327.87
736.68	330.58
737.021	318.38
737.361	332.17
737.702	322.45
738.042	323.81
738.383	332.62
738.723	334.65
739.063	330.36
739.404	345.05
739.744	342.11
740.084	327.19
740.424	327.42
740.764	319.06
741.104	330.13
741.444	324.71
741.784	321.55
742.124	332.62
742.464	317.93
742.804	327.42
743.143	330.36
743.483	312.96
743.823	331.94
744.162	312.96
744.502	323.81
744.841	341.43
745.181	329
745.52	330.81
745.86	332.17
746.199	333.07
746.538	330.13
746.877	301.21
747.216	311.15
747.556	306.4
747.895	332.62
748.234	347.08
748.573	317.93
748.911	338.04
749.25	318.38
749.589	344.14
749.928	320.87
750.267	329.91
750.605	314.54
750.944	331.71
751.283	336.69
751.621	333.75
751.96	333.52
752.298	338.95
752.636	313.41
752.975	344.6
753.313	334.2
753.651	317.7
753.989	327.42
754.327	322
754.666	327.42
755.004	326.52
755.342	315.67
755.679	336.01
756.017	352.28
756.355	319.96
756.693	339.62
757.031	331.26
757.368	340.75
757.706	329.23
758.044	338.27
758.381	336.69
758.719	338.04
759.056	314.77
759.394	339.85
759.731	326.29
760.068	318.16
760.405	323.35
760.743	315.22
761.08	314.77
761.417	337.14
761.754	311.83
762.091	323.81
762.428	320.42
762.765	324.48
763.102	317.7
763.438	321.77
763.775	326.52
764.112	318.61
764.449	315.22
764.785	336.69
765.122	330.81
765.458	343.24
765.795	327.19
766.131	322
766.467	335.78
766.804	330.81
767.14	331.26
767.476	345.05
767.812	314.31
768.148	313.41
768.485	296.24
768.821	339.62
769.157	328.32
769.492	323.13
769.828	343.01
770.164	338.04
770.5	356.8
770.836	314.54
771.171	316.12
771.507	325.39
771.842	322.45
772.178	320.64
772.513	322.68
772.849	338.95
773.184	330.36
773.519	334.65
773.855	299.4
774.19	319.06
774.525	332.84
774.86	353.63
775.195	316.12
775.53	318.38
775.865	343.01
776.2	299.17
776.535	333.52
776.87	324.26
777.205	328.32
777.539	322.45
777.874	311.6
778.209	337.14
778.543	330.13
778.878	326.06
779.212	331.49
779.547	320.87
779.881	340.75
780.215	319.74
780.55	334.2
780.884	324.26
781.218	328.32
781.552	307.76
781.886	324.48
782.22	322.22
782.554	338.72
782.888	320.87
783.222	307.99
783.556	325.16
783.889	320.64
784.223	288.55
784.557	317.93
784.89	330.13
785.224	338.95
785.557	306.63
785.891	314.99
786.224	308.21
786.558	325.61
786.891	317.93
787.224	324.26
787.557	354.76
787.891	319.74
788.224	311.15
788.557	318.16
788.89	316.12
789.223	290.36
789.556	304.37
789.888	324.71
790.221	332.17
