Data from No_light_on_white_reflection_standard_FLMS001491_081.txt Node
Date: Tue Feb 07 10:33:08 GMT 2017
User: dcchb
Spectrometer: FLMS00149
Trigger mode: 0
Integration Time (sec): 2.000000E-2
Scans to average: 10
Electric dark correction enabled: true
Nonlinearity correction enabled: false
Boxcar width: 0
XAxis mode: Wavelengths
Number of Pixels in Spectrum: 2048
>>>>>Begin Spectral Data<<<<<
341.393	-22.53
341.776	-22.53
342.16	-22.53
342.543	-48.74
342.927	-53.04
343.31	-81.51
343.693	-58.91
344.077	-64.56
344.46	-55.97
344.843	-52.36
345.226	-44.22
345.61	-24.11
345.993	-19.59
346.376	-11.91
346.759	10.92
347.142	26.06
347.525	37.13
347.908	55.89
348.291	80.29
348.674	81.88
349.057	120.97
349.44	124.36
349.823	151.03
350.206	157.58
350.588	167.07
350.971	190.35
351.354	208.88
351.737	191.93
352.119	215.88
352.502	250.23
352.884	243.91
353.267	259.27
353.65	265.37
354.032	270.12
354.414	279.61
354.797	278.26
355.179	288.2
355.562	295.66
355.944	302.21
356.326	283.23
356.709	308.31
357.091	301.98
357.473	314.19
357.855	317.12
358.238	318.71
358.62	283
359.002	326.16
359.384	283
359.766	296.79
360.148	298.37
360.53	292.72
360.912	303.57
361.294	299.72
361.676	291.14
362.057	306.73
362.439	318.71
362.821	315.54
363.203	306.73
363.584	278.48
363.966	283.23
364.348	278.48
364.729	295.66
365.111	270.8
365.493	286.39
365.874	299.95
366.256	277.8
366.637	285.71
367.019	279.84
367.4	264.92
367.781	282.1
368.163	285.49
368.544	298.14
368.925	291.36
369.306	268.54
369.688	291.59
370.069	292.27
370.45	281.19
370.831	279.39
371.212	289.33
371.593	278.03
371.974	259.5
372.355	264.7
372.736	259.27
373.117	268.99
373.498	271.02
373.879	287.75
374.26	285.49
374.641	276.45
375.021	279.61
375.402	276.9
375.783	279.16
376.163	274.41
376.544	285.03
376.925	273.74
377.305	292.27
377.686	254.75
378.066	284.13
378.447	292.49
378.827	283
379.208	291.59
379.588	295.88
379.968	285.26
380.349	288.42
380.729	280.97
381.109	263.79
381.489	278.93
381.87	280.74
382.25	286.16
382.63	285.49
383.01	277.13
383.39	296.56
383.77	275.77
384.15	286.16
384.53	277.8
384.91	280.74
385.29	285.26
385.67	271.48
386.049	296.56
386.429	276.22
386.809	296.33
387.189	282.32
387.568	281.87
387.948	280.06
388.328	290.23
388.707	292.94
389.087	282.1
389.466	294.98
389.846	295.66
390.225	288.2
390.605	290.46
390.984	299.95
391.363	290.23
391.743	267.63
392.122	297.24
392.501	294.3
392.881	286.39
393.26	285.26
393.639	306.5
394.018	299.27
394.397	298.82
394.776	294.3
395.155	286.16
395.534	295.43
395.913	291.81
396.292	292.04
396.671	313.06
397.05	299.5
397.429	288.2
397.808	302.66
398.186	305.6
398.565	287.75
398.944	301.98
399.323	296.79
399.701	303.57
400.08	288.65
400.458	297.92
400.837	315.09
401.215	310.8
401.594	287.75
401.972	290.68
402.351	299.05
402.729	288.88
403.107	291.59
403.486	312.83
403.864	294.98
404.242	310.34
404.62	290.23
404.999	297.46
405.377	299.27
405.755	319.38
406.133	300.18
406.511	288.65
406.889	296.56
407.267	316.22
407.645	312.6
408.023	327.29
408.401	310.8
408.779	292.27
409.156	311.25
409.534	292.94
409.912	305.83
410.29	323.68
410.667	300.18
411.045	298.59
411.422	315.09
411.8	299.95
412.178	316.22
412.555	305.37
412.933	322.32
413.31	315.32
413.687	304.02
414.065	308.09
414.442	296.56
414.819	317.12
415.197	296.33
415.574	303.11
415.951	309.67
416.328	313.28
416.705	295.2
417.082	318.25
417.46	291.36
417.837	306.73
418.214	296.11
418.591	326.16
418.967	323.23
419.344	296.56
419.721	327.75
420.098	291.81
420.475	317.35
420.852	298.59
421.228	312.6
421.605	311.02
421.982	297.92
422.358	302.66
422.735	309.44
423.111	306.96
423.488	316.9
423.864	313.96
424.241	313.96
424.617	302.21
424.994	301.76
425.37	320.06
425.746	327.52
426.123	290.01
426.499	316.45
426.875	304.7
427.251	285.03
427.627	306.05
428.003	312.6
428.379	332.94
428.756	306.5
429.132	310.34
429.507	297.92
429.883	324.58
430.259	325.26
430.635	312.83
431.011	304.47
431.387	303.79
431.763	323.45
432.138	309.22
432.514	313.51
432.89	315.32
433.265	328.65
433.641	330.23
434.016	318.71
434.392	313.28
434.767	322.77
435.143	313.96
435.518	327.75
435.894	325.94
436.269	315.32
436.644	317.35
437.02	333.62
437.395	335.43
437.77	349.67
438.145	317.35
438.52	320.51
438.895	353.06
439.271	324.36
439.646	341.53
440.021	350.57
440.395	312.6
440.77	323
441.145	323.23
441.52	325.94
441.895	346.73
442.27	333.4
442.645	355.32
443.019	340.17
443.394	365.48
443.769	353.96
444.143	348.99
444.518	359.38
444.892	358.03
445.267	345.37
445.641	345.6
446.016	363.22
446.39	343.11
446.764	346.73
447.139	373.17
447.513	343.34
447.887	345.15
448.262	384.92
448.636	346.73
449.01	354.86
449.384	375.88
449.758	365.03
450.132	362.32
450.506	360.51
450.88	361.64
451.254	367.74
451.628	370.23
452.002	396.9
452.376	347.41
452.75	363.22
453.123	376.11
453.497	406.39
453.871	373.17
454.244	363.68
454.618	367.52
454.992	359.61
455.365	374.75
455.739	391.25
456.112	387.63
456.486	367.52
456.859	357.35
457.232	364.13
457.606	349.89
457.979	363.22
458.352	369.1
458.725	356.22
459.099	349.21
459.472	375.2
459.845	379.04
460.218	372.94
460.591	358.03
460.964	346.95
461.337	386.5
461.71	370
462.083	376.11
462.456	362.32
462.829	330.01
463.201	359.38
463.574	357.8
463.947	368.2
464.32	355.77
464.692	377.01
465.065	368.87
465.438	344.92
465.81	375.2
466.183	360.29
466.555	361.64
466.928	357.58
467.3	371.13
467.672	341.08
468.045	363.22
468.417	363.22
468.789	358.48
469.161	375.2
469.534	367.07
469.906	360.51
470.278	356.9
470.65	353.28
471.022	355.09
471.394	341.76
471.766	359.84
472.138	361.42
472.51	345.37
472.882	371.36
473.253	352.38
473.625	339.04
473.997	332.72
474.369	365.26
474.74	361.64
475.112	363.9
475.484	363
475.855	352.83
476.227	342.89
476.598	351.02
476.97	374.52
477.341	344.24
477.713	349.21
478.084	349.67
478.455	348.76
478.827	366.84
479.198	344.02
479.569	344.24
479.94	365.48
480.311	357.12
480.682	355.32
481.053	350.57
481.424	351.7
481.795	334.53
482.166	382.21
482.537	369.1
482.908	336.33
483.279	354.86
483.65	358.03
484.021	366.84
484.391	382.66
484.762	370.91
485.133	379.27
485.503	368.87
485.874	367.07
486.244	353.51
486.615	348.08
486.985	375.65
487.356	347.86
487.726	381.98
488.097	395.09
488.467	365.26
488.837	365.48
489.207	368.42
489.578	363.45
489.948	375.65
490.318	366.61
490.688	368.65
491.058	367.97
491.428	356.9
491.798	372.26
492.168	368.65
492.538	364.58
492.908	389.89
493.278	379.95
493.648	373.62
494.017	391.25
494.387	369.78
494.757	380.17
495.126	389.21
495.496	375.88
495.866	407.29
496.235	399.61
496.605	390.34
496.974	411.13
497.344	395.54
497.713	403.68
498.082	408.42
498.452	421.75
498.821	402.55
499.19	400.96
499.559	407.07
499.928	404.13
500.298	414.75
500.667	419.95
501.036	413.17
501.405	408.65
501.774	403.68
502.143	413.62
502.512	419.27
502.88	415.65
503.249	412.04
503.618	409.78
503.987	392.83
504.356	417.23
504.724	433.96
505.093	432.83
505.462	423.11
505.83	401.19
506.199	416.33
506.567	426.73
506.936	433.73
507.304	417.46
507.672	446.84
508.041	417.46
508.409	442.32
508.777	426.95
509.145	422.66
509.514	436.44
509.882	429.44
510.25	445.26
510.618	426.5
510.986	438.25
511.354	417.46
511.722	447.97
512.09	439.61
512.458	440.96
512.826	427.4
513.193	434.18
513.561	441.19
513.929	468.08
514.297	430.12
514.664	447.97
515.032	457.46
515.4	478.93
515.767	457.69
516.135	450.23
516.502	461.98
516.869	459.27
517.237	467.18
517.604	452.49
517.972	473.05
518.339	460.62
518.706	468.76
519.073	467.18
519.44	472.15
519.808	471.7
520.175	478.7
520.542	461.98
520.909	453.62
521.276	456.56
521.643	435.54
522.009	463.34
522.376	473.28
522.743	451.13
523.11	471.7
523.477	464.69
523.843	482.54
524.21	483.22
524.577	497.01
524.943	461.75
525.31	467.18
525.676	475.99
526.043	490.23
526.409	492.49
526.776	483.67
527.142	474.18
527.508	480.28
527.874	491.13
528.241	474.86
528.607	499.72
528.973	496.78
529.339	491.81
529.705	526.38
530.071	493.39
530.437	494.52
530.803	499.27
531.169	483.9
531.535	498.59
531.901	498.36
532.267	505.59
532.632	501.07
532.998	480.06
533.364	498.81
533.73	510.11
534.095	511.24
534.461	519.83
534.826	519.83
535.192	512.83
535.557	508.98
535.923	502.88
536.288	511.47
536.653	503.56
537.019	536.33
537.384	501.53
537.749	513.05
538.114	513.73
538.479	513.5
538.845	504.92
539.21	505.82
539.575	511.7
539.94	524.35
540.305	533.84
540.67	517.8
541.034	507.4
541.399	513.5
541.764	551.02
542.129	516.67
542.494	519.15
542.858	529.1
543.223	498.36
543.587	527.97
543.952	539.04
544.316	502.66
544.681	514.86
545.045	511.7
545.41	523.45
545.774	532.94
546.138	526.61
546.503	525.93
546.867	518.48
547.231	524.58
547.595	534.29
547.959	515.76
548.324	522.54
548.688	525.93
549.052	506.05
549.416	543.33
549.779	513.73
550.143	536.33
550.507	531.81
550.871	532.26
551.235	526.84
551.599	539.49
551.962	551.02
552.326	542.2
552.689	534.29
553.053	527.74
553.417	527.51
553.78	538.36
554.143	555.99
554.507	553.5
554.87	548.76
555.234	540.4
555.597	536.78
555.96	516.22
556.323	549.89
556.686	552.6
557.05	525.03
557.413	540.17
557.776	557.8
558.139	544.69
558.502	581.07
558.865	544.24
559.228	562.32
559.59	557.34
559.953	551.24
560.316	546.5
560.679	554.41
561.041	557.57
561.404	550.34
561.767	546.95
562.129	586.95
562.492	554.41
562.854	539.27
563.217	558.47
563.579	559.6
563.941	544.24
564.304	561.86
564.666	555.08
565.028	584.69
565.39	593.28
565.753	563.9
566.115	571.13
566.477	553.95
566.839	559.6
567.201	562.77
567.563	560.73
567.925	570.23
568.287	572.26
568.648	560.73
569.01	566.84
569.372	560.28
569.734	576.55
570.095	565.93
570.457	580.85
570.819	569.1
571.18	539.72
571.542	570.68
571.903	581.3
572.265	554.41
572.626	591.24
572.987	580.62
573.349	591.47
573.71	588.3
574.071	592.6
574.432	580.85
574.794	615.42
575.155	591.02
575.516	589.43
575.877	599.15
576.238	568.64
576.599	609.32
576.96	593.28
577.32	588.3
577.681	598.02
578.042	573.61
578.403	591.02
578.763	595.54
579.124	581.75
579.485	583.78
579.845	582.2
580.206	575.65
580.566	607.29
580.927	588.76
581.287	583.11
581.648	599.6
582.008	586.95
582.368	579.26
582.728	585.37
583.089	597.8
583.449	576.78
583.809	576.33
584.169	600.96
584.529	596.67
584.889	590.34
585.249	586.04
585.609	599.38
585.969	591.47
586.329	593.05
586.688	587.85
587.048	599.38
587.408	598.02
587.768	577.46
588.127	585.14
588.487	593.5
588.846	603.22
589.206	577.46
589.565	579.49
589.925	569.1
590.284	582.88
590.643	606.83
591.003	598.02
591.362	593.73
591.721	596.67
592.08	600.28
592.44	558.7
592.799	597.12
593.158	584.46
593.517	579.49
593.876	567.51
594.235	572.03
594.593	579.72
594.952	580.62
595.311	589.43
595.67	584.01
596.029	592.37
596.387	593.95
596.746	582.2
597.104	575.42
597.463	569.55
597.822	581.98
598.18	599.83
598.538	578.81
598.897	569.1
599.255	599.38
599.613	573.39
599.972	567.74
600.33	560.73
600.688	584.46
601.046	583.56
601.404	547.4
601.762	578.36
602.12	598.7
602.478	584.24
602.836	572.71
603.194	587.85
603.552	562.99
603.91	576.78
604.268	573.16
604.625	559.15
604.983	579.72
605.341	575.87
605.698	553.95
606.056	572.71
606.413	559.38
606.771	562.99
607.128	554.18
607.485	588.53
607.843	560.96
608.2	560.73
608.557	581.52
608.914	555.08
609.272	563.9
609.629	566.16
609.986	562.54
610.343	556.67
610.7	579.72
611.057	582.2
611.414	576.33
611.771	560.51
612.127	554.86
612.484	578.36
612.841	558.93
613.198	569.1
613.554	567.97
613.911	563.45
614.267	548.98
614.624	543.79
614.98	542.88
615.337	543.56
615.693	539.04
616.05	544.46
616.406	546.27
616.762	550.11
617.118	557.34
617.475	551.92
617.831	534.97
618.187	532.03
618.543	545.14
618.899	544.01
619.255	527.74
619.611	528.64
619.967	559.38
620.323	537.68
620.678	536.78
621.034	525.03
621.39	538.36
621.746	527.97
622.101	529.55
622.457	528.64
622.812	538.59
623.168	526.61
623.523	539.49
623.879	535.42
624.234	534.29
624.589	522.32
624.945	531.81
625.3	523.22
625.655	531.36
626.01	511.7
626.365	494.52
626.72	515.31
627.075	529.1
627.43	511.92
627.785	509.89
628.14	500.4
628.495	511.7
628.85	514.86
629.205	490.68
629.559	508.31
629.914	504.92
630.269	509.21
630.623	485.71
630.978	482.54
631.332	490
631.687	473.28
632.041	494.07
632.396	515.31
632.75	507.18
633.104	501.07
633.459	485.48
633.813	497.46
634.167	486.61
634.521	479.83
634.875	487.52
635.229	478.93
635.583	476.44
635.937	501.07
636.291	493.39
636.645	483.22
636.999	475.76
637.352	491.13
637.706	459.27
638.06	473.28
638.413	470.57
638.767	461.75
639.121	488.87
639.474	492.94
639.828	460.4
640.181	465.6
640.534	476.89
640.888	446.84
641.241	473.73
641.594	463.11
641.947	465.14
642.301	451.81
642.654	450.23
643.007	471.47
643.36	470.79
643.713	447.06
644.066	457.46
644.419	460.62
644.771	448.87
645.124	465.14
645.477	447.06
645.83	447.29
646.182	447.74
646.535	437.35
646.888	433.73
647.24	435.99
647.593	465.14
647.945	468.08
648.298	448.19
648.65	445.26
649.002	461.08
649.355	456.78
649.707	438.25
650.059	442.77
650.411	451.36
650.763	438.03
651.115	442.09
651.467	441.64
651.819	455.65
652.171	425.14
652.523	424.92
652.875	429.44
653.227	437.57
653.578	431.47
653.93	423.34
654.282	424.24
654.633	451.13
654.985	434.41
655.337	412.49
655.688	411.81
656.039	404.58
656.391	400.51
656.742	430.12
657.094	412.72
657.445	430.57
657.796	425.6
658.147	419.04
658.498	436.9
658.849	400.29
659.2	435.09
659.551	427.63
659.902	434.64
660.253	426.73
660.604	428.53
660.955	396.22
661.306	412.49
661.656	414.3
662.007	415.65
662.358	422.43
662.708	411.59
663.059	403.68
663.409	420.85
663.76	393.28
664.11	401.64
664.461	391.25
664.811	402.77
665.161	390.79
665.511	400.96
665.862	403.68
666.212	410.46
666.562	410.91
666.912	396.22
667.262	396.67
667.612	394.18
667.962	379.04
668.312	392.83
668.662	396.44
669.011	365.48
669.361	379.5
669.711	399.61
670.06	385.6
670.41	416.78
670.76	391.25
671.109	386.73
671.459	390.79
671.808	381.76
672.157	397.12
672.507	401.87
672.856	382.89
673.205	392.15
673.554	378.82
673.904	379.5
674.253	369.33
674.602	382.21
674.951	382.21
675.3	381.98
675.649	403.68
675.998	395.77
676.346	372.04
676.695	381.98
677.044	393.51
677.393	378.37
677.741	379.95
678.09	360.51
678.438	378.59
678.787	378.14
679.135	389.44
679.484	385.15
679.832	392.83
680.181	372.72
680.529	390.79
680.877	371.13
681.225	385.6
681.573	366.84
681.922	377.24
682.27	367.29
682.618	359.84
682.966	390.57
683.314	393.51
683.661	373.85
684.009	368.87
684.357	365.71
684.705	352.15
685.053	373.39
685.4	363.22
685.748	392.83
686.095	375.88
686.443	386.95
686.79	351.7
687.138	355.54
687.485	349.21
687.832	360.74
688.18	367.74
688.527	375.2
688.874	366.84
689.221	358.03
689.568	374.52
689.915	342.43
690.262	368.65
690.609	360.06
690.956	367.52
691.303	353.51
691.65	340.85
691.997	358.25
692.344	348.08
692.69	348.99
693.037	360.06
693.383	370.68
693.73	352.83
694.077	348.31
694.423	351.25
694.769	372.94
695.116	356.9
695.462	377.46
695.808	341.3
696.155	361.42
696.501	347.41
696.847	365.48
697.193	350.57
697.539	334.53
697.885	345.15
698.231	354.86
698.577	362.32
698.923	342.89
699.269	346.05
699.614	351.47
699.96	348.99
700.306	367.07
700.651	344.92
700.997	348.99
701.342	349.21
701.688	355.32
702.033	360.29
702.379	368.65
702.724	363.9
703.069	353.51
703.415	353.06
703.76	359.84
704.105	353.28
704.45	343.34
704.795	352.15
705.14	332.94
705.485	354.41
705.83	349.67
706.175	345.15
706.52	351.7
706.865	357.8
707.209	358.93
707.554	342.89
707.899	349.67
708.243	357.8
708.588	330.01
708.932	350.12
709.277	353.06
709.621	331.36
709.966	347.63
710.31	331.81
710.654	335.43
710.998	335.66
711.342	347.18
711.687	347.86
712.031	369.55
712.375	339.04
712.719	353.06
713.063	351.47
713.407	349.67
713.75	341.3
714.094	335.43
714.438	336.33
714.782	372.26
715.125	347.86
715.469	365.26
715.812	337.91
716.156	356.45
716.499	357.12
716.843	341.98
717.186	346.28
717.53	325.26
717.873	327.29
718.216	338.14
718.559	346.05
718.902	331.81
719.246	337.91
719.589	318.25
719.932	334.07
720.275	327.97
720.617	325.49
720.96	364.58
721.303	342.21
721.646	350.57
721.989	360.97
722.331	355.99
722.674	349.21
723.016	338.14
723.359	350.8
723.701	341.76
724.044	329.55
724.386	334.53
724.729	330.68
725.071	342.89
725.413	346.5
725.755	337.69
726.097	340.4
726.439	334.98
726.782	335.66
727.124	323.9
727.465	316.45
727.807	335.43
728.149	337.69
728.491	327.97
728.833	338.82
729.175	336.56
729.516	329.1
729.858	347.86
730.199	325.49
730.541	342.89
730.882	324.36
731.224	331.14
731.565	336.33
731.906	332.27
732.248	340.63
732.589	337.46
732.93	341.98
733.271	337.01
733.612	346.95
733.953	330.23
734.294	343.79
734.635	341.08
734.976	336.78
735.317	334.3
735.658	339.27
735.999	335.2
736.339	319.84
736.68	341.98
737.021	336.56
737.361	341.3
737.702	341.53
738.042	334.75
738.383	359.84
738.723	337.46
739.063	346.95
739.404	331.14
739.744	348.99
740.084	333.85
740.424	341.53
740.764	364.81
741.104	336.33
741.444	338.59
741.784	337.24
742.124	338.14
742.464	336.56
742.804	338.14
743.143	320.97
743.483	331.59
743.823	334.07
744.162	328.2
744.502	319.61
744.841	333.4
745.181	325.03
745.52	356.22
745.86	350.34
746.199	315.99
746.538	339.04
746.877	342.89
747.216	343.79
747.556	339.5
747.895	333.17
748.234	325.94
748.573	350.57
748.911	317.12
749.25	343.11
749.589	348.08
749.928	335.66
750.267	342.66
750.605	333.62
750.944	344.02
751.283	346.73
751.621	343.56
751.96	324.36
752.298	349.21
752.636	320.06
752.975	356.22
753.313	335.2
753.651	325.49
753.989	325.03
754.327	337.91
754.666	342.43
755.004	332.72
755.342	331.14
755.679	314.41
756.017	327.97
756.355	351.93
756.693	356.67
757.031	339.72
757.368	314.19
757.706	335.43
758.044	342.66
758.381	334.3
758.719	325.94
759.056	323.68
759.394	318.03
759.731	323
760.068	317.8
760.405	323.45
760.743	318.25
761.08	328.2
761.417	328.65
761.754	331.81
762.091	331.59
762.428	341.3
762.765	315.99
763.102	325.03
763.438	331.14
763.775	342.66
764.112	337.91
764.449	335.88
764.785	323
765.122	320.06
765.458	337.01
765.795	332.04
766.131	312.38
766.467	327.75
766.804	327.29
767.14	360.51
767.476	330.01
767.812	309.67
768.148	344.69
768.485	339.5
768.821	322.55
769.157	342.21
769.492	323.45
769.828	323.23
770.164	338.59
770.5	317.58
770.836	336.56
771.171	315.09
771.507	323
771.842	346.5
772.178	317.58
772.513	329.33
772.849	331.14
773.184	345.82
773.519	313.73
773.855	312.6
774.19	318.03
774.525	338.37
774.86	330.91
775.195	339.04
775.53	350.34
775.865	339.04
776.2	327.97
776.535	310.8
776.87	320.29
777.205	320.29
777.539	332.27
777.874	341.3
778.209	313.51
778.543	339.95
778.878	321.87
779.212	328.2
779.547	343.34
779.881	344.92
780.215	349.44
780.55	341.53
780.884	326.62
781.218	333.62
781.552	345.15
781.886	343.34
782.22	340.63
782.554	315.32
782.888	327.52
783.222	334.07
783.556	325.71
783.889	319.84
784.223	340.17
784.557	340.4
784.89	340.63
785.224	335.2
785.557	330.91
785.891	327.75
786.224	325.03
786.558	331.14
786.891	344.24
787.224	332.27
787.557	317.35
787.891	311.93
788.224	332.94
788.557	318.71
788.89	307.86
789.223	343.56
789.556	317.58
