Data from No_light_on_white_reflection_standard_FLMS001491_016.txt Node
Date: Tue Feb 07 10:32:55 GMT 2017
User: dcchb
Spectrometer: FLMS00149
Trigger mode: 0
Integration Time (sec): 2.000000E-2
Scans to average: 10
Electric dark correction enabled: true
Nonlinearity correction enabled: false
Boxcar width: 0
XAxis mode: Wavelengths
Number of Pixels in Spectrum: 2048
>>>>>Begin Spectral Data<<<<<
341.393	-4.22
341.776	-4.22
342.16	-4.22
342.543	-68.18
342.927	-79.7
343.31	-65.69
343.693	-71.34
344.077	-69.98
344.46	-62.07
344.843	-45.8
345.226	-51.68
345.61	-27.27
345.993	-0.83
346.376	-1.06
346.759	-1.51
347.142	21.09
347.525	53.85
347.908	51.14
348.291	80.52
348.674	76.45
349.057	114.19
349.44	107.41
349.823	131.59
350.206	152.83
350.588	171.37
350.971	163
351.354	191.25
351.737	242.32
352.119	249.56
352.502	235.77
352.884	249.56
353.267	271.02
353.65	273.74
354.032	264.02
354.414	282.32
354.797	276.22
355.179	287.07
355.562	267.86
355.944	298.59
356.326	292.72
356.709	293.62
357.091	307.41
357.473	297.69
357.855	298.59
358.238	319.16
358.62	308.09
359.002	320.74
359.384	318.93
359.766	296.11
360.148	296.11
360.53	313.06
360.912	309.89
361.294	315.54
361.676	313.51
362.057	319.16
362.439	287.52
362.821	298.37
363.203	291.81
363.584	267.63
363.966	283
364.348	300.4
364.729	285.94
365.111	283.45
365.493	291.36
365.874	264.92
366.256	297.01
366.637	283.45
367.019	277.58
367.4	297.01
367.781	275.54
368.163	284.58
368.544	278.71
368.925	275.32
369.306	285.03
369.688	293.85
370.069	274.87
370.45	282.78
370.831	278.03
371.212	272.83
371.593	284.13
371.974	271.7
372.355	266.73
372.736	286.16
373.117	280.97
373.498	269.89
373.879	294.3
374.26	286.84
374.641	297.46
375.021	273.74
375.402	256.34
375.783	270.35
376.163	289.1
376.544	273.28
376.925	285.03
377.305	256.11
377.686	297.92
378.066	278.71
378.447	275.32
378.827	278.93
379.208	273.96
379.588	303.11
379.968	273.96
380.349	283.45
380.729	280.52
381.109	278.71
381.489	276
381.87	292.49
382.25	287.52
382.63	291.59
383.01	277.13
383.39	285.03
383.77	299.5
384.15	265.83
384.53	252.72
384.91	273.74
385.29	302.21
385.67	286.62
386.049	292.72
386.429	269.44
386.809	308.99
387.189	287.07
387.568	274.64
387.948	299.95
388.328	292.94
388.707	292.49
389.087	292.04
389.466	274.64
389.846	284.58
390.225	284.58
390.605	295.88
390.984	280.97
391.363	306.5
391.743	274.64
392.122	302.66
392.501	287.52
392.881	283.68
393.26	299.72
393.639	277.8
394.018	291.14
394.397	302.89
394.776	293.17
395.155	306.73
395.534	285.03
395.913	289.55
396.292	309.22
396.671	295.66
397.05	298.59
397.429	295.88
397.808	283.68
398.186	293.62
398.565	305.37
398.944	294.3
399.323	304.7
399.701	307.63
400.08	312.38
400.458	289.33
400.837	293.85
401.215	299.27
401.594	291.36
401.972	298.59
402.351	298.59
402.729	303.34
403.107	304.24
403.486	291.81
403.864	314.41
404.242	301.53
404.62	299.05
404.999	306.28
405.377	292.04
405.755	287.29
406.133	288.2
406.511	300.18
406.889	297.46
407.267	318.03
407.645	312.6
408.023	302.89
408.401	311.47
408.779	303.79
409.156	286.39
409.534	288.88
409.912	303.57
410.29	292.27
410.667	309.44
411.045	294.07
411.422	318.03
411.8	283.9
412.178	297.24
412.555	301.53
412.933	310.57
413.31	284.36
413.687	305.15
414.065	314.19
414.442	294.75
414.819	309.22
415.197	315.77
415.574	304.7
415.951	313.96
416.328	297.01
416.705	290.91
417.082	302.21
417.46	301.31
417.837	326.39
418.214	303.11
418.591	309.22
418.967	316.67
419.344	305.6
419.721	307.86
420.098	309.44
420.475	315.99
420.852	314.41
421.228	294.75
421.605	304.02
421.982	316.45
422.358	318.71
422.735	325.94
423.111	285.26
423.488	296.79
423.864	313.28
424.241	337.01
424.617	301.76
424.994	334.75
425.37	322.32
425.746	306.28
426.123	303.57
426.499	314.19
426.875	306.28
427.251	323.9
427.627	298.59
428.003	333.17
428.379	300.63
428.756	320.51
429.132	305.37
429.507	316.22
429.883	318.03
430.259	318.93
430.635	306.96
431.011	305.83
431.387	306.5
431.763	318.03
432.138	347.18
432.514	319.84
432.89	332.72
433.265	302.66
433.641	329.33
434.016	320.97
434.392	299.72
434.767	316.9
435.143	313.73
435.518	322.32
435.894	326.16
436.269	319.84
436.644	319.84
437.02	330.68
437.395	316.22
437.77	334.75
438.145	325.26
438.52	321.42
438.895	321.19
439.271	321.42
439.646	325.71
440.021	335.2
440.395	365.48
440.77	323
441.145	349.67
441.52	347.41
441.895	352.15
442.27	330.91
442.645	336.56
443.019	364.58
443.394	343.11
443.769	342.66
444.143	344.24
444.518	361.87
444.892	349.67
445.267	325.49
445.641	370.23
446.016	351.25
446.39	333.62
446.764	347.86
447.139	352.15
447.513	359.61
447.887	340.63
448.262	344.92
448.636	373.62
449.01	357.12
449.384	348.08
449.758	356.22
450.132	379.04
450.506	373.62
450.88	370.23
451.254	366.84
451.628	357.58
452.002	370
452.376	371.59
452.75	364.58
453.123	375.43
453.497	354.64
453.871	377.24
454.244	382.21
454.618	377.91
454.992	351.47
455.365	363.9
455.739	380.4
456.112	353.96
456.486	377.46
456.859	376.11
457.232	383.11
457.606	343.56
457.979	365.03
458.352	361.87
458.725	369.55
459.099	370.23
459.472	357.12
459.845	369.55
460.218	364.13
460.591	335.66
460.964	381.3
461.337	359.84
461.71	351.47
462.083	381.98
462.456	349.44
462.829	353.28
463.201	351.25
463.574	357.8
463.947	341.98
464.32	359.61
464.692	375.65
465.065	337.91
465.438	341.98
465.81	353.51
466.183	358.25
466.555	329.55
466.928	370
467.3	360.51
467.672	372.26
468.045	363.9
468.417	347.41
468.789	350.12
469.161	353.51
469.534	376.33
469.906	350.8
470.278	340.63
470.65	357.12
471.022	358.03
471.394	360.29
471.766	334.3
472.138	337.69
472.51	345.6
472.882	337.46
473.253	354.86
473.625	353.06
473.997	333.17
474.369	348.99
474.74	338.82
475.112	344.24
475.484	330.91
475.855	350.12
476.227	351.93
476.598	347.18
476.97	330.91
477.341	373.85
477.713	354.41
478.084	343.79
478.455	349.67
478.827	346.05
479.198	339.5
479.569	365.94
479.94	370.91
480.311	388.76
480.682	351.02
481.053	353.51
481.424	359.38
481.795	340.63
482.166	386.73
482.537	372.94
482.908	349.67
483.279	368.65
483.65	363.45
484.021	378.37
484.391	362.09
484.762	351.7
485.133	367.74
485.503	381.3
485.874	388.31
486.244	363.22
486.615	372.26
486.985	362.77
487.356	358.71
487.726	350.34
488.097	372.04
488.467	367.97
488.837	367.07
489.207	369.55
489.578	392.38
489.948	366.61
490.318	373.17
490.688	378.37
491.058	363
491.428	386.95
491.798	372.04
492.168	387.63
492.538	374.52
492.908	371.13
493.278	394.41
493.648	372.26
494.017	377.91
494.387	375.2
494.757	382.43
495.126	394.86
495.496	382.89
495.866	405.26
496.235	384.92
496.605	396.22
496.974	406.84
497.344	392.6
497.713	399.61
498.082	402.32
498.452	399.61
498.821	378.82
499.19	393.28
499.559	389.44
499.928	389.66
500.298	397.57
500.667	392.6
501.036	404.13
501.405	411.36
501.774	407.29
502.143	408.2
502.512	405.26
502.88	399.38
503.249	393.96
503.618	439.83
503.987	404.81
504.356	423.11
504.724	410.68
505.093	414.75
505.462	432.6
505.83	403.45
506.199	417.69
506.567	414.75
506.936	405.48
507.304	454.3
507.672	415.65
508.041	421.3
508.409	407.97
508.777	420.85
509.145	421.3
509.514	439.16
509.882	416.1
510.25	428.08
510.618	418.82
510.986	423.79
511.354	430.12
511.722	420.62
512.09	411.36
512.458	434.64
512.826	449.55
513.193	436.22
513.561	439.38
513.929	449.78
514.297	440.06
514.664	452.26
515.032	452.71
515.4	429.44
515.767	445.26
516.135	461.98
516.502	451.36
516.869	445.93
517.237	451.13
517.604	439.38
517.972	450.91
518.339	448.87
518.706	471.47
519.073	452.94
519.44	459.49
519.808	451.13
520.175	460.4
520.542	468.31
520.909	475.09
521.276	458.82
521.643	466.27
522.009	453.62
522.376	468.53
522.743	481.19
523.11	453.62
523.477	465.37
523.843	468.53
524.21	489.32
524.577	465.82
524.943	463.11
525.31	471.02
525.676	493.84
526.043	490.91
526.409	484.58
526.776	467.4
527.142	483
527.508	474.86
527.874	492.71
528.241	485.26
528.607	489.78
528.973	490.45
529.339	478.02
529.705	486.16
530.071	482.09
530.437	486.61
530.803	486.84
531.169	513.5
531.535	473.73
531.901	494.07
532.267	488.65
532.632	502.66
532.998	480.06
533.364	495.65
533.73	496.78
534.095	498.36
534.461	496.33
534.826	499.72
535.192	488.87
535.557	508.76
535.923	496.78
536.288	485.03
536.653	499.94
537.019	493.16
537.384	505.82
537.749	479.61
538.114	493.39
538.479	523.45
538.845	510.57
539.21	510.11
539.575	505.14
539.94	520.28
540.305	501.3
540.67	510.34
541.034	519.83
541.399	511.92
541.764	490.45
542.129	492.49
542.494	516.89
542.858	520.96
543.223	500.4
543.587	504.69
543.952	503.33
544.316	523.22
544.681	515.54
545.045	532.49
545.41	533.39
545.774	534.29
546.138	521.86
546.503	536.55
546.867	530.9
547.231	514.41
547.595	522.77
547.959	517.35
548.324	517.8
548.688	510.57
549.052	517.12
549.416	509.21
549.779	512.15
550.143	525.03
550.507	523.45
550.871	537.68
551.235	508.76
551.599	524.35
551.962	506.72
552.326	533.62
552.689	525.71
553.053	544.46
553.417	538.59
553.78	521.86
554.143	510.11
554.507	523.45
554.87	545.82
555.234	536.33
555.597	534.97
555.96	531.58
556.323	525.93
556.686	543.33
557.05	527.29
557.413	537.01
557.776	545.82
558.139	527.29
558.502	544.46
558.865	525.48
559.228	536.1
559.59	526.16
559.953	535.42
560.316	539.27
560.679	548.3
561.041	559.38
561.404	549.66
561.767	556.67
562.129	556.89
562.492	563.45
562.854	546.5
563.217	567.74
563.579	562.99
563.941	525.93
564.304	553.73
564.666	552.15
565.028	558.02
565.39	541.3
565.753	549.89
566.115	555.08
566.477	569.77
566.839	564.58
567.201	537.23
567.563	546.72
567.925	558.7
568.287	552.37
568.648	545.59
569.01	579.94
569.372	572.71
569.734	548.53
570.095	552.15
570.457	562.99
570.819	562.09
571.18	573.16
571.542	567.74
571.903	589.66
572.265	562.32
572.626	580.39
572.987	593.5
573.349	550.34
573.71	582.65
574.071	574.29
574.432	567.29
574.794	593.73
575.155	578.81
575.516	574.97
575.877	575.87
576.238	582.88
576.599	613.61
576.96	605.25
577.32	573.61
577.681	589.66
578.042	568.42
578.403	577.91
578.763	578.59
579.124	570.23
579.485	575.2
579.845	580.85
580.206	593.95
580.566	567.74
580.927	578.36
581.287	582.43
581.648	585.37
582.008	581.07
582.368	576.55
582.728	568.87
583.089	569.55
583.449	569.1
583.809	587.4
584.169	608.87
584.529	609.55
584.889	583.11
585.249	576.55
585.609	575.87
585.969	561.19
586.329	564.35
586.688	581.52
587.048	590.34
587.408	590.34
587.768	578.59
588.127	568.42
588.487	584.24
588.846	554.41
589.206	592.82
589.565	582.65
589.925	572.71
590.284	559.6
590.643	579.72
591.003	584.69
591.362	543.11
591.721	569.1
592.08	573.61
592.44	576.55
592.799	586.95
593.158	569.32
593.517	566.61
593.876	570.23
594.235	565.93
594.593	565.71
594.952	570.23
595.311	577.91
595.67	559.83
596.029	572.48
596.387	562.99
596.746	594.63
597.104	565.03
597.463	552.15
597.822	568.87
598.18	559.83
598.538	568.42
598.897	583.33
599.255	580.17
599.613	559.38
599.972	576.1
600.33	552.37
600.688	569.77
601.046	592.37
601.404	554.18
601.762	555.99
602.12	568.42
602.478	562.32
602.836	540.17
603.194	560.73
603.552	538.36
603.91	567.74
604.268	552.37
604.625	561.41
604.983	555.31
605.341	557.8
605.698	558.7
606.056	550.34
606.413	555.54
606.771	554.18
607.128	554.63
607.485	552.82
607.843	563.22
608.2	554.41
608.557	549.21
608.914	552.82
609.272	551.47
609.629	537.23
609.986	537.46
610.343	535.65
610.7	572.71
611.057	537.46
611.414	546.04
611.771	561.41
612.127	548.53
612.484	540.17
612.841	554.41
613.198	544.24
613.554	534.29
613.911	568.19
614.267	579.04
614.624	532.94
614.98	539.94
615.337	522.99
615.693	528.87
616.05	528.19
616.406	527.51
616.762	516.67
617.118	504.69
617.475	516.89
617.831	521.19
618.187	518.93
618.543	515.99
618.899	506.72
619.255	518.93
619.611	517.12
619.967	531.81
620.323	521.64
620.678	527.29
621.034	515.09
621.39	534.29
621.746	506.05
622.101	549.66
622.457	500.4
622.812	528.19
623.168	503.56
623.523	541.53
623.879	532.03
624.234	494.52
624.589	517.12
624.945	508.98
625.3	527.74
625.655	516.67
626.01	510.57
626.365	496.33
626.72	485.03
627.075	498.59
627.43	497.91
627.785	516.89
628.14	500.4
628.495	483
628.85	508.98
629.205	491.36
629.559	485.03
629.914	488.42
630.269	494.07
630.623	504.01
630.978	506.72
631.332	500.85
631.687	491.58
632.041	491.81
632.396	474.18
632.75	485.93
633.104	484.35
633.459	502.66
633.813	489.78
634.167	465.82
634.521	486.84
634.875	472.15
635.229	472.15
635.583	483.45
635.937	480.96
636.291	479.15
636.645	457.69
636.999	463.79
637.352	477.12
637.706	450.91
638.06	457.91
638.413	470.11
638.767	474.41
639.121	467.85
639.474	462.21
639.828	471.47
640.181	473.73
640.534	476.22
640.888	445.03
641.241	452.94
641.594	459.49
641.947	462.43
642.301	449.78
642.654	434.86
643.007	467.4
643.36	459.95
643.713	432.38
644.066	453.17
644.419	456.56
644.771	448.42
645.124	454.52
645.477	455.65
645.83	443
646.182	452.71
646.535	437.12
646.888	432.15
647.24	438.25
647.593	438.25
647.945	443
648.298	422.66
648.65	445.03
649.002	445.26
649.355	442.54
649.707	425.14
650.059	444.8
650.411	445.48
650.763	434.41
651.115	436.44
651.467	408.87
651.819	420.62
652.171	440.96
652.523	425.6
652.875	406.84
653.227	410.91
653.578	428.08
653.93	433.05
654.282	416.78
654.633	398.25
654.985	415.88
655.337	421.53
655.688	420.85
656.039	395.31
656.391	405.48
656.742	420.4
657.094	419.49
657.445	410
657.796	412.26
658.147	401.19
658.498	415.2
658.849	410.23
659.2	403.68
659.551	418.82
659.902	418.14
660.253	400.51
660.604	397.12
660.955	405.26
661.306	435.99
661.656	410.91
662.007	397.8
662.358	392.83
662.708	427.18
663.059	397.57
663.409	390.57
663.76	400.29
664.11	392.6
664.461	405.03
664.811	411.13
665.161	395.99
665.511	395.99
665.862	397.57
666.212	400.74
666.562	406.16
666.912	389.44
667.262	400.96
667.612	372.72
667.962	406.84
668.312	376.56
668.662	395.31
669.011	387.18
669.361	394.41
669.711	401.19
670.06	370.91
670.41	375.65
670.76	389.44
671.109	407.74
671.459	399.38
671.808	389.21
672.157	383.79
672.507	375.2
672.856	407.52
673.205	405.94
673.554	400.06
673.904	386.28
674.253	392.6
674.602	367.52
674.951	392.6
675.3	395.54
675.649	397.57
675.998	386.5
676.346	400.06
676.695	380.85
677.044	367.74
677.393	371.59
677.741	366.61
678.09	399.38
678.438	405.48
678.787	382.21
679.135	392.15
679.484	362.32
679.832	383.34
680.181	372.72
680.529	374.98
680.877	352.6
681.225	355.77
681.573	369.33
681.922	363.68
682.27	361.64
682.618	355.77
682.966	360.06
683.314	362.77
683.661	351.93
684.009	369.78
684.357	386.5
684.705	345.6
685.053	363.9
685.4	366.39
685.748	380.63
686.095	361.64
686.443	379.04
686.79	384.69
687.138	362.32
687.485	354.64
687.832	370.68
688.18	343.11
688.527	372.94
688.874	385.37
689.221	369.55
689.568	366.39
689.915	366.16
690.262	352.15
690.609	358.48
690.956	352.38
691.303	358.71
691.65	366.84
691.997	359.16
692.344	358.93
692.69	379.72
693.037	363.22
693.383	346.05
693.73	361.64
694.077	375.65
694.423	366.16
694.769	335.66
695.116	370.68
695.462	340.85
695.808	356.45
696.155	369.55
696.501	361.42
696.847	369.1
697.193	347.86
697.539	367.74
697.885	355.99
698.231	359.16
698.577	355.54
698.923	329.78
699.269	371.81
699.614	368.87
699.96	348.31
700.306	339.72
700.651	349.89
700.997	332.94
701.342	350.8
701.688	336.56
702.033	341.08
702.379	360.06
702.724	349.44
703.069	340.4
703.415	339.5
703.76	342.89
704.105	341.98
704.45	344.92
704.795	348.08
705.14	338.14
705.485	335.88
705.83	353.51
706.175	356.22
706.52	346.28
706.865	325.94
707.209	331.14
707.554	346.73
707.899	360.74
708.243	349.44
708.588	334.98
708.932	339.27
709.277	351.02
709.621	354.86
709.966	351.47
710.31	344.24
710.654	350.12
710.998	340.63
711.342	347.41
711.687	347.41
712.031	330.01
712.375	343.34
712.719	339.27
713.063	358.03
713.407	346.28
713.75	356.67
714.094	325.94
714.438	350.8
714.782	352.83
715.125	343.11
715.469	348.08
715.812	343.79
716.156	341.76
716.499	346.05
716.843	356.45
717.186	361.64
717.53	347.18
717.873	335.43
718.216	344.24
718.559	342.66
718.902	341.76
719.246	321.42
719.589	355.99
719.932	344.47
720.275	325.03
720.617	328.2
720.96	353.28
721.303	322.55
721.646	341.76
721.989	336.78
722.331	324.81
722.674	333.17
723.016	332.27
723.359	337.24
723.701	334.98
724.044	330.68
724.386	363.45
724.729	334.07
725.071	358.25
725.413	333.4
725.755	348.76
726.097	342.66
726.439	336.33
726.782	336.56
727.124	351.02
727.465	343.11
727.807	335.88
728.149	351.93
728.491	326.62
728.833	336.11
729.175	347.18
729.516	346.05
729.858	320.06
730.199	315.54
730.541	340.85
730.882	348.76
731.224	337.24
731.565	330.68
731.906	336.33
732.248	328.2
732.589	333.62
732.93	337.46
733.271	337.91
733.612	343.79
733.953	335.2
734.294	350.8
734.635	343.79
734.976	339.5
735.317	338.37
735.658	341.3
735.999	324.36
736.339	348.76
736.68	342.43
737.021	336.33
737.361	322.55
737.702	344.02
738.042	348.31
738.383	337.01
738.723	323.23
739.063	327.97
739.404	332.04
739.744	344.02
740.084	337.91
740.424	348.76
740.764	355.54
741.104	363.22
741.444	353.51
741.784	323.9
742.124	329.1
742.464	333.85
742.804	349.67
743.143	312.15
743.483	359.61
743.823	338.14
744.162	340.17
744.502	334.3
744.841	331.36
745.181	328.42
745.52	332.94
745.86	343.56
746.199	326.84
746.538	330.01
746.877	336.33
747.216	329.1
747.556	315.09
747.895	343.11
748.234	336.56
748.573	348.54
748.911	317.58
749.25	319.16
749.589	311.7
749.928	328.88
750.267	338.14
750.605	323
750.944	330.91
751.283	344.24
751.621	344.02
751.96	342.21
752.298	341.3
752.636	339.5
752.975	339.5
753.313	349.89
753.651	351.47
753.989	315.32
754.327	326.84
754.666	317.35
755.004	320.97
755.342	326.84
755.679	323
756.017	334.07
756.355	339.72
756.693	331.14
757.031	327.97
757.368	346.28
757.706	337.69
758.044	348.54
758.381	322.55
758.719	332.49
759.056	341.98
759.394	336.78
759.731	331.59
760.068	325.49
760.405	337.69
760.743	336.78
761.08	329.33
761.417	327.97
761.754	346.28
762.091	315.32
762.428	312.15
762.765	317.8
763.102	315.32
763.438	307.41
763.775	337.01
764.112	302.44
764.449	352.83
764.785	334.75
765.122	328.42
765.458	320.29
765.795	331.14
766.131	320.29
766.467	312.6
766.804	331.14
767.14	334.98
767.476	328.42
767.812	319.16
768.148	346.05
768.485	334.3
768.821	333.85
769.157	334.98
769.492	316.45
769.828	339.5
770.164	310.57
770.5	340.4
770.836	332.49
771.171	318.03
771.507	316.67
771.842	338.37
772.178	329.1
772.513	336.11
772.849	344.02
773.184	331.36
773.519	330.46
773.855	325.94
774.19	322.32
774.525	336.56
774.86	315.99
775.195	351.02
775.53	337.01
775.865	312.83
776.2	332.49
776.535	320.74
776.87	309.89
777.205	321.19
777.539	322.77
777.874	330.01
778.209	306.28
778.543	338.37
778.878	332.94
779.212	324.58
779.547	315.77
779.881	335.88
780.215	305.37
780.55	345.82
780.884	303.11
781.218	337.24
781.552	328.2
781.886	331.59
782.22	314.64
782.554	336.56
782.888	320.51
783.222	323.68
783.556	328.2
783.889	357.12
784.223	319.38
784.557	315.54
784.89	328.88
785.224	318.93
785.557	331.36
785.891	326.62
786.224	330.68
786.558	310.8
786.891	314.64
787.224	321.64
787.557	341.08
787.891	330.23
788.224	318.03
788.557	322.55
788.89	320.51
789.223	315.99
