Data from No_light_on_white_reflection_standard_FLMS001491_027.txt Node
Date: Tue Feb 07 10:32:57 GMT 2017
User: dcchb
Spectrometer: FLMS00149
Trigger mode: 0
Integration Time (sec): 2.000000E-2
Scans to average: 10
Electric dark correction enabled: true
Nonlinearity correction enabled: false
Boxcar width: 0
XAxis mode: Wavelengths
Number of Pixels in Spectrum: 2048
>>>>>Begin Spectral Data<<<<<
341.393	-43.18
341.776	-43.18
342.16	-43.18
342.543	-74.14
342.927	-79.56
343.31	-42.95
343.693	-63.97
344.077	-73.46
344.46	-59.67
344.843	-67.81
345.226	-45.44
345.61	-22.61
345.993	-15.61
346.376	-14.7
346.759	2.47
347.142	22.81
347.525	43.83
347.908	52.41
348.291	84.28
348.674	103.26
349.057	97.16
349.44	131.73
349.823	141.9
350.206	141.45
350.588	162.47
350.971	161.11
351.354	169.92
351.737	198.85
352.119	200.88
352.502	219.42
352.884	222.35
353.267	262.8
353.65	253.54
354.032	264.84
354.414	282.69
354.797	268.91
355.179	276.81
355.562	285.63
355.944	303.03
356.326	301.67
356.709	294.22
357.091	301.22
357.473	305.51
357.855	297.83
358.238	285.85
358.62	296.48
359.002	300.99
359.384	301.67
359.766	306.87
360.148	311.62
360.53	315.01
360.912	293.99
361.294	292.86
361.676	304.61
362.057	288.11
362.439	277.04
362.821	285.63
363.203	312.75
363.584	298.51
363.966	275.91
364.348	278.17
364.729	285.63
365.111	292.86
365.493	264.84
365.874	283.59
366.256	276.14
366.637	265.74
367.019	280.2
367.4	245.4
367.781	272.52
368.163	280.66
368.544	271.84
368.925	261.9
369.306	275.91
369.688	276.36
370.069	290.6
370.45	273.88
370.831	267.1
371.212	259.41
371.593	267.32
371.974	270.49
372.355	267.32
372.736	284.05
373.117	270.04
373.498	275.46
373.879	268.23
374.26	263.71
374.641	273.43
375.021	283.37
375.402	262.8
375.783	281.11
376.163	248.57
376.544	245.4
376.925	284.5
377.305	293.54
377.686	293.54
378.066	276.59
378.447	270.04
378.827	271.84
379.208	262.8
379.588	280.2
379.968	295.35
380.349	280.43
380.729	283.59
381.109	292.86
381.489	293.76
381.87	276.59
382.25	275.23
382.63	277.04
383.01	265.06
383.39	293.09
383.77	273.88
384.15	286.98
384.53	293.31
384.91	289.02
385.29	267.32
385.67	279.53
386.049	280.88
386.429	277.72
386.809	289.24
387.189	292.86
387.568	282.69
387.948	263.26
388.328	277.04
388.707	289.7
389.087	266.87
389.466	278.17
389.846	262.8
390.225	293.54
390.605	280.66
390.984	307.77
391.363	303.93
391.743	301.67
392.122	288.79
392.501	282.24
392.881	310.71
393.26	266.87
393.639	286.76
394.018	309.36
394.397	286.08
394.776	293.76
395.155	275.01
395.534	294.89
395.913	276.14
396.292	295.8
396.671	302.8
397.05	276.81
397.429	291.5
397.808	298.51
398.186	306.19
398.565	277.94
398.944	270.49
399.323	301.22
399.701	283.82
400.08	308.9
400.458	294.22
400.837	284.72
401.215	310.49
401.594	293.54
401.972	304.61
402.351	303.71
402.729	308.9
403.107	303.93
403.486	289.7
403.864	298.51
404.242	300.09
404.62	308.68
404.999	300.32
405.377	269.13
405.755	282.69
406.133	299.86
406.511	311.84
406.889	300.09
407.267	309.58
407.645	283.82
408.023	297.83
408.401	309.13
408.779	280.88
409.156	292.41
409.534	300.77
409.912	295.35
410.29	276.59
410.667	302.8
411.045	294.22
411.422	298.51
411.8	300.09
412.178	309.13
412.555	286.31
412.933	283.37
413.31	312.29
413.687	309.81
414.065	292.18
414.442	296.48
414.819	305.74
415.197	329.24
415.574	323.37
415.951	295.57
416.328	302.35
416.705	295.12
417.082	273.65
417.46	303.25
417.837	306.19
418.214	281.11
418.591	305.06
418.967	277.72
419.344	286.76
419.721	307.1
420.098	312.29
420.475	298.28
420.852	296.02
421.228	287.44
421.605	317.72
421.982	304.16
422.358	299.86
422.735	321.79
423.111	289.24
423.488	317.27
423.864	303.48
424.241	308.9
424.617	282.69
424.994	296.7
425.37	313.88
425.746	315.46
426.123	280.88
426.499	303.48
426.875	303.25
427.251	298.74
427.627	295.8
428.003	309.36
428.379	306.19
428.756	318.85
429.132	308.45
429.507	311.39
429.883	308.68
430.259	316.81
430.635	314.33
431.011	289.24
431.387	323.14
431.763	295.8
432.138	320.66
432.514	320.66
432.89	318.85
433.265	338.06
433.641	302.35
434.016	348.68
434.392	306.42
434.767	339.41
435.143	320.43
435.518	307.55
435.894	308.23
436.269	330.6
436.644	326.08
437.02	309.13
437.395	315.91
437.77	322.46
438.145	325.63
438.52	320.66
438.895	341.45
439.271	340.32
439.646	321.79
440.021	319.53
440.395	343.71
440.77	337.83
441.145	347.55
441.52	328.34
441.895	329.24
442.27	345.29
442.645	325.85
443.019	328.56
443.394	326.98
443.769	345.51
444.143	355.68
444.518	340.54
444.892	347.1
445.267	345.74
445.641	326.53
446.016	356.13
446.39	342.35
446.764	347.32
447.139	348
447.513	340.54
447.887	365.4
448.262	357.26
448.636	335.12
449.01	343.71
449.384	348.45
449.758	370.15
450.132	360.2
450.506	341.67
450.88	348.23
451.254	359.52
451.628	359.52
452.002	375.8
452.376	387.32
452.75	360.65
453.123	363.14
453.497	363.37
453.871	350.26
454.244	356.13
454.618	361.33
454.992	357.94
455.365	369.69
455.739	392.29
456.112	355.23
456.486	365.85
456.859	357.04
457.232	365.17
457.606	364.5
457.979	354.55
458.352	356.81
458.725	352.52
459.099	344.16
459.472	348.23
459.845	359.07
460.218	333.08
460.591	336.47
460.964	354.1
461.337	354.78
461.71	362.91
462.083	366.08
462.456	357.72
462.829	353.2
463.201	333.54
463.574	348.9
463.947	345.06
464.32	351.62
464.692	353.2
465.065	349.36
465.438	360.2
465.81	360.2
466.183	341.45
466.555	355
466.928	340.54
467.3	337.6
467.672	336.25
468.045	370.82
468.417	360.43
468.789	361.11
469.161	360.65
469.534	378.28
469.906	345.97
470.278	338.73
470.65	362.24
471.022	360.43
471.394	349.81
471.766	347.77
472.138	344.84
472.51	341.67
472.882	354.55
473.253	357.72
473.625	317.27
473.997	344.61
474.369	359.98
474.74	339.64
475.112	354.1
475.484	342.8
475.855	333.31
476.227	345.29
476.598	341.45
476.97	366.08
477.341	348.68
477.713	356.81
478.084	345.06
478.455	342.8
478.827	331.05
479.198	358.85
479.569	322.92
479.94	357.04
480.311	353.65
480.682	347.1
481.053	325.85
481.424	360.88
481.795	355.23
482.166	357.94
482.537	338.51
482.908	358.17
483.279	359.75
483.65	361.56
484.021	334.44
484.391	359.07
484.762	357.04
485.133	359.07
485.503	342.35
485.874	337.6
486.244	356.36
486.615	369.69
486.985	354.33
487.356	351.84
487.726	359.75
488.097	355.91
488.467	347.32
488.837	347.32
489.207	374.21
489.578	368.34
489.948	378.73
490.318	371.95
490.688	351.39
491.058	381.67
491.428	368.79
491.798	371.95
492.168	369.47
492.538	374.89
492.908	360.2
493.278	359.98
493.648	376.47
494.017	381.9
494.387	365.17
494.757	375.34
495.126	383.25
495.496	377.83
495.866	381.9
496.235	372.63
496.605	379.18
496.974	384.83
497.344	360.88
497.713	396.59
498.082	371.28
498.452	405.85
498.821	374.44
499.19	388
499.559	376.47
499.928	377.6
500.298	394.55
500.667	383.93
501.036	390.03
501.405	384.61
501.774	401.11
502.143	404.95
502.512	404.72
502.88	402.91
503.249	424.38
503.618	389.58
503.987	393.87
504.356	400.2
504.724	402.69
505.093	424.61
505.462	394.55
505.83	397.49
506.199	376.47
506.567	421.9
506.936	411.27
507.304	416.7
507.672	414.89
508.041	423.93
508.409	414.21
508.777	404.27
509.145	426.87
509.514	431.16
509.882	433.87
510.25	436.58
510.618	403.82
510.986	433.42
511.354	413.99
511.722	424.61
512.09	421.22
512.458	430.48
512.826	418.05
513.193	423.93
513.561	439.07
513.929	452.18
514.297	452.18
514.664	457.15
515.032	435
515.4	437.49
515.767	459.86
516.135	444.27
516.502	440.88
516.869	450.82
517.237	445.85
517.604	445.4
517.972	449.92
518.339	436.36
518.706	421.9
519.073	447.43
519.44	452.4
519.808	469.58
520.175	456.92
520.542	467.09
520.909	458.96
521.276	456.92
521.643	463.7
522.009	463.48
522.376	466.64
522.743	460.54
523.11	454.21
523.477	473.87
523.843	456.02
524.21	477.49
524.577	458.05
524.943	468.22
525.31	469.8
525.676	471.39
526.043	466.41
526.409	478.62
526.776	461.89
527.142	488.79
527.508	485.17
527.874	475.23
528.241	470.48
528.607	478.84
528.973	478.84
529.339	472.29
529.705	477.49
530.071	475.45
530.437	492.85
530.803	481.78
531.169	462.57
531.535	478.17
531.901	491.27
532.267	487.88
532.632	464.15
532.998	489.92
533.364	492.18
533.73	496.47
534.095	490.37
534.461	468.9
534.826	502.57
535.192	482.46
535.557	506.41
535.923	480.2
536.288	476.13
536.653	506.64
537.019	486.75
537.384	472.74
537.749	500.31
538.114	509.13
538.479	495.57
538.845	492.4
539.21	525.85
539.575	496.47
539.94	498.05
540.305	503.48
540.67	511.61
541.034	499.41
541.399	501.44
541.764	499.63
542.129	504.38
542.494	497.37
542.858	503.7
543.223	508.67
543.587	503.93
543.952	479.75
544.316	517.49
544.681	528.11
545.045	483.36
545.41	510.03
545.774	511.61
546.138	507.77
546.503	516.36
546.867	536.69
547.231	512.51
547.595	498.05
547.959	529.01
548.324	522.23
548.688	511.38
549.052	527.88
549.416	528.11
549.779	506.87
550.143	507.09
550.507	522.46
550.871	531.5
551.235	517.26
551.599	515
551.962	514.32
552.326	516.36
552.689	523.59
553.053	509.8
553.417	519.52
553.78	518.16
554.143	506.64
554.507	524.27
554.87	528.56
555.234	528.11
555.597	524.49
555.96	517.94
556.323	526.75
556.686	556.58
557.05	537.6
557.413	507.54
557.776	525.62
558.139	540.54
558.502	544.83
558.865	552.51
559.228	533.53
559.59	542.12
559.953	537.82
560.316	555.45
560.679	535.57
561.041	531.95
561.404	534.21
561.767	531.95
562.129	532.4
562.492	541.67
562.854	545.51
563.217	536.24
563.579	563.81
563.941	534.89
564.304	551.84
564.666	534.66
565.028	551.16
565.39	559.29
565.753	565.62
566.115	562.46
566.477	562.46
566.839	555.23
567.201	562
567.563	565.39
567.925	538.5
568.287	554.32
568.648	552.06
569.01	554.55
569.372	572.17
569.734	554.55
570.095	579.86
570.457	569.24
570.819	572.17
571.18	547.54
571.542	552.29
571.903	562
572.265	590.48
572.626	569.24
572.987	567.2
573.349	568.78
573.71	560.2
574.071	581.67
574.432	581.21
574.794	577.15
575.155	563.59
575.516	570.14
575.877	561.78
576.238	561.78
576.599	557.94
576.96	577.37
577.32	589.12
577.681	569.69
578.042	576.69
578.403	576.02
578.763	601.55
579.124	550.25
579.485	597.26
579.845	574.21
580.206	598.84
580.566	566.98
580.927	589.12
581.287	592.06
581.648	572.17
582.008	569.91
582.368	563.81
582.728	584.15
583.089	590.7
583.449	558.84
583.809	592.51
584.169	575.34
584.529	580.31
584.889	560.65
585.249	572.4
585.609	572.63
585.969	572.4
586.329	571.27
586.688	563.36
587.048	564.72
587.408	587.54
587.768	562
588.127	558.84
588.487	552.74
588.846	559.52
589.206	585.73
589.565	565.62
589.925	564.26
590.284	559.29
590.643	556.58
591.003	590.7
591.362	567.2
591.721	573.76
592.08	555
592.44	564.26
592.799	575.11
593.158	586.41
593.517	578.95
593.876	587.54
594.235	575.11
594.593	556.13
594.952	570.82
595.311	583.47
595.67	564.04
596.029	556.36
596.387	568.11
596.746	557.03
597.104	562
597.463	550.71
597.822	579.18
598.18	584.15
598.538	554.55
598.897	567.43
599.255	575.56
599.613	562.23
599.972	562.23
600.33	557.94
600.688	549.58
601.046	553.42
601.404	562
601.762	571.5
602.12	548.67
602.478	538.5
602.836	550.03
603.194	548.9
603.552	538.05
603.91	578.95
604.268	567.2
604.625	524.04
604.983	564.26
605.341	556.58
605.698	558.16
606.056	569.91
606.413	542.57
606.771	559.07
607.128	547.32
607.485	558.16
607.843	537.15
608.2	560.88
608.557	551.38
608.914	557.49
609.272	542.34
609.629	537.15
609.986	559.29
610.343	514.32
610.7	529.46
611.057	540.31
611.414	553.19
611.771	537.82
612.127	552.51
612.484	549.58
612.841	568.33
613.198	529.46
613.554	518.62
613.911	519.07
614.267	534.66
614.624	536.02
614.98	526.98
615.337	538.95
615.693	534.44
616.05	543.25
616.406	535.11
616.762	525.62
617.118	517.03
617.475	531.27
617.831	529.24
618.187	512.51
618.543	526.07
618.899	504.83
619.255	520.2
619.611	518.16
619.967	543.25
620.323	535.11
620.678	505.51
621.034	513.42
621.39	487.88
621.746	521.1
622.101	523.59
622.457	508.67
622.812	521.33
623.168	516.36
623.523	524.94
623.879	513.87
624.234	521.78
624.589	493.31
624.945	495.79
625.3	495.57
625.655	512.97
626.01	498.96
626.365	503.7
626.72	499.41
627.075	487.66
627.43	509.13
627.785	511.16
628.14	496.24
628.495	492.63
628.85	480.88
629.205	474.78
629.559	482.46
629.914	500.09
630.269	499.86
630.623	504.15
630.978	487.2
631.332	485.85
631.687	492.4
632.041	478.62
632.396	476.81
632.75	458.73
633.104	478.17
633.459	472.06
633.813	459.18
634.167	461.44
634.521	474.1
634.875	469.13
635.229	483.14
635.583	482.23
635.937	475
636.291	468.45
636.645	448.79
636.999	465.28
637.352	462.57
637.706	481.1
638.06	471.16
638.413	471.39
638.767	477.04
639.121	450.14
639.474	449.24
639.828	475
640.181	441.56
640.534	460.31
640.888	442.46
641.241	448.11
641.594	472.74
641.947	451.05
642.301	453.53
642.654	466.87
643.007	446.53
643.36	464.61
643.713	459.18
644.066	462.57
644.419	446.53
644.771	428.22
645.124	437.49
645.477	416.47
645.83	437.49
646.182	432.74
646.535	413.08
646.888	433.65
647.24	428.45
647.593	440.43
647.945	442.01
648.298	414.21
648.65	437.49
649.002	444.95
649.355	434.1
649.707	427.55
650.059	432.97
650.411	441.1
650.763	435.68
651.115	435.45
651.467	442.46
651.819	445.4
652.171	446.08
652.523	422.35
652.875	430.48
653.227	440.43
653.578	431.84
653.93	433.65
654.282	419.18
654.633	429.58
654.985	418.28
655.337	422.35
655.688	420.99
656.039	399.75
656.391	421.44
656.742	426.87
657.094	424.83
657.445	404.5
657.796	413.76
658.147	400.65
658.498	425.74
658.849	390.26
659.2	407.66
659.551	410.6
659.902	386.19
660.253	410.6
660.604	395
660.955	412.4
661.306	398.17
661.656	418.96
662.007	400.43
662.358	419.86
662.708	406.75
663.059	403.14
663.409	399.07
663.76	396.81
664.11	394.1
664.461	414.89
664.811	386.64
665.161	385.74
665.511	384.61
665.862	365.85
666.212	376.47
666.562	392.29
666.912	387.09
667.262	395.23
667.612	384.61
667.962	389.81
668.312	397.49
668.662	396.81
669.011	400.65
669.361	383.25
669.711	394.33
670.06	384.16
670.41	402.69
670.76	381.9
671.109	379.64
671.459	392.74
671.808	374.21
672.157	370.6
672.507	402.01
672.856	366.3
673.205	387.32
673.554	381.44
673.904	381.22
674.253	395.46
674.602	364.72
674.951	397.49
675.3	368.34
675.649	370.6
675.998	371.95
676.346	357.04
676.695	360.2
677.044	369.02
677.393	388
677.741	365.4
678.09	358.39
678.438	379.86
678.787	357.04
679.135	379.64
679.484	360.2
679.832	348.9
680.181	370.82
680.529	376.25
680.877	372.86
681.225	358.62
681.573	356.59
681.922	351.62
682.27	364.72
682.618	362.01
682.966	372.41
683.314	365.63
683.661	366.3
684.009	371.95
684.357	367.89
684.705	360.43
685.053	353.65
685.4	376.7
685.748	357.72
686.095	356.13
686.443	349.13
686.79	361.56
687.138	369.02
687.485	354.78
687.832	360.43
688.18	356.81
688.527	356.13
688.874	358.39
689.221	345.51
689.568	327.21
689.915	353.65
690.262	356.13
690.609	355.23
690.956	342.58
691.303	366.3
691.65	349.36
691.997	350.26
692.344	357.94
692.69	364.04
693.037	352.29
693.383	362.46
693.73	355.46
694.077	364.72
694.423	339.19
694.769	335.57
695.116	371.73
695.462	352.29
695.808	358.85
696.155	343.48
696.501	366.3
696.847	346.64
697.193	341.67
697.539	364.95
697.885	355.46
698.231	345.74
698.577	366.3
698.923	358.17
699.269	350.71
699.614	352.07
699.96	352.29
700.306	339.19
700.651	355.46
700.997	349.36
701.342	341.22
701.688	348.23
702.033	349.13
702.379	372.86
702.724	323.82
703.069	350.71
703.415	353.65
703.76	339.64
704.105	326.76
704.45	348
704.795	339.41
705.14	355.68
705.485	375.8
705.83	346.64
706.175	326.3
706.52	342.12
706.865	352.97
707.209	348.23
707.554	335.8
707.899	333.76
708.243	342.8
708.588	352.29
708.932	343.25
709.277	336.25
709.621	350.94
709.966	332.63
710.31	349.81
710.654	351.84
710.998	331.95
711.342	329.47
711.687	333.08
712.031	336.02
712.375	327.43
712.719	335.8
713.063	336.93
713.407	348.45
713.75	324.5
714.094	340.99
714.438	341.22
714.782	321.56
715.125	338.51
715.469	342.35
715.812	347.55
716.156	352.29
716.499	338.96
716.843	346.42
717.186	352.97
717.53	360.43
717.873	349.81
718.216	327.66
718.559	349.58
718.902	323.14
719.246	331.05
719.589	333.08
719.932	346.42
720.275	334.89
720.617	327.21
720.96	331.05
721.303	337.6
721.646	337.6
721.989	343.93
722.331	340.54
722.674	332.41
723.016	340.54
723.359	335.57
723.701	335.57
724.044	347.77
724.386	341.9
724.729	308
725.071	314.33
725.413	326.08
725.755	330.37
726.097	330.37
726.439	335.8
726.782	323.82
727.124	334.67
727.465	333.31
727.807	318.85
728.149	333.54
728.491	330.37
728.833	317.72
729.175	322.69
729.516	324.72
729.858	343.25
730.199	337.83
730.541	359.07
730.882	344.84
731.224	337.6
731.565	303.71
731.906	327.21
732.248	353.87
732.589	329.02
732.93	348
733.271	346.42
733.612	330.15
733.953	325.18
734.294	327.43
734.635	310.71
734.976	332.41
735.317	319.98
735.658	361.33
735.999	331.95
736.339	340.54
736.68	349.36
737.021	334.67
737.361	332.86
737.702	330.15
738.042	336.7
738.383	313.88
738.723	354.55
739.063	335.57
739.404	336.7
739.744	328.56
740.084	348.9
740.424	329.92
740.764	322.92
741.104	329.24
741.444	335.12
741.784	319.98
742.124	325.85
742.464	341.67
742.804	316.59
743.143	315.91
743.483	338.96
743.823	346.42
744.162	344.61
744.502	356.13
744.841	308.23
745.181	337.38
745.52	323.37
745.86	352.07
746.199	333.54
746.538	345.06
746.877	321.56
747.216	310.71
747.556	328.79
747.895	322.24
748.234	322.46
748.573	322.01
748.911	337.38
749.25	314.78
749.589	330.15
749.928	335.12
750.267	308.45
750.605	334.89
750.944	298.28
751.283	310.94
751.621	331.95
751.96	338.96
752.298	354.55
752.636	331.28
752.975	325.63
753.313	326.3
753.651	318.85
753.989	322.24
754.327	338.28
754.666	343.25
755.004	308.68
755.342	325.18
755.679	339.86
756.017	336.25
756.355	342.35
756.693	340.32
757.031	334.44
757.368	335.8
757.706	324.05
758.044	311.62
758.381	336.47
758.719	333.31
759.056	322.92
759.394	334.89
759.731	306.64
760.068	348.68
760.405	322.92
760.743	320.66
761.08	312.97
761.417	335.12
761.754	319.3
762.091	324.5
762.428	311.39
762.765	319.98
763.102	316.14
763.438	300.09
763.775	324.95
764.112	315.01
764.449	309.13
764.785	340.99
765.122	328.11
765.458	329.69
765.795	323.37
766.131	307.1
766.467	305.06
766.804	315.68
767.14	331.28
767.476	336.25
767.812	321.56
768.148	341.22
768.485	340.32
768.821	313.2
769.157	315.91
769.492	324.72
769.828	315.68
770.164	311.16
770.5	330.15
770.836	302.35
771.171	299.19
771.507	304.38
771.842	315.91
772.178	298.96
772.513	322.24
772.849	315.23
773.184	306.87
773.519	317.04
773.855	331.05
774.19	291.05
774.525	341.45
774.86	325.85
775.195	321.79
775.53	352.07
775.865	328.56
776.2	327.43
776.535	319.53
776.87	316.59
777.205	344.61
777.539	320.2
777.874	332.18
778.209	323.37
778.543	309.81
778.878	313.65
779.212	318.62
779.547	337.83
779.881	342.8
780.215	341.45
780.55	327.43
780.884	326.53
781.218	315.91
781.552	317.72
781.886	325.4
782.22	308
782.554	325.4
782.888	314.78
783.222	307.77
783.556	322.92
783.889	338.96
784.223	310.71
784.557	323.59
784.89	331.05
785.224	310.26
785.557	329.47
785.891	306.87
786.224	335.34
786.558	318.4
786.891	311.84
787.224	338.28
787.557	317.94
787.891	319.98
788.224	305.97
788.557	304.84
788.89	334.21
789.223	331.05
789.556	319.3
789.888	324.95
790.221	310.26
