Data from No_light_on_white_reflection_standard_FLMS001491_011.txt Node
Date: Tue Feb 07 10:32:54 GMT 2017
User: dcchb
Spectrometer: FLMS00149
Trigger mode: 0
Integration Time (sec): 2.000000E-2
Scans to average: 10
Electric dark correction enabled: true
Nonlinearity correction enabled: false
Boxcar width: 0
XAxis mode: Wavelengths
Number of Pixels in Spectrum: 2048
>>>>>Begin Spectral Data<<<<<
341.393	-14.76
341.776	-14.76
342.16	-14.76
342.543	-63.12
342.927	-56.79
343.31	-60.18
343.693	-66.74
344.077	-61.09
344.46	-69.45
344.843	-63.12
345.226	-33.74
345.61	-43.46
345.993	-23.8
346.376	1.74
346.759	9.65
347.142	28.86
347.525	42.64
347.908	53.26
348.291	71.57
348.674	119.02
349.057	94.84
349.44	123.32
349.823	131.9
350.206	155.41
350.588	155.63
350.971	181.62
351.354	178.91
351.737	209.87
352.119	215.97
352.502	245.57
352.884	251
353.267	237.21
353.65	264.1
354.032	262.75
354.414	268.85
354.797	264.56
355.179	296.19
355.562	295.74
355.944	302.07
356.326	292.13
356.709	308.85
357.091	303.65
357.473	279.7
357.855	308.4
358.238	311.11
358.62	309.98
359.002	316.98
359.384	301.84
359.766	308.62
360.148	299.58
360.53	323.99
360.912	293.03
361.294	285.57
361.676	288.74
362.057	303.65
362.439	299.58
362.821	293.71
363.203	280.6
363.584	284.22
363.966	293.48
364.348	290.54
364.729	284.67
365.111	294.16
365.493	282.18
365.874	277.66
366.256	291.9
366.637	293.93
367.019	282.86
367.4	281.96
367.781	269.98
368.163	275.18
368.544	267.72
368.925	278.79
369.306	279.02
369.688	257.55
370.069	264.78
370.45	258.68
370.831	254.39
371.212	286.93
371.593	291
371.974	275.63
372.355	257.78
372.736	286.02
373.117	254.84
373.498	259.58
373.879	269.98
374.26	267.72
374.641	256.19
375.021	277.44
375.402	279.47
375.783	277.89
376.163	276.53
376.544	272.46
376.925	279.47
377.305	269.07
377.686	279.92
378.066	275.4
378.447	281.05
378.827	290.54
379.208	287.38
379.588	281.5
379.968	287.61
380.349	270.2
380.729	284.89
381.109	262.52
381.489	282.41
381.87	288.28
382.25	280.83
382.63	272.24
383.01	287.15
383.39	268.62
383.77	295.51
384.15	286.48
384.53	281.96
384.91	297.1
385.29	277.21
385.67	283.54
386.049	280.37
386.429	284.67
386.809	284.44
387.189	286.25
387.568	291.22
387.948	274.72
388.328	278.57
388.707	285.57
389.087	302.52
389.466	280.37
389.846	300.03
390.225	300.71
390.605	272.24
390.984	298.45
391.363	279.02
391.743	283.31
392.122	297.55
392.501	294.38
392.881	287.15
393.26	288.06
393.639	283.54
394.018	286.7
394.397	325.34
394.776	306.59
395.155	305.46
395.534	295.06
395.913	313.37
396.292	282.63
396.671	300.03
397.05	294.84
397.429	288.06
397.808	299.58
398.186	286.48
398.565	290.09
398.944	302.29
399.323	293.03
399.701	309.53
400.08	288.06
400.458	270.2
400.837	293.71
401.215	321.5
401.594	295.97
401.972	296.87
402.351	300.49
402.729	314.27
403.107	299.13
403.486	295.74
403.864	294.61
404.242	284.22
404.62	282.63
404.999	295.06
405.377	284.67
405.755	309.98
406.133	280.6
406.511	298
406.889	304.78
407.267	317.21
407.645	312.92
408.023	309.07
408.401	306.14
408.779	308.4
409.156	318.11
409.534	311.79
409.912	317.66
410.29	297.32
410.667	318.79
411.045	291.67
411.422	304.1
411.8	295.74
412.178	302.07
412.555	300.94
412.933	308.17
413.31	310.43
413.687	298.68
414.065	335.06
414.442	326.25
414.819	307.49
415.197	297.55
415.574	313.14
415.951	316.31
416.328	297.55
416.705	302.52
417.082	288.74
417.46	290.54
417.837	296.64
418.214	308.85
418.591	308.17
418.967	302.52
419.344	303.42
419.721	291.9
420.098	302.29
420.475	320.82
420.852	316.31
421.228	304.78
421.605	302.97
421.982	303.65
422.358	314.72
422.735	296.42
423.111	293.03
423.488	307.72
423.864	306.81
424.241	303.42
424.617	309.53
424.994	318.79
425.37	316.31
425.746	321.5
426.123	305.46
426.499	309.75
426.875	304.55
427.251	314.05
427.627	292.8
428.003	298.23
428.379	294.38
428.756	307.94
429.132	295.06
429.507	345.01
429.883	342.75
430.259	309.07
430.635	314.95
431.011	323.31
431.387	300.71
431.763	321.95
432.138	306.36
432.514	328.51
432.89	306.36
433.265	337.32
433.641	333.71
434.016	333.25
434.392	339.13
434.767	300.26
435.143	316.08
435.518	336.64
435.894	305.68
436.269	313.59
436.644	325.57
437.02	312.46
437.395	333.03
437.77	328.51
438.145	337.1
438.52	340.71
438.895	325.12
439.271	323.99
439.646	337.32
440.021	318.34
440.395	331.9
440.77	335.97
441.145	337.32
441.52	342.29
441.895	344.55
442.27	322.41
442.645	338
443.019	342.97
443.394	330.77
443.769	361.28
444.143	356.53
444.518	359.02
444.892	344.1
445.267	341.62
445.641	353.37
446.016	351.78
446.39	367.6
446.764	363.76
447.139	358.56
447.513	377.77
447.887	349.07
448.262	353.82
448.636	363.54
449.01	372.35
449.384	361.95
449.758	333.93
450.132	356.53
450.506	379.58
450.88	368.06
451.254	382.52
451.628	354.04
452.002	385.23
452.376	357.89
452.75	361.73
453.123	371.9
453.497	358.79
453.871	353.59
454.244	390.43
454.618	357.21
454.992	383.65
455.365	358.34
455.739	363.08
456.112	362.18
456.486	369.86
456.859	379.81
457.232	341.39
457.606	348.39
457.979	347.26
458.352	367.83
458.725	373.7
459.099	373.03
459.472	336.87
459.845	351.78
460.218	358.79
460.591	354.95
460.964	360.15
461.337	346.36
461.71	361.95
462.083	366.02
462.456	356.08
462.829	381.61
463.201	360.37
463.574	340.71
463.947	363.31
464.32	366.7
464.692	350.88
465.065	345.68
465.438	350.2
465.81	372.12
466.183	357.43
466.555	347.26
466.928	365.57
467.3	344.78
467.672	330.54
468.045	322.86
468.417	359.92
468.789	348.85
469.161	338.68
469.534	364.89
469.906	365.8
470.278	341.16
470.65	341.39
471.022	367.15
471.394	365.8
471.766	349.3
472.138	338.68
472.51	360.15
472.882	348.17
473.253	363.76
473.625	344.55
473.997	369.19
474.369	366.47
474.74	356.3
475.112	353.14
475.484	333.03
475.855	352.91
476.227	343.2
476.598	355.4
476.97	346.36
477.341	350.2
477.713	351.11
478.084	352.24
478.455	340.49
478.827	352.91
479.198	359.69
479.569	365.8
479.94	351.33
480.311	361.05
480.682	346.81
481.053	343.2
481.424	352.24
481.795	361.73
482.166	343.2
482.537	347.04
482.908	367.38
483.279	367.15
483.65	377.32
484.021	347.72
484.391	351.56
484.762	370.77
485.133	373.93
485.503	354.04
485.874	381.16
486.244	347.49
486.615	363.54
486.985	367.83
487.356	355.4
487.726	375.06
488.097	356.76
488.467	358.79
488.837	354.72
489.207	372.35
489.578	361.73
489.948	365.57
490.318	371.9
490.688	373.93
491.058	363.08
491.428	368.73
491.798	383.2
492.168	367.15
492.538	362.63
492.908	376.19
493.278	388.62
493.648	380.71
494.017	401.73
494.387	363.54
494.757	366.02
495.126	361.73
495.496	361.73
495.866	377.09
496.235	404.66
496.605	373.48
496.974	373.25
497.344	394.72
497.713	381.16
498.082	391.33
498.452	396.76
498.821	381.39
499.19	393.82
499.559	390.88
499.928	378
500.298	382.74
500.667	380.71
501.036	398.34
501.405	396.53
501.774	405.79
502.143	382.97
502.512	405.57
502.88	398.34
503.249	398.34
503.618	417.09
503.987	419.13
504.356	403.99
504.724	398.11
505.093	405.12
505.462	404.44
505.83	415.74
506.199	405.34
506.567	398.79
506.936	406.92
507.304	424.55
507.672	422.97
508.041	417.77
508.409	417.77
508.777	426.81
509.145	420.71
509.514	413.25
509.882	428.62
510.25	421.61
510.618	412.57
510.986	420.94
511.354	450.09
511.722	455.28
512.09	416.64
512.458	426.81
512.826	427.04
513.193	454.61
513.561	436.53
513.929	433.82
514.297	449.86
514.664	440.37
515.032	444.89
515.4	464.78
515.767	450.76
516.135	456.41
516.502	464.55
516.869	439.01
517.237	434.49
517.604	441.95
517.972	453.25
518.339	450.99
518.706	458.9
519.073	466.36
519.44	481.72
519.808	469.3
520.175	470.65
520.542	445.79
520.909	455.74
521.276	469.52
521.643	460.26
522.009	465.45
522.376	495.51
522.743	479.24
523.11	461.16
523.477	458.67
523.843	459.58
524.21	458.45
524.577	460.71
524.943	470.43
525.31	476.08
525.676	463.19
526.043	487.83
526.409	481.95
526.776	468.39
527.142	475.4
527.508	486.24
527.874	479.92
528.241	496.41
528.607	467.49
528.973	483.98
529.339	481.05
529.705	509.75
530.071	473.36
530.437	492.8
530.803	492.57
531.169	507.71
531.535	490.54
531.901	493.25
532.267	495.28
532.632	500.03
532.998	494.83
533.364	493.02
533.73	498.22
534.095	506.36
534.461	494.38
534.826	498.22
535.192	490.09
535.557	503.64
535.923	486.02
536.288	499.13
536.653	497.77
537.019	502.52
537.384	496.64
537.749	506.36
538.114	492.8
538.479	514.27
538.845	489.41
539.21	507.94
539.575	511.55
539.94	493.7
540.305	513.14
540.67	497.09
541.034	499.13
541.399	495.74
541.764	514.27
542.129	507.26
542.494	523.31
542.858	510.65
543.223	516.07
543.587	528.05
543.952	522.85
544.316	515.62
544.681	526.92
545.045	540.71
545.41	501.39
545.774	512.91
546.138	501.39
546.503	505.23
546.867	538.9
547.231	534.38
547.595	521.05
547.959	523.08
548.324	503.64
548.688	507.03
549.052	540.03
549.416	525.34
549.779	519.24
550.143	518.79
550.507	502.06
550.871	525.57
551.235	532.57
551.599	507.26
551.962	540.03
552.326	525.11
552.689	554.72
553.053	544.77
553.417	534.38
553.78	564.89
554.143	539.12
554.507	523.08
554.87	547.49
555.234	524.66
555.597	522.85
555.96	530.08
556.323	557.2
556.686	535.51
557.05	545.68
557.413	545
557.776	541.84
558.139	538.67
558.502	543.87
558.865	553.14
559.228	540.25
559.59	552.46
559.953	544.55
560.316	541.16
560.679	554.04
561.041	547.03
561.404	540.71
561.767	568.28
562.129	540.71
562.492	551.33
562.854	543.87
563.217	553.59
563.579	557.88
563.941	567.82
564.304	560.37
564.666	553.14
565.028	553.81
565.39	565.79
565.753	568.05
566.115	550.65
566.477	554.72
566.839	564.43
567.201	585.45
567.563	572.12
567.925	565.79
568.287	584.32
568.648	565.56
569.01	571.44
569.372	566.24
569.734	580.48
570.095	562.63
570.457	566.92
570.819	606.02
571.18	554.27
571.542	580.48
571.903	573.47
572.265	565.34
572.626	580.93
572.987	585.22
573.349	569.86
573.71	565.79
574.071	577.54
574.432	604.43
574.794	578.9
575.155	575.73
575.516	582.29
575.877	592
576.238	581.83
576.599	588.16
576.96	574.15
577.32	585.68
577.681	576.64
578.042	593.59
578.403	583.19
578.763	585.9
579.124	594.49
579.485	565.34
579.845	576.64
580.206	593.59
580.566	576.64
580.927	567.6
581.287	585.22
581.648	585.9
582.008	574.38
582.368	577.77
582.728	584.77
583.089	564.89
583.449	572.12
583.809	602.85
584.169	576.41
584.529	582.96
584.889	588.61
585.249	584.09
585.609	594.94
585.969	573.02
586.329	596.75
586.688	582.29
587.048	596.98
587.408	572.8
587.768	579.12
588.127	575.73
588.487	559.01
588.846	609.18
589.206	590.87
589.565	571.89
589.925	577.09
590.284	557.43
590.643	580.48
591.003	592.46
591.362	575.51
591.721	580.25
592.08	579.12
592.44	571.67
592.799	561.04
593.158	596.98
593.517	586.81
593.876	572.8
594.235	584.32
594.593	577.99
594.952	562.63
595.311	538.22
595.67	582.96
596.029	543.64
596.387	549.29
596.746	573.7
597.104	579.58
597.463	588.16
597.822	580.71
598.18	576.64
598.538	562.63
598.897	554.04
599.255	577.09
599.613	590.42
599.972	554.72
600.33	572.34
600.688	574.6
601.046	552.91
601.404	561.04
601.762	555.4
602.12	571.21
602.478	586.81
602.836	581.83
603.194	567.15
603.552	567.15
603.91	587.03
604.268	574.6
604.625	586.81
604.983	581.83
605.341	560.37
605.698	566.02
606.056	571.44
606.413	569.63
606.771	549.97
607.128	562.63
607.485	542.06
607.843	561.04
608.2	556.07
608.557	551.33
608.914	566.69
609.272	558.11
609.629	561.95
609.986	540.71
610.343	558.56
610.7	539.35
611.057	522.4
611.414	546.13
611.771	546.13
612.127	550.65
612.484	554.72
612.841	534.83
613.198	520.82
613.554	532.8
613.911	533.25
614.267	547.94
614.624	521.72
614.98	548.39
615.337	533.7
615.693	533.47
616.05	517.2
616.406	547.94
616.762	550.2
617.118	537.54
617.475	533.93
617.831	564.21
618.187	528.73
618.543	519.24
618.899	533.47
619.255	523.08
619.611	512.46
619.967	514.49
620.323	531.89
620.678	508.84
621.034	521.95
621.39	533.93
621.746	528.05
622.101	521.05
622.457	513.59
622.812	517.66
623.168	499.58
623.523	520.14
623.879	520.59
624.234	521.72
624.589	512.91
624.945	492.57
625.3	504.32
625.655	508.84
626.01	531.67
626.365	520.82
626.72	510.65
627.075	511.33
627.43	495.74
627.785	488.05
628.14	508.62
628.495	509.75
628.85	490.99
629.205	505.9
629.559	510.42
629.914	511.1
630.269	525.11
630.623	494.38
630.978	488.28
631.332	516.3
631.687	499.58
632.041	509.75
632.396	493.02
632.75	483.53
633.104	500.48
633.459	464.1
633.813	482.85
634.167	479.69
634.521	466.81
634.875	489.41
635.229	477.43
635.583	478.56
635.937	488.96
636.291	475.4
636.645	470.65
636.999	469.97
637.352	482.4
637.706	472.91
638.06	463.42
638.413	470.2
638.767	467.94
639.121	472.91
639.474	467.94
639.828	458.45
640.181	458.45
640.534	470.2
640.888	453.48
641.241	459.58
641.594	461.61
641.947	448.28
642.301	455.06
642.654	476.53
643.007	466.81
643.36	447.38
643.713	466.81
644.066	427.26
644.419	440.37
644.771	441.95
645.124	429.52
645.477	437.88
645.83	431.33
646.182	415.29
646.535	430.2
646.888	444.21
647.24	439.24
647.593	453.25
647.945	426.58
648.298	438.79
648.65	442.4
649.002	427.26
649.355	430.65
649.707	425.45
650.059	436.08
650.411	428.84
650.763	442.86
651.115	415.74
651.467	443.53
651.819	441.27
652.171	464.78
652.523	431.56
652.875	429.3
653.227	443.53
653.578	436.3
653.93	417.32
654.282	431.56
654.633	425.91
654.985	428.84
655.337	414.38
655.688	442.4
656.039	427.49
656.391	426.13
656.742	430.88
657.094	397.66
657.445	409.64
657.796	414.61
658.147	416.19
658.498	429.52
658.849	418.9
659.2	420.48
659.551	423.2
659.902	430.88
660.253	422.29
660.604	427.26
660.955	399.92
661.306	410.54
661.656	410.09
662.007	417.77
662.358	398.56
662.708	421.84
663.059	395.4
663.409	427.26
663.76	412.12
664.11	407.15
664.461	393.82
664.811	391.78
665.161	403.76
665.511	402.18
665.862	387.72
666.212	399.01
666.562	396.98
666.912	394.72
667.262	400.82
667.612	404.66
667.962	376.42
668.312	389.98
668.662	391.11
669.011	411.67
669.361	395.85
669.711	377.09
670.06	387.04
670.41	401.27
670.76	375.74
671.109	385.68
671.459	382.52
671.808	384.55
672.157	387.72
672.507	388.62
672.856	387.49
673.205	377.09
673.554	385.46
673.904	385.68
674.253	395.63
674.602	392.01
674.951	351.56
675.3	381.39
675.649	385.23
675.998	373.7
676.346	384.55
676.695	366.02
677.044	370.54
677.393	379.58
677.741	369.41
678.09	380.03
678.438	372.35
678.787	397.21
679.135	368.96
679.484	362.63
679.832	387.04
680.181	373.48
680.529	374.83
680.877	359.02
681.225	366.93
681.573	364.21
681.922	370.99
682.27	369.41
682.618	344.55
682.966	364.89
683.314	370.99
683.661	364.67
684.009	353.37
684.357	350.43
684.705	360.6
685.053	375.51
685.4	373.03
685.748	364.21
686.095	359.69
686.443	363.08
686.79	349.07
687.138	368.06
687.485	376.19
687.832	351.11
688.18	361.5
688.527	371.45
688.874	370.32
689.221	366.25
689.568	362.63
689.915	378.45
690.262	359.92
690.609	362.18
690.956	350.88
691.303	351.78
691.65	364.89
691.997	368.06
692.344	344.33
692.69	339.36
693.037	363.31
693.383	352.46
693.73	371.9
694.077	354.27
694.423	355.4
694.769	357.21
695.116	361.95
695.462	363.99
695.808	361.73
696.155	363.99
696.501	346.36
696.847	359.47
697.193	340.94
697.539	341.16
697.885	357.43
698.231	346.13
698.577	357.43
698.923	365.57
699.269	372.8
699.614	352.91
699.96	358.11
700.306	353.14
700.651	363.54
700.997	341.16
701.342	356.08
701.688	357.43
702.033	337.77
702.379	340.49
702.724	353.82
703.069	345.23
703.415	342.07
703.76	344.55
704.105	372.8
704.45	375.96
704.795	350.65
705.14	340.03
705.485	355.4
705.83	344.55
706.175	347.49
706.52	352.46
706.865	365.12
707.209	340.71
707.554	340.49
707.899	339.58
708.243	322.41
708.588	350.43
708.932	354.04
709.277	341.39
709.621	353.59
709.966	354.95
710.31	349.3
710.654	319.24
710.998	341.39
711.342	353.14
711.687	352.46
712.031	347.49
712.375	332.8
712.719	331.45
713.063	330.09
713.407	355.85
713.75	358.56
714.094	354.04
714.438	345.01
714.782	346.13
715.125	327.83
715.469	347.26
715.812	345.91
716.156	335.74
716.499	349.75
716.843	335.74
717.186	336.19
717.53	351.56
717.873	337.77
718.216	335.29
718.559	330.32
718.902	323.76
719.246	320.6
719.589	337.32
719.932	333.48
720.275	362.63
720.617	349.07
720.96	332.58
721.303	316.76
721.646	342.97
721.989	347.49
722.331	353.59
722.674	339.81
723.016	366.02
723.359	336.87
723.701	334.61
724.044	308.85
724.386	356.3
724.729	342.97
725.071	322.18
725.413	348.62
725.755	345.23
726.097	347.94
726.439	354.72
726.782	318.34
727.124	330.09
727.465	319.24
727.807	329.41
728.149	338
728.491	328.51
728.833	351.78
729.175	320.6
729.516	312.69
729.858	332.8
730.199	344.78
730.541	328.06
730.882	340.26
731.224	339.58
731.565	351.33
731.906	346.59
732.248	325.12
732.589	320.15
732.93	316.76
733.271	355.17
733.612	333.93
733.953	336.87
734.294	338.23
734.635	340.94
734.976	325.12
735.317	341.39
735.658	323.31
735.999	320.15
736.339	344.55
736.68	342.75
737.021	342.97
737.361	336.64
737.702	340.03
738.042	344.33
738.383	328.73
738.723	332.8
739.063	340.94
739.404	335.29
739.744	341.16
740.084	330.32
740.424	326.25
740.764	345.01
741.104	332.8
741.444	319.69
741.784	335.06
742.124	343.2
742.464	328.51
742.804	336.64
743.143	316.76
743.483	299.58
743.823	323.08
744.162	328.51
744.502	329.64
744.841	323.76
745.181	346.59
745.52	336.64
745.86	349.52
746.199	342.07
746.538	336.87
746.877	327.38
747.216	352.24
747.556	349.07
747.895	329.41
748.234	338.23
748.573	315.18
748.911	346.81
749.25	341.62
749.589	325.34
749.928	339.58
750.267	342.29
750.605	321.5
750.944	327.15
751.283	327.15
751.621	342.07
751.96	344.1
752.298	346.36
752.636	343.42
752.975	333.71
753.313	332.58
753.651	331.67
753.989	352.24
754.327	345.68
754.666	344.1
755.004	337.55
755.342	328.73
755.679	322.63
756.017	324.89
756.355	341.39
756.693	324.67
757.031	315.63
757.368	323.99
757.706	335.06
758.044	310.2
758.381	329.64
758.719	316.53
759.056	330.09
759.394	338.68
759.731	326.93
760.068	333.93
760.405	316.76
760.743	344.1
761.08	335.74
761.417	306.81
761.754	333.48
762.091	328.73
762.428	325.12
762.765	345.46
763.102	317.44
763.438	320.37
763.775	323.99
764.112	327.38
764.449	330.54
764.785	315.63
765.122	338
765.458	349.75
765.795	323.31
766.131	326.25
766.467	326.7
766.804	322.63
767.14	337.55
767.476	316.08
767.812	324.67
768.148	329.41
768.485	331.22
768.821	333.93
769.157	313.82
769.492	343.65
769.828	335.06
770.164	333.71
770.5	343.88
770.836	315.18
771.171	330.99
771.507	312.69
771.842	325.12
772.178	337.77
772.513	333.71
772.849	321.05
773.184	334.84
773.519	325.34
773.855	332.58
774.19	349.98
774.525	344.78
774.86	336.87
775.195	342.75
775.53	333.48
775.865	332.35
776.2	332.8
776.535	341.84
776.87	306.14
777.205	337.32
777.539	328.51
777.874	310.66
778.209	328.51
778.543	364.21
778.878	317.66
779.212	323.99
779.547	318.57
779.881	334.16
780.215	323.54
780.55	330.09
780.884	325.12
781.218	338.68
781.552	316.98
781.886	342.52
782.22	341.84
782.554	338.45
782.888	329.41
783.222	328.51
783.556	327.15
783.889	326.02
784.223	330.77
784.557	323.54
784.89	323.31
785.224	329.41
785.557	308.4
785.891	307.27
786.224	330.99
786.558	328.96
786.891	315.85
787.224	330.54
787.557	307.27
787.891	320.6
788.224	337.1
788.557	321.5
788.89	329.86
