Data from No_light_on_white_reflection_standard_FLMS001491_032.txt Node
Date: Tue Feb 07 10:32:58 GMT 2017
User: dcchb
Spectrometer: FLMS00149
Trigger mode: 0
Integration Time (sec): 2.000000E-2
Scans to average: 10
Electric dark correction enabled: true
Nonlinearity correction enabled: false
Boxcar width: 0
XAxis mode: Wavelengths
Number of Pixels in Spectrum: 2048
>>>>>Begin Spectral Data<<<<<
341.393	-29.21
341.776	-29.21
342.16	-29.21
342.543	-61.52
342.927	-68.3
343.31	-61.98
343.693	-57.68
344.077	-61.07
344.46	-61.3
344.843	-52.26
345.226	-42.09
345.61	-35.08
345.993	-19.04
346.376	-11.36
346.759	20.28
347.142	27.51
347.525	34.74
347.908	47.63
348.291	46.27
348.674	112.93
349.057	112.48
349.44	119.26
349.823	137.34
350.206	152.26
350.588	160.39
350.971	183.22
351.354	169.43
351.737	196.55
352.119	208.53
352.502	225.47
352.884	242.87
353.267	249.88
353.65	258.92
354.032	286.94
354.414	274.96
354.797	276.09
355.179	292.59
355.562	282.87
355.944	291.46
356.326	301.63
356.709	309.31
357.091	300.5
357.473	313.38
357.855	286.26
358.238	309.54
358.62	317.68
359.002	298.24
359.384	312.48
359.766	302.76
360.148	306.38
360.53	314.96
360.912	295.08
361.294	311.12
361.676	311.57
362.057	277
362.439	288.98
362.821	307.96
363.203	301.86
363.584	283.1
363.966	302.08
364.348	283.33
364.729	307.73
365.111	298.92
365.493	293.27
365.874	267.96
366.256	295.98
366.637	271.12
367.019	287.17
367.4	288.07
367.781	278.58
368.163	275.19
368.544	272.48
368.925	277.68
369.306	284.68
369.688	269.54
370.069	281.29
370.45	285.59
370.831	275.64
371.212	256.21
371.593	278.81
371.974	273.38
372.355	276.55
372.736	277
373.117	290.78
373.498	297.34
373.879	264.8
374.26	272.03
374.641	262.76
375.021	268.41
375.402	272.25
375.783	281.29
376.163	273.16
376.544	275.87
376.925	287.62
377.305	284.23
377.686	271.57
378.066	272.25
378.447	278.35
378.827	291.91
379.208	285.81
379.588	289.88
379.968	278.35
380.349	301.86
380.729	269.77
381.109	267.06
381.489	303.44
381.87	272.48
382.25	271.57
382.63	292.14
383.01	282.65
383.39	280.16
383.77	294.4
384.15	288.75
384.53	266.83
384.91	280.16
385.29	289.65
385.67	274.06
386.049	283.55
386.429	278.35
386.809	301.4
387.189	275.64
387.568	303.21
387.948	274.06
388.328	281.97
388.707	292.14
389.087	313.83
389.466	302.76
389.846	273.16
390.225	292.37
390.605	279.26
390.984	274.29
391.363	291.24
391.743	292.37
392.122	300.5
392.501	285.36
392.881	295.75
393.26	282.65
393.639	292.37
394.018	295.98
394.397	321.97
394.776	281.52
395.155	261.86
395.534	283.1
395.913	301.86
396.292	300.27
396.671	296.43
397.05	279.94
397.429	284.23
397.808	292.82
398.186	282.87
398.565	295.75
398.944	326.26
399.323	303.44
399.701	281.74
400.08	299.14
400.458	307.28
400.837	324.45
401.215	293.04
401.594	297.11
401.972	299.82
402.351	294.85
402.729	309.54
403.107	296.43
403.486	288.98
403.864	300.5
404.242	311.8
404.62	305.02
404.999	310.67
405.377	304.79
405.755	278.13
406.133	304.12
406.511	292.14
406.889	288.98
407.267	299.14
407.645	294.85
408.023	308.64
408.401	318.58
408.779	279.03
409.156	309.77
409.534	298.47
409.912	306.15
410.29	291.69
410.667	329.43
411.045	290.78
411.422	309.77
411.8	309.99
412.178	306.83
412.555	298.69
412.933	310.22
413.31	275.87
413.687	307.96
414.065	303.44
414.442	308.86
414.819	281.97
415.197	311.35
415.574	305.47
415.951	295.08
416.328	314.74
416.705	295.98
417.082	315.42
417.46	295.3
417.837	324.68
418.214	307.28
418.591	286.04
418.967	301.18
419.344	306.83
419.721	284.23
420.098	305.02
420.475	312.03
420.852	295.75
421.228	320.61
421.605	304.34
421.982	299.82
422.358	329.88
422.735	313.61
423.111	315.19
423.488	303.44
423.864	299.37
424.241	315.87
424.617	308.86
424.994	327.17
425.37	302.31
425.746	282.42
426.123	302.08
426.499	304.12
426.875	294.4
427.251	308.18
427.627	322.65
428.003	307.28
428.379	310.22
428.756	288.52
429.132	342.76
429.507	321.07
429.883	319.03
430.259	326.71
430.635	321.97
431.011	298.01
431.387	327.62
431.763	315.19
432.138	301.63
432.514	310.67
432.89	309.54
433.265	332.36
433.641	320.39
434.016	340.95
434.392	302.99
434.767	321.29
435.143	335.98
435.518	307.05
435.894	318.13
436.269	315.64
436.644	322.87
437.02	322.42
437.395	320.61
437.77	317.22
438.145	328.3
438.52	319.26
438.895	328.07
439.271	316.55
439.646	331.23
440.021	333.95
440.395	321.74
440.77	338.24
441.145	345.02
441.52	321.74
441.895	334.17
442.27	320.16
442.645	348.41
443.019	324.45
443.394	358.8
443.769	347.96
444.143	343.44
444.518	343.89
444.892	331.69
445.267	371.23
445.641	344.79
446.016	351.8
446.39	342.53
446.764	348.41
447.139	331.69
447.513	353.83
447.887	354.96
448.262	356.09
448.636	368.52
449.01	352.7
449.384	346.83
449.758	352.48
450.132	353.38
450.506	366.94
450.88	366.49
451.254	371.69
451.628	372.14
452.002	384.11
452.376	385.92
452.75	361.06
453.123	366.49
453.497	364.45
453.871	369.65
454.244	379.82
454.618	351.8
454.992	369.2
455.365	379.37
455.739	372.82
456.112	364.91
456.486	370.56
456.859	363.1
457.232	367.84
457.606	363.1
457.979	362.19
458.352	368.52
458.725	356.32
459.099	373.72
459.472	374.85
459.845	364
460.218	357
460.591	348.63
460.964	368.07
461.337	372.36
461.71	360.39
462.083	352.93
462.456	368.52
462.829	364.23
463.201	361.97
463.574	366.94
463.947	347.73
464.32	364.91
464.692	348.63
465.065	328.75
465.438	365.81
465.81	367.62
466.183	364.23
466.555	341.4
466.928	332.14
467.3	370.78
467.672	359.26
468.045	347.96
468.417	360.16
468.789	362.42
469.161	360.61
469.534	359.26
469.906	354.28
470.278	364.91
470.65	354.96
471.022	356.32
471.394	351.12
471.766	370.33
472.138	364.45
472.51	334.62
472.882	354.51
473.253	345.25
473.625	363.78
473.997	345.25
474.369	328.75
474.74	348.41
475.112	340.05
475.484	344.57
475.855	332.82
476.227	357.45
476.598	342.31
476.97	359.26
477.341	347.5
477.713	355.19
478.084	354.28
478.455	380.27
478.827	348.63
479.198	334.62
479.569	351.35
479.94	349.31
480.311	352.02
480.682	359.03
481.053	357
481.424	372.59
481.795	367.62
482.166	371.23
482.537	346.38
482.908	357.9
483.279	362.65
483.65	349.31
484.021	351.8
484.391	356.77
484.762	359.71
485.133	357.22
485.503	352.02
485.874	353.15
486.244	361.52
486.615	360.84
486.985	349.09
487.356	356.32
487.726	355.19
488.097	370.78
488.467	376.2
488.837	359.26
489.207	371.01
489.578	359.03
489.948	385.47
490.318	401.51
490.688	365.13
491.058	347.28
491.428	370.1
491.798	365.36
492.168	382.08
492.538	392.7
492.908	370.1
493.278	376.43
493.648	356.77
494.017	393.83
494.387	359.03
494.757	371.69
495.126	389.99
495.496	379.82
495.866	397.45
496.235	387.28
496.605	397.67
496.974	384.11
497.344	383.89
497.713	392.7
498.082	394.06
498.452	405.58
498.821	385.24
499.19	395.19
499.559	395.19
499.928	393.83
500.298	412.59
500.667	390.44
501.036	388.41
501.405	414.17
501.774	415.53
502.143	415.98
502.512	413.72
502.88	412.14
503.249	405.13
503.618	396.32
503.987	394.06
504.356	415.3
504.724	406.03
505.093	430.89
505.462	421.85
505.83	419.82
506.199	421.18
506.567	423.89
506.936	401.51
507.304	412.36
507.672	410.33
508.041	414.85
508.409	430.44
508.777	426.37
509.145	405.81
509.514	409.65
509.882	435.86
510.25	429.31
510.618	437.9
510.986	446.71
511.354	433.38
511.722	444.9
512.09	439.71
512.458	425.92
512.826	446.71
513.193	438.12
513.561	432.7
513.929	425.47
514.297	431.8
514.664	456.65
515.032	458.46
515.4	469.31
515.767	469.08
516.135	440.38
516.502	449.2
516.869	434.96
517.237	449.65
517.604	450.1
517.972	449.65
518.339	436.09
518.706	461.17
519.073	451.91
519.44	452.36
519.808	456.2
520.175	489.65
520.542	439.48
520.909	457.33
521.276	445.81
521.643	447.84
522.009	460.95
522.376	477.22
522.743	471.8
523.11	461.4
523.477	457.78
523.843	446.71
524.21	482.19
524.577	469.31
524.943	487.39
525.31	469.31
525.676	488.52
526.043	475.64
526.409	491.23
526.776	479.7
527.142	487.16
527.508	476.77
527.874	473.15
528.241	472.93
528.607	480.61
528.973	475.19
529.339	493.04
529.705	474.28
530.071	501.17
530.437	491.46
530.803	497.56
531.169	494.39
531.535	469.08
531.901	487.84
532.267	489.87
532.632	491.91
532.998	491.68
533.364	505.47
533.73	488.29
534.095	498.01
534.461	495.52
534.826	508.18
535.192	520.38
535.557	499.37
535.923	494.62
536.288	497.78
536.653	486.94
537.019	504.56
537.384	483.77
537.749	512.92
538.114	503.21
538.479	477.45
538.845	521.74
539.21	504.79
539.575	495.07
539.94	510.89
540.305	498.01
540.67	510.44
541.034	507.73
541.399	502.3
541.764	502.08
542.129	501.63
542.494	502.98
542.858	510.21
543.223	512.7
543.587	505.47
543.952	516.99
544.316	519.25
544.681	505.92
545.045	517.44
545.41	507.5
545.774	503.66
546.138	528.74
546.503	536.43
546.867	526.71
547.231	509.53
547.595	501.17
547.959	507.95
548.324	496.2
548.688	523.32
549.052	534.17
549.416	537.1
549.779	533.94
550.143	525.81
550.507	559.7
550.871	499.82
551.235	527.16
551.599	510.89
551.962	502.98
552.326	530.78
552.689	505.69
553.053	533.71
553.417	542.75
553.78	527.84
554.143	530.1
554.507	536.88
554.87	531.91
555.234	539.82
555.597	535.97
555.96	518.57
556.323	536.65
556.686	530.1
557.05	542.75
557.413	525.35
557.776	532.13
558.139	533.49
558.502	553.15
558.865	543.88
559.228	528.74
559.59	546.82
559.953	545.92
560.316	519.25
560.679	544.79
561.041	527.39
561.404	543.88
561.767	540.49
562.129	546.37
562.492	549.53
562.854	554.05
563.217	524.45
563.579	574.84
563.941	562.87
564.304	567.61
564.666	563.09
565.028	569.19
565.39	541.4
565.753	564.22
566.115	547.05
566.477	555.64
566.839	561.74
567.201	565.58
567.563	551.34
567.925	566.48
568.287	562.64
568.648	556.09
569.01	587.05
569.372	580.04
569.734	564.67
570.095	565.8
570.457	570.55
570.819	555.41
571.18	572.36
571.542	561.28
571.903	556.54
572.265	550.66
572.626	578.91
572.987	584.79
573.349	569.87
573.71	583.66
574.071	577.1
574.432	572.36
574.794	583.21
575.155	581.62
575.516	555.18
575.877	583.21
576.238	577.78
576.599	578.69
576.96	578.69
577.32	594.05
577.681	573.04
578.042	582.98
578.403	593.37
578.763	566.03
579.124	564.67
579.485	585.46
579.845	587.72
580.206	592.92
580.566	578.46
580.927	589.08
581.287	573.26
581.648	566.93
582.008	591.57
582.368	572.36
582.728	606.93
583.089	583.88
583.449	592.02
583.809	601.06
584.169	583.21
584.529	599.7
584.889	560.38
585.249	554.51
585.609	563.32
585.969	571.45
586.329	585.92
586.688	590.89
587.048	585.92
587.408	564.67
587.768	574.84
588.127	576.43
588.487	572.36
588.846	573.94
589.206	583.66
589.565	583.21
589.925	582.75
590.284	558.12
590.643	576.43
591.003	583.88
591.362	592.24
591.721	580.72
592.08	570.1
592.44	578.91
592.799	586.14
593.158	572.36
593.517	600.38
593.876	567.84
594.235	558.35
594.593	570.32
594.952	572.58
595.311	554.51
595.67	561.96
596.029	576.65
596.387	548.63
596.746	577.1
597.104	576.2
597.463	586.59
597.822	578.23
598.18	583.21
598.538	563.09
598.897	553.83
599.255	573.71
599.613	592.7
599.972	561.96
600.33	565.13
600.688	571.68
601.046	563.09
601.404	561.51
601.762	552.92
602.12	567.16
602.478	561.51
602.836	543.88
603.194	571.91
603.552	585.01
603.91	539.14
604.268	570.78
604.625	544.34
604.983	559.93
605.341	562.64
605.698	547.5
606.056	533.49
606.413	549.99
606.771	540.95
607.128	545.92
607.485	542.53
607.843	579.36
608.2	557.22
608.557	554.73
608.914	542.98
609.272	527.39
609.629	535.75
609.986	559.02
610.343	555.86
610.7	568.97
611.057	538.46
611.414	518.8
611.771	528.07
612.127	523.09
612.484	533.71
612.841	561.74
613.198	565.35
613.554	554.51
613.911	540.72
614.267	526.48
614.624	535.3
614.98	542.08
615.337	543.43
615.693	518.8
616.05	544.11
616.406	547.73
616.762	540.72
617.118	531
617.475	526.94
617.831	521.29
618.187	543.21
618.543	539.36
618.899	531.68
619.255	526.48
619.611	501.85
619.967	521.06
620.323	526.03
620.678	513.15
621.034	522.64
621.39	523.77
621.746	529.42
622.101	528.29
622.457	524
622.812	531
623.168	522.19
623.523	537.1
623.879	524
624.234	514.51
624.589	516.77
624.945	521.51
625.3	520.61
625.655	508.86
626.01	502.53
626.365	506.37
626.72	516.09
627.075	489.87
627.43	505.24
627.785	502.3
628.14	508.4
628.495	499.37
628.85	509.99
629.205	488.97
629.559	507.5
629.914	505.01
630.269	486.94
630.623	485.58
630.978	498.69
631.332	484.45
631.687	482.87
632.041	500.72
632.396	469.99
632.75	499.59
633.104	486.94
633.459	479.7
633.813	479.48
634.167	480.16
634.521	478.12
634.875	500.27
635.229	481.96
635.583	483.77
635.937	500.27
636.291	478.57
636.645	443.32
636.999	468.63
637.352	467.28
637.706	467.28
638.06	484.22
638.413	468.86
638.767	477.22
639.121	462.53
639.474	458.24
639.828	477.45
640.181	445.13
640.534	463.21
640.888	452.59
641.241	460.72
641.594	456.65
641.947	442.87
642.301	460.27
642.654	455.07
643.007	446.49
643.36	446.26
643.713	459.59
644.066	444
644.419	464.34
644.771	441.97
645.124	431.57
645.477	459.59
645.83	460.27
646.182	439.03
646.535	435.19
646.888	421.63
647.24	440.84
647.593	418.69
647.945	435.86
648.298	422.53
648.65	416.2
649.002	433.6
649.355	434.51
649.707	434.06
650.059	427.95
650.411	417.33
650.763	445.58
651.115	432.02
651.467	422.98
651.819	435.41
652.171	465.02
652.523	408.52
652.875	418.69
653.227	445.81
653.578	441.74
653.93	420.5
654.282	428.41
654.633	427.73
654.985	446.49
655.337	405.13
655.688	416.88
656.039	420.95
656.391	419.14
656.742	427.95
657.094	411.91
657.445	402.42
657.796	394.28
658.147	404.9
658.498	400.61
658.849	401.74
659.2	388.41
659.551	405.58
659.902	426.6
660.253	394.06
660.604	414.85
660.955	403.32
661.306	420.95
661.656	420.27
662.007	413.27
662.358	429.76
662.708	408.75
663.059	395.19
663.409	416.2
663.76	383.89
664.11	422.53
664.461	416.43
664.811	408.07
665.161	397.67
665.511	403.32
665.862	415.53
666.212	398.13
666.562	393.83
666.912	406.03
667.262	385.47
667.612	385.92
667.962	381.63
668.312	397.45
668.662	388.86
669.011	378.46
669.361	388.18
669.711	386.83
670.06	388.86
670.41	405.13
670.76	389.09
671.109	393.15
671.459	365.13
671.808	379.82
672.157	386.15
672.507	407.84
672.856	414.85
673.205	367.39
673.554	364.45
673.904	375.53
674.253	402.64
674.602	390.44
674.951	376.88
675.3	380.27
675.649	386.83
675.998	379.82
676.346	389.31
676.695	365.13
677.044	354.96
677.393	382.08
677.741	390.44
678.09	392.93
678.438	380.95
678.787	375.75
679.135	396.54
679.484	370.78
679.832	385.7
680.181	385.24
680.529	384.34
680.877	399.26
681.225	382.31
681.573	368.3
681.922	374.17
682.27	373.04
682.618	377.33
682.966	365.81
683.314	385.02
683.661	388.86
684.009	377.79
684.357	337.56
684.705	370.1
685.053	361.06
685.4	361.97
685.748	352.02
686.095	379.82
686.443	364.45
686.79	371.91
687.138	356.32
687.485	342.99
687.832	357
688.18	347.05
688.527	364.23
688.874	361.29
689.221	368.07
689.568	379.37
689.915	362.65
690.262	368.75
690.609	373.94
690.956	333.27
691.303	342.76
691.65	376.66
691.997	382.76
692.344	347.73
692.69	360.16
693.037	355.19
693.383	372.36
693.73	365.81
694.077	338.24
694.423	342.08
694.769	372.36
695.116	367.17
695.462	364.68
695.808	370.33
696.155	368.75
696.501	355.41
696.847	344.12
697.193	354.96
697.539	333.04
697.885	373.04
698.231	348.86
698.577	349.31
698.923	349.09
699.269	365.58
699.614	347.73
699.96	358.35
700.306	356.77
700.651	335.3
700.997	361.74
701.342	359.03
701.688	348.63
702.033	355.19
702.379	351.8
702.724	341.63
703.069	357.9
703.415	353.61
703.76	345.47
704.105	354.96
704.45	330.78
704.795	346.38
705.14	329.2
705.485	337.11
705.83	356.77
706.175	330.33
706.52	346.15
706.865	347.05
707.209	324.68
707.554	336.88
707.899	332.82
708.243	359.48
708.588	366.71
708.932	321.29
709.277	357.22
709.621	360.39
709.966	317.22
710.31	314.74
710.654	357
710.998	357.45
711.342	356.32
711.687	354.51
712.031	342.31
712.375	352.93
712.719	345.25
713.063	349.31
713.407	352.48
713.75	340.5
714.094	337.11
714.438	359.93
714.782	322.87
715.125	357.67
715.469	352.7
715.812	319.94
716.156	336.21
716.499	350.89
716.843	341.18
717.186	338.47
717.53	332.59
717.873	338.92
718.216	334.62
718.559	321.29
718.902	333.95
719.246	330.1
719.589	358.58
719.932	325.58
720.275	326.04
720.617	343.66
720.96	359.71
721.303	351.35
721.646	322.19
721.989	339.14
722.331	344.34
722.674	332.36
723.016	336.66
723.359	349.09
723.701	313.38
724.044	315.87
724.386	333.04
724.729	333.04
725.071	330.56
725.413	330.78
725.755	318.35
726.097	330.78
726.439	364.23
726.782	317.68
727.124	332.82
727.465	333.27
727.807	326.26
728.149	355.64
728.491	349.99
728.833	344.79
729.175	329.2
729.516	332.82
729.858	342.31
730.199	327.84
730.541	332.36
730.882	322.87
731.224	314.06
731.565	338.47
731.906	327.39
732.248	332.36
732.589	340.5
732.93	327.17
733.271	331.91
733.612	348.18
733.953	344.34
734.294	341.4
734.635	324.68
734.976	340.95
735.317	338.47
735.658	330.56
735.999	355.19
736.339	336.21
736.68	330.1
737.021	313.16
737.361	343.66
737.702	338.01
738.042	345.7
738.383	346.15
738.723	356.32
739.063	331.01
739.404	339.37
739.744	335.08
740.084	349.99
740.424	345.02
740.764	337.56
741.104	322.19
741.444	342.99
741.784	337.56
742.124	328.97
742.464	326.49
742.804	326.04
743.143	333.95
743.483	324.23
743.823	348.41
744.162	330.33
744.502	320.39
744.841	322.42
745.181	317.9
745.52	328.07
745.86	330.1
746.199	346.38
746.538	326.49
746.877	342.08
747.216	323.55
747.556	325.81
747.895	362.65
748.234	333.72
748.573	315.19
748.911	335.53
749.25	345.25
749.589	330.33
749.928	315.64
750.267	345.02
750.605	346.15
750.944	330.33
751.283	358.13
751.621	338.01
751.96	315.19
752.298	337.79
752.636	326.94
752.975	329.43
753.313	358.35
753.651	325.36
753.989	332.36
754.327	335.08
754.666	313.38
755.004	321.97
755.342	336.43
755.679	321.07
756.017	344.12
756.355	306.83
756.693	342.76
757.031	336.88
757.368	339.37
757.706	330.1
758.044	336.21
758.381	336.88
758.719	319.03
759.056	329.43
759.394	338.69
759.731	325.36
760.068	315.64
760.405	327.84
760.743	318.81
761.08	335.98
761.417	330.56
761.754	300.27
762.091	326.49
762.428	326.26
762.765	328.07
763.102	344.34
763.438	309.54
763.775	340.5
764.112	318.13
764.449	316.32
764.785	355.19
765.122	317.68
765.458	345.92
765.795	332.82
766.131	331.46
766.467	309.09
766.804	311.8
767.14	329.88
767.476	343.66
767.812	310.9
768.148	327.84
768.485	334.4
768.821	324
769.157	320.39
769.492	329.88
769.828	332.36
770.164	324.23
770.5	330.56
770.836	341.18
771.171	326.04
771.507	353.83
771.842	305.92
772.178	329.65
772.513	310.9
772.849	337.79
773.184	317.45
773.519	331.01
773.855	322.42
774.19	325.58
774.525	320.61
774.86	323.78
775.195	326.71
775.53	310.67
775.865	336.88
776.2	318.58
776.535	317.45
776.87	341.18
777.205	321.97
777.539	338.69
777.874	323.32
778.209	329.2
778.543	335.3
778.878	347.28
779.212	328.97
779.547	344.79
779.881	316.77
780.215	322.87
780.55	330.78
780.884	329.2
781.218	352.48
781.552	328.07
781.886	309.54
782.22	328.52
782.554	323.78
782.888	340.73
783.222	320.84
783.556	333.95
783.889	320.39
784.223	328.75
784.557	302.99
784.89	328.52
785.224	324.68
785.557	327.17
785.891	321.07
786.224	327.62
786.558	309.31
786.891	327.17
787.224	328.3
787.557	330.1
787.891	341.63
788.224	325.13
788.557	307.96
788.89	320.84
