Data from No_light_on_white_reflection_standard_FLMS001491_072.txt Node
Date: Tue Feb 07 10:33:06 GMT 2017
User: dcchb
Spectrometer: FLMS00149
Trigger mode: 0
Integration Time (sec): 2.000000E-2
Scans to average: 10
Electric dark correction enabled: true
Nonlinearity correction enabled: false
Boxcar width: 0
XAxis mode: Wavelengths
Number of Pixels in Spectrum: 2048
>>>>>Begin Spectral Data<<<<<
341.393	-12.66
341.776	-12.66
342.16	-12.66
342.543	-88.13
342.927	-50.62
343.31	-68.7
343.693	-60.79
344.077	-68.25
344.46	-45.65
344.843	-54.01
345.226	-55.82
345.61	-29.6
345.993	-29.6
346.376	-6.78
346.759	-2.26
347.142	45.87
347.525	35.93
347.908	47.91
348.291	74.35
348.674	108.47
349.057	108.92
349.44	110.73
349.823	144.18
350.206	163.61
350.588	153.89
350.971	177.85
351.354	178.75
351.737	212.2
352.119	213.33
352.502	220.33
352.884	249.71
353.267	233.89
353.65	254.91
354.032	251.74
354.414	286.32
354.797	279.31
355.179	283.38
355.562	297.62
355.944	273.44
356.326	305.75
356.709	307.11
357.091	314.57
357.473	317.96
357.855	280.67
358.238	316.15
358.62	303.49
359.002	305.98
359.384	291.97
359.766	305.08
360.148	298.07
360.53	289.26
360.912	323.83
361.294	294
361.676	300.56
362.057	296.49
362.439	287.45
362.821	277.73
363.203	288.13
363.584	282.7
363.966	299.43
364.348	292.2
364.729	280.22
365.111	290.84
365.493	296.26
365.874	288.13
366.256	255.81
366.637	273.89
367.019	264.17
367.4	275.47
367.781	265.76
368.163	268.92
368.544	253.1
368.925	283.16
369.306	281.57
369.688	255.13
370.069	276.83
370.45	268.92
370.831	254.46
371.212	266.21
371.593	275.25
371.974	265.76
372.355	255.13
372.736	270.95
373.117	271.18
373.498	271.86
373.879	281.8
374.26	259.88
374.641	292.42
375.021	282.48
375.402	264.17
375.783	259.43
376.163	281.35
376.544	286.55
376.925	261.69
377.305	286.55
377.686	283.16
378.066	274.8
378.447	266.43
378.827	298.52
379.208	292.87
379.588	284.74
379.968	275.92
380.349	302.14
380.729	279.31
381.109	283.83
381.489	274.12
381.87	263.27
382.25	278.18
382.63	298.52
383.01	280.67
383.39	276.15
383.77	292.42
384.15	285.87
384.53	270.28
384.91	291.97
385.29	283.61
385.67	282.48
386.049	256.26
386.429	297.62
386.809	300.56
387.189	281.8
387.568	282.25
387.948	284.74
388.328	297.17
388.707	281.57
389.087	306.21
389.466	319.09
389.846	302.14
390.225	275.7
390.605	282.93
390.984	282.7
391.363	249.48
391.743	291.07
392.122	290.16
392.501	302.36
392.881	282.25
393.26	308.01
393.639	297.62
394.018	272.31
394.397	283.61
394.776	271.86
395.155	297.17
395.534	286.55
395.913	310.73
396.292	284.96
396.671	289.48
397.05	287
397.429	303.72
397.808	296.94
398.186	297.39
398.565	276.6
398.944	295.36
399.323	301.69
399.701	300.33
400.08	282.7
400.458	289.26
400.837	286.77
401.215	288.81
401.594	313.21
401.972	297.85
402.351	285.42
402.729	270.95
403.107	302.59
403.486	313.44
403.864	289.26
404.242	293.55
404.62	305.3
404.999	318.18
405.377	294.23
405.755	289.26
406.133	315.47
406.511	303.04
406.889	288.58
407.267	290.61
407.645	314.57
408.023	291.97
408.401	289.03
408.779	302.36
409.156	294.91
409.534	318.64
409.912	277.28
410.29	284.29
410.667	306.43
411.045	286.55
411.422	299.65
411.8	306.21
412.178	301.01
412.555	300.78
412.933	270.95
413.31	284.06
413.687	313.66
414.065	301.01
414.442	299.88
414.819	305.98
415.197	280.67
415.574	320.67
415.951	322.25
416.328	300.56
416.705	290.16
417.082	302.59
417.46	316.38
417.837	298.75
418.214	301.46
418.591	314.57
418.967	306.66
419.344	312.76
419.721	298.98
420.098	314.57
420.475	284.96
420.852	299.2
421.228	322.48
421.605	308.69
421.982	300.56
422.358	308.69
422.735	312.99
423.111	299.88
423.488	297.62
423.864	321.57
424.241	310.27
424.617	311.63
424.994	319.99
425.37	293.33
425.746	323.83
426.123	299.88
426.499	319.54
426.875	313.44
427.251	307.79
427.627	297.62
428.003	308.69
428.379	310.5
428.756	310.05
429.132	298.3
429.507	309.6
429.883	322.7
430.259	310.73
430.635	310.95
431.011	310.05
431.387	304.62
431.763	322.7
432.138	317.96
432.514	321.57
432.89	304.85
433.265	311.4
433.641	301.91
434.016	314.34
434.392	325.42
434.767	319.77
435.143	324.29
435.518	321.8
435.894	334
436.269	335.36
436.644	339.2
437.02	319.54
437.395	333.78
437.77	331.52
438.145	323.38
438.52	329.03
438.895	312.08
439.271	328.8
439.646	325.87
440.021	303.49
440.395	334.91
440.77	321.35
441.145	311.4
441.52	361.57
441.895	321.8
442.27	347.34
442.645	351.4
443.019	353.44
443.394	329.71
443.769	329.71
444.143	322.7
444.518	342.59
444.892	372.42
445.267	349.14
445.641	342.14
446.016	336.49
446.39	357.96
446.764	348.92
447.139	362.25
447.513	348.69
447.887	374.45
448.262	354.11
448.636	353.44
449.01	343.72
449.384	371.52
449.758	382.14
450.132	369.93
450.506	350.27
450.88	390.05
451.254	378.07
451.628	360.44
452.002	381.68
452.376	354.11
452.75	362.93
453.123	391.85
453.497	377.39
453.871	363.15
454.244	391.4
454.618	367
454.992	380.33
455.365	374.45
455.739	361.12
456.112	360.22
456.486	369.93
456.859	362.93
457.232	365.41
457.606	348.01
457.979	345.75
458.352	366.77
458.725	345.08
459.099	351.63
459.472	346.88
459.845	378.75
460.218	349.82
460.591	354.11
460.964	351.63
461.337	355.24
461.71	363.83
462.083	357.96
462.456	358.63
462.829	354.57
463.201	369.48
463.574	344.85
463.947	359.09
464.32	349.37
464.692	369.48
465.065	353.66
465.438	346.66
465.81	331.29
466.183	350.5
466.555	348.24
466.928	361.57
467.3	335.13
467.672	350.95
468.045	344.4
468.417	357.28
468.789	363.15
469.161	348.69
469.534	351.86
469.906	355.7
470.278	330.16
470.65	357.05
471.022	357.05
471.394	373.78
471.766	346.66
472.138	356.37
472.51	341.69
472.882	352.53
473.253	355.92
473.625	372.19
473.997	354.79
474.369	357.28
474.74	332.19
475.112	331.52
475.484	345.08
475.855	355.47
476.227	336.04
476.598	332.42
476.97	356.83
477.341	358.86
477.713	322.93
478.084	365.64
478.455	354.57
478.827	347.56
479.198	343.72
479.569	352.53
479.94	340.56
480.311	361.57
480.682	348.69
481.053	366.32
481.424	352.31
481.795	352.53
482.166	344.62
482.537	360.89
482.908	341.23
483.279	361.57
483.65	358.18
484.021	356.6
484.391	363.15
484.762	365.87
485.133	363.15
485.503	350.27
485.874	356.83
486.244	363.83
486.615	333.55
486.985	380.55
487.356	364.28
487.726	369.26
488.097	372.87
488.467	386.88
488.837	375.58
489.207	361.8
489.578	376.94
489.948	364.74
490.318	369.93
490.688	386.66
491.058	391.63
491.428	373.78
491.798	379.43
492.168	376.71
492.538	375.13
492.908	383.49
493.278	367.9
493.648	379.2
494.017	398.41
494.387	381.91
494.757	390.27
495.126	366.09
495.496	394.79
495.866	378.52
496.235	363.61
496.605	383.94
496.974	390.72
497.344	382.81
497.713	387.56
498.082	376.71
498.452	397.5
498.821	392.76
499.19	388.69
499.559	397.73
499.928	392.98
500.298	380.78
500.667	394.34
501.036	407.9
501.405	404.51
501.774	405.19
502.143	409.71
502.512	422.81
502.88	416.71
503.249	404.06
503.618	415.81
503.987	425.07
504.356	381.91
504.724	392.08
505.093	399.76
505.462	409.03
505.83	413.77
506.199	417.39
506.567	434.34
506.936	411.74
507.304	419.88
507.672	418.07
508.041	433.43
508.409	449.25
508.777	411.29
509.145	411.51
509.514	427.56
509.882	421.91
510.25	434.11
510.618	452.87
510.986	431.63
511.354	416.71
511.722	459.65
512.09	423.04
512.458	449.48
512.826	431.63
513.193	446.77
513.561	440.44
513.929	440.44
514.297	465.75
514.664	451.74
515.032	419.88
515.4	440.21
515.767	436.37
516.135	448.12
516.502	461.23
516.869	459.42
517.237	450.61
517.604	439.99
517.972	450.61
518.339	470.72
518.706	444.06
519.073	441.57
519.44	451.97
519.808	454.45
520.175	480.67
520.542	459.65
520.909	453.55
521.276	458.29
521.643	451.29
522.009	438.41
522.376	452.64
522.743	478.41
523.11	461.46
523.477	458.29
523.843	469.37
524.21	465.98
524.577	467.78
524.943	492.42
525.31	473.66
525.676	475.69
526.043	491.29
526.409	470.5
526.776	469.37
527.142	474.79
527.508	480.89
527.874	472.98
528.241	487.22
528.607	477.05
528.973	485.64
529.339	478.18
529.705	487.67
530.071	473.66
530.437	472.3
530.803	486.54
531.169	489.7
531.535	491.29
531.901	490.16
532.267	503.26
532.632	513.21
532.998	486.54
533.364	519.99
533.73	503.49
534.095	520.66
534.461	523.15
534.826	508.24
535.192	502.59
535.557	501.46
535.923	495.13
536.288	494.9
536.653	503.04
537.019	501.91
537.384	508.24
537.749	503.49
538.114	521.12
538.479	509.59
538.845	537.39
539.21	518.4
539.575	496.03
539.94	505.52
540.305	514.56
540.67	509.82
541.034	512.3
541.399	514.56
541.764	518.86
542.129	514.79
542.494	511.4
542.858	512.08
543.223	492.42
543.587	501.46
543.952	496.03
544.316	517.27
544.681	525.64
545.045	519.08
545.41	524.73
545.774	515.47
546.138	515.24
546.503	519.99
546.867	509.14
547.231	534.9
547.595	520.44
547.959	520.21
548.324	509.82
548.688	502.59
549.052	519.53
549.416	498.74
549.779	519.08
550.143	526.09
550.507	518.63
550.871	510.5
551.235	526.99
551.599	530.38
551.962	537.39
552.326	530.83
552.689	534.22
553.053	537.61
553.417	521.57
553.78	530.16
554.143	542.81
554.507	513.88
554.87	519.08
555.234	544.62
555.597	546.2
555.96	524.28
556.323	543.26
556.686	557.73
557.05	536.48
557.413	526.54
557.776	536.48
558.139	543.26
558.502	543.49
558.865	557.05
559.228	552.53
559.59	556.6
559.953	567.67
560.316	530.61
560.679	545.07
561.041	555.92
561.404	537.39
561.767	563.38
562.129	533.77
562.492	565.63
562.854	557.27
563.217	554.79
563.579	556.82
563.941	559.99
564.304	571.51
564.666	564.05
565.028	572.41
565.39	561.57
565.753	564.28
566.115	575.13
566.477	569.02
566.839	566.31
567.201	580.32
567.563	562.47
567.925	581.23
568.287	598.4
568.648	574
569.01	577.39
569.372	576.03
569.734	564.96
570.095	566.54
570.457	578.06
570.819	582.13
571.18	576.26
571.542	587.56
571.903	595.92
572.265	591.85
572.626	599.08
572.987	576.26
573.349	600.44
573.71	586.65
574.071	587.78
574.432	579.42
574.794	597.5
575.155	569.93
575.516	574.9
575.877	580.55
576.238	581.45
576.599	595.69
576.96	596.14
577.32	595.24
577.681	583.71
578.042	583.71
578.403	593.88
578.763	587.33
579.124	572.19
579.485	585.97
579.845	574.45
580.206	592.07
580.566	582.58
580.927	583.49
581.287	594.56
581.648	583.49
582.008	602.47
582.368	571.74
582.728	589.59
583.089	579.42
583.449	577.39
583.809	560.44
584.169	581.68
584.529	609.48
584.889	583.04
585.249	576.26
585.609	569.02
585.969	577.16
586.329	591.85
586.688	579.65
587.048	594.79
587.408	571.74
587.768	597.5
588.127	569.7
588.487	597.95
588.846	602.7
589.206	569.02
589.565	569.7
589.925	582.36
590.284	577.61
590.643	572.64
591.003	581.45
591.362	593.88
591.721	589.36
592.08	578.74
592.44	580.1
592.799	599.53
593.158	567.89
593.517	583.49
593.876	603.15
594.235	595.24
594.593	576.26
594.952	579.19
595.311	574
595.67	578.06
596.029	574.9
596.387	581.45
596.746	561.79
597.104	581.23
597.463	580.78
597.822	573.32
598.18	558.86
598.538	577.16
598.897	578.29
599.255	550.27
599.613	568.8
599.972	569.25
600.33	567.67
600.688	552.3
601.046	572.87
601.404	569.02
601.762	550.27
602.12	560.89
602.478	576.48
602.836	569.25
603.194	573.77
603.552	561.57
603.91	572.64
604.268	550.95
604.625	585.52
604.983	566.09
605.341	579.42
605.698	558.18
606.056	581.68
606.413	554.34
606.771	553.43
607.128	576.48
607.485	556.82
607.843	552.08
608.2	537.84
608.557	545.97
608.914	576.93
609.272	555.24
609.629	574.9
609.986	551.85
610.343	546.88
610.7	557.05
611.057	571.74
611.414	558.4
611.771	567.22
612.127	560.89
612.484	562.02
612.841	554.11
613.198	556.14
613.554	534.22
613.911	558.18
614.267	574
614.624	534.22
614.98	525.64
615.337	541.91
615.693	527.67
616.05	529.25
616.406	546.2
616.762	547.56
617.118	550.04
617.475	538.06
617.831	544.17
618.187	532.87
618.543	552.75
618.899	522.25
619.255	514.79
619.611	522.92
619.967	527.22
620.323	546.2
620.678	514.11
621.034	504.85
621.39	533.32
621.746	524.51
622.101	536.48
622.457	524.51
622.812	502.36
623.168	534
623.523	544.17
623.879	492.87
624.234	522.47
624.589	524.51
624.945	523.6
625.3	503.72
625.655	519.76
626.01	509.59
626.365	528.35
626.72	511.62
627.075	523.6
627.43	516.82
627.785	510.5
628.14	526.99
628.495	512.08
628.85	522.47
629.205	508.46
629.559	499.65
629.914	515.01
630.269	491.29
630.623	480.67
630.978	496.26
631.332	492.64
631.687	501
632.041	486.31
632.396	487.22
632.75	480.21
633.104	511.17
633.459	501.68
633.813	491.51
634.167	487.67
634.521	489.25
634.875	504.17
635.229	470.95
635.583	489.03
635.937	486.31
636.291	463.26
636.645	484.51
636.999	477.05
637.352	491.29
637.706	456.94
638.06	483.38
638.413	465.75
638.767	459.65
639.121	468.91
639.474	484.73
639.828	478.86
640.181	487.44
640.534	463.94
640.888	460.78
641.241	449.93
641.594	448.12
641.947	457.62
642.301	461.46
642.654	458.52
643.007	482.93
643.36	448.8
643.713	474.11
644.066	441.34
644.419	467.11
644.771	445.64
645.124	449.03
645.477	440.89
645.83	463.94
646.182	444.73
646.535	432.31
646.888	459.42
647.24	433.21
647.593	431.63
647.945	416.94
648.298	443.15
648.65	430.05
649.002	436.82
649.355	437.28
649.707	426.88
650.059	446.99
650.411	451.74
650.763	430.95
651.115	420.55
651.467	415.81
651.819	427.33
652.171	449.71
652.523	422.36
652.875	416.49
653.227	417.39
653.578	424.4
653.93	430.27
654.282	422.36
654.633	430.05
654.985	421.23
655.337	426.66
655.688	438.63
656.039	411.51
656.391	421.23
656.742	423.72
657.094	411.51
657.445	420.1
657.796	420.78
658.147	415.58
658.498	409.25
658.849	426.66
659.2	416.26
659.551	416.94
659.902	424.4
660.253	399.54
660.604	402.02
660.955	398.63
661.306	404.06
661.656	406.32
662.007	429.59
662.358	408.58
662.708	389.37
663.059	401.35
663.409	399.31
663.76	415.36
664.11	425.07
664.461	434.11
664.811	398.41
665.161	404.06
665.511	401.8
665.862	398.86
666.212	377.62
666.562	414.23
666.912	393.21
667.262	395.24
667.612	400.22
667.962	389.37
668.312	387.11
668.662	393.89
669.011	405.64
669.361	392.76
669.711	375.13
670.06	394.79
670.41	391.85
670.76	399.09
671.109	381.91
671.459	380.1
671.808	375.58
672.157	384.85
672.507	410.84
672.856	401.35
673.205	371.52
673.554	376.71
673.904	392.76
674.253	394.57
674.602	395.02
674.951	382.14
675.3	369.48
675.649	400.44
675.998	390.27
676.346	394.79
676.695	378.07
677.044	397.28
677.393	395.02
677.741	375.36
678.09	388.92
678.438	373.1
678.787	387.79
679.135	368.13
679.484	362.25
679.832	369.26
680.181	375.81
680.529	365.41
680.877	390.5
681.225	378.3
681.573	364.51
681.922	383.49
682.27	384.62
682.618	357.05
682.966	384.17
683.314	365.87
683.661	377.17
684.009	363.61
684.357	380.1
684.705	381.46
685.053	346.21
685.4	372.65
685.748	356.15
686.095	374.68
686.443	388.69
686.79	352.31
687.138	363.61
687.485	364.06
687.832	352.31
688.18	365.87
688.527	329.71
688.874	351.18
689.221	366.32
689.568	368.8
689.915	366.32
690.262	361.12
690.609	371.52
690.956	389.14
691.303	354.34
691.65	360.67
691.997	371.06
692.344	367.9
692.69	353.89
693.037	384.17
693.383	326.55
693.73	348.24
694.077	364.74
694.423	356.15
694.769	343.04
695.116	360.22
695.462	344.62
695.808	377.62
696.155	355.92
696.501	354.34
696.847	358.18
697.193	348.47
697.539	349.82
697.885	346.21
698.231	346.43
698.577	342.59
698.923	350.5
699.269	350.05
699.614	342.82
699.96	365.41
700.306	362.7
700.651	351.86
700.997	344.4
701.342	360.67
701.688	355.47
702.033	329.48
702.379	355.24
702.724	347.79
703.069	338.97
703.415	348.92
703.76	360.22
704.105	346.21
704.45	345.98
704.795	335.81
705.14	345.98
705.485	346.66
705.83	358.86
706.175	348.69
706.52	351.63
706.865	336.49
707.209	356.15
707.554	341.01
707.899	349.14
708.243	331.52
708.588	358.86
708.932	360.22
709.277	351.4
709.621	325.64
709.966	328.8
710.31	331.97
710.654	359.09
710.998	347.34
711.342	338.97
711.687	343.72
712.031	324.06
712.375	350.95
712.719	345.75
713.063	340.33
713.407	350.95
713.75	351.86
714.094	339.2
714.438	342.14
714.782	343.95
715.125	355.24
715.469	334.68
715.812	344.85
716.156	333.1
716.499	348.47
716.843	345.98
717.186	352.99
717.53	346.21
717.873	324.29
718.216	344.62
718.559	336.04
718.902	354.34
719.246	329.26
719.589	334.45
719.932	343.49
720.275	349.82
720.617	335.58
720.96	324.74
721.303	355.7
721.646	342.59
721.989	342.59
722.331	324.06
722.674	323.16
723.016	345.75
723.359	340.56
723.701	335.58
724.044	343.04
724.386	349.82
724.729	342.36
725.071	333.32
725.413	331.97
725.755	352.53
726.097	351.18
726.439	342.14
726.782	352.31
727.124	321.8
727.465	332.42
727.807	324.06
728.149	341.69
728.491	332.19
728.833	354.11
729.175	327.22
729.516	341.23
729.858	324.74
730.199	316.6
730.541	320.22
730.882	335.81
731.224	342.59
731.565	339.65
731.906	322.25
732.248	358.18
732.589	333.55
732.93	353.89
733.271	335.81
733.612	342.59
733.953	329.03
734.294	335.81
734.635	346.88
734.976	351.63
735.317	334.45
735.658	314.34
735.999	327.22
736.339	328.58
736.68	331.52
737.021	335.58
737.361	343.72
737.702	322.7
738.042	351.18
738.383	336.71
738.723	340.78
739.063	346.43
739.404	311.63
739.744	327.68
740.084	337.17
740.424	327.9
740.764	348.92
741.104	310.27
741.444	302.59
741.784	322.93
742.124	316.83
742.464	340.56
742.804	331.97
743.143	322.48
743.483	333.32
743.823	341.01
744.162	307.11
744.502	316.83
744.841	352.08
745.181	325.87
745.52	338.07
745.86	323.16
746.199	351.4
746.538	356.6
746.877	323.61
747.216	339.2
747.556	346.66
747.895	323.83
748.234	338.75
748.573	321.8
748.911	321.57
749.25	342.59
749.589	337.17
749.928	344.17
750.267	348.69
750.605	341.69
750.944	328.8
751.283	348.69
751.621	327.9
751.96	340.33
752.298	336.71
752.636	333.1
752.975	324.74
753.313	332.42
753.651	348.47
753.989	339.65
754.327	313.44
754.666	333.32
755.004	319.31
755.342	347.11
755.679	332.42
756.017	331.06
756.355	333.32
756.693	334.91
757.031	337.39
757.368	337.84
757.706	315.92
758.044	318.86
758.381	336.94
758.719	341.46
759.056	338.52
759.394	327.22
759.731	333.55
760.068	330.84
760.405	325.42
760.743	330.84
761.08	333.78
761.417	309.37
761.754	319.31
762.091	321.35
762.428	325.19
762.765	323.16
763.102	325.64
763.438	336.49
763.775	307.34
764.112	334.45
764.449	323.83
764.785	319.77
765.122	337.39
765.458	327.45
765.795	327.9
766.131	300.11
766.467	324.51
766.804	322.7
767.14	332.19
767.476	317.05
767.812	332.42
768.148	341.91
768.485	337.62
768.821	310.5
769.157	316.38
769.492	317.73
769.828	322.93
770.164	330.84
770.5	324.96
770.836	333.78
771.171	336.49
771.507	328.13
771.842	330.16
772.178	314.12
772.513	323.16
772.849	321.12
773.184	311.18
773.519	329.03
773.855	323.61
774.19	330.39
774.525	323.38
774.86	338.07
775.195	327.22
775.53	330.39
775.865	317.73
776.2	315.92
776.535	319.99
776.87	323.38
777.205	332.65
777.539	325.19
777.874	329.26
778.209	323.38
778.543	314.57
778.878	327.9
779.212	330.61
779.547	332.19
779.881	324.29
780.215	309.82
780.55	330.84
780.884	341.46
781.218	336.71
781.552	346.21
781.886	321.35
782.22	314.79
782.554	331.97
782.888	327.22
783.222	329.26
783.556	326.55
783.889	344.17
784.223	328.58
784.557	340.56
784.89	335.36
785.224	314.79
785.557	329.48
785.891	322.7
786.224	327
786.558	329.26
786.891	318.86
787.224	338.3
787.557	340.56
787.891	347.79
788.224	334.23
788.557	317.73
788.89	303.49
