Data from No_light_on_white_reflection_standard_FLMS001491_097.txt Node
Date: Tue Feb 07 10:33:11 GMT 2017
User: dcchb
Spectrometer: FLMS00149
Trigger mode: 0
Integration Time (sec): 2.000000E-2
Scans to average: 10
Electric dark correction enabled: true
Nonlinearity correction enabled: false
Boxcar width: 0
XAxis mode: Wavelengths
Number of Pixels in Spectrum: 2048
>>>>>Begin Spectral Data<<<<<
341.393	-11.82
341.776	-11.82
342.16	-11.82
342.543	-63.57
342.927	-70.13
343.31	-87.07
343.693	-86.85
344.077	-71.03
344.46	-63.35
344.843	-33.52
345.226	-45.27
345.61	-10.92
345.993	-7.3
346.376	-12.73
346.759	19.36
347.142	30.89
347.525	59.36
347.908	39.48
348.291	77.89
348.674	82.41
349.057	108.63
349.44	118.12
349.823	134.62
350.206	151.11
350.588	170.77
350.971	191.56
351.354	209.19
351.737	217.55
352.119	225.91
352.502	259.13
352.884	252.58
353.267	260.04
353.65	262.3
354.032	259.58
354.414	283.54
354.797	303.42
355.179	314.27
355.562	274.27
355.944	298.23
356.326	295.06
356.709	311.56
357.091	319.24
357.473	318.34
357.855	294.38
358.238	303.2
358.62	289.87
359.002	312.24
359.384	298.45
359.766	319.92
360.148	307.72
360.53	303.42
360.912	301.39
361.294	295.06
361.676	309.98
362.057	286.7
362.439	272.46
362.821	295.29
363.203	282.18
363.584	301.16
363.966	300.49
364.348	301.39
364.729	290.09
365.111	300.49
365.493	279.7
365.874	273.82
366.256	279.92
366.637	281.05
367.019	293.48
367.4	292.8
367.781	271.56
368.163	280.15
368.544	283.09
368.925	268.17
369.306	262.3
369.688	266.36
370.069	278.34
370.45	272.01
370.831	278.57
371.212	281.96
371.593	290.32
371.974	284.22
372.355	281.96
372.736	264.33
373.117	257.55
373.498	266.36
373.879	274.5
374.26	291.22
374.641	280.15
375.021	270.88
375.402	289.19
375.783	294.16
376.163	268.62
376.544	264.78
376.925	284.22
377.305	268.4
377.686	263.43
378.066	280.83
378.447	281.05
378.827	280.6
379.208	282.18
379.588	283.99
379.968	288.28
380.349	277.44
380.729	298
381.109	292.8
381.489	273.14
381.87	278.79
382.25	281.05
382.63	295.97
383.01	282.41
383.39	288.51
383.77	276.53
384.15	279.47
384.53	297.1
384.91	293.03
385.29	272.69
385.67	276.53
386.049	291.67
386.429	286.93
386.809	299.36
387.189	285.35
387.568	285.8
387.948	281.96
388.328	305.23
388.707	274.72
389.087	292.13
389.466	274.05
389.846	274.72
390.225	290.09
390.605	258.68
390.984	288.74
391.363	274.5
391.743	294.61
392.122	304.33
392.501	276.08
392.881	288.51
393.26	291.45
393.639	272.69
394.018	306.81
394.397	302.97
394.776	299.13
395.155	304.1
395.534	293.48
395.913	281.5
396.292	301.84
396.671	307.04
397.05	288.74
397.429	287.83
397.808	295.29
398.186	294.38
398.565	305.91
398.944	300.26
399.323	289.87
399.701	281.96
400.08	293.71
400.458	305.01
400.837	307.27
401.215	321.73
401.594	289.64
401.972	288.74
402.351	284.22
402.729	307.72
403.107	306.36
403.486	293.48
403.864	270.43
404.242	293.93
404.62	312.46
404.999	309.3
405.377	333.71
405.755	299.36
406.133	286.25
406.511	295.51
406.889	275.85
407.267	308.4
407.645	305.68
408.023	318.79
408.401	286.48
408.779	304.55
409.156	302.52
409.534	277.21
409.912	309.3
410.29	323.31
410.667	300.26
411.045	293.93
411.422	277.21
411.8	286.93
412.178	284.67
412.555	299.58
412.933	297.1
413.31	310.66
413.687	281.28
414.065	288.96
414.442	295.29
414.819	299.58
415.197	318.79
415.574	310.66
415.951	296.42
416.328	289.87
416.705	317.21
417.082	318.57
417.46	323.31
417.837	302.75
418.214	298.68
418.591	293.03
418.967	311.11
419.344	320.6
419.721	303.42
420.098	314.05
420.475	302.29
420.852	309.53
421.228	305.91
421.605	308.17
421.982	310.43
422.358	301.16
422.735	313.82
423.111	300.03
423.488	329.19
423.864	323.76
424.241	330.09
424.617	310.2
424.994	309.53
425.37	330.99
425.746	294.84
426.123	302.97
426.499	315.18
426.875	325.12
427.251	301.84
427.627	300.03
428.003	316.98
428.379	296.87
428.756	311.33
429.132	323.08
429.507	301.16
429.883	313.82
430.259	302.97
430.635	306.36
431.011	317.21
431.387	313.82
431.763	328.73
432.138	340.94
432.514	304.1
432.89	318.34
433.265	330.77
433.641	322.41
434.016	298.9
434.392	336.64
434.767	323.31
435.143	305.23
435.518	328.96
435.894	320.82
436.269	326.93
436.644	317.44
437.02	322.86
437.395	340.26
437.77	340.26
438.145	322.63
438.52	342.07
438.895	319.47
439.271	338
439.646	318.79
440.021	339.36
440.395	328.96
440.77	348.85
441.145	336.42
441.52	326.25
441.895	337.55
442.27	330.09
442.645	341.84
443.019	355.4
443.394	354.95
443.769	340.49
444.143	345.23
444.518	345.01
444.892	355.63
445.267	348.39
445.641	352.46
446.016	347.94
446.39	361.05
446.764	359.92
447.139	339.13
447.513	358.11
447.887	350.65
448.262	346.36
448.636	367.15
449.01	383.65
449.384	378.68
449.758	362.18
450.132	336.87
450.506	350.88
450.88	366.93
451.254	374.61
451.628	371.22
452.002	357.66
452.376	370.54
452.75	375.74
453.123	368.73
453.497	367.15
453.871	368.28
454.244	367.6
454.618	354.5
454.992	367.83
455.365	353.82
455.739	372.35
456.112	380.94
456.486	368.51
456.859	372.12
457.232	346.81
457.606	349.75
457.979	379.81
458.352	347.49
458.725	361.5
459.099	367.38
459.472	371.45
459.845	359.47
460.218	375.51
460.591	361.28
460.964	359.47
461.337	352.46
461.71	359.24
462.083	340.71
462.456	352.01
462.829	340.94
463.201	364.89
463.574	348.39
463.947	370.09
464.32	368.51
464.692	366.02
465.065	368.73
465.438	347.04
465.81	352.01
466.183	357.66
466.555	338
466.928	368.51
467.3	356.98
467.672	355.4
468.045	363.31
468.417	344.55
468.789	363.76
469.161	356.76
469.534	352.69
469.906	340.26
470.278	351.11
470.65	348.62
471.022	353.37
471.394	356.53
471.766	345.46
472.138	352.46
472.51	346.36
472.882	363.54
473.253	361.28
473.625	368.73
473.997	340.03
474.369	347.94
474.74	339.13
475.112	353.82
475.484	334.38
475.855	362.41
476.227	350.2
476.598	342.97
476.97	347.49
477.341	355.17
477.713	352.69
478.084	334.16
478.455	332.12
478.827	332.8
479.198	346.81
479.569	361.28
479.94	341.39
480.311	354.04
480.682	366.93
481.053	354.5
481.424	351.56
481.795	357.43
482.166	372.57
482.537	377.77
482.908	352.91
483.279	363.76
483.65	347.26
484.021	361.95
484.391	342.75
484.762	369.86
485.133	370.77
485.503	358.11
485.874	367.38
486.244	363.76
486.615	369.86
486.985	354.5
487.356	355.85
487.726	372.35
488.097	371.67
488.467	363.54
488.837	375.51
489.207	378.9
489.578	395.4
489.948	372.12
490.318	384.78
490.688	389.3
491.058	382.52
491.428	372.35
491.798	381.39
492.168	379.35
492.538	397.21
492.908	394.27
493.278	393.14
493.648	396.08
494.017	376.42
494.387	377.32
494.757	380.26
495.126	371.9
495.496	361.5
495.866	380.94
496.235	393.37
496.605	392.46
496.974	377.55
497.344	376.19
497.713	387.72
498.082	395.4
498.452	396.08
498.821	396.76
499.19	396.08
499.559	398.11
499.928	403.53
500.298	381.61
500.667	395.17
501.036	402.63
501.405	393.14
501.774	432.01
502.143	417.09
502.512	414.61
502.88	428.62
503.249	401.95
503.618	389.3
503.987	395.85
504.356	409.41
504.724	408.51
505.093	416.19
505.462	430.88
505.83	426.13
506.199	423.42
506.567	412.8
506.936	440.37
507.304	441.05
507.672	423.42
508.041	410.09
508.409	428.62
508.777	432.91
509.145	420.48
509.514	435.17
509.882	435.17
510.25	436.3
510.618	423.87
510.986	434.27
511.354	435.62
511.722	441.73
512.09	438.34
512.458	447.38
512.826	442.86
513.193	444.89
513.561	446.92
513.929	465.68
514.297	451.67
514.664	469.75
515.032	448.28
515.4	451.22
515.767	470.88
516.135	448.96
516.502	458.67
516.869	437.21
517.237	426.81
517.604	452.35
517.972	460.71
518.339	472.91
518.706	458.9
519.073	467.49
519.44	453.25
519.808	436.98
520.175	468.39
520.542	489.63
520.909	456.87
521.276	485.79
521.643	449.86
522.009	476.75
522.376	469.3
522.743	488.5
523.11	465.91
523.477	486.02
523.843	481.72
524.21	483.53
524.577	469.97
524.943	493.93
525.31	477.88
525.676	471.1
526.043	466.58
526.409	470.65
526.776	490.76
527.142	503.64
527.508	468.17
527.874	515.62
528.241	468.39
528.607	474.04
528.973	513.59
529.339	494.38
529.705	500.03
530.071	477.43
530.437	493.93
530.803	474.49
531.169	489.63
531.535	473.82
531.901	504.55
532.267	509.97
532.632	483.08
532.998	484.21
533.364	500.26
533.73	500.71
534.095	477.66
534.461	507.26
534.826	497.54
535.192	520.82
535.557	509.75
535.923	522.18
536.288	529.41
536.653	521.27
537.019	516.07
537.384	503.42
537.749	524.21
538.114	515.4
538.479	526.24
538.845	513.36
539.21	494.61
539.575	514.72
539.94	510.65
540.305	516.3
540.67	536.86
541.034	501.39
541.399	536.86
541.764	526.24
542.129	506.13
542.494	502.52
542.858	528.96
543.223	522.85
543.587	505.68
543.952	514.72
544.316	500.93
544.681	498.45
545.045	536.86
545.41	526.92
545.774	520.59
546.138	517.88
546.503	524.21
546.867	545.23
547.231	528.5
547.595	536.41
547.959	524.44
548.324	532.12
548.688	517.2
549.052	507.94
549.416	532.34
549.779	507.49
550.143	518.79
550.507	551.55
550.871	524.44
551.235	538.9
551.599	539.35
551.962	502.97
552.326	517.88
552.689	538.9
553.053	522.18
553.417	552.23
553.78	548.84
554.143	537.99
554.507	548.84
554.87	536.86
555.234	529.18
555.597	531.21
555.96	535.73
556.323	550.65
556.686	543.19
557.05	554.94
557.413	551.78
557.776	540.03
558.139	555.62
558.502	542.29
558.865	563.08
559.228	543.19
559.59	545.68
559.953	547.26
560.316	554.04
560.679	560.59
561.041	562.63
561.404	558.78
561.767	548.84
562.129	552.01
562.492	548.62
562.854	551.78
563.217	557.65
563.579	559.24
563.941	579.35
564.304	578.9
564.666	565.34
565.028	573.02
565.39	576.64
565.753	570.54
566.115	572.57
566.477	568.73
566.839	574.15
567.201	563.08
567.563	559.01
567.925	586.35
568.287	575.06
568.648	589.52
569.01	569.63
569.372	583.87
569.734	589.52
570.095	595.17
570.457	576.64
570.819	591.1
571.18	562.17
571.542	572.57
571.903	581.38
572.265	580.48
572.626	581.61
572.987	568.73
573.349	588.16
573.71	605.11
574.071	588.61
574.432	592.91
574.794	579.58
575.155	585.9
575.516	580.25
575.877	597.65
576.238	571.67
576.599	610.53
576.96	559.24
577.32	596.52
577.681	588.16
578.042	582.51
578.403	591.78
578.763	601.5
579.124	604.43
579.485	615.28
579.845	594.72
580.206	592
580.566	580.03
580.927	591.78
581.287	602.63
581.648	583.19
582.008	603.98
582.368	567.15
582.728	599.24
583.089	586.81
583.449	604.43
583.809	575.96
584.169	579.35
584.529	601.27
584.889	582.74
585.249	587.26
585.609	578.9
585.969	595.17
586.329	597.88
586.688	597.88
587.048	591.1
587.408	598.56
587.768	593.13
588.127	592.91
588.487	610.76
588.846	610.53
589.206	576.64
589.565	599.01
589.925	584.09
590.284	579.35
590.643	586.13
591.003	593.59
591.362	571.67
591.721	581.16
592.08	590.2
592.44	582.29
592.799	576.41
593.158	571.21
593.517	596.07
593.876	567.15
594.235	573.93
594.593	587.71
594.952	584.09
595.311	582.96
595.67	592.91
596.029	568.28
596.387	589.52
596.746	583.87
597.104	569.63
597.463	570.54
597.822	586.13
598.18	576.41
598.538	581.61
598.897	558.78
599.255	576.41
599.613	567.82
599.972	584.32
600.33	566.69
600.688	564.89
601.046	572.8
601.404	566.24
601.762	573.02
602.12	562.85
602.478	568.95
602.836	595.17
603.194	579.12
603.552	577.99
603.91	560.14
604.268	582.51
604.625	543.42
604.983	572.8
605.341	593.59
605.698	560.59
606.056	565.11
606.413	573.93
606.771	568.95
607.128	576.86
607.485	560.37
607.843	560.37
608.2	570.31
608.557	596.07
608.914	576.64
609.272	566.92
609.629	544.32
609.986	562.4
610.343	572.34
610.7	574.15
611.057	563.3
611.414	568.28
611.771	568.05
612.127	556.3
612.484	575.73
612.841	547.49
613.198	529.18
613.554	561.04
613.911	537.99
614.267	528.28
614.624	534.6
614.98	549.29
615.337	555.17
615.693	516.75
616.05	549.97
616.406	548.39
616.762	539.35
617.118	554.04
617.475	536.86
617.831	549.07
618.187	572.34
618.543	538.45
618.899	531.21
619.255	535.28
619.611	527.83
619.967	516.98
620.323	536.86
620.678	532.34
621.034	548.84
621.39	511.1
621.746	523.08
622.101	540.25
622.457	528.73
622.812	503.64
623.168	521.05
623.523	510.65
623.879	503.42
624.234	520.37
624.589	517.2
624.945	522.18
625.3	510.2
625.655	530.99
626.01	524.66
626.365	515.62
626.72	512.01
627.075	535.28
627.43	520.59
627.785	509.75
628.14	492.57
628.495	512.23
628.85	500.71
629.205	496.41
629.559	510.2
629.914	508.16
630.269	485.57
630.623	504.1
630.978	499.8
631.332	499.58
631.687	493.93
632.041	474.95
632.396	501.61
632.75	482.18
633.104	486.24
633.459	487.15
633.813	490.31
634.167	492.8
634.521	465.23
634.875	469.52
635.229	481.5
635.583	496.41
635.937	476.75
636.291	483.53
636.645	482.85
636.999	478.56
637.352	473.14
637.706	477.66
638.06	465.23
638.413	467.26
638.767	471.33
639.121	471.1
639.474	500.71
639.828	490.54
640.181	452.35
640.534	460.26
640.888	468.39
641.241	462.06
641.594	467.49
641.947	459.58
642.301	473.14
642.654	451.67
643.007	462.06
643.36	476.53
643.713	482.85
644.066	466.81
644.419	454.83
644.771	440.82
645.124	443.99
645.477	460.48
645.83	460.48
646.182	445.34
646.535	446.25
646.888	455.74
647.24	461.61
647.593	454.15
647.945	446.02
648.298	436.98
648.65	427.26
649.002	438.34
649.355	447.6
649.707	441.05
650.059	452.8
650.411	435.4
650.763	413.48
651.115	454.61
651.467	425.45
651.819	452.8
652.171	456.19
652.523	443.53
652.875	432.91
653.227	419.81
653.578	442.86
653.93	430.43
654.282	454.15
654.633	426.58
654.985	429.97
655.337	438.79
655.688	422.07
656.039	412.57
656.391	420.26
656.742	424.55
657.094	415.74
657.445	432.46
657.796	403.76
658.147	417.32
658.498	413.25
658.849	417.77
659.2	407.38
659.551	415.96
659.902	414.83
660.253	396.08
660.604	410.99
660.955	405.79
661.306	422.52
661.656	425.68
662.007	384.78
662.358	394.27
662.708	400.6
663.059	395.17
663.409	401.05
663.76	394.04
664.11	399.69
664.461	402.18
664.811	420.94
665.161	394.27
665.511	390.65
665.862	411.22
666.212	401.73
666.562	408.28
666.912	382.52
667.262	380.71
667.612	384.1
667.962	392.46
668.312	403.31
668.662	417.77
669.011	387.72
669.361	387.26
669.711	401.73
670.06	374.61
670.41	394.04
670.76	389.75
671.109	381.61
671.459	385.46
671.808	375.29
672.157	390.43
672.507	397.66
672.856	377.55
673.205	415.29
673.554	389.52
673.904	375.51
674.253	382.97
674.602	380.03
674.951	382.29
675.3	389.07
675.649	384.78
675.998	371.22
676.346	390.88
676.695	380.03
677.044	400.37
677.393	376.42
677.741	388.39
678.09	378
678.438	370.99
678.787	385.91
679.135	371.22
679.484	370.32
679.832	384.1
680.181	406.02
680.529	359.92
680.877	388.39
681.225	387.49
681.573	384.55
681.922	364.67
682.27	373.93
682.618	364.89
682.966	367.38
683.314	366.93
683.661	354.72
684.009	376.19
684.357	372.35
684.705	384.1
685.053	370.77
685.4	364.67
685.748	384.1
686.095	366.25
686.443	369.19
686.79	354.95
687.138	362.41
687.485	346.36
687.832	371.67
688.18	361.73
688.527	376.42
688.874	345.91
689.221	357.43
689.568	365.57
689.915	344.55
690.262	378.22
690.609	368.51
690.956	360.15
691.303	348.85
691.65	363.31
691.997	365.34
692.344	355.85
692.69	369.86
693.037	374.83
693.383	349.52
693.73	357.21
694.077	354.95
694.423	340.71
694.769	352.46
695.116	358.79
695.462	372.12
695.808	343.42
696.155	378.68
696.501	364.44
696.847	352.01
697.193	372.57
697.539	368.06
697.885	349.07
698.231	357.89
698.577	352.91
698.923	350.43
699.269	366.02
699.614	354.72
699.96	360.15
700.306	352.46
700.651	362.18
700.997	366.7
701.342	358.56
701.688	367.15
702.033	366.47
702.379	347.49
702.724	343.42
703.069	370.54
703.415	369.86
703.76	347.26
704.105	351.78
704.45	345.01
704.795	349.3
705.14	331.45
705.485	347.94
705.83	350.2
706.175	362.86
706.52	349.07
706.865	340.49
707.209	365.8
707.554	354.27
707.899	340.94
708.243	353.37
708.588	359.24
708.932	332.58
709.277	328.28
709.621	361.95
709.966	353.82
710.31	339.81
710.654	352.24
710.998	354.27
711.342	354.27
711.687	363.76
712.031	353.14
712.375	328.96
712.719	339.58
713.063	364.21
713.407	363.54
713.75	368.28
714.094	347.49
714.438	341.62
714.782	343.42
715.125	348.85
715.469	345.46
715.812	352.91
716.156	337.32
716.499	343.42
716.843	348.39
717.186	348.62
717.53	342.29
717.873	354.27
718.216	341.62
718.559	347.26
718.902	337.77
719.246	346.59
719.589	337.1
719.932	366.25
720.275	359.24
720.617	338.45
720.96	360.6
721.303	354.72
721.646	342.29
721.989	359.69
722.331	344.1
722.674	349.98
723.016	336.64
723.359	322.86
723.701	320.37
724.044	332.58
724.386	332.35
724.729	327.38
725.071	347.49
725.413	350.43
725.755	361.95
726.097	340.94
726.439	315.4
726.782	347.72
727.124	338.9
727.465	325.12
727.807	330.54
728.149	329.64
728.491	334.84
728.833	346.81
729.175	341.16
729.516	328.73
729.858	329.86
730.199	346.36
730.541	324.67
730.882	330.09
731.224	343.42
731.565	347.26
731.906	325.12
732.248	355.63
732.589	341.39
732.93	322.86
733.271	323.08
733.612	341.62
733.953	336.64
734.294	321.28
734.635	354.27
734.976	350.2
735.317	317.89
735.658	343.88
735.999	347.94
736.339	345.01
736.68	339.36
737.021	341.16
737.361	323.54
737.702	351.11
738.042	338.23
738.383	331.22
738.723	331.67
739.063	336.87
739.404	327.83
739.744	335.97
740.084	334.16
740.424	330.54
740.764	353.14
741.104	338.45
741.444	325.34
741.784	362.63
742.124	329.19
742.464	336.42
742.804	339.81
743.143	320.6
743.483	335.06
743.823	334.61
744.162	329.64
744.502	337.32
744.841	331.22
745.181	333.25
745.52	336.64
745.86	325.57
746.199	310.2
746.538	319.24
746.877	325.34
747.216	344.33
747.556	330.99
747.895	330.99
748.234	346.81
748.573	336.64
748.911	347.49
749.25	337.77
749.589	338.9
749.928	315.4
750.267	327.6
750.605	312.01
750.944	327.38
751.283	323.08
751.621	319.24
751.96	353.14
752.298	333.03
752.636	336.42
752.975	330.32
753.313	332.58
753.651	342.75
753.989	340.26
754.327	333.48
754.666	342.52
755.004	329.64
755.342	329.41
755.679	343.88
756.017	306.81
756.355	336.19
756.693	337.77
757.031	330.54
757.368	320.6
757.706	342.97
758.044	331.22
758.381	332.58
758.719	311.56
759.056	327.38
759.394	319.24
759.731	335.97
760.068	323.31
760.405	307.27
760.743	315.18
761.08	331.45
761.417	321.05
761.754	329.64
762.091	320.37
762.428	343.42
762.765	330.09
763.102	328.73
763.438	335.29
763.775	327.38
764.112	331.22
764.449	318.57
764.785	354.27
765.122	305.46
765.458	344.33
765.795	331.22
766.131	336.19
766.467	317.66
766.804	339.36
767.14	339.13
767.476	344.1
767.812	330.77
768.148	327.38
768.485	325.57
768.821	310.88
769.157	313.37
769.492	340.26
769.828	332.58
770.164	334.16
770.5	323.99
770.836	325.57
771.171	322.41
771.507	329.41
771.842	329.19
772.178	316.76
772.513	319.69
772.849	319.24
773.184	319.24
773.519	335.51
773.855	327.38
774.19	323.76
774.525	341.16
774.86	335.74
775.195	332.8
775.53	345.46
775.865	324.21
776.2	319.69
776.535	348.17
776.87	332.12
777.205	324.21
777.539	349.52
777.874	339.13
778.209	332.58
778.543	331.9
778.878	328.73
779.212	336.42
779.547	340.26
779.881	333.48
780.215	330.99
780.55	337.1
780.884	320.15
781.218	328.73
781.552	316.98
781.886	328.96
782.22	326.7
782.554	332.8
782.888	305.46
783.222	334.38
783.556	330.99
783.889	333.25
784.223	329.41
784.557	330.99
784.89	337.32
785.224	342.97
785.557	319.02
785.891	335.51
786.224	338.23
786.558	325.8
786.891	351.11
787.224	310.43
787.557	323.76
787.891	309.75
788.224	332.12
788.557	323.31
