Data from No_light_on_white_reflection_standard_FLMS001491_055.txt Node
Date: Tue Feb 07 10:33:03 GMT 2017
User: dcchb
Spectrometer: FLMS00149
Trigger mode: 0
Integration Time (sec): 2.000000E-2
Scans to average: 10
Electric dark correction enabled: true
Nonlinearity correction enabled: false
Boxcar width: 0
XAxis mode: Wavelengths
Number of Pixels in Spectrum: 2048
>>>>>Begin Spectral Data<<<<<
341.393	-6
341.776	-6
342.16	-6
342.543	-61.59
342.927	-50.3
343.31	-51.43
343.693	-62.95
344.077	-59.79
344.46	-68.83
344.843	-53.69
345.226	-39.45
345.61	-56.62
345.993	-18.66
346.376	15.69
346.759	17.73
347.142	19.08
347.525	22.92
347.908	58.18
348.291	86.42
348.674	88.68
349.057	102.7
349.44	124.39
349.823	158.06
350.206	142.69
350.588	157.83
350.971	179.08
351.354	222.01
351.737	198.74
352.119	223.82
352.502	226.99
352.884	251.17
353.267	247.1
353.65	252.3
354.032	277.15
354.414	255.69
354.797	272.18
355.179	290.94
355.562	304.5
355.944	309.24
356.326	290.03
356.709	285.74
357.091	292.29
357.473	285.97
357.855	303.82
358.238	301.33
358.62	293.65
359.002	295.68
359.384	308.57
359.766	299.98
360.148	293.2
360.53	308.79
360.912	294.33
361.294	294.33
361.676	293.65
362.057	278.96
362.439	303.59
362.821	297.94
363.203	296.59
363.584	264.27
363.966	295.23
364.348	285.74
364.729	300.66
365.111	262.92
365.493	271.05
365.874	281.22
366.256	284.39
366.637	283.48
367.019	261.79
367.4	268.57
367.781	277.15
368.163	280.77
368.544	285.97
368.925	265.63
369.306	282.8
369.688	288.68
370.069	286.87
370.45	273.54
370.831	270.15
371.212	254.78
371.593	256.82
371.974	274.89
372.355	264.5
372.736	263.14
373.117	274.67
373.498	286.42
373.879	268.34
374.26	278.06
374.641	270.15
375.021	278.74
375.402	260.88
375.783	253.65
376.163	264.95
376.544	250.94
376.925	257.95
377.305	288.23
377.686	275.12
378.066	283.03
378.447	294.33
378.827	282.8
379.208	273.99
379.588	262.69
379.968	286.19
380.349	283.71
380.729	283.26
381.109	270.83
381.489	294.1
381.87	269.7
382.25	286.87
382.63	305.4
383.01	277.15
383.39	263.59
383.77	268.11
384.15	293.2
384.53	303.59
384.91	284.39
385.29	301.33
385.67	289.13
386.049	294.55
386.429	281.9
386.809	304.05
387.189	290.26
387.568	301.11
387.948	286.65
388.328	277.83
388.707	291.39
389.087	295.91
389.466	303.82
389.846	264.5
390.225	287.1
390.605	286.87
390.984	301.56
391.363	293.2
391.743	281
392.122	298.62
392.501	297.72
392.881	326.19
393.26	316.02
393.639	297.94
394.018	280.77
394.397	283.71
394.776	291.16
395.155	299.75
395.534	315.8
395.913	314.44
396.292	281
396.671	291.84
397.05	283.71
397.429	285.06
397.808	285.97
398.186	293.65
398.565	290.03
398.944	286.87
399.323	267.66
399.701	285.97
400.08	291.16
400.458	301.79
400.837	305.18
401.215	297.49
401.594	297.72
401.972	290.49
402.351	291.39
402.729	296.81
403.107	304.72
403.486	303.82
403.864	276.7
404.242	295.46
404.62	315.34
404.999	295.23
405.377	283.48
405.755	288.45
406.133	273.99
406.511	301.11
406.889	298.85
407.267	295.68
407.645	275.57
408.023	311.05
408.401	299.07
408.779	290.03
409.156	302.69
409.534	308.79
409.912	295.68
410.29	301.79
410.667	282.35
411.045	296.59
411.422	290.03
411.8	301.79
412.178	283.71
412.555	283.26
412.933	284.61
413.31	300.66
413.687	293.65
414.065	281.45
414.442	278.96
414.819	292.52
415.197	318.28
415.574	293.42
415.951	314.89
416.328	297.94
416.705	322.58
417.082	303.37
417.46	310.37
417.837	309.02
418.214	295.01
418.591	294.33
418.967	307.66
419.344	315.12
419.721	282.58
420.098	296.14
420.475	313.99
420.852	315.12
421.228	292.07
421.605	295.91
421.982	288.45
422.358	284.84
422.735	320.54
423.111	321.22
423.488	317.15
423.864	297.49
424.241	318.96
424.617	309.7
424.994	308.57
425.37	318.51
425.746	298.62
426.123	302.92
426.499	315.34
426.875	303.59
427.251	302.01
427.627	321.22
428.003	316.47
428.379	304.05
428.756	296.36
429.132	320.99
429.507	291.62
429.883	302.46
430.259	320.54
430.635	320.99
431.011	297.72
431.387	306.76
431.763	327.55
432.138	336.36
432.514	323.25
432.89	315.34
433.265	332.52
433.641	321.9
434.016	313.54
434.392	307.66
434.767	324.61
435.143	311.96
435.518	339.07
435.894	317.38
436.269	342.46
436.644	310.83
437.02	311.5
437.395	310.15
437.77	344.72
438.145	327.1
438.52	345.4
438.895	333.2
439.271	327.55
439.646	318.06
440.021	322.58
440.395	335.68
440.77	331.16
441.145	337.27
441.52	307.21
441.895	348.11
442.27	325.51
442.645	339.52
443.019	342.69
443.394	361.45
443.769	340.65
444.143	325.97
444.518	327.1
444.892	333.88
445.267	352.63
445.641	356.47
446.016	347.66
446.39	348.79
446.764	350.37
447.139	349.24
447.513	342.69
447.887	366.42
448.262	384.95
448.636	361.67
449.01	356.7
449.384	353.31
449.758	361.22
450.132	351.05
450.506	351.28
450.88	369.13
451.254	373.42
451.628	360.99
452.002	375
452.376	349.92
452.75	367.55
453.123	372.97
453.497	390.15
453.871	365.74
454.244	354.21
454.618	371.39
454.992	366.87
455.365	371.84
455.739	360.09
456.112	357.38
456.486	362.58
456.859	358.96
457.232	365.06
457.606	369.35
457.979	362.12
458.352	335.68
458.725	351.05
459.099	356.02
459.472	363.71
459.845	377.26
460.218	354.89
460.591	347.21
460.964	375.46
461.337	360.54
461.71	364.84
462.083	352.18
462.456	375.46
462.829	352.86
463.201	364.16
463.574	344.5
463.947	349.47
464.32	355.8
464.692	361.45
465.065	375
465.438	352.63
465.81	346.76
466.183	353.99
466.555	349.92
466.928	364.61
467.3	360.54
467.672	358.96
468.045	371.16
468.417	366.42
468.789	364.61
469.161	366.19
469.534	355.12
469.906	372.07
470.278	358.28
470.65	351.73
471.022	340.65
471.394	318.96
471.766	357.38
472.138	340.2
472.51	364.16
472.882	363.25
473.253	365.96
473.625	336.81
473.997	366.87
474.369	351.95
474.74	356.25
475.112	356.02
475.484	355.12
475.855	372.97
476.227	356.47
476.598	347.21
476.97	350.6
477.341	360.77
477.713	365.74
478.084	351.95
478.455	360.99
478.827	351.05
479.198	349.24
479.569	358.51
479.94	370.48
480.311	358.51
480.682	351.28
481.053	365.29
481.424	356.25
481.795	352.41
482.166	366.19
482.537	371.61
482.908	349.47
483.279	349.02
483.65	349.47
484.021	344.5
484.391	377.04
484.762	361.45
485.133	357.83
485.503	360.99
485.874	368
486.244	371.61
486.615	356.47
486.985	359.64
487.356	363.93
487.726	358.73
488.097	356.7
488.467	373.65
488.837	371.61
489.207	362.8
489.578	379.75
489.948	359.64
490.318	362.12
490.688	388.34
491.058	371.39
491.428	372.52
491.798	389.69
492.168	372.52
492.538	368
492.908	365.96
493.278	378.62
493.648	373.65
494.017	401.22
494.387	367.77
494.757	375.23
495.126	404.38
495.496	378.39
495.866	383.82
496.235	413.42
496.605	370.03
496.974	393.53
497.344	409.35
497.713	379.07
498.082	375.46
498.452	385.4
498.821	400.54
499.19	409.13
499.559	416.36
499.928	391.95
500.298	397.15
500.667	384.27
501.036	421.1
501.405	395.79
501.774	392.63
502.143	392.86
502.512	375.68
502.88	418.84
503.249	390.6
503.618	409.35
503.987	409.13
504.356	404.61
504.724	394.89
505.093	393.99
505.462	401.9
505.83	432.63
506.199	427.21
506.567	407.77
506.936	430.6
507.304	430.6
507.672	416.13
508.041	430.82
508.409	427.43
508.777	424.95
509.145	434.21
509.514	428.56
509.882	443.25
510.25	430.14
510.618	420.65
510.986	432.63
511.354	419.52
511.722	433.31
512.09	429.24
512.458	457.49
512.826	446.19
513.193	442.35
513.561	454.78
513.929	449.58
514.297	440.09
514.664	444.83
515.032	429.69
515.4	448.67
515.767	449.13
516.135	446.41
516.502	437.15
516.869	436.47
517.237	442.8
517.604	445.51
517.972	469.92
518.339	452.52
518.706	452.74
519.073	455.45
519.44	459.07
519.808	453.87
520.175	455.45
520.542	473.31
520.909	467.66
521.276	469.69
521.643	447.09
522.009	445.06
522.376	452.97
522.743	462.91
523.11	467.43
523.477	488.22
523.843	479.41
524.21	458.39
524.577	468.11
524.943	491.39
525.31	466.08
525.676	474.44
526.043	479.63
526.409	492.52
526.776	492.29
527.142	487.32
527.508	515.57
527.874	486.64
528.241	473.76
528.607	482.12
528.973	470.82
529.339	502.91
529.705	497.26
530.071	482.35
530.437	489.13
530.803	495.91
531.169	517.37
531.535	488.22
531.901	479.86
532.267	484.61
532.632	489.35
532.998	494.32
533.364	494.1
533.73	499.97
534.095	500.88
534.461	485.28
534.826	486.19
535.192	490.48
535.557	504.94
535.923	488.45
536.288	527.09
536.653	511.72
537.019	498.62
537.384	512.4
537.749	495.68
538.114	535.45
538.479	525.06
538.845	505.85
539.21	506.53
539.575	510.37
539.94	518.73
540.305	520.09
540.67	523.7
541.034	513.08
541.399	499.97
541.764	520.54
542.129	516.92
542.494	521.89
542.858	505.17
543.223	505.85
543.587	516.92
543.952	507.66
544.316	528.9
544.681	494.55
545.045	530.03
545.41	511.05
545.774	528.67
546.138	511.05
546.503	516.24
546.867	527.77
547.231	522.57
547.595	532.74
547.959	536.36
548.324	540.65
548.688	517.37
549.052	525.06
549.416	506.53
549.779	551.95
550.143	518.28
550.507	528.67
550.871	523.02
551.235	558.95
551.599	521.22
551.962	557.6
552.326	540.65
552.689	532.74
553.053	555.79
553.417	548.56
553.78	544.94
554.143	536.58
554.507	540.42
554.87	552.85
555.234	534.1
555.597	520.09
555.96	538.84
556.323	539.75
556.686	568.67
557.05	566.86
557.413	570.71
557.776	543.14
558.139	534.32
558.502	565.06
558.865	551.95
559.228	546.53
559.59	546.75
559.953	540.42
560.316	553.53
560.679	550.82
561.041	557.82
561.404	557.6
561.767	561.89
562.129	565.28
562.492	563.25
562.854	549.01
563.217	561.21
563.579	560.99
563.941	569.58
564.304	572.06
564.666	547.2
565.028	561.89
565.39	546.3
565.753	562.57
566.115	547.88
566.477	560.76
566.839	572.06
567.201	561.44
567.563	576.58
567.925	578.84
568.287	571.61
568.648	587.2
569.01	590.14
569.372	576.35
569.734	548.56
570.095	564.38
570.457	594.21
570.819	568.9
571.18	583.13
571.542	587.65
571.903	586.07
572.265	573.64
572.626	580.2
572.987	593.98
573.349	589.91
573.71	564.6
574.071	579.07
574.432	581.33
574.794	603.47
575.155	605.28
575.516	574.55
575.877	572.29
576.238	573.42
576.599	580.2
576.96	597.6
577.32	570.25
577.681	583.36
578.042	577.71
578.403	577.03
578.763	570.48
579.124	571.16
579.485	576.13
579.845	590.82
580.206	591.27
580.566	588.33
580.927	582.91
581.287	585.85
581.648	598.73
582.008	579.52
582.368	602.57
582.728	584.04
583.089	582.23
583.449	601.21
583.809	594.43
584.169	586.07
584.529	589.24
584.889	596.69
585.249	587.2
585.609	592.63
585.969	595.79
586.329	603.92
586.688	591.04
587.048	574.32
587.408	575
587.768	603.02
588.127	591.95
588.487	596.69
588.846	610.03
589.206	576.35
589.565	595.79
589.925	593.76
590.284	578.16
590.643	568.9
591.003	589.91
591.362	590.82
591.721	567.32
592.08	580.65
592.44	591.95
592.799	575.45
593.158	578.84
593.517	597.82
593.876	583.13
594.235	567.32
594.593	574.32
594.952	601.89
595.311	582.23
595.67	574.77
596.029	568.22
596.387	594.89
596.746	577.94
597.104	570.25
597.463	597.15
597.822	590.37
598.18	570.93
598.538	585.62
598.897	569.8
599.255	580.42
599.613	558.05
599.972	562.12
600.33	566.19
600.688	585.85
601.046	575
601.404	584.04
601.762	587.2
602.12	573.87
602.478	554.21
602.836	546.3
603.194	560.99
603.552	603.47
603.91	558.05
604.268	571.84
604.625	561.44
604.983	575.68
605.341	564.15
605.698	544.04
606.056	559.41
606.413	560.76
606.771	555.79
607.128	584.49
607.485	565.06
607.843	558.28
608.2	549.46
608.557	560.76
608.914	565.73
609.272	576.58
609.629	569.12
609.986	543.14
610.343	560.08
610.7	568.45
611.057	563.93
611.414	562.8
611.771	542.46
612.127	564.6
612.484	565.96
612.841	563.7
613.198	573.19
613.554	552.17
613.911	558.73
614.267	556.69
614.624	565.06
614.98	536.36
615.337	530.03
615.693	538.62
616.05	553.53
616.406	551.72
616.762	559.41
617.118	554.21
617.475	535.9
617.831	553.3
618.187	531.38
618.543	530.48
618.899	545.17
619.255	536.13
619.611	532.29
619.967	513.76
620.323	534.77
620.678	523.02
621.034	529.35
621.39	538.16
621.746	507.2
622.101	517.83
622.457	506.98
622.812	532.74
623.168	508.56
623.523	516.47
623.879	518.96
624.234	526.19
624.589	519.41
624.945	542.68
625.3	526.64
625.655	535
626.01	516.92
626.365	506.75
626.72	519.41
627.075	516.47
627.43	499.97
627.785	493.87
628.14	497.26
628.495	520.54
628.85	503.36
629.205	495.68
629.559	513.53
629.914	494.32
630.269	518.5
630.623	481.67
630.978	493.87
631.332	489.13
631.687	476.7
632.041	493.19
632.396	478.05
632.75	510.14
633.104	514.44
633.459	493.87
633.813	491.39
634.167	479.63
634.521	469.47
634.875	489.58
635.229	495.45
635.583	477.6
635.937	484.38
636.291	481.67
636.645	470.14
636.999	483.48
637.352	468.56
637.706	456.13
638.06	483.02
638.413	486.19
638.767	482.35
639.121	468.79
639.474	469.69
639.828	458.17
640.181	480.31
640.534	491.39
640.888	457.94
641.241	471.95
641.594	455.45
641.947	449.35
642.301	454.32
642.654	449.35
643.007	476.02
643.36	460.65
643.713	442.8
644.066	456.81
644.419	461.33
644.771	423.14
645.124	448.9
645.477	442.12
645.83	450.26
646.182	438.96
646.535	452.52
646.888	444.61
647.24	449.13
647.593	450.03
647.945	442.35
648.298	424.49
648.65	440.99
649.002	446.87
649.355	449.13
649.707	450.71
650.059	425.4
650.411	419.3
650.763	431.73
651.115	430.37
651.467	448.22
651.819	432.86
652.171	440.54
652.523	406.64
652.875	433.31
653.227	411.16
653.578	438.51
653.93	397.83
654.282	425.85
654.633	428.34
654.985	426.08
655.337	407.55
655.688	438.96
656.039	413.87
656.391	398.28
656.742	408.68
657.094	435.12
657.445	404.38
657.796	409.35
658.147	407.32
658.498	407.32
658.849	438.96
659.2	426.75
659.551	411.16
659.902	404.38
660.253	401.9
660.604	431.27
660.955	413.65
661.306	398.96
661.656	426.98
662.007	419.75
662.358	403.48
662.708	397.6
663.059	392.63
663.409	411.16
663.76	401.44
664.11	408
664.461	396.02
664.811	414.55
665.161	403.48
665.511	403.93
665.862	374.55
666.212	410.26
666.562	404.38
666.912	407.32
667.262	404.83
667.612	412.97
667.962	396.92
668.312	387.66
668.662	399.41
669.011	380.43
669.361	397.15
669.711	375.46
670.06	402.8
670.41	393.31
670.76	389.24
671.109	403.25
671.459	384.5
671.808	367.09
672.157	382.24
672.507	386.98
672.856	379.75
673.205	380.88
673.554	385.4
673.904	377.04
674.253	382.01
674.602	359.64
674.951	373.87
675.3	386.08
675.649	373.87
675.998	378.39
676.346	375.68
676.695	376.36
677.044	374.78
677.393	368
677.741	400.31
678.09	376.81
678.438	369.13
678.787	361.67
679.135	376.36
679.484	365.29
679.832	370.48
680.181	399.41
680.529	385.17
680.877	374.33
681.225	379.98
681.573	377.49
681.922	368.22
682.27	376.59
682.618	376.59
682.966	387.43
683.314	375.91
683.661	354.89
684.009	371.61
684.357	371.39
684.705	363.93
685.053	379.75
685.4	364.84
685.748	344.27
686.095	381.78
686.443	388.56
686.79	361.22
687.138	385.85
687.485	371.84
687.832	349.92
688.18	368.45
688.527	358.73
688.874	368.9
689.221	359.41
689.568	360.54
689.915	355.12
690.262	351.28
690.609	364.16
690.956	353.31
691.303	368.45
691.65	360.32
691.997	372.52
692.344	358.06
692.69	367.09
693.037	349.24
693.383	365.06
693.73	347.43
694.077	342.91
694.423	359.19
694.769	330.94
695.116	358.51
695.462	382.01
695.808	365.51
696.155	347.21
696.501	354.44
696.847	345.4
697.193	375.23
697.539	344.72
697.885	360.32
698.231	340.43
698.577	358.06
698.923	369.81
699.269	353.31
699.614	360.09
699.96	362.12
700.306	362.12
700.651	345.63
700.997	346.08
701.342	352.41
701.688	360.32
702.033	342.69
702.379	337.49
702.724	327.55
703.069	344.72
703.415	337.04
703.76	354.44
704.105	348.56
704.45	349.69
704.795	334.1
705.14	359.64
705.485	348.56
705.83	351.28
706.175	328.45
706.52	335.46
706.865	353.76
707.209	339.75
707.554	345.4
707.899	347.43
708.243	342.69
708.588	363.25
708.932	335.23
709.277	332.52
709.621	332.07
709.966	336.81
710.31	356.47
710.654	334.78
710.998	349.02
711.342	351.5
711.687	342.91
712.031	354.89
712.375	347.21
712.719	338.4
713.063	342.91
713.407	338.17
713.75	330.94
714.094	334.1
714.438	347.89
714.782	325.97
715.125	333.2
715.469	332.75
715.812	368.68
716.156	328
716.499	353.08
716.843	323.48
717.186	333.2
717.53	337.94
717.873	334.1
718.216	329.58
718.559	340.43
718.902	339.52
719.246	337.27
719.589	343.59
719.932	325.74
720.275	349.47
720.617	330.71
720.96	329.13
721.303	324.84
721.646	326.64
721.989	342.46
722.331	358.96
722.674	349.47
723.016	342.01
723.359	332.52
723.701	336.14
724.044	344.5
724.386	324.61
724.729	342.01
725.071	342.91
725.413	340.2
725.755	341.78
726.097	334.33
726.439	342.24
726.782	327.77
727.124	311.05
727.465	320.77
727.807	331.84
728.149	351.5
728.491	349.24
728.833	341.11
729.175	336.81
729.516	324.84
729.858	359.64
730.199	329.36
730.541	337.72
730.882	333.42
731.224	344.27
731.565	337.04
731.906	336.59
732.248	351.73
732.589	324.84
732.93	326.19
733.271	335.23
733.612	337.72
733.953	335.23
734.294	341.78
734.635	351.05
734.976	334.33
735.317	331.39
735.658	338.4
735.999	343.14
736.339	326.64
736.68	312.63
737.021	335.91
737.361	301.56
737.702	332.97
738.042	321.67
738.383	344.04
738.723	330.49
739.063	329.81
739.404	332.75
739.744	328.9
740.084	330.94
740.424	331.39
740.764	356.93
741.104	333.42
741.444	344.04
741.784	345.63
742.124	344.27
742.464	333.65
742.804	341.33
743.143	351.73
743.483	328
743.823	336.14
744.162	337.72
744.502	330.49
744.841	333.42
745.181	325.97
745.52	326.64
745.86	337.72
746.199	328.45
746.538	336.36
746.877	338.17
747.216	314.44
747.556	360.54
747.895	314.67
748.234	320.99
748.573	332.52
748.911	345.85
749.25	316.93
749.589	324.16
749.928	335.91
750.267	327.1
750.605	307.66
750.944	337.49
751.283	337.94
751.621	339.98
751.96	334.33
752.298	322.8
752.636	358.06
752.975	342.01
753.313	336.14
753.651	323.48
753.989	329.36
754.327	351.73
754.666	341.78
755.004	337.49
755.342	353.99
755.679	342.01
756.017	335.91
756.355	330.94
756.693	336.81
757.031	334.78
757.368	326.42
757.706	320.77
758.044	329.36
758.381	313.99
758.719	338.62
759.056	318.96
759.394	333.65
759.731	326.64
760.068	320.54
760.405	334.55
760.743	328.45
761.08	328.45
761.417	315.12
761.754	318.51
762.091	328
762.428	325.06
762.765	323.71
763.102	332.52
763.438	337.04
763.775	341.33
764.112	323.48
764.449	337.49
764.785	331.39
765.122	316.7
765.458	319.19
765.795	339.75
766.131	349.24
766.467	335.46
766.804	330.26
767.14	322.12
767.476	334.78
767.812	331.84
768.148	311.96
768.485	323.93
768.821	347.21
769.157	330.49
769.492	335.46
769.828	320.09
770.164	344.72
770.5	321.45
770.836	329.36
771.171	332.75
771.507	335.01
771.842	341.78
772.178	345.4
772.513	311.05
772.849	310.37
773.184	319.41
773.519	325.97
773.855	309.7
774.19	325.51
774.525	297.94
774.86	327.1
775.195	328
775.53	324.84
775.865	331.84
776.2	318.28
776.535	340.43
776.87	328
777.205	351.28
777.539	322.58
777.874	324.61
778.209	323.03
778.543	333.88
778.878	317.83
779.212	337.49
779.547	335.91
779.881	339.07
780.215	348.34
780.55	328
780.884	337.27
781.218	353.31
781.552	323.93
781.886	340.88
782.22	338.4
782.554	337.49
782.888	337.04
783.222	316.7
783.556	322.58
783.889	350.15
784.223	317.6
784.557	307.89
784.89	318.06
785.224	321.67
785.557	334.78
785.891	304.27
786.224	335.91
786.558	316.02
786.891	328
787.224	320.54
787.557	325.51
787.891	339.3
788.224	317.38
788.557	334.55
788.89	314.21
789.223	314.21
789.556	330.94
