Data from No_light_on_white_reflection_standard_FLMS001491_100.txt Node
Date: Tue Feb 07 10:33:12 GMT 2017
User: dcchb
Spectrometer: FLMS00149
Trigger mode: 0
Integration Time (sec): 2.000000E-2
Scans to average: 10
Electric dark correction enabled: true
Nonlinearity correction enabled: false
Boxcar width: 0
XAxis mode: Wavelengths
Number of Pixels in Spectrum: 2048
>>>>>Begin Spectral Data<<<<<
341.393	-19.9
341.776	-19.9
342.16	-19.9
342.543	-55.38
342.927	-70.07
343.31	-57.87
343.693	-66.45
344.077	-86.79
344.46	-54.02
344.843	-61.26
345.226	-44.98
345.61	-40.24
345.993	-13.57
346.376	20.1
346.759	17.16
347.142	34.11
347.525	50.83
347.908	60.78
348.291	74.79
348.674	77.5
349.057	89.93
349.44	123.82
349.823	139.87
350.206	166.08
350.588	171.73
350.971	187.33
351.354	203.37
351.737	189.13
352.119	231.17
352.502	235.46
352.884	244.73
353.267	243.82
353.65	250.15
354.032	276.81
354.414	287.21
354.797	283.37
355.179	272.07
355.562	278.17
355.944	303.71
356.326	306.64
356.709	293.31
357.091	310.49
357.473	314.33
357.855	329.69
358.238	290.15
358.62	306.64
359.002	328.56
359.384	311.39
359.766	301.22
360.148	298.96
360.53	308.23
360.912	289.7
361.294	287.44
361.676	286.53
362.057	290.83
362.439	298.28
362.821	299.19
363.203	308.45
363.584	284.05
363.966	292.86
364.348	290.6
364.729	299.86
365.111	288.57
365.493	292.86
365.874	300.99
366.256	262.8
366.637	283.82
367.019	245.86
367.4	298.06
367.781	277.04
368.163	296.48
368.544	271.84
368.925	270.71
369.306	270.49
369.688	287.21
370.069	269.81
370.45	261.9
370.831	271.17
371.212	263.03
371.593	264.39
371.974	270.04
372.355	275.23
372.736	285.4
373.117	258.51
373.498	285.4
373.879	250.83
374.26	267.32
374.641	251.28
375.021	284.27
375.402	258.51
375.783	288.34
376.163	274.33
376.544	288.79
376.925	292.41
377.305	254.44
377.686	257.83
378.066	291.05
378.447	275.23
378.827	276.14
379.208	271.84
379.588	279.75
379.968	282.69
380.349	279.07
380.729	270.26
381.109	268.23
381.489	295.8
381.87	290.83
382.25	306.64
382.63	282.69
383.01	274.55
383.39	295.12
383.77	295.35
384.15	293.76
384.53	289.24
384.91	284.27
385.29	283.37
385.67	275.23
386.049	289.92
386.429	287.89
386.809	300.09
387.189	286.76
387.568	287.21
387.948	283.37
388.328	306.19
388.707	285.18
389.087	292.41
389.466	310.94
389.846	284.72
390.225	295.8
390.605	295.12
390.984	294.22
391.363	278.4
391.743	287.66
392.122	308.68
392.501	282.24
392.881	292.86
393.26	311.16
393.639	295.57
394.018	281.11
394.397	302.12
394.776	291.05
395.155	305.97
395.534	285.18
395.913	308.45
396.292	299.64
396.671	283.82
397.05	282.24
397.429	301.45
397.808	290.37
398.186	307.32
398.565	296.7
398.944	291.05
399.323	291.05
399.701	295.8
400.08	280.43
400.458	293.76
400.837	317.49
401.215	315.23
401.594	290.83
401.972	304.84
402.351	318.17
402.729	292.86
403.107	313.2
403.486	288.34
403.864	296.25
404.242	288.57
404.62	283.82
404.999	299.64
405.377	296.48
405.755	299.19
406.133	294.89
406.511	293.09
406.889	298.06
407.267	304.38
407.645	298.74
408.023	305.97
408.401	301.67
408.779	292.86
409.156	313.2
409.534	288.79
409.912	312.97
410.29	309.13
410.667	299.41
411.045	285.4
411.422	317.49
411.8	310.03
412.178	308.45
412.555	306.64
412.933	305.51
413.31	309.81
413.687	324.72
414.065	316.36
414.442	311.62
414.819	297.61
415.197	315.68
415.574	302.8
415.951	318.4
416.328	306.19
416.705	312.75
417.082	305.97
417.46	311.84
417.837	304.38
418.214	289.47
418.591	284.72
418.967	296.25
419.344	307.77
419.721	292.63
420.098	310.26
420.475	307.32
420.852	280.2
421.228	283.37
421.605	306.42
421.982	297.38
422.358	311.39
422.735	308.68
423.111	322.69
423.488	293.99
423.864	294.44
424.241	292.86
424.617	329.47
424.994	342.12
425.37	297.15
425.746	298.06
426.123	298.51
426.499	323.37
426.875	294.22
427.251	320.43
427.627	307.1
428.003	311.62
428.379	300.54
428.756	286.08
429.132	317.94
429.507	296.25
429.883	299.64
430.259	315.01
430.635	320.43
431.011	314.1
431.387	333.54
431.763	316.59
432.138	327.43
432.514	331.73
432.89	322.92
433.265	305.74
433.641	341.9
434.016	313.88
434.392	300.32
434.767	312.29
435.143	332.41
435.518	336.47
435.894	308.23
436.269	327.43
436.644	334.44
437.02	316.14
437.395	324.05
437.77	300.32
438.145	325.4
438.52	327.43
438.895	343.25
439.271	317.72
439.646	337.6
440.021	333.76
440.395	331.5
440.77	346.64
441.145	346.64
441.52	348.45
441.895	330.15
442.27	338.06
442.645	327.66
443.019	314.78
443.394	343.93
443.769	343.48
444.143	347.1
444.518	360.65
444.892	347.77
445.267	356.36
445.641	358.62
446.016	352.74
446.39	365.85
446.764	347.77
447.139	369.69
447.513	369.69
447.887	355.46
448.262	344.84
448.636	357.72
449.01	358.39
449.384	361.78
449.758	377.15
450.132	383.03
450.506	364.72
450.88	358.85
451.254	376.02
451.628	365.17
452.002	381.9
452.376	372.63
452.75	363.37
453.123	369.02
453.497	355
453.871	364.04
454.244	383.25
454.618	366.53
454.992	362.01
455.365	375.8
455.739	374.89
456.112	350.71
456.486	380.09
456.859	368.56
457.232	365.85
457.606	362.24
457.979	357.94
458.352	347.32
458.725	381.22
459.099	322.01
459.472	377.15
459.845	362.01
460.218	376.02
460.591	367.21
460.964	357.94
461.337	370.82
461.71	349.36
462.083	350.03
462.456	365.85
462.829	343.71
463.201	364.95
463.574	353.65
463.947	359.52
464.32	347.55
464.692	361.33
465.065	363.82
465.438	364.95
465.81	359.07
466.183	352.74
466.555	353.42
466.928	352.07
467.3	341.9
467.672	361.56
468.045	361.33
468.417	361.33
468.789	347.1
469.161	376.47
469.534	336.02
469.906	357.26
470.278	344.16
470.65	344.84
471.022	358.17
471.394	347.1
471.766	362.01
472.138	342.12
472.51	343.71
472.882	346.19
473.253	352.74
473.625	335.12
473.997	353.42
474.369	355
474.74	319.75
475.112	328.34
475.484	338.51
475.855	358.85
476.227	357.26
476.598	343.48
476.97	334.44
477.341	339.19
477.713	358.39
478.084	341.9
478.455	355.91
478.827	347.77
479.198	348
479.569	354.1
479.94	346.19
480.311	353.65
480.682	375.8
481.053	368.79
481.424	357.26
481.795	347.55
482.166	362.01
482.537	365.17
482.908	347.55
483.279	345.51
483.65	364.5
484.021	369.92
484.391	363.37
484.762	358.39
485.133	362.91
485.503	361.56
485.874	357.94
486.244	366.76
486.615	366.53
486.985	359.52
487.356	372.63
487.726	372.86
488.097	359.52
488.467	363.59
488.837	378.73
489.207	345.74
489.578	369.24
489.948	387.09
490.318	369.24
490.688	373.54
491.058	378.28
491.428	386.19
491.798	396.13
492.168	370.82
492.538	374.44
492.908	371.73
493.278	383.48
493.648	382.35
494.017	395
494.387	389.81
494.757	373.31
495.126	373.99
495.496	399.07
495.866	379.64
496.235	383.25
496.605	374.21
496.974	380.09
497.344	402.91
497.713	368.11
498.082	391.61
498.452	367.43
498.821	390.26
499.19	405.17
499.559	405.17
499.928	400.88
500.298	406.98
500.667	388.22
501.036	388.68
501.405	384.61
501.774	399.3
502.143	410.14
502.512	404.04
502.88	417.15
503.249	429.13
503.618	397.94
503.987	417.15
504.356	407.43
504.724	430.26
505.093	421.22
505.462	411.95
505.83	411.05
506.199	415.12
506.567	426.87
506.936	416.7
507.304	425.29
507.672	435
508.041	421.9
508.409	417.6
508.777	413.76
509.145	426.19
509.514	428.68
509.882	433.65
510.25	420.54
510.618	428.45
510.986	438.62
511.354	434.78
511.722	422.35
512.09	436.13
512.458	430.71
512.826	445.4
513.193	432.52
513.561	446.08
513.929	451.73
514.297	434.55
514.664	437.49
515.032	440.43
515.4	432.74
515.767	436.13
516.135	445.85
516.502	471.39
516.869	465.51
517.237	471.61
517.604	439.97
517.972	462.8
518.339	462.12
518.706	435.45
519.073	453.31
519.44	449.47
519.808	470.71
520.175	482.46
520.542	476.36
520.909	458.73
521.276	483.14
521.643	439.3
522.009	454.66
522.376	488.33
522.743	493.98
523.11	474.1
523.477	465.96
523.843	478.17
524.21	475.91
524.577	452.18
524.943	477.71
525.31	468.22
525.676	480.65
526.043	477.71
526.409	485.85
526.776	487.66
527.142	484.04
527.508	470.93
527.874	487.66
528.241	488.33
528.607	489.69
528.973	490.59
529.339	479.3
529.705	482.23
530.071	481.33
530.437	483.81
530.803	478.17
531.169	492.63
531.535	478.84
531.901	479.97
532.267	494.44
532.632	469.8
532.998	489.01
533.364	492.18
533.73	485.4
534.095	504.38
534.461	508
534.826	497.83
535.192	507.54
535.557	513.87
535.923	487.66
536.288	523.59
536.653	518.62
537.019	503.25
537.384	513.42
537.749	514.1
538.114	502.8
538.479	507.54
538.845	511.16
539.21	501.67
539.575	499.86
539.94	512.06
540.305	492.18
540.67	512.51
541.034	519.29
541.399	512.06
541.764	510.03
542.129	513.42
542.494	527.43
542.858	529.46
543.223	495.79
543.587	513.42
543.952	510.03
544.316	508.22
544.681	511.84
545.045	524.94
545.41	517.71
545.774	506.19
546.138	523.36
546.503	511.16
546.867	496.47
547.231	549.35
547.595	517.03
547.959	528.33
548.324	503.93
548.688	518.39
549.052	505.28
549.416	527.43
549.779	524.49
550.143	517.03
550.507	535.11
550.871	512.51
551.235	534.66
551.599	544.6
551.962	535.11
552.326	549.35
552.689	535.34
553.053	521.1
553.417	532.85
553.78	540.31
554.143	530.37
554.507	552.06
554.87	531.27
555.234	548.45
555.597	528.33
555.96	538.05
556.323	524.49
556.686	533.76
557.05	539.63
557.413	543.25
557.776	515.45
558.139	550.48
558.502	550.03
558.865	513.64
559.228	536.02
559.59	568.11
559.953	532.4
560.316	542.57
560.679	541.67
561.041	567.2
561.404	528.56
561.767	542.8
562.129	552.51
562.492	577.37
562.854	533.31
563.217	559.52
563.579	557.49
563.941	558.62
564.304	570.37
564.666	573.53
565.028	565.62
565.39	555.23
565.753	572.85
566.115	548.22
566.477	575.79
566.839	568.11
567.201	566.75
567.563	566.3
567.925	571.5
568.287	556.58
568.648	558.84
569.01	553.19
569.372	547.77
569.734	564.26
570.095	579.63
570.457	597.03
570.819	582.12
571.18	607.65
571.542	583.47
571.903	560.42
572.265	584.83
572.626	580.99
572.987	592.29
573.349	586.41
573.71	579.18
574.071	599.07
574.432	581.44
574.794	603.59
575.155	587.99
575.516	577.6
575.877	569.24
576.238	570.14
576.599	597.26
576.96	589.12
577.32	574.21
577.681	590.25
578.042	602.68
578.403	587.09
578.763	607.2
579.124	609.69
579.485	583.47
579.845	586.64
580.206	580.54
580.566	576.92
580.927	588.67
581.287	585.06
581.648	571.72
582.008	568.56
582.368	606.98
582.728	580.76
583.089	573.76
583.449	585.96
583.809	593.87
584.169	590.48
584.529	586.86
584.889	600.2
585.249	579.86
585.609	587.32
585.969	578.95
586.329	581.89
586.688	595.9
587.048	582.8
587.408	591.16
587.768	561.55
588.127	565.62
588.487	594.55
588.846	563.36
589.206	586.19
589.565	581.89
589.925	591.83
590.284	574.66
590.643	579.41
591.003	576.92
591.362	586.86
591.721	581.67
592.08	584.83
592.44	559.07
592.799	568.11
593.158	587.77
593.517	575.79
593.876	582.12
594.235	570.59
594.593	570.37
594.952	591.83
595.311	589.12
595.67	573.53
596.029	579.86
596.387	587.32
596.746	550.03
597.104	587.77
597.463	560.88
597.822	584.38
598.18	570.59
598.538	574.66
598.897	589.8
599.255	564.94
599.613	561.33
599.972	574.21
600.33	570.14
600.688	569.01
601.046	563.36
601.404	558.62
601.762	559.07
602.12	562.23
602.478	572.63
602.836	574.21
603.194	557.26
603.552	586.19
603.91	583.25
604.268	569.01
604.625	587.54
604.983	569.24
605.341	566.52
605.698	569.91
606.056	570.37
606.413	552.51
606.771	551.38
607.128	545.73
607.485	564.26
607.843	557.94
608.2	570.14
608.557	585.28
608.914	536.47
609.272	555.23
609.629	552.74
609.986	539.86
610.343	547.32
610.7	554.32
611.057	562.23
611.414	581.21
611.771	571.72
612.127	539.63
612.484	544.6
612.841	538.28
613.198	534.89
613.554	530.14
613.911	552.51
614.267	563.13
614.624	541.44
614.98	529.92
615.337	541.89
615.693	549.35
616.05	550.48
616.406	514.55
616.762	528.11
617.118	526.07
617.475	524.72
617.831	551.16
618.187	541.21
618.543	534.44
618.899	533.08
619.255	513.87
619.611	507.32
619.967	539.18
620.323	537.82
620.678	532.85
621.034	497.83
621.39	521.1
621.746	523.14
622.101	521.78
622.457	527.43
622.812	527.43
623.168	526.07
623.523	501.89
623.879	530.82
624.234	504.15
624.589	512.06
624.945	510.71
625.3	522.23
625.655	509.35
626.01	506.41
626.365	506.41
626.72	508.9
627.075	514.1
627.43	491.27
627.785	501.44
628.14	494.89
628.495	504.61
628.85	507.77
629.205	494.89
629.559	497.37
629.914	507.54
630.269	511.61
630.623	504.61
630.978	494.66
631.332	496.47
631.687	490.59
632.041	503.25
632.396	489.24
632.75	495.57
633.104	470.03
633.459	465.96
633.813	484.72
634.167	508.45
634.521	496.24
634.875	498.96
635.229	495.11
635.583	474.32
635.937	478.39
636.291	480.65
636.645	478.62
636.999	499.41
637.352	481.78
637.706	484.27
638.06	470.03
638.413	473.65
638.767	453.99
639.121	452.18
639.474	489.46
639.828	451.5
640.181	451.05
640.534	470.03
640.888	474.32
641.241	480.65
641.594	471.84
641.947	449.24
642.301	465.06
642.654	456.7
643.007	467.09
643.36	456.25
643.713	454.44
644.066	440.2
644.419	444.04
644.771	475.23
645.124	455.79
645.477	437.71
645.83	442.01
646.182	454.21
646.535	441.1
646.888	458.5
647.24	437.04
647.593	455.79
647.945	433.19
648.298	449.24
648.65	450.82
649.002	444.49
649.355	456.92
649.707	425.51
650.059	433.19
650.411	438.62
650.763	434.1
651.115	434.55
651.467	436.58
651.819	450.37
652.171	429.81
652.523	412.18
652.875	425.51
653.227	418.51
653.578	444.04
653.93	432.29
654.282	434.1
654.633	433.19
654.985	421.67
655.337	410.6
655.688	408.11
656.039	404.5
656.391	428.9
656.742	422.57
657.094	426.64
657.445	430.71
657.796	409.92
658.147	429.58
658.498	431.61
658.849	399.52
659.2	402.01
659.551	420.77
659.902	421.9
660.253	416.7
660.604	408.11
660.955	403.59
661.306	383.48
661.656	406.75
662.007	417.38
662.358	419.86
662.708	408.34
663.059	405.85
663.409	388
663.76	404.5
664.11	396.13
664.461	405.4
664.811	390.48
665.161	393.2
665.511	409.01
665.862	396.13
666.212	398.17
666.562	393.2
666.912	407.21
667.262	383.25
667.612	389.35
667.962	413.31
668.312	402.69
668.662	396.59
669.011	395.23
669.361	411.73
669.711	397.49
670.06	390.71
670.41	397.04
670.76	387.55
671.109	397.49
671.459	393.42
671.808	383.93
672.157	386.19
672.507	390.94
672.856	390.26
673.205	366.08
673.554	380.77
673.904	386.42
674.253	394.55
674.602	396.13
674.951	363.37
675.3	371.28
675.649	386.64
675.998	404.95
676.346	367.43
676.695	378.73
677.044	354.33
677.393	366.08
677.741	381.9
678.09	382.57
678.438	404.95
678.787	366.08
679.135	363.37
679.484	371.95
679.832	377.38
680.181	387.55
680.529	367.89
680.877	368.56
681.225	373.99
681.573	379.86
681.922	379.18
682.27	387.77
682.618	364.72
682.966	361.33
683.314	370.6
683.661	383.25
684.009	379.86
684.357	384.38
684.705	378.73
685.053	373.31
685.4	360.2
685.748	397.49
686.095	368.79
686.443	364.72
686.79	369.02
687.138	380.09
687.485	376.47
687.832	377.6
688.18	376.47
688.527	354.1
688.874	348.9
689.221	374.44
689.568	324.72
689.915	368.56
690.262	362.24
690.609	356.81
690.956	335.34
691.303	341.67
691.65	352.07
691.997	344.16
692.344	361.56
692.69	358.62
693.037	354.55
693.383	355.46
693.73	365.17
694.077	356.13
694.423	358.39
694.769	355.23
695.116	352.97
695.462	357.94
695.808	348.45
696.155	342.35
696.501	375.8
696.847	350.49
697.193	349.81
697.539	331.95
697.885	352.07
698.231	352.07
698.577	345.06
698.923	339.64
699.269	375.34
699.614	357.26
699.96	331.28
700.306	359.98
700.651	362.91
700.997	367.66
701.342	352.74
701.688	340.99
702.033	337.83
702.379	356.13
702.724	339.41
703.069	362.91
703.415	346.19
703.76	360.88
704.105	351.84
704.45	351.39
704.795	322.92
705.14	362.01
705.485	350.94
705.83	347.55
706.175	355.23
706.52	356.36
706.865	347.77
707.209	347.1
707.554	352.29
707.899	350.26
708.243	369.92
708.588	334.21
708.932	355.23
709.277	345.97
709.621	360.2
709.966	347.32
710.31	345.51
710.654	322.01
710.998	341.22
711.342	336.47
711.687	332.86
712.031	339.19
712.375	360.65
712.719	333.76
713.063	338.06
713.407	331.95
713.75	359.75
714.094	354.78
714.438	348.23
714.782	355.68
715.125	336.7
715.469	345.97
715.812	314.78
716.156	353.87
716.499	336.7
716.843	350.71
717.186	339.19
717.53	359.52
717.873	345.74
718.216	337.38
718.559	316.14
718.902	346.64
719.246	341.22
719.589	344.16
719.932	329.69
720.275	325.85
720.617	336.47
720.96	331.95
721.303	341.45
721.646	344.84
721.989	346.64
722.331	344.38
722.674	327.21
723.016	340.32
723.359	337.38
723.701	336.7
724.044	358.62
724.386	348.23
724.729	336.93
725.071	359.07
725.413	346.19
725.755	330.82
726.097	339.41
726.439	325.85
726.782	342.35
727.124	332.18
727.465	329.69
727.807	328.11
728.149	329.47
728.491	354.33
728.833	323.37
729.175	332.41
729.516	338.28
729.858	328.79
730.199	327.21
730.541	316.36
730.882	355
731.224	329.92
731.565	332.41
731.906	338.96
732.248	334.67
732.589	337.15
732.93	343.25
733.271	326.53
733.612	336.47
733.953	333.54
734.294	352.29
734.635	328.56
734.976	328.34
735.317	339.19
735.658	335.8
735.999	340.99
736.339	319.3
736.68	329.24
737.021	333.76
737.361	303.25
737.702	336.02
738.042	320.66
738.383	337.15
738.723	346.64
739.063	327.43
739.404	317.49
739.744	343.25
740.084	317.49
740.424	345.06
740.764	339.41
741.104	320.2
741.444	326.08
741.784	344.38
742.124	338.28
742.464	338.28
742.804	342.12
743.143	336.7
743.483	323.14
743.823	340.77
744.162	330.15
744.502	325.4
744.841	327.43
745.181	335.8
745.52	343.03
745.86	315.91
746.199	322.46
746.538	322.69
746.877	319.3
747.216	313.42
747.556	332.63
747.895	329.47
748.234	340.54
748.573	325.85
748.911	341.67
749.25	356.59
749.589	338.06
749.928	324.95
750.267	330.82
750.605	336.47
750.944	325.18
751.283	339.86
751.621	334.21
751.96	323.59
752.298	349.13
752.636	328.79
752.975	310.03
753.313	333.76
753.651	336.47
753.989	331.28
754.327	336.93
754.666	346.64
755.004	319.98
755.342	334.67
755.679	333.54
756.017	328.11
756.355	334.89
756.693	322.46
757.031	338.06
757.368	331.28
757.706	333.54
758.044	330.6
758.381	345.97
758.719	343.03
759.056	320.88
759.394	356.81
759.731	319.75
760.068	327.66
760.405	330.37
760.743	338.06
761.08	327.21
761.417	334.89
761.754	322.69
762.091	336.93
762.428	340.77
762.765	303.25
763.102	331.73
763.438	336.7
763.775	317.49
764.112	329.24
764.449	330.82
764.785	321.33
765.122	339.19
765.458	332.41
765.795	336.02
766.131	329.02
766.467	316.14
766.804	320.43
767.14	341.45
767.476	314.1
767.812	337.38
768.148	322.46
768.485	312.75
768.821	323.14
769.157	331.28
769.492	336.93
769.828	310.03
770.164	306.87
770.5	315.68
770.836	321.33
771.171	327.43
771.507	319.3
771.842	349.81
772.178	329.69
772.513	317.72
772.849	323.37
773.184	320.2
773.519	334.21
773.855	325.85
774.19	331.5
774.525	333.76
774.86	309.36
775.195	319.75
775.53	330.82
775.865	337.15
776.2	343.71
776.535	330.6
776.87	313.88
777.205	321.33
777.539	332.63
777.874	332.63
778.209	329.92
778.543	326.53
778.878	330.37
779.212	333.99
779.547	327.21
779.881	303.93
780.215	328.34
780.55	340.32
780.884	303.93
781.218	344.16
781.552	335.34
781.886	299.19
782.22	326.08
782.554	324.5
782.888	344.61
783.222	322.46
783.556	313.2
783.889	340.09
784.223	339.64
784.557	331.5
784.89	336.47
785.224	323.82
785.557	331.28
785.891	335.12
786.224	337.15
786.558	322.24
786.891	332.86
787.224	327.89
787.557	322.46
787.891	326.76
788.224	332.18
788.557	334.44
788.89	324.95
