Data from No_light_on_white_reflection_standard_FLMS001491_010.txt Node
Date: Tue Feb 07 10:32:54 GMT 2017
User: dcchb
Spectrometer: FLMS00149
Trigger mode: 0
Integration Time (sec): 2.000000E-2
Scans to average: 10
Electric dark correction enabled: true
Nonlinearity correction enabled: false
Boxcar width: 0
XAxis mode: Wavelengths
Number of Pixels in Spectrum: 2048
>>>>>Begin Spectral Data<<<<<
341.393	-8.21
341.776	-8.21
342.16	-8.21
342.543	-83.23
342.927	-54.31
343.31	-77.81
343.693	-66.96
344.077	-61.54
344.46	-62.44
344.843	-54.31
345.226	-47.08
345.61	-26.06
345.993	-4.14
346.376	0.61
346.759	23.88
347.142	19.59
347.525	32.24
347.908	60.94
348.291	60.27
348.674	105.69
349.057	97.1
349.44	115.18
349.823	152.92
350.206	126.48
350.588	188.17
350.971	182.52
351.354	176.87
351.737	228.4
352.119	251.22
352.502	236.76
352.884	239.02
353.267	231.34
353.65	261.17
354.032	289.87
354.414	241.28
354.797	296.19
355.179	294.84
355.562	303.88
355.944	293.26
356.326	295.51
356.709	298.68
357.091	312.01
357.473	300.03
357.855	300.71
358.238	337.77
358.62	301.39
359.002	325.12
359.384	299.81
359.766	307.94
360.148	303.2
360.53	294.16
360.912	314.27
361.294	296.64
361.676	293.26
362.057	299.58
362.439	307.94
362.821	270.66
363.203	307.49
363.584	307.27
363.966	297.1
364.348	302.07
364.729	279.02
365.111	298
365.493	293.93
365.874	295.51
366.256	282.18
366.637	273.37
367.019	265.69
367.4	273.82
367.781	282.86
368.163	274.5
368.544	287.15
368.925	270.43
369.306	300.49
369.688	278.57
370.069	291.45
370.45	277.66
370.831	275.63
371.212	267.49
371.593	273.14
371.974	280.83
372.355	266.82
372.736	287.38
373.117	277.21
373.498	301.84
373.879	256.19
374.26	272.69
374.641	272.46
375.021	261.39
375.402	274.72
375.783	284.89
376.163	285.12
376.544	284.89
376.925	292.58
377.305	294.84
377.686	299.81
378.066	288.74
378.447	299.81
378.827	278.57
379.208	282.18
379.588	295.06
379.968	286.93
380.349	274.5
380.729	275.85
381.109	289.87
381.489	291.45
381.87	293.48
382.25	286.48
382.63	285.57
383.01	282.41
383.39	285.35
383.77	266.82
384.15	283.99
384.53	291.67
384.91	280.83
385.29	281.5
385.67	272.24
386.049	271.11
386.429	279.47
386.809	297.32
387.189	278.34
387.568	285.35
387.948	309.75
388.328	294.84
388.707	291.9
389.087	321.5
389.466	292.58
389.846	290.77
390.225	312.24
390.605	303.88
390.984	291.45
391.363	290.32
391.743	317.89
392.122	302.52
392.501	292.13
392.881	303.2
393.26	297.32
393.639	300.71
394.018	295.51
394.397	282.18
394.776	287.15
395.155	307.49
395.534	298.68
395.913	288.74
396.292	271.79
396.671	302.97
397.05	303.42
397.429	295.06
397.808	302.75
398.186	289.87
398.565	311.11
398.944	298.68
399.323	301.16
399.701	300.26
400.08	295.06
400.458	272.24
400.837	301.84
401.215	302.52
401.594	278.57
401.972	307.27
402.351	316.76
402.729	291.22
403.107	302.29
403.486	306.14
403.864	302.52
404.242	293.93
404.62	305.91
404.999	304.33
405.377	309.3
405.755	293.48
406.133	300.71
406.511	303.2
406.889	307.49
407.267	303.65
407.645	302.75
408.023	312.69
408.401	298.23
408.779	309.07
409.156	292.58
409.534	301.62
409.912	309.53
410.29	286.02
410.667	322.41
411.045	325.34
411.422	330.32
411.8	304.33
412.178	294.61
412.555	319.24
412.933	319.24
413.31	309.98
413.687	296.42
414.065	324.21
414.442	286.48
414.819	308.4
415.197	308.17
415.574	303.88
415.951	282.86
416.328	296.19
416.705	296.42
417.082	309.53
417.46	303.42
417.837	308.85
418.214	306.81
418.591	315.18
418.967	305.46
419.344	318.57
419.721	314.5
420.098	325.34
420.475	288.28
420.852	316.53
421.228	310.43
421.605	298.23
421.982	305.68
422.358	312.69
422.735	315.4
423.111	288.96
423.488	331.9
423.864	299.36
424.241	320.6
424.617	330.99
424.994	307.49
425.37	305.01
425.746	309.98
426.123	315.63
426.499	306.36
426.875	296.87
427.251	327.83
427.627	309.53
428.003	318.34
428.379	295.97
428.756	319.92
429.132	306.59
429.507	323.54
429.883	318.57
430.259	320.82
430.635	311.33
431.011	328.06
431.387	316.31
431.763	321.5
432.138	329.64
432.514	308.17
432.89	317.21
433.265	323.08
433.641	332.8
434.016	343.2
434.392	328.06
434.767	320.82
435.143	338.45
435.518	336.64
435.894	323.99
436.269	302.07
436.644	326.93
437.02	320.82
437.395	319.47
437.77	323.54
438.145	339.36
438.52	306.14
438.895	320.82
439.271	327.15
439.646	326.25
440.021	336.42
440.395	363.99
440.77	345.68
441.145	340.03
441.52	349.52
441.895	353.59
442.27	344.55
442.645	336.19
443.019	353.59
443.394	337.77
443.769	348.39
444.143	325.34
444.518	344.1
444.892	359.92
445.267	339.36
445.641	352.69
446.016	373.93
446.39	342.52
446.764	369.41
447.139	351.56
447.513	361.5
447.887	366.7
448.262	378
448.636	370.77
449.01	358.79
449.384	354.27
449.758	361.05
450.132	361.73
450.506	371.45
450.88	366.25
451.254	362.86
451.628	360.15
452.002	372.35
452.376	384.33
452.75	364.21
453.123	346.81
453.497	381.39
453.871	375.51
454.244	385
454.618	371.45
454.992	384.55
455.365	383.42
455.739	356.53
456.112	366.02
456.486	357.66
456.859	354.95
457.232	368.96
457.606	353.59
457.979	393.82
458.352	368.96
458.725	361.5
459.099	378
459.472	357.21
459.845	366.47
460.218	368.06
460.591	358.11
460.964	351.11
461.337	354.95
461.71	356.76
462.083	346.13
462.456	347.72
462.829	352.91
463.201	347.04
463.574	356.76
463.947	355.17
464.32	371.45
464.692	336.64
465.065	351.78
465.438	341.39
465.81	335.74
466.183	344.78
466.555	360.15
466.928	347.72
467.3	346.13
467.672	351.56
468.045	355.63
468.417	377.77
468.789	356.08
469.161	354.72
469.534	351.56
469.906	343.42
470.278	336.64
470.65	344.78
471.022	366.7
471.394	366.93
471.766	366.02
472.138	382.29
472.51	357.43
472.882	349.52
473.253	335.06
473.625	361.28
473.997	359.69
474.369	349.98
474.74	343.65
475.112	353.14
475.484	338
475.855	352.01
476.227	343.2
476.598	366.93
476.97	366.02
477.341	366.93
477.713	359.69
478.084	356.53
478.455	344.33
478.827	345.68
479.198	351.33
479.569	348.39
479.94	367.83
480.311	345.91
480.682	355.63
481.053	357.21
481.424	365.34
481.795	369.86
482.166	361.73
482.537	342.07
482.908	348.39
483.279	374.83
483.65	377.09
484.021	352.69
484.391	353.37
484.762	367.38
485.133	372.35
485.503	341.39
485.874	347.49
486.244	377.77
486.615	360.15
486.985	361.95
487.356	361.73
487.726	370.99
488.097	369.64
488.467	355.17
488.837	390.43
489.207	363.99
489.578	384.1
489.948	379.35
490.318	363.31
490.688	374.38
491.058	382.07
491.428	367.83
491.798	382.52
492.168	377.09
492.538	389.3
492.908	354.5
493.278	373.48
493.648	381.16
494.017	392.69
494.387	412.12
494.757	368.51
495.126	380.48
495.496	378.9
495.866	385.46
496.235	395.4
496.605	387.04
496.974	408.51
497.344	407.38
497.713	383.2
498.082	396.08
498.452	403.76
498.821	413.25
499.19	404.89
499.559	403.08
499.928	416.19
500.298	377.32
500.667	394.27
501.036	404.89
501.405	422.07
501.774	413.03
502.143	401.5
502.512	398.79
502.88	399.47
503.249	423.87
503.618	419.58
503.987	406.47
504.356	444.66
504.724	413.03
505.093	406.7
505.462	396.53
505.83	416.87
506.199	410.99
506.567	418
506.936	434.95
507.304	424.1
507.672	431.33
508.041	413.7
508.409	402.18
508.777	409.64
509.145	436.08
509.514	428.39
509.882	431.33
510.25	437.66
510.618	438.56
510.986	444.66
511.354	428.17
511.722	449.18
512.09	430.43
512.458	450.09
512.826	419.58
513.193	429.97
513.561	455.28
513.929	439.47
514.297	438.56
514.664	450.31
515.032	444.66
515.4	455.06
515.767	434.95
516.135	461.84
516.502	449.41
516.869	437.43
517.237	464.32
517.604	450.09
517.972	442.4
518.339	430.88
518.706	467.49
519.073	460.26
519.44	467.26
519.808	467.49
520.175	469.3
520.542	452.12
520.909	446.7
521.276	472.69
521.643	463.42
522.009	461.84
522.376	457.32
522.743	489.86
523.11	468.39
523.477	462.97
523.843	465
524.21	482.63
524.577	476.53
524.943	467.94
525.31	475.62
525.676	489.63
526.043	467.71
526.409	488.05
526.776	485.11
527.142	470.65
527.508	490.99
527.874	491.22
528.241	476.75
528.607	475.62
528.973	483.08
529.339	492.35
529.705	508.39
530.071	470.65
530.437	483.98
530.803	514.94
531.169	462.97
531.535	490.54
531.901	474.95
532.267	492.8
532.632	495.74
532.998	506.81
533.364	508.62
533.73	497.09
534.095	487.37
534.461	479.69
534.826	499.8
535.192	499.58
535.557	497.32
535.923	525.34
536.288	502.74
536.653	516.98
537.019	514.72
537.384	510.42
537.749	500.48
538.114	506.36
538.479	504.55
538.845	514.94
539.21	485.79
539.575	506.81
539.94	477.88
540.305	505.23
540.67	508.62
541.034	490.99
541.399	513.81
541.764	521.05
542.129	509.75
542.494	521.05
542.858	491.67
543.223	520.14
543.587	506.13
543.952	522.18
544.316	521.05
544.681	497.32
545.045	522.18
545.41	502.97
545.774	514.49
546.138	528.05
546.503	526.47
546.867	518.79
547.231	537.09
547.595	526.92
547.959	530.99
548.324	538.67
548.688	516.53
549.052	530.99
549.416	533.25
549.779	533.02
550.143	520.82
550.507	532.34
550.871	524.66
551.235	514.72
551.599	535.96
551.962	526.24
552.326	517.88
552.689	534.38
553.053	547.71
553.417	541.84
553.78	542.74
554.143	529.18
554.507	528.28
554.87	522.18
555.234	545
555.597	532.34
555.96	550.42
556.323	531.67
556.686	550.42
557.05	541.84
557.413	554.49
557.776	542.06
558.139	539.35
558.502	554.49
558.865	529.41
559.228	541.61
559.59	536.86
559.953	539.35
560.316	551.33
560.679	554.72
561.041	558.78
561.404	527.83
561.767	553.81
562.129	567.15
562.492	565.79
562.854	555.62
563.217	541.84
563.579	558.11
563.941	562.4
564.304	563.3
564.666	563.53
565.028	566.69
565.39	572.34
565.753	552.91
566.115	559.24
566.477	593.36
566.839	551.33
567.201	567.15
567.563	563.98
567.925	581.61
568.287	566.02
568.648	558.78
569.01	578.9
569.372	587.94
569.734	601.95
570.095	586.35
570.457	579.8
570.819	569.41
571.18	562.17
571.542	585.22
571.903	579.35
572.265	558.78
572.626	588.84
572.987	565.56
573.349	562.63
573.71	581.83
574.071	597.65
574.432	576.86
574.794	585
575.155	581.83
575.516	581.61
575.877	593.36
576.238	572.34
576.599	570.08
576.96	566.69
577.32	576.41
577.681	583.64
578.042	574.6
578.403	603.76
578.763	597.88
579.124	581.83
579.485	567.15
579.845	588.39
580.206	597.65
580.566	587.94
580.927	571.89
581.287	585.45
581.648	599.91
582.008	614.15
582.368	598.11
582.728	579.8
583.089	601.95
583.449	591.78
583.809	576.41
584.169	563.08
584.529	573.25
584.889	589.74
585.249	586.13
585.609	599.24
585.969	579.58
586.329	565.11
586.688	580.03
587.048	589.74
587.408	595.62
587.768	595.17
588.127	594.26
588.487	576.19
588.846	571.89
589.206	599.24
589.565	594.94
589.925	583.19
590.284	599.69
590.643	591.78
591.003	593.36
591.362	587.48
591.721	559.24
592.08	594.72
592.44	603.3
592.799	581.38
593.158	579.35
593.517	607.15
593.876	578.22
594.235	588.16
594.593	589.52
594.952	580.03
595.311	579.58
595.67	572.34
596.029	581.16
596.387	573.93
596.746	589.97
597.104	578.45
597.463	557.43
597.822	562.17
598.18	561.27
598.538	573.93
598.897	568.73
599.255	572.12
599.613	571.67
599.972	565.34
600.33	577.99
600.688	556.75
601.046	575.28
601.404	570.54
601.762	577.99
602.12	566.92
602.478	549.07
602.836	572.12
603.194	548.16
603.552	547.71
603.91	580.48
604.268	548.84
604.625	552.23
604.983	570.76
605.341	563.76
605.698	561.5
606.056	560.37
606.413	574.6
606.771	580.03
607.128	564.43
607.485	571.21
607.843	555.17
608.2	565.79
608.557	541.38
608.914	560.82
609.272	550.2
609.629	531.44
609.986	551.55
610.343	535.73
610.7	550.88
611.057	578.67
611.414	537.32
611.771	541.16
612.127	539.8
612.484	533.25
612.841	553.36
613.198	573.93
613.554	544.77
613.911	522.85
614.267	549.97
614.624	545.9
614.98	526.02
615.337	548.39
615.693	538.67
616.05	524.21
616.406	538.22
616.762	533.47
617.118	526.7
617.475	534.6
617.831	527.15
618.187	523.76
618.543	531.89
618.899	536.86
619.255	510.88
619.611	516.3
619.967	530.54
620.323	528.28
620.678	534.15
621.034	501.39
621.39	524.89
621.746	528.05
622.101	550.42
622.457	505.9
622.812	526.47
623.168	529.86
623.523	516.07
623.879	505.68
624.234	522.63
624.589	514.49
624.945	516.75
625.3	531.89
625.655	516.53
626.01	522.63
626.365	534.6
626.72	515.85
627.075	503.64
627.43	484.66
627.785	497.09
628.14	498.67
628.495	496.41
628.85	499.13
629.205	509.97
629.559	514.94
629.914	514.94
630.269	487.6
630.623	509.97
630.978	494.15
631.332	496.87
631.687	488.05
632.041	498.45
632.396	476.53
632.75	494.61
633.104	486.92
633.459	474.72
633.813	488.5
634.167	492.12
634.521	489.18
634.875	481.72
635.229	474.27
635.583	481.5
635.937	494.83
636.291	472.23
636.645	482.4
636.999	475.4
637.352	493.48
637.706	469.52
638.06	484.21
638.413	463.65
638.767	472.69
639.121	479.69
639.474	505
639.828	458
640.181	473.59
640.534	479.69
640.888	467.04
641.241	463.65
641.594	456.19
641.947	476.08
642.301	461.39
642.654	455.06
643.007	450.31
643.36	454.61
643.713	450.09
644.066	465.68
644.419	453.25
644.771	450.54
645.124	431.56
645.477	461.61
645.83	459.35
646.182	451.44
646.535	422.07
646.888	438.34
647.24	440.37
647.593	428.17
647.945	447.15
648.298	452.8
648.65	435.17
649.002	427.04
649.355	448.73
649.707	434.72
650.059	434.72
650.411	434.04
650.763	430.65
651.115	442.4
651.467	439.69
651.819	444.66
652.171	439.24
652.523	437.43
652.875	434.95
653.227	420.94
653.578	413.7
653.93	446.47
654.282	405.57
654.633	411.9
654.985	433.59
655.337	431.33
655.688	418.22
656.039	424.55
656.391	420.03
656.742	415.06
657.094	418.9
657.445	415.29
657.796	427.49
658.147	419.13
658.498	384.1
658.849	398.11
659.2	425.45
659.551	404.44
659.902	406.25
660.253	425.23
660.604	411.9
660.955	414.61
661.306	418.22
661.656	403.76
662.007	408.96
662.358	406.7
662.708	397.43
663.059	420.26
663.409	405.34
663.76	410.31
664.11	396.3
664.461	402.18
664.811	430.88
665.161	407.83
665.511	399.24
665.862	390.2
666.212	383.2
666.562	390.88
666.912	431.56
667.262	407.15
667.612	385.46
667.962	418.68
668.312	378.45
668.662	375.29
669.011	399.69
669.361	409.41
669.711	408.73
670.06	396.53
670.41	387.72
670.76	387.72
671.109	389.98
671.459	404.21
671.808	394.95
672.157	377.32
672.507	378
672.856	401.95
673.205	386.13
673.554	375.96
673.904	384.78
674.253	389.3
674.602	398.34
674.951	373.7
675.3	356.08
675.649	379.35
675.998	400.14
676.346	393.82
676.695	392.24
677.044	380.26
677.393	385.46
677.741	382.29
678.09	384.55
678.438	390.2
678.787	394.27
679.135	370.77
679.484	391.33
679.832	390.43
680.181	367.38
680.529	381.16
680.877	373.93
681.225	385.23
681.573	357.43
681.922	351.11
682.27	366.7
682.618	366.25
682.966	369.41
683.314	369.64
683.661	377.55
684.009	383.87
684.357	363.99
684.705	383.65
685.053	372.12
685.4	377.77
685.748	375.74
686.095	380.26
686.443	374.38
686.79	378.9
687.138	376.19
687.485	358.11
687.832	375.74
688.18	400.6
688.527	376.64
688.874	382.07
689.221	342.75
689.568	357.66
689.915	369.64
690.262	371.22
690.609	341.84
690.956	389.75
691.303	372.8
691.65	371.45
691.997	367.6
692.344	341.84
692.69	366.02
693.037	372.12
693.383	370.77
693.73	366.02
694.077	363.08
694.423	367.38
694.769	362.41
695.116	358.79
695.462	359.69
695.808	359.24
696.155	347.94
696.501	343.88
696.847	339.81
697.193	365.57
697.539	371.22
697.885	362.86
698.231	366.93
698.577	375.29
698.923	362.18
699.269	364.44
699.614	364.21
699.96	368.51
700.306	355.17
700.651	365.57
700.997	349.3
701.342	355.17
701.688	342.07
702.033	342.29
702.379	363.31
702.724	345.46
703.069	357.43
703.415	344.33
703.76	349.75
704.105	354.27
704.45	383.65
704.795	371.9
705.14	342.75
705.485	361.5
705.83	350.65
706.175	345.23
706.52	367.6
706.865	349.07
707.209	351.33
707.554	340.71
707.899	348.17
708.243	363.31
708.588	337.77
708.932	318.57
709.277	359.24
709.621	353.59
709.966	367.83
710.31	345.46
710.654	355.4
710.998	338.45
711.342	334.61
711.687	346.59
712.031	350.2
712.375	339.36
712.719	353.59
713.063	359.69
713.407	356.53
713.75	359.47
714.094	341.39
714.438	327.38
714.782	336.42
715.125	340.03
715.469	343.42
715.812	335.97
716.156	349.52
716.499	334.61
716.843	354.27
717.186	353.37
717.53	330.77
717.873	346.36
718.216	331.22
718.559	345.23
718.902	338.45
719.246	334.61
719.589	350.65
719.932	347.72
720.275	339.13
720.617	338.9
720.96	348.39
721.303	340.71
721.646	365.8
721.989	322.41
722.331	354.27
722.674	336.19
723.016	350.88
723.359	345.23
723.701	318.57
724.044	330.99
724.386	352.69
724.729	333.25
725.071	340.94
725.413	344.1
725.755	349.75
726.097	342.52
726.439	333.71
726.782	333.71
727.124	329.41
727.465	325.12
727.807	341.62
728.149	342.07
728.491	335.51
728.833	343.2
729.175	339.13
729.516	340.03
729.858	334.84
730.199	330.54
730.541	326.7
730.882	344.33
731.224	336.19
731.565	333.03
731.906	325.57
732.248	346.36
732.589	342.07
732.93	341.62
733.271	321.05
733.612	347.26
733.953	338.9
734.294	329.64
734.635	309.53
734.976	327.6
735.317	336.87
735.658	338.45
735.999	353.37
736.339	319.24
736.68	315.18
737.021	340.71
737.361	323.76
737.702	349.75
738.042	324.67
738.383	331.67
738.723	330.99
739.063	322.18
739.404	321.5
739.744	343.65
740.084	346.59
740.424	333.25
740.764	348.39
741.104	332.8
741.444	334.84
741.784	333.93
742.124	332.8
742.464	331.22
742.804	337.1
743.143	345.68
743.483	327.6
743.823	335.29
744.162	307.94
744.502	337.55
744.841	338.9
745.181	318.79
745.52	330.99
745.86	331.45
746.199	317.44
746.538	321.95
746.877	330.54
747.216	351.11
747.556	357.89
747.895	330.32
748.234	363.08
748.573	335.06
748.911	335.51
749.25	325.8
749.589	356.08
749.928	345.68
750.267	336.19
750.605	339.58
750.944	319.02
751.283	339.36
751.621	339.58
751.96	331.22
752.298	320.37
752.636	324.89
752.975	343.65
753.313	338.23
753.651	318.57
753.989	321.73
754.327	342.52
754.666	330.09
755.004	332.8
755.342	336.87
755.679	322.86
756.017	327.83
756.355	328.28
756.693	326.02
757.031	338.23
757.368	341.39
757.706	331.67
758.044	322.86
758.381	324.89
758.719	352.46
759.056	332.58
759.394	338
759.731	322.63
760.068	319.24
760.405	334.61
760.743	310.66
761.08	341.62
761.417	329.19
761.754	305.68
762.091	339.13
762.428	310.2
762.765	349.52
763.102	323.54
763.438	317.66
763.775	319.92
764.112	336.64
764.449	333.93
764.785	329.41
765.122	334.16
765.458	338.45
765.795	333.25
766.131	314.05
766.467	330.54
766.804	322.63
767.14	322.18
767.476	339.13
767.812	335.97
768.148	307.04
768.485	326.47
768.821	311.79
769.157	323.08
769.492	327.38
769.828	335.74
770.164	339.36
770.5	332.8
770.836	340.03
771.171	322.41
771.507	340.26
771.842	345.68
772.178	335.29
772.513	313.37
772.849	343.88
773.184	326.93
773.519	316.53
773.855	339.13
774.19	324.21
774.525	330.77
774.86	326.25
775.195	316.98
775.53	320.15
775.865	323.08
776.2	309.75
776.535	330.99
776.87	319.02
777.205	325.34
777.539	332.58
777.874	341.62
778.209	319.24
778.543	321.05
778.878	326.02
779.212	331.45
779.547	347.72
779.881	323.76
780.215	333.03
780.55	328.73
780.884	323.08
781.218	310.2
781.552	338
781.886	317.89
782.22	325.57
782.554	321.28
782.888	344.1
783.222	331.67
783.556	323.99
783.889	316.76
784.223	349.3
784.557	335.97
784.89	340.49
785.224	323.08
785.557	315.18
785.891	329.64
786.224	325.57
786.558	358.34
786.891	334.38
787.224	345.23
787.557	332.35
787.891	328.06
788.224	340.94
788.557	346.36
788.89	307.49
789.223	322.86
789.556	342.97
