Data from No_light_on_white_reflection_standard_FLMS001491_068.txt Node
Date: Tue Feb 07 10:33:05 GMT 2017
User: dcchb
Spectrometer: FLMS00149
Trigger mode: 0
Integration Time (sec): 2.000000E-2
Scans to average: 10
Electric dark correction enabled: true
Nonlinearity correction enabled: false
Boxcar width: 0
XAxis mode: Wavelengths
Number of Pixels in Spectrum: 2048
>>>>>Begin Spectral Data<<<<<
341.393	-1.85
341.776	-1.85
342.16	-1.85
342.543	-33.04
342.927	-63.77
343.31	-73.94
343.693	-61.28
344.077	-72.13
344.46	-49.98
344.843	-57.89
345.226	-50.21
345.61	-40.04
345.993	-11.57
346.376	2.9
346.759	17.13
347.142	11.48
347.525	49.22
347.908	73.85
348.291	71.37
348.674	94.64
349.057	96.45
349.44	117.69
349.823	140.52
350.206	177.35
350.588	163.12
350.971	179.39
351.354	209.9
351.737	190.24
352.119	215.32
352.502	234.75
352.884	235.88
353.267	257.8
353.65	260.52
354.032	263
354.414	276.79
354.797	266.39
355.179	290.35
355.562	312.27
355.944	306.16
356.326	295.32
356.709	305.71
357.091	320.63
357.473	324.92
357.855	303.9
358.238	306.16
358.62	299.61
359.002	307.97
359.384	323.56
359.766	302.32
360.148	292.83
360.53	308.42
360.912	298.71
361.294	304.58
361.676	310.91
362.057	283.34
362.439	284.24
362.821	270.23
363.203	280.63
363.584	291.7
363.966	275.43
364.348	305.03
364.729	305.49
365.111	290.35
365.493	281.98
365.874	296.22
366.256	281.08
366.637	273.4
367.019	273.85
367.4	286.05
367.781	258.71
368.163	270.68
368.544	277.24
368.925	275.43
369.306	274.3
369.688	265.71
370.069	265.94
370.45	274.75
370.831	279.72
371.212	276.11
371.593	263
371.974	270.01
372.355	264.58
372.736	279.27
373.117	296.22
373.498	285.6
373.879	251.25
374.26	295.32
374.641	265.94
375.021	268.88
375.402	266.39
375.783	272.49
376.163	271.81
376.544	291.02
376.925	282.66
377.305	264.81
377.686	287.41
378.066	279.5
378.447	313.17
378.827	295.54
379.208	283.34
379.588	279.95
379.968	275.2
380.349	294.87
380.729	286.73
381.109	272.49
381.489	297.35
381.87	284.47
382.25	297.35
382.63	283.79
383.01	290.35
383.39	289.22
383.77	301.42
384.15	294.87
384.53	307.07
384.91	297.12
385.29	312.04
385.67	302.1
386.049	296.9
386.429	282.44
386.809	271.14
387.189	294.19
387.568	302.55
387.948	290.8
388.328	264.81
388.707	277.69
389.087	291.02
389.466	272.94
389.846	310.68
390.225	284.7
390.605	274.75
390.984	303.23
391.363	296.9
391.743	286.5
392.122	284.7
392.501	287.41
392.881	332.83
393.26	288.54
393.639	295.54
394.018	300.06
394.397	325.15
394.776	300.29
395.155	296.22
395.534	272.04
395.913	301.64
396.292	284.92
396.671	305.94
397.05	288.31
397.429	303.9
397.808	303.68
398.186	307.75
398.565	302.77
398.944	280.63
399.323	301.19
399.701	293.28
400.08	291.48
400.458	289.67
400.837	315.43
401.215	304.36
401.594	295.77
401.972	286.05
402.351	305.71
402.729	302.32
403.107	301.19
403.486	291.25
403.864	292.15
404.242	277.01
404.62	296
404.999	295.54
405.377	308.88
405.755	288.76
406.133	306.84
406.511	303.68
406.889	310.23
407.267	291.93
407.645	292.15
408.023	298.71
408.401	300.06
408.779	284.47
409.156	299.61
409.534	325.15
409.912	302.1
410.29	306.84
410.667	316.79
411.045	274.07
411.422	306.16
411.8	304.13
412.178	283.57
412.555	309.33
412.933	300.29
413.31	304.36
413.687	288.09
414.065	303.23
414.442	307.29
414.819	331.93
415.197	313.85
415.574	296
415.951	308.42
416.328	342.32
416.705	296.45
417.082	310.46
417.46	291.48
417.837	307.52
418.214	310.91
418.591	293.74
418.967	326.95
419.344	310.46
419.721	313.85
420.098	307.75
420.475	297.35
420.852	315.88
421.228	316.56
421.605	321.76
421.982	321.76
422.358	304.81
422.735	317.92
423.111	317.69
423.488	304.81
423.864	314.98
424.241	321.31
424.617	300.06
424.994	312.27
425.37	305.26
425.746	322.89
426.123	324.69
426.499	324.92
426.875	308.65
427.251	309.1
427.627	319.5
428.003	284.02
428.379	322.89
428.756	296.9
429.132	301.19
429.507	307.52
429.883	322.21
430.259	319.5
430.635	327.18
431.011	311.59
431.387	302.32
431.763	336.67
432.138	339.16
432.514	324.02
432.89	320.18
433.265	317.69
433.641	276.79
434.016	326.05
434.392	338.71
434.767	311.14
435.143	335.54
435.518	339.61
435.894	320.85
436.269	317.46
436.644	329.67
437.02	342.1
437.395	310.46
437.77	321.76
438.145	314.07
438.52	335.09
438.895	322.44
439.271	346.84
439.646	331.25
440.021	327.18
440.395	322.66
440.77	335.32
441.145	319.72
441.52	332.38
441.895	341.87
442.27	310.46
442.645	340.51
443.019	341.19
443.394	325.37
443.769	331.25
444.143	349.55
444.518	346.62
444.892	347.97
445.267	334.86
445.641	357.24
446.016	350.91
446.39	372.83
446.764	364.92
447.139	368.54
447.513	370.8
447.887	360.85
448.262	360.4
448.636	367.18
449.01	379.16
449.384	366.73
449.758	353.62
450.132	383
450.506	354.07
450.88	355.65
451.254	363.11
451.628	361.53
452.002	375.31
452.376	359.5
452.75	375.99
453.123	348.88
453.497	355.43
453.871	380.74
454.244	367.63
454.618	370.12
454.992	368.76
455.365	366.05
455.739	380.74
456.112	374.64
456.486	361.98
456.859	369.21
457.232	366.73
457.606	378.7
457.979	360.63
458.352	353.62
458.725	366.5
459.099	359.95
459.472	340.29
459.845	364.92
460.218	363.11
460.591	360.17
460.964	381.42
461.337	381.19
461.71	361.08
462.083	363.56
462.456	351.36
462.829	355.88
463.201	367.18
463.574	361.76
463.947	379.38
464.32	362.43
464.692	371.93
465.065	358.59
465.438	354.52
465.81	353.85
466.183	367.86
466.555	369.67
466.928	340.74
467.3	344.13
467.672	348.65
468.045	369.89
468.417	352.49
468.789	328.99
469.161	337.8
469.534	356.11
469.906	343.45
470.278	329.67
470.65	358.37
471.022	351.81
471.394	340.29
471.766	362.43
472.138	365.6
472.51	345.94
472.882	339.61
473.253	336.67
473.625	347.29
473.997	347.52
474.369	358.14
474.74	351.81
475.112	325.82
475.484	329.67
475.855	366.28
476.227	336.9
476.598	355.88
476.97	342.77
477.341	358.37
477.713	359.72
478.084	352.04
478.455	344.81
478.827	362.89
479.198	365.82
479.569	346.39
479.94	364.24
480.311	338.71
480.682	349.1
481.053	357.69
481.424	334.41
481.795	348.42
482.166	340.06
482.537	332.83
482.908	343.45
483.279	354.75
483.65	384.13
484.021	352.04
484.391	372.15
484.762	364.69
485.133	358.82
485.503	375.77
485.874	352.72
486.244	352.26
486.615	364.24
486.985	359.72
487.356	364.47
487.726	350
488.097	388.2
488.467	377.8
488.837	349.78
489.207	354.98
489.578	372.6
489.948	379.83
490.318	375.54
490.688	376.22
491.058	374.19
491.428	373.96
491.798	382.55
492.168	401.3
492.538	380.29
492.908	366.05
493.278	375.09
493.648	394.07
494.017	371.7
494.387	384.35
494.757	381.64
495.126	397.91
495.496	391.36
495.866	387.52
496.235	391.36
496.605	384.81
496.974	397.46
497.344	411.47
497.713	369.89
498.082	403.34
498.452	385.71
498.821	403.56
499.19	384.81
499.559	404.24
499.928	404.01
500.298	406.73
500.667	385.48
501.036	397.46
501.405	398.14
501.774	420.06
502.143	389.33
502.512	431.81
502.88	410.12
503.249	418.48
503.618	401.08
503.987	403.11
504.356	413.28
504.724	391.59
505.093	399.04
505.462	419.16
505.83	406.73
506.199	404.92
506.567	421.64
506.936	418.7
507.304	406.73
507.672	410.79
508.041	402.66
508.409	415.54
508.777	416.9
509.145	420.06
509.514	432.94
509.882	408.76
510.25	428.42
510.618	434.52
510.986	427.97
511.354	433.62
511.722	439.72
512.09	432.26
512.458	413.73
512.826	428.42
513.193	437.46
513.561	445.14
513.929	423.22
514.297	450.57
514.664	447.18
515.032	434.97
515.4	472.71
515.767	431.13
516.135	446.27
516.502	448.53
516.869	456.22
517.237	458.48
517.604	447.63
517.972	465.93
518.339	463
518.706	473.84
519.073	461.19
519.44	444.01
519.808	453.96
520.175	457.12
520.542	471.81
520.909	452.83
521.276	473.39
521.643	460.28
522.009	462.09
522.376	471.36
522.743	447.18
523.11	458.7
523.477	461.41
523.843	455.76
524.21	453.28
524.577	472.49
524.943	483.33
525.31	482.2
525.676	476.33
526.043	489.66
526.409	511.13
526.776	481.3
527.142	474.3
527.508	483.11
527.874	467.74
528.241	478.59
528.607	475.2
528.973	486.05
529.339	491.24
529.705	494.18
530.071	491.92
530.437	462.09
530.803	488.53
531.169	492.37
531.535	493.96
531.901	494.86
532.267	485.37
532.632	498.7
532.998	495.31
533.364	493.05
533.73	506.84
534.095	494.41
534.461	502.54
534.826	488.53
535.192	486.72
535.557	515.2
535.923	518.36
536.288	517.68
536.653	498.25
537.019	499.15
537.384	508.42
537.749	515.2
538.114	511.58
538.479	523.11
538.845	525.37
539.21	505.26
539.575	518.59
539.94	484.46
540.305	501.87
540.67	533.95
541.034	491.7
541.399	526.95
541.764	504.8
542.129	519.27
542.494	518.81
542.858	514.52
543.223	516.1
543.587	520.17
543.952	515.65
544.316	505.48
544.681	504.13
545.045	534.41
545.41	523.56
545.774	508.19
546.138	508.64
546.503	516.78
546.867	517.23
547.231	535.54
547.595	527.85
547.959	523.56
548.324	516.33
548.688	525.14
549.052	517.01
549.416	514.52
549.779	533.5
550.143	532.82
550.507	506.16
550.871	541.19
551.235	542.32
551.599	524.69
551.962	537.57
552.326	523.11
552.689	546.16
553.053	531.7
553.417	530.57
553.78	528.31
554.143	534.18
554.507	543.67
554.87	522.43
555.234	546.61
555.597	543.9
555.96	553.16
556.323	542.99
556.686	540.06
557.05	551.13
557.413	532.82
557.776	567.85
558.139	552.71
558.502	557.46
558.865	557.68
559.228	545.03
559.59	545.48
559.953	552.71
560.316	571.47
560.679	537.57
561.041	563.56
561.404	549.77
561.767	533.05
562.129	541.19
562.492	567.17
562.854	554.07
563.217	561.98
563.579	554.75
563.941	541.41
564.304	586.16
564.666	554.29
565.028	566.5
565.39	545.71
565.753	551.58
566.115	566.5
566.477	573.28
566.839	580.96
567.201	580.73
567.563	563.78
567.925	565.37
568.287	562.43
568.648	585.03
569.01	573.95
569.372	559.94
569.734	597.91
570.095	578.25
570.457	596.78
570.819	575.99
571.18	591.13
571.542	554.29
571.903	578.93
572.265	594.52
572.626	571.24
572.987	582.77
573.349	591.35
573.71	604.24
574.071	569.43
574.432	564.91
574.794	594.74
575.155	577.34
575.516	585.7
575.877	588.64
576.238	596.33
576.599	578.47
576.96	566.27
577.32	581.41
577.681	587.29
578.042	576.89
578.403	564.24
578.763	573.28
579.124	596.78
579.485	594.74
579.845	594.97
580.206	575.54
580.566	562.88
580.927	594.97
581.287	590.68
581.648	603.33
582.008	571.47
582.368	592.26
582.728	581.19
583.089	580.06
583.449	583.9
583.809	580.51
584.169	564.01
584.529	584.35
584.889	597.23
585.249	571.69
585.609	560.62
585.969	588.64
586.329	575.76
586.688	586.61
587.048	601.52
587.408	591.35
587.768	601.52
588.127	603.33
588.487	567.85
588.846	582.54
589.206	567.4
589.565	590
589.925	586.61
590.284	589.09
590.643	599.26
591.003	594.29
591.362	577.8
591.721	577.8
592.08	578.25
592.44	565.37
592.799	574.41
593.158	570.79
593.517	591.81
593.876	588.87
594.235	592.48
594.593	584.58
594.952	559.26
595.311	566.04
595.67	578.47
596.029	587.51
596.387	567.63
596.746	587.96
597.104	573.28
597.463	586.16
597.822	568.98
598.18	559.94
598.538	571.92
598.897	572.15
599.255	583.45
599.613	580.51
599.972	569.21
600.33	567.4
600.688	583.67
601.046	566.95
601.404	590.45
601.762	554.97
602.12	579.83
602.478	559.94
602.836	577.34
603.194	563.78
603.552	552.94
603.91	593.16
604.268	581.86
604.625	548.64
604.983	577.8
605.341	559.49
605.698	576.67
606.056	571.02
606.413	566.95
606.771	547.29
607.128	568.08
607.485	557.23
607.843	556.1
608.2	556.1
608.557	556.33
608.914	548.64
609.272	558.59
609.629	534.41
609.986	575.99
610.343	565.59
610.7	578.7
611.057	580.51
611.414	561.07
611.771	559.04
612.127	573.05
612.484	547.06
612.841	554.97
613.198	579.6
613.554	559.04
613.911	533.73
614.267	546.61
614.624	552.71
614.98	559.72
615.337	548.42
615.693	533.5
616.05	538.02
616.406	525.14
616.762	535.76
617.118	552.03
617.475	558.81
617.831	547.51
618.187	524.46
618.543	564.46
618.899	541.86
619.255	524.69
619.611	538.93
619.967	535.31
620.323	526.05
620.678	541.86
621.034	523.56
621.39	519.94
621.746	527.85
622.101	523.33
622.457	512.49
622.812	532.6
623.168	525.59
623.523	517.23
623.879	528.76
624.234	515.42
624.589	520.17
624.945	527.85
625.3	510
625.655	507.06
626.01	505.26
626.365	509.55
626.72	526.27
627.075	504.13
627.43	515.42
627.785	501.87
628.14	517.91
628.495	504.13
628.85	482.2
629.205	513.62
629.559	505.26
629.914	498.7
630.269	501.87
630.623	527.18
630.978	490.34
631.332	507.74
631.687	494.18
632.041	503.67
632.396	481.98
632.75	500.28
633.104	488.08
633.459	472.26
633.813	496.22
634.167	485.37
634.521	489.66
634.875	490.57
635.229	472.26
635.583	474.97
635.937	492.37
636.291	472.26
636.645	467.97
636.999	502.32
637.352	468.87
637.706	486.95
638.06	461.41
638.413	479.27
638.767	462.54
639.121	475.88
639.474	470.91
639.828	456.67
640.181	473.17
640.534	481.53
640.888	472.94
641.241	485.59
641.594	468.19
641.947	471.81
642.301	456.67
642.654	468.87
643.007	464.58
643.36	459.38
643.713	455.54
644.066	458.25
644.419	460.74
644.771	457.8
645.124	458.93
645.477	451.47
645.83	444.01
646.182	456.89
646.535	436.1
646.888	447.86
647.24	441.75
647.593	441.53
647.945	440.62
648.298	435.43
648.65	415.31
649.002	441.75
649.355	446.27
649.707	452.6
650.059	441.08
650.411	437.23
650.763	440.17
651.115	423.9
651.467	431.81
651.819	451.47
652.171	444.24
652.523	450.12
652.875	425.48
653.227	439.04
653.578	435.43
653.93	424.13
654.282	419.38
654.633	421.42
654.985	406.5
655.337	424.35
655.688	428.42
656.039	410.34
656.391	409.89
656.742	430.91
657.094	416.67
657.445	412.38
657.796	407.86
658.147	412.15
658.498	421.42
658.849	414.86
659.2	389.1
659.551	413.96
659.902	426.61
660.253	414.64
660.604	397.46
660.955	406.05
661.306	405.14
661.656	419.38
662.007	409.66
662.358	420.74
662.708	388.2
663.059	406.73
663.409	407.86
663.76	386.16
664.11	384.13
664.461	401.53
664.811	402.21
665.161	389.78
665.511	399.95
665.862	400.85
666.212	382.32
666.562	408.76
666.912	420.74
667.262	395.65
667.612	413.51
667.962	393.39
668.312	392.04
668.662	414.64
669.011	406.73
669.361	393.85
669.711	387.29
670.06	391.13
670.41	387.74
670.76	385.26
671.109	378.03
671.459	399.72
671.808	399.95
672.157	392.72
672.507	393.39
672.856	388.87
673.205	401.53
673.554	391.81
673.904	376.22
674.253	380.29
674.602	386.39
674.951	380.74
675.3	382.55
675.649	387.97
675.998	390.91
676.346	395.65
676.695	394.3
677.044	380.51
677.393	387.52
677.741	383.9
678.09	380.29
678.438	383.45
678.787	390
679.135	379.38
679.484	385.26
679.832	375.77
680.181	383.68
680.529	368.54
680.877	367.18
681.225	387.97
681.573	379.61
681.922	367.86
682.27	389.55
682.618	366.95
682.966	376.44
683.314	378.48
683.661	354.07
684.009	369.21
684.357	383.22
684.705	377.35
685.053	376.44
685.4	367.86
685.748	358.14
686.095	358.37
686.443	371.25
686.79	375.99
687.138	367.41
687.485	372.15
687.832	374.41
688.18	347.52
688.527	370.12
688.874	388.87
689.221	349.55
689.568	351.81
689.915	352.72
690.262	343
690.609	360.63
690.956	376.67
691.303	350.46
691.65	368.76
691.997	355.43
692.344	365.82
692.69	353.39
693.037	366.5
693.383	366.73
693.73	352.94
694.077	349.1
694.423	346.84
694.769	332.6
695.116	340.74
695.462	356.78
695.808	357.91
696.155	355.88
696.501	366.5
696.847	372.15
697.193	342.32
697.539	355.2
697.885	368.99
698.231	358.59
698.577	357.46
698.923	355.88
699.269	348.88
699.614	368.31
699.96	347.97
700.306	351.13
700.651	350.91
700.997	356.56
701.342	355.65
701.688	355.43
702.033	358.82
702.379	355.2
702.724	344.58
703.069	352.04
703.415	343.9
703.76	336.45
704.105	345.94
704.45	361.3
704.795	347.07
705.14	354.3
705.485	347.97
705.83	347.97
706.175	346.16
706.52	357.46
706.865	341.42
707.209	336.22
707.554	365.37
707.899	351.59
708.243	360.4
708.588	359.72
708.932	338.93
709.277	343.9
709.621	357.46
709.966	354.3
710.31	362.89
710.654	363.34
710.998	338.48
711.342	344.81
711.687	349.55
712.031	345.94
712.375	339.16
712.719	353.62
713.063	347.75
713.407	340.29
713.75	326.73
714.094	338.48
714.438	338.71
714.782	358.37
715.125	331.93
715.469	345.94
715.812	338.71
716.156	335.99
716.499	326.28
716.843	347.29
717.186	345.71
717.53	364.24
717.873	347.52
718.216	336.22
718.559	353.39
718.902	360.63
719.246	364.02
719.589	343.68
719.932	333.28
720.275	346.62
720.617	331.25
720.96	348.2
721.303	338.25
721.646	332.38
721.989	345.03
722.331	333.06
722.674	330.57
723.016	320.4
723.359	331.02
723.701	333.96
724.044	350
724.386	342.1
724.729	363.11
725.071	329.44
725.413	339.16
725.755	341.64
726.097	337.58
726.439	366.05
726.782	339.61
727.124	321.98
727.465	346.39
727.807	341.87
728.149	353.62
728.491	321.31
728.833	354.98
729.175	315.66
729.516	323.56
729.858	329.21
730.199	338.48
730.541	340.97
730.882	334.19
731.224	337.35
731.565	317.01
731.906	346.39
732.248	328.31
732.589	341.42
732.93	327.41
733.271	335.09
733.612	342.1
733.953	335.99
734.294	324.24
734.635	335.09
734.976	329.67
735.317	347.97
735.658	319.95
735.999	318.37
736.339	343.45
736.68	353.39
737.021	329.44
737.361	335.32
737.702	345.49
738.042	340.51
738.383	348.42
738.723	317.01
739.063	352.49
739.404	359.27
739.744	338.03
740.084	317.69
740.424	346.62
740.764	330.34
741.104	355.88
741.444	344.81
741.784	336.67
742.124	318.37
742.464	337.58
742.804	329.67
743.143	335.09
743.483	328.08
743.823	326.73
744.162	301.87
744.502	331.93
744.841	341.19
745.181	350.46
745.52	347.29
745.86	332.6
746.199	342.55
746.538	324.24
746.877	324.47
747.216	351.81
747.556	326.28
747.895	350.23
748.234	333.06
748.573	339.16
748.911	343.45
749.25	327.63
749.589	346.62
749.928	340.74
750.267	338.25
750.605	349.78
750.944	330.34
751.283	327.86
751.621	335.09
751.96	327.86
752.298	354.3
752.636	339.16
752.975	320.4
753.313	320.4
753.651	324.24
753.989	343.45
754.327	322.66
754.666	317.92
755.004	333.73
755.342	311.81
755.679	325.15
756.017	331.93
756.355	320.4
756.693	333.51
757.031	344.13
757.368	338.93
757.706	339.61
758.044	321.76
758.381	320.85
758.719	353.85
759.056	323.79
759.394	346.39
759.731	336.45
760.068	323.11
760.405	335.09
760.743	316.79
761.08	304.13
761.417	315.43
761.754	324.02
762.091	326.73
762.428	350
762.765	339.38
763.102	338.93
763.438	332.6
763.775	333.96
764.112	312.94
764.449	324.92
764.785	343.45
765.122	345.03
765.458	334.64
765.795	343
766.131	326.95
766.467	345.03
766.804	338.25
767.14	344.58
767.476	329.21
767.812	334.41
768.148	323.34
768.485	319.05
768.821	347.29
769.157	342.1
769.492	315.88
769.828	341.87
770.164	339.38
770.5	321.76
770.836	326.5
771.171	305.03
771.507	326.95
771.842	320.4
772.178	319.95
772.513	333.06
772.849	310.68
773.184	345.26
773.519	322.66
773.855	339.84
774.19	320.63
774.525	321.76
774.86	339.38
775.195	339.61
775.53	343
775.865	337.35
776.2	321.98
776.535	335.54
776.87	329.44
777.205	333.96
777.539	344.36
777.874	338.93
778.209	335.32
778.543	355.65
778.878	328.31
779.212	349.55
779.547	347.97
779.881	324.69
780.215	335.54
780.55	332.15
780.884	337.58
781.218	334.64
781.552	331.02
781.886	323.11
782.22	336.67
782.554	332.15
782.888	341.64
783.222	339.61
783.556	328.08
783.889	319.72
784.223	340.06
784.557	323.34
784.89	346.39
785.224	324.47
785.557	317.69
785.891	328.54
786.224	332.83
786.558	341.87
786.891	331.7
787.224	327.18
787.557	310.46
787.891	326.73
788.224	319.72
788.557	332.15
788.89	331.93
789.223	338.03
789.556	322.89
