Data from No_light_on_white_reflection_standard_FLMS001491_036.txt Node
Date: Tue Feb 07 10:32:59 GMT 2017
User: dcchb
Spectrometer: FLMS00149
Trigger mode: 0
Integration Time (sec): 2.000000E-2
Scans to average: 10
Electric dark correction enabled: true
Nonlinearity correction enabled: false
Boxcar width: 0
XAxis mode: Wavelengths
Number of Pixels in Spectrum: 2048
>>>>>Begin Spectral Data<<<<<
341.393	-16.69
341.776	-16.69
342.16	-16.69
342.543	-59.86
342.927	-85.17
343.31	-70.48
343.693	-47.43
344.077	-57.37
344.46	-57.37
344.843	-47.88
345.226	-58.05
345.61	-42.23
345.993	-10.82
346.376	-14.89
346.759	13.81
347.142	34.6
347.525	30.99
347.908	54.94
348.291	53.13
348.674	95.62
349.057	123.41
349.44	107.82
349.823	123.19
350.206	136.52
350.588	174.26
350.971	166.8
351.354	173.13
351.737	202.28
352.119	207.93
352.502	229.17
352.884	234.82
353.267	266.91
353.65	246.8
354.032	265.78
354.414	266.46
354.797	284.77
355.179	270.98
355.562	301.49
355.944	279.79
356.326	307.14
356.709	298.1
357.091	294.03
357.473	299.23
357.855	313.01
358.238	318.44
358.62	303.52
359.002	317.53
359.384	303.75
359.766	303.07
360.148	319.34
360.53	303.52
360.912	324.31
361.294	299
361.676	284.31
362.057	300.36
362.439	306.01
362.821	317.53
363.203	290.42
363.584	293.81
363.966	321.38
364.348	293.58
364.729	296.74
365.111	281.6
365.493	282.05
365.874	287.93
366.256	284.54
366.637	298.1
367.019	285.22
367.4	274.6
367.781	271.21
368.163	273.24
368.544	282.73
368.925	270.3
369.306	276.41
369.688	274.15
370.069	278.44
370.45	268.72
370.831	275.28
371.212	270.3
371.593	255.61
371.974	264.2
372.355	266.24
372.736	274.6
373.117	279.34
373.498	275.95
373.879	257.65
374.26	273.92
374.641	276.63
375.021	267.59
375.402	257.87
375.783	263.3
376.163	260.36
376.544	263.07
376.925	266.91
377.305	268.27
377.686	263.75
378.066	265.11
378.447	291.32
378.827	264.2
379.208	271.21
379.588	273.69
379.968	275.95
380.349	290.64
380.729	282.73
381.109	297.2
381.489	275.73
381.87	287.03
382.25	292
382.63	298.1
383.01	302.39
383.39	292.68
383.77	281.6
384.15	303.75
384.53	278.21
384.91	276.63
385.29	285.44
385.67	300.13
386.049	286.12
386.429	273.24
386.809	273.24
387.189	279.12
387.568	284.77
387.948	287.7
388.328	303.07
388.707	283.64
389.087	294.48
389.466	313.47
389.846	282.73
390.225	301.49
390.605	296.52
390.984	293.81
391.363	271.89
391.743	305.1
392.122	299.68
392.501	302.17
392.881	298.1
393.26	303.52
393.639	287.03
394.018	286.12
394.397	287.7
394.776	293.13
395.155	300.59
395.534	267.14
395.913	289.29
396.292	299.46
396.671	284.09
397.05	294.26
397.429	303.07
397.808	275.95
398.186	303.07
398.565	283.86
398.944	293.81
399.323	277.08
399.701	285.67
400.08	267.37
400.458	285.9
400.837	296.29
401.215	305.1
401.594	296.97
401.972	282.51
402.351	294.26
402.729	299
403.107	303.3
403.486	295.84
403.864	291.55
404.242	299.68
404.62	290.64
404.999	322.73
405.377	300.36
405.755	307.14
406.133	287.25
406.511	290.64
406.889	304.65
407.267	286.12
407.645	280.7
408.023	298.1
408.401	281.15
408.779	308.72
409.156	311.88
409.534	297.87
409.912	289.29
410.29	289.29
410.667	307.59
411.045	309.62
411.422	312.56
411.8	293.81
412.178	289.74
412.555	286.8
412.933	279.34
413.31	304.43
413.687	295.16
414.065	287.48
414.442	288.38
414.819	287.03
415.197	303.3
415.574	297.42
415.951	322.51
416.328	303.3
416.705	319.79
417.082	303.07
417.46	299.68
417.837	291.32
418.214	306.69
418.591	278.66
418.967	287.93
419.344	282.28
419.721	311.43
420.098	296.07
420.475	317.08
420.852	308.49
421.228	317.08
421.605	314.14
421.982	298.78
422.358	324.77
422.735	306.01
423.111	309.85
423.488	308.04
423.864	289.06
424.241	305.56
424.617	314.37
424.994	316.86
425.37	336.52
425.746	294.03
426.123	292.22
426.499	299.46
426.875	316.4
427.251	293.81
427.627	308.95
428.003	316.4
428.379	321.15
428.756	311.21
429.132	308.72
429.507	306.01
429.883	327.7
430.259	334.03
430.635	290.87
431.011	303.98
431.387	335.84
431.763	345.1
432.138	300.13
432.514	312.34
432.89	332
433.265	317.76
433.641	328.61
434.016	331.09
434.392	312.34
434.767	303.07
435.143	326.8
435.518	321.38
435.894	330.19
436.269	317.08
436.644	301.49
437.02	288.16
437.395	311.21
437.77	320.02
438.145	322.73
438.52	342.84
438.895	312.34
439.271	306.01
439.646	333.35
440.021	331.54
440.395	345.33
440.77	308.04
441.145	335.16
441.52	338.32
441.895	349.62
442.27	337.42
442.645	316.63
443.019	332.67
443.394	342.62
443.769	338.78
444.143	339.68
444.518	342.17
444.892	339.68
445.267	350.53
445.641	348.72
446.016	347.36
446.39	339.91
446.764	354.14
447.139	337.42
447.513	352.34
447.887	359.57
448.262	357.08
448.636	346.91
449.01	354.6
449.384	351.43
449.758	363.41
450.132	357.31
450.506	356.4
450.88	342.39
451.254	344.43
451.628	355.73
452.002	352.79
452.376	372
452.75	374.48
453.123	350.98
453.497	371.77
453.871	384.2
454.244	371.77
454.618	353.47
454.992	377.19
455.365	364.09
455.739	343.52
456.112	370.41
456.486	366.57
456.859	375.84
457.232	364.54
457.606	369.74
457.979	353.47
458.352	342.84
458.725	354.6
459.099	352.56
459.472	367.02
459.845	353.47
460.218	345.1
460.591	354.14
460.964	348.95
461.337	361.37
461.71	359.79
462.083	382.39
462.456	345.56
462.829	343.97
463.201	360.7
463.574	343.3
463.947	341.49
464.32	361.83
464.692	353.92
465.065	354.82
465.438	350.08
465.81	353.24
466.183	339.91
466.555	360.92
466.928	349.85
467.3	364.54
467.672	351.66
468.045	362.96
468.417	355.27
468.789	366.12
469.161	338.32
469.534	345.56
469.906	352.11
470.278	345.1
470.65	377.19
471.022	360.47
471.394	350.08
471.766	365.89
472.138	351.21
472.51	349.4
472.882	347.14
473.253	334.48
473.625	332.45
473.997	344.88
474.369	353.69
474.74	363.63
475.112	361.15
475.484	346.69
475.855	344.88
476.227	356.86
476.598	344.43
476.97	331.54
477.341	342.17
477.713	350.75
478.084	352.34
478.455	354.14
478.827	337.42
479.198	354.37
479.569	355.05
479.94	349.62
480.311	357.53
480.682	340.36
481.053	354.37
481.424	348.27
481.795	348.04
482.166	350.08
482.537	357.08
482.908	346.01
483.279	339.23
483.65	377.87
484.021	362.5
484.391	352.56
484.762	353.24
485.133	348.95
485.503	358.44
485.874	358.21
486.244	365.44
486.615	360.24
486.985	365.22
487.356	361.15
487.726	384.88
488.097	369.06
488.467	345.1
488.837	380.58
489.207	364.31
489.578	362.5
489.948	377.19
490.318	364.76
490.688	364.76
491.058	368.38
491.428	376.74
491.798	379.45
492.168	356.18
492.538	379.23
492.908	384.2
493.278	378.55
493.648	370.41
494.017	370.87
494.387	372
494.757	367.25
495.126	371.09
495.496	376.06
495.866	375.16
496.235	378.32
496.605	405.89
496.974	384.2
497.344	396.85
497.713	364.76
498.082	404.99
498.452	390.75
498.821	384.88
499.19	404.99
499.559	400.02
499.928	404.09
500.298	413.35
500.667	396.85
501.036	380.13
501.405	399.57
501.774	389.17
502.143	387.36
502.512	389.17
502.88	385.78
503.249	394.14
503.618	410.64
503.987	414.48
504.356	422.39
504.724	415.61
505.093	400.7
505.462	417.87
505.83	406.57
506.199	420.58
506.567	417.19
506.936	401.83
507.304	438.21
507.672	416.74
508.041	422.62
508.409	402.73
508.777	409.28
509.145	426.01
509.514	424.42
509.882	432.33
510.25	423.29
510.618	411.54
510.986	423.97
511.354	426.46
511.722	431.2
512.09	445.21
512.458	420.81
512.826	439.11
513.193	443.86
513.561	426.91
513.929	450.41
514.297	438.21
514.664	439.79
515.032	424.88
515.4	440.92
515.767	457.64
516.135	451.77
516.502	445.21
516.869	446.57
517.237	431.2
517.604	449.96
517.972	437.3
518.339	457.19
518.706	445.21
519.073	470.52
519.44	438.21
519.808	463.74
520.175	460.36
520.542	456.51
520.909	453.8
521.276	471.65
521.643	472.33
522.009	454.93
522.376	490.41
522.743	465.55
523.11	466.91
523.477	467.59
523.843	480.02
524.21	460.13
524.577	473.69
524.943	471.43
525.31	477.3
525.676	469.62
526.043	466
526.409	488.6
526.776	457.87
527.142	494.48
527.508	500.13
527.874	472.56
528.241	479.56
528.607	495.38
528.973	477.08
529.339	486.57
529.705	482.05
530.071	472.78
530.437	491.31
530.803	481.6
531.169	492.22
531.535	478.66
531.901	498.32
532.267	494.25
532.632	458.77
532.998	492.44
533.364	491.99
533.73	493.35
534.095	495.61
534.461	497.42
534.826	504.65
535.192	496.06
535.557	499.45
535.923	497.19
536.288	522.27
536.653	508.49
537.019	504.2
537.384	507.59
537.749	492.22
538.114	499.45
538.479	495.83
538.845	477.98
539.21	487.02
539.575	504.65
539.94	494.7
540.305	508.49
540.67	527.7
541.034	501.48
541.399	510.52
541.764	507.59
542.129	488.83
542.494	514.14
542.858	503.74
543.223	516.85
543.587	523.4
543.952	497.19
544.316	516.85
544.681	514.59
545.045	525.21
545.41	518.43
545.774	535.38
546.138	505.78
546.503	520.47
546.867	535.61
547.231	525.21
547.595	489.96
547.959	527.25
548.324	524.31
548.688	516.4
549.052	511.43
549.416	504.42
549.779	542.84
550.143	512.78
550.507	513.69
550.871	506.23
551.235	529.05
551.599	531.09
551.962	540.13
552.326	496.96
552.689	513.46
553.053	517.3
553.417	547.81
553.78	512.33
554.143	544.87
554.507	542.84
554.87	519.34
555.234	517.3
555.597	536.51
555.96	537.87
556.323	525.44
556.686	526.57
557.05	558.43
557.413	546.23
557.776	539.22
558.139	524.99
558.502	567.7
558.865	531.77
559.228	525.44
559.59	536.96
559.953	539.9
560.316	539.45
560.679	545.78
561.041	555.95
561.404	553.23
561.767	553.69
562.129	570.18
562.492	561.6
562.854	544.19
563.217	544.42
563.579	543.52
563.941	553.46
564.304	557.08
564.666	538.55
565.028	556.85
565.39	559.34
565.753	574.25
566.115	548.04
566.477	551.43
566.839	561.82
567.201	576.96
567.563	545.78
567.925	557.53
568.287	570.18
568.648	558.66
569.01	576.74
569.372	573.57
569.734	562.27
570.095	558.21
570.457	550.52
570.819	560.69
571.18	563.86
571.542	578.77
571.903	576.28
572.265	576.96
572.626	555.27
572.987	568.6
573.349	585.1
573.71	570.18
574.071	576.28
574.432	593.01
574.794	576.28
575.155	618.54
575.516	565.89
575.877	574.02
576.238	562.05
576.599	581.71
576.96	579.45
577.32	582.61
577.681	581.93
578.042	553.91
578.403	590.52
578.763	581.71
579.124	555.04
579.485	576.28
579.845	563.63
580.206	571.09
580.566	568.83
580.927	566.57
581.287	581.48
581.648	586.91
582.008	597.3
582.368	596.62
582.728	575.38
583.089	579.9
583.449	565.66
583.809	589.17
584.169	566.12
584.529	568.37
584.889	576.51
585.249	568.6
585.609	582.16
585.969	579.45
586.329	577.19
586.688	590.75
587.048	571.76
587.408	568.6
587.768	581.48
588.127	568.6
588.487	571.31
588.846	563.63
589.206	577.41
589.565	567.02
589.925	573.8
590.284	594.36
590.643	588.49
591.003	587.58
591.362	567.24
591.721	579.45
592.08	564.53
592.44	572.89
592.799	553.46
593.158	573.57
593.517	563.18
593.876	560.92
594.235	567.47
594.593	580.13
594.952	576.96
595.311	554.36
595.67	604.31
596.029	590.52
596.387	586.45
596.746	581.71
597.104	558.21
597.463	591.2
597.822	567.24
598.18	568.6
598.538	575.83
598.897	568.15
599.255	559.79
599.613	558.43
599.972	563.86
600.33	576.74
600.688	568.15
601.046	552.56
601.404	559.56
601.762	544.65
602.12	583.06
602.478	536.96
602.836	547.81
603.194	575.15
603.552	593.46
603.91	552.1
604.268	581.03
604.625	584.65
604.983	548.71
605.341	545.1
605.698	553.91
606.056	559.34
606.413	543.52
606.771	554.82
607.128	566.34
607.485	564.08
607.843	541.48
608.2	532.9
608.557	548.71
608.914	568.83
609.272	531.31
609.629	538.55
609.986	542.84
610.343	529.96
610.7	545.78
611.057	556.85
611.414	534.48
611.771	545.1
612.127	551.2
612.484	557.75
612.841	546
613.198	537.87
613.554	535.38
613.911	544.65
614.267	529.73
614.624	525.44
614.98	524.31
615.337	507.13
615.693	550.07
616.05	552.1
616.406	540.35
616.762	517.08
617.118	542.84
617.475	541.93
617.831	547.36
618.187	519.56
618.543	546.68
618.899	513.24
619.255	540.35
619.611	521.6
619.967	527.92
620.323	511.2
620.678	519.56
621.034	531.09
621.39	524.76
621.746	512.78
622.101	525.44
622.457	544.42
622.812	514.59
623.168	512.33
623.523	527.02
623.879	504.87
624.234	496.74
624.589	492.44
624.945	513.46
625.3	512.56
625.655	501.94
626.01	516.17
626.365	514.82
626.72	506.68
627.075	522.73
627.43	503.52
627.785	491.31
628.14	487.7
628.495	503.07
628.85	509.62
629.205	505.1
629.559	489.73
629.914	486.8
630.269	501.71
630.623	509.62
630.978	481.6
631.332	474.59
631.687	466.91
632.041	502.16
632.396	504.42
632.75	474.37
633.104	480.69
633.459	467.59
633.813	472.56
634.167	477.08
634.521	474.59
634.875	492.67
635.229	490.18
635.583	473.01
635.937	491.77
636.291	479.34
636.645	466
636.999	488.6
637.352	470.98
637.706	467.36
638.06	482.28
638.413	479.34
638.767	481.82
639.121	472.56
639.474	457.87
639.828	479.56
640.181	473.91
640.534	461.49
640.888	453.8
641.241	447.02
641.594	471.65
641.947	452.67
642.301	457.42
642.654	459.68
643.007	468.04
643.36	461.03
643.713	457.64
644.066	455.84
644.419	454.71
644.771	430.07
645.124	428.94
645.477	439.56
645.83	425.1
646.182	466
646.535	437.76
646.888	431.2
647.24	431.2
647.593	428.27
647.945	435.5
648.298	446.34
648.65	453.12
649.002	446.57
649.355	428.04
649.707	443.86
650.059	433.24
650.411	429.85
650.763	436.85
651.115	438.66
651.467	435.27
651.819	427.36
652.171	424.65
652.523	429.17
652.875	411.77
653.227	414.93
653.578	429.62
653.93	454.48
654.282	433.69
654.633	412.67
654.985	407.48
655.337	405.67
655.688	416.29
656.039	400.02
656.391	394.37
656.742	395.95
657.094	394.59
657.445	407.25
657.796	409.96
658.147	413.8
658.498	413.12
658.849	422.39
659.2	409.73
659.551	407.02
659.902	411.99
660.253	412.22
660.604	400.02
660.955	415.38
661.306	398.44
661.656	412.22
662.007	395.05
662.358	417.64
662.708	388.94
663.059	406.57
663.409	392.56
663.76	400.02
664.11	399.34
664.461	394.82
664.811	417.87
665.161	401.37
665.511	402.5
665.862	400.47
666.212	394.82
666.562	388.72
666.912	415.16
667.262	383.75
667.612	386.68
667.962	402.28
668.312	393.69
668.662	385.55
669.011	394.59
669.361	379.45
669.711	399.34
670.06	381.04
670.41	390.53
670.76	389.62
671.109	395.95
671.459	382.84
671.808	380.81
672.157	377.19
672.507	386.46
672.856	383.75
673.205	386.23
673.554	378.78
673.904	368.38
674.253	364.76
674.602	370.19
674.951	374.71
675.3	399.57
675.649	360.24
675.998	372.22
676.346	372.45
676.695	380.81
677.044	382.39
677.393	368.83
677.741	380.81
678.09	363.86
678.438	373.35
678.787	402.96
679.135	368.61
679.484	373.35
679.832	362.96
680.181	361.37
680.529	371.54
680.877	357.31
681.225	369.51
681.573	361.37
681.922	373.8
682.27	357.76
682.618	374.03
682.966	371.77
683.314	364.99
683.661	362.96
684.009	383.07
684.357	363.41
684.705	367.93
685.053	376.74
685.4	345.1
685.748	353.69
686.095	355.95
686.443	346.01
686.79	354.82
687.138	344.2
687.485	359.34
687.832	359.11
688.18	360.47
688.527	355.73
688.874	334.26
689.221	354.37
689.568	353.47
689.915	341.04
690.262	363.18
690.609	354.37
690.956	371.32
691.303	370.64
691.65	373.58
691.997	355.27
692.344	355.95
692.69	348.27
693.037	346.69
693.383	350.75
693.73	347.82
694.077	331.54
694.423	361.6
694.769	341.49
695.116	355.27
695.462	357.53
695.808	349.17
696.155	371.77
696.501	351.88
696.847	347.59
697.193	343.75
697.539	374.48
697.885	357.08
698.231	375.84
698.577	365.89
698.923	348.49
699.269	337.65
699.614	348.95
699.96	334.48
700.306	341.49
700.651	341.49
700.997	353.01
701.342	338.78
701.688	338.1
702.033	344.65
702.379	357.76
702.724	337.19
703.069	355.5
703.415	361.83
703.76	366.57
704.105	359.79
704.45	340.36
704.795	332
705.14	364.09
705.485	356.4
705.83	336.97
706.175	368.15
706.52	345.56
706.865	346.23
707.209	351.21
707.554	319.79
707.899	354.37
708.243	328.61
708.588	344.2
708.932	353.69
709.277	330.87
709.621	366.57
709.966	342.84
710.31	326.57
710.654	342.84
710.998	357.76
711.342	333.8
711.687	334.03
712.031	353.01
712.375	327.7
712.719	350.3
713.063	340.36
713.407	341.94
713.75	341.04
714.094	383.52
714.438	315.95
714.782	324.99
715.125	332.9
715.469	355.05
715.812	343.75
716.156	367.7
716.499	336.74
716.843	327.03
717.186	320.02
717.53	330.64
717.873	333.58
718.216	339.91
718.559	341.04
718.902	322.96
719.246	329.51
719.589	339.45
719.932	339.45
720.275	331.09
720.617	328.83
720.96	338.1
721.303	352.56
721.646	329.06
721.989	347.14
722.331	338.1
722.674	358.66
723.016	353.01
723.359	339
723.701	346.91
724.044	348.95
724.386	345.56
724.729	343.97
725.071	337.65
725.413	353.01
725.755	318.44
726.097	354.14
726.439	357.08
726.782	337.42
727.124	360.24
727.465	349.4
727.807	333.13
728.149	308.72
728.491	333.35
728.833	320.02
729.175	339.91
729.516	321.6
729.858	323.41
730.199	344.88
730.541	341.04
730.882	359.57
731.224	334.26
731.565	334.71
731.906	367.48
732.248	328.16
732.589	335.16
732.93	328.16
733.271	307.36
733.612	313.69
733.953	346.01
734.294	342.84
734.635	347.59
734.976	344.2
735.317	347.14
735.658	343.75
735.999	341.26
736.339	326.12
736.68	335.61
737.021	342.84
737.361	314.14
737.702	335.61
738.042	323.86
738.383	328.38
738.723	331.32
739.063	339.68
739.404	317.31
739.744	334.93
740.084	346.46
740.424	323.86
740.764	341.94
741.104	336.29
741.444	328.61
741.784	315.95
742.124	337.42
742.464	316.18
742.804	342.17
743.143	325.44
743.483	354.82
743.823	324.54
744.162	338.78
744.502	340.81
744.841	336.74
745.181	337.42
745.52	327.48
745.86	355.27
746.199	337.19
746.538	338.32
746.877	337.19
747.216	300.36
747.556	336.06
747.895	359.34
748.234	322.28
748.573	352.56
748.911	347.14
749.25	328.16
749.589	331.32
749.928	327.7
750.267	358.21
750.605	333.13
750.944	339.45
751.283	341.04
751.621	328.61
751.96	321.15
752.298	341.04
752.636	312.11
752.975	335.84
753.313	330.19
753.651	311.88
753.989	319.79
754.327	337.87
754.666	336.74
755.004	360.47
755.342	338.32
755.679	341.26
756.017	354.37
756.355	342.84
756.693	338.78
757.031	336.06
757.368	327.48
757.706	322.28
758.044	330.19
758.381	340.13
758.719	340.13
759.056	342.39
759.394	325.9
759.731	327.93
760.068	323.64
760.405	339.91
760.743	338.78
761.08	315.05
761.417	324.99
761.754	341.94
762.091	334.71
762.428	353.69
762.765	331.54
763.102	305.78
763.438	311.43
763.775	311.66
764.112	338.1
764.449	325.44
764.785	328.83
765.122	321.83
765.458	308.95
765.795	328.38
766.131	333.13
766.467	323.41
766.804	305.56
767.14	342.39
767.476	323.64
767.812	324.31
768.148	330.64
768.485	327.48
768.821	325.67
769.157	308.49
769.492	316.4
769.828	315.5
770.164	325.22
770.5	317.08
770.836	335.39
771.171	355.95
771.507	343.07
771.842	303.07
772.178	335.61
772.513	329.29
772.849	319.12
773.184	320.7
773.519	325.67
773.855	321.15
774.19	332.22
774.525	312.34
774.86	332.22
775.195	315.05
775.53	322.96
775.865	310.53
776.2	318.44
776.535	331.54
776.87	329.96
777.205	314.6
777.539	339.23
777.874	329.96
778.209	330.64
778.543	330.19
778.878	328.16
779.212	321.83
779.547	336.97
779.881	347.14
780.215	328.61
780.55	320.25
780.884	308.95
781.218	342.17
781.552	317.31
781.886	336.74
782.22	326.35
782.554	331.09
782.888	322.73
783.222	319.34
783.556	340.36
783.889	335.16
784.223	333.8
784.557	342.62
784.89	312.11
785.224	333.8
785.557	331.77
785.891	319.34
786.224	335.16
786.558	330.42
786.891	310.3
787.224	346.46
787.557	322.96
787.891	335.61
788.224	314.14
788.557	329.74
788.89	331.32
789.223	326.8
789.556	323.41
