Data from No_light_on_white_reflection_standard_FLMS001491_085.txt Node
Date: Tue Feb 07 10:33:09 GMT 2017
User: dcchb
Spectrometer: FLMS00149
Trigger mode: 0
Integration Time (sec): 2.000000E-2
Scans to average: 10
Electric dark correction enabled: true
Nonlinearity correction enabled: false
Boxcar width: 0
XAxis mode: Wavelengths
Number of Pixels in Spectrum: 2048
>>>>>Begin Spectral Data<<<<<
341.393	-19.01
341.776	-19.01
342.16	-19.01
342.543	-50.2
342.927	-45.68
343.31	-80.03
343.693	-82.74
344.077	-59.46
344.46	-66.24
344.843	-33.7
345.226	-28.5
345.61	-36.64
345.993	-23.3
346.376	-25.11
346.759	37.94
347.142	36.81
347.525	32.51
347.908	48.11
348.291	70.7
348.674	88.78
349.057	120.87
349.44	111.61
349.823	139.4
350.206	148.22
350.588	156.13
350.971	189.57
351.354	199.51
351.737	206.07
352.119	201.32
352.502	244.94
352.884	227.76
353.267	259.4
353.65	263.47
354.032	273.86
354.414	269.57
354.797	264.82
355.179	289.91
355.562	265.05
355.944	318.61
356.326	295.11
356.709	302.11
357.091	294.65
357.473	317.48
357.855	306.86
358.238	288.55
358.62	312.28
359.002	314.54
359.384	305.27
359.766	306.4
360.148	299.17
360.53	309.79
360.912	296.01
361.294	298.04
361.676	302.34
362.057	317.03
362.439	271.38
362.821	301.43
363.203	268.21
363.584	282.9
363.966	298.49
364.348	284.03
364.729	272.96
365.111	267.76
365.493	290.81
365.874	291.49
366.256	282.45
366.637	276.12
367.019	260.76
367.4	298.49
367.781	282.68
368.163	286.29
368.544	270.02
368.925	295.33
369.306	281.77
369.688	279.29
370.069	265.28
370.45	292.85
370.831	269.57
371.212	273.64
371.593	290.81
371.974	281.09
372.355	272.96
372.736	278.61
373.117	271.83
373.498	281.32
373.879	271.38
374.26	282.22
374.641	263.92
375.021	261.21
375.402	273.64
375.783	272.05
376.163	274.31
376.544	271.15
376.925	277.7
377.305	282.22
377.686	277.7
378.066	275.22
378.447	294.2
378.827	286.97
379.208	304.14
379.588	265.73
379.968	277.48
380.349	286.97
380.729	285.16
381.109	284.94
381.489	276.12
381.87	275.67
382.25	295.78
382.63	303.92
383.01	277.48
383.39	273.86
383.77	270.47
384.15	281.32
384.53	279.06
384.91	265.73
385.29	286.97
385.67	279.74
386.049	294.2
386.429	299.62
386.809	275.67
387.189	277.93
387.568	291.26
387.948	274.99
388.328	277.25
388.707	270.47
389.087	296.69
389.466	301.88
389.846	297.59
390.225	288.1
390.605	305.27
390.984	300.98
391.363	296.69
391.743	302.79
392.122	301.66
392.501	284.71
392.881	295.56
393.26	289.23
393.639	291.04
394.018	282.9
394.397	288.55
394.776	278.61
395.155	315.22
395.534	289
395.913	316.35
396.292	312.73
396.671	287.87
397.05	280.87
397.429	289.91
397.808	311.38
398.186	293.98
398.565	292.17
398.944	306.4
399.323	296.91
399.701	298.04
400.08	286.07
400.458	296.46
400.837	296.46
401.215	277.7
401.594	305.05
401.972	293.07
402.351	294.43
402.729	302.79
403.107	307.31
403.486	303.24
403.864	299.85
404.242	270.25
404.62	288.33
404.999	313.18
405.377	285.61
405.755	322.68
406.133	271.38
406.511	296.69
406.889	298.04
407.267	325.61
407.645	295.56
408.023	295.78
408.401	287.65
408.779	303.92
409.156	300.08
409.534	303.69
409.912	304.82
410.29	324.48
410.667	289.91
411.045	307.99
411.422	263.02
411.8	291.94
412.178	291.49
412.555	307.99
412.933	297.59
413.31	296.46
413.687	317.03
414.065	305.27
414.442	296.46
414.819	300.53
415.197	287.42
415.574	303.01
415.951	284.71
416.328	300.75
416.705	323.81
417.082	307.76
417.46	291.04
417.837	323.58
418.214	309.79
418.591	307.99
418.967	299.17
419.344	315.67
419.721	320.64
420.098	310.47
420.475	304.14
420.852	308.21
421.228	319.51
421.605	304.82
421.982	310.25
422.358	322.45
422.735	314.77
423.111	330.81
423.488	315.44
423.864	313.64
424.241	317.93
424.617	314.54
424.994	311.6
425.37	317.93
425.746	314.99
426.123	305.95
426.499	319.96
426.875	294.2
427.251	320.64
427.627	319.74
428.003	303.47
428.379	315.22
428.756	294.2
429.132	317.25
429.507	311.15
429.883	301.88
430.259	342.56
430.635	317.7
431.011	312.51
431.387	306.4
431.763	307.76
432.138	310.47
432.514	328.55
432.89	337.36
433.265	313.18
433.641	317.93
434.016	335.56
434.392	325.84
434.767	327.19
435.143	299.85
435.518	302.79
435.894	313.18
436.269	329.45
436.644	324.71
437.02	333.07
437.395	320.87
437.77	338.27
438.145	314.31
438.52	315.22
438.895	346.18
439.271	334.43
439.646	344.14
440.021	330.58
440.395	324.93
440.77	353.63
441.145	330.81
441.52	342.79
441.895	343.92
442.27	331.94
442.645	338.72
443.019	342.56
443.394	361.77
443.769	330.58
444.143	336.01
444.518	352.96
444.892	368.78
445.267	339.62
445.641	341.43
446.016	346.4
446.39	352.05
446.764	348.89
447.139	368.78
447.513	343.47
447.887	350.47
448.262	346.18
448.636	351.83
449.01	345.95
449.384	367.42
449.758	365.61
450.132	350.7
450.506	380.53
450.88	359.51
451.254	342.79
451.628	374.88
452.002	370.36
452.376	350.7
452.75	348.89
453.123	373.75
453.497	389.34
453.871	381.88
454.244	366.52
454.618	394.99
454.992	376.01
455.365	367.42
455.739	373.52
456.112	352.05
456.486	369
456.859	366.97
457.232	379.85
457.606	375.33
457.979	363.35
458.352	370.58
458.725	365.39
459.099	366.97
459.472	360.64
459.845	375.1
460.218	360.41
460.591	343.01
460.964	349.79
461.337	359.28
461.71	343.92
462.083	365.39
462.456	354.99
462.829	355.22
463.201	355.44
463.574	355.44
463.947	343.47
464.32	360.87
464.692	356.57
465.065	375.1
465.438	357.93
465.81	359.51
466.183	359.06
466.555	350.7
466.928	371.71
467.3	380.3
467.672	375.78
468.045	353.86
468.417	341.21
468.789	359.51
469.161	340.53
469.534	336.69
469.906	331.94
470.278	343.92
470.65	349.34
471.022	359.06
471.394	352.73
471.766	358.61
472.138	358.61
472.51	344.6
472.882	345.73
473.253	369
473.625	345.73
473.997	341.66
474.369	341.21
474.74	368.55
475.112	349.12
475.484	345.05
475.855	369.68
476.227	362.9
476.598	358.38
476.97	339.62
477.341	342.11
477.713	356.35
478.084	349.57
478.455	363.8
478.827	344.6
479.198	339.17
479.569	359.28
479.94	365.16
480.311	368.55
480.682	341.88
481.053	361.54
481.424	354.09
481.795	356.57
482.166	334.65
482.537	347.99
482.908	336.23
483.279	337.59
483.65	351.6
484.021	360.64
484.391	342.11
484.762	365.61
485.133	361.09
485.503	385.27
485.874	376.46
486.244	360.87
486.615	354.99
486.985	369
487.356	356.35
487.726	371.71
488.097	363.8
488.467	342.34
488.837	366.97
489.207	383.92
489.578	369.91
489.948	365.16
490.318	363.35
490.688	361.09
491.058	369.91
491.428	388.66
491.798	384.37
492.168	374.43
492.538	363.13
492.908	383.01
493.278	397.48
493.648	382.33
494.017	384.82
494.387	414.88
494.757	393.41
495.126	396.8
495.496	397.48
495.866	385.72
496.235	388.66
496.605	398.83
496.974	371.94
497.344	387.31
497.713	389.34
498.082	373.07
498.452	392.73
498.821	377.36
499.19	397.25
499.559	402.9
499.928	402.67
500.298	403.35
500.667	399.06
501.036	422.79
501.405	409.23
501.774	420.75
502.143	400.19
502.512	403.58
502.88	413.97
503.249	409.9
503.618	407.64
503.987	430.47
504.356	405.16
504.724	414.2
505.093	438.38
505.462	428.21
505.83	411.03
506.199	407.64
506.567	425.5
506.936	428.44
507.304	422.56
507.672	422.56
508.041	428.21
508.409	410.36
508.777	401.32
509.145	420.3
509.514	430.02
509.882	437.25
510.25	441.77
510.618	425.27
510.986	428.66
511.354	420.3
511.722	433.63
512.09	440.64
512.458	439.28
512.826	428.89
513.193	427.53
513.561	433.63
513.929	464.37
514.297	431.82
514.664	450.36
515.032	456.91
515.4	467.08
515.767	475.89
516.135	460.98
516.502	449
516.869	455.78
517.237	439.73
517.604	466.4
517.972	454.65
518.339	454.65
518.706	468.66
519.073	460.75
519.44	455.1
519.808	460.52
520.175	451.94
520.542	459.39
520.909	462.78
521.276	470.24
521.643	480.86
522.009	474.99
522.376	459.62
522.743	460.3
523.11	475.44
523.477	467.98
523.843	491.26
524.21	469.34
524.577	485.16
524.943	498.94
525.31	477.93
525.676	456.91
526.043	469.56
526.409	469.34
526.776	504.14
527.142	495.78
527.508	480.19
527.874	472.05
528.241	482.22
528.607	476.34
528.973	499.62
529.339	492.61
529.705	489
530.071	476.12
530.437	500.75
530.803	467.76
531.169	495.1
531.535	490.81
531.901	502.11
532.267	473.18
532.632	486.96
532.998	498.72
533.364	505.95
533.73	487.64
534.095	513.63
534.461	506.85
534.826	496.68
535.192	485.16
535.557	521.31
535.923	498.72
536.288	521.77
536.653	509.34
537.019	500.52
537.384	527.19
537.749	491.03
538.114	519.51
538.479	511.37
538.845	495.55
539.21	506.85
539.575	516.79
539.94	522.67
540.305	517.92
540.67	503.91
541.034	535.55
541.399	502.11
541.764	497.13
542.129	528.09
542.494	514.53
542.858	519.51
543.223	520.41
543.587	514.53
543.952	506.63
544.316	520.86
544.681	516.57
545.045	531.71
545.41	511.82
545.774	512.05
546.138	509.11
546.503	529
546.867	502.33
547.231	510.47
547.595	516.79
547.959	522.67
548.324	514.76
548.688	525.16
549.052	537.81
549.416	518.15
549.779	535.32
550.143	519.73
550.507	539.17
550.871	529.22
551.235	551.14
551.599	549.34
551.962	529.68
552.326	523.57
552.689	544.59
553.053	546.4
553.417	523.57
553.78	551.6
554.143	543.01
554.507	541.65
554.87	540.07
555.234	524.03
555.597	545.27
555.96	549.79
556.323	531.94
556.686	529.22
557.05	551.82
557.413	545.95
557.776	546.85
558.139	550.24
558.502	530.13
558.865	549.56
559.228	542.78
559.59	561.31
559.953	542.1
560.316	541.2
560.679	561.31
561.041	557.02
561.404	555.21
561.767	554.99
562.129	554.53
562.492	559.28
562.854	552.73
563.217	536.23
563.579	550.69
563.941	545.04
564.304	556.34
564.666	551.37
565.028	585.72
565.39	574.19
565.753	562.89
566.115	584.36
566.477	563.8
566.839	576.45
567.201	556.79
567.563	567.41
567.925	556.79
568.287	577.13
568.648	549.79
569.01	570.58
569.372	570.58
569.734	569.67
570.095	604.7
570.457	566.96
570.819	565.15
571.18	559.05
571.542	591.37
571.903	589.11
572.265	575.78
572.626	594.76
572.987	574.65
573.349	581.65
573.71	573.97
574.071	576
574.432	583.23
574.794	610.8
575.155	591.82
575.516	587.75
575.877	595.21
576.238	580.97
576.599	579.62
576.96	590.24
577.32	595.66
577.681	593.63
578.042	594.31
578.403	587.3
578.763	596.34
579.124	565.61
579.485	561.54
579.845	572.84
580.206	585.95
580.566	583.01
580.927	603.57
581.287	604.02
581.648	608.54
582.008	586.4
582.368	583.01
582.728	589.33
583.089	591.37
583.449	608.09
583.809	579.84
584.169	605.38
584.529	572.84
584.889	584.59
585.249	578.04
585.609	604.02
585.969	595.44
586.329	591.59
586.688	626.17
587.048	599.73
587.408	578.71
587.768	563.8
588.127	589.11
588.487	592.95
588.846	575.55
589.206	592.72
589.565	594.76
589.925	582.78
590.284	568.09
590.643	585.72
591.003	599.05
591.362	562.67
591.721	588.66
592.08	582.78
592.44	600.86
592.799	596.57
593.158	590.24
593.517	587.3
593.876	568.77
594.235	583.69
594.593	582.33
594.952	574.42
595.311	562.22
595.67	598.15
596.029	584.82
596.387	573.06
596.746	591.82
597.104	572.84
597.463	582.33
597.822	577.81
598.18	565.38
598.538	582.78
598.897	586.85
599.255	566.06
599.613	588.88
599.972	552.05
600.33	554.08
600.688	581.2
601.046	561.31
601.404	588.66
601.762	564.48
602.12	554.53
602.478	561.09
602.836	566.28
603.194	568.54
603.552	593.18
603.91	602.22
604.268	561.54
604.625	549.79
604.983	570.8
605.341	559.05
605.698	575.1
606.056	553.63
606.413	566.51
606.771	575.1
607.128	563.12
607.485	561.76
607.843	568.32
608.2	558.6
608.557	571.93
608.914	551.37
609.272	578.04
609.629	569.67
609.986	587.75
610.343	547.08
610.7	558.83
611.057	558.38
611.414	544.82
611.771	576.68
612.127	554.08
612.484	548.88
612.841	555.89
613.198	550.01
613.554	552.05
613.911	530.81
614.267	544.59
614.624	562.89
614.98	563.8
615.337	555.44
615.693	540.3
616.05	548.43
616.406	557.25
616.762	545.04
617.118	541.2
617.475	533.52
617.831	568.09
618.187	536.91
618.543	552.5
618.899	551.6
619.255	524.93
619.611	554.08
619.967	547.75
620.323	538.49
620.678	539.84
621.034	536.68
621.39	519.96
621.746	531.03
622.101	522.67
622.457	528.55
622.812	522.67
623.168	519.05
623.523	518.15
623.879	533.07
624.234	547.08
624.589	521.54
624.945	523.12
625.3	508.43
625.655	516.79
626.01	534.19
626.365	533.07
626.72	509.34
627.075	516.57
627.43	503.91
627.785	504.37
628.14	511.37
628.495	523.35
628.85	504.37
629.205	504.14
629.559	508.43
629.914	502.78
630.269	512.27
630.623	504.37
630.978	507.3
631.332	487.42
631.687	496.91
632.041	495.55
632.396	491.71
632.75	505.04
633.104	490.35
633.459	508.88
633.813	485.38
634.167	480.86
634.521	486.74
634.875	487.42
635.229	471.82
635.583	494.65
635.937	496.68
636.291	472.5
636.645	466.17
636.999	468.43
637.352	463.91
637.706	484.93
638.06	467.08
638.413	457.13
638.767	452.16
639.121	472.95
639.474	477.25
639.828	470.24
640.181	469.56
640.534	495.55
640.888	475.44
641.241	470.24
641.594	461.88
641.947	464.82
642.301	467.53
642.654	458.26
643.007	463.46
643.36	474.54
643.713	481.32
644.066	452.39
644.419	456.23
644.771	455.1
645.124	447.64
645.477	451.03
645.83	434.99
646.182	447.19
646.535	451.49
646.888	436.34
647.24	455.1
647.593	419.17
647.945	444.71
648.298	454.2
648.65	438.83
649.002	444.25
649.355	454.2
649.707	433.41
650.059	426.4
650.411	432.73
650.763	436.34
651.115	441.09
651.467	450.36
651.819	433.86
652.171	451.94
652.523	438.6
652.875	438.83
653.227	432.5
653.578	437.02
653.93	442.22
654.282	413.75
654.633	423.24
654.985	415.33
655.337	418.04
655.688	424.82
656.039	431.37
656.391	417.59
656.742	419.17
657.094	416.01
657.445	436.8
657.796	425.27
658.147	411.26
658.498	419.4
658.849	405.38
659.2	427.76
659.551	423.92
659.902	430.47
660.253	429.11
660.604	429.11
660.955	397.93
661.306	415.33
661.656	417.59
662.007	413.07
662.358	401.32
662.708	417.14
663.059	409.9
663.409	402.22
663.76	414.88
664.11	420.53
664.461	411.71
664.811	400.64
665.161	406.29
665.511	404.48
665.862	416.23
666.212	408.1
666.562	402.45
666.912	387.31
667.262	403.8
667.612	385.5
667.962	414.2
668.312	391.37
668.662	408.32
669.011	370.58
669.361	398.61
669.711	409
670.06	387.53
670.41	384.82
670.76	381.66
671.109	389.34
671.459	388.44
671.808	388.21
672.157	376.23
672.507	364.26
672.856	381.88
673.205	401.54
673.554	371.49
673.904	387.53
674.253	378.27
674.602	386.18
674.951	405.38
675.3	394.09
675.649	396.35
675.998	395.44
676.346	383.69
676.695	366.52
677.044	370.36
677.393	378.72
677.741	388.66
678.09	391.83
678.438	399.51
678.787	355.44
679.135	386.18
679.484	371.49
679.832	365.39
680.181	375.56
680.529	365.39
680.877	361.77
681.225	373.07
681.573	398.61
681.922	383.69
682.27	367.42
682.618	378.27
682.966	374.88
683.314	378.27
683.661	381.2
684.009	378.49
684.357	374.88
684.705	371.94
685.053	396.12
685.4	359.96
685.748	367.87
686.095	368.1
686.443	353.41
686.79	343.01
687.138	356.8
687.485	371.71
687.832	361.54
688.18	354.76
688.527	364.03
688.874	371.04
689.221	370.13
689.568	385.5
689.915	362
690.262	369
690.609	362
690.956	379.85
691.303	365.61
691.65	363.58
691.997	359.28
692.344	348.89
692.69	389.34
693.037	364.48
693.383	367.19
693.73	380.3
694.077	373.3
694.423	356.8
694.769	351.37
695.116	366.06
695.462	345.95
695.808	328.55
696.155	341.88
696.501	362.22
696.847	351.37
697.193	366.52
697.539	342.79
697.885	355.67
698.231	346.4
698.577	343.47
698.923	368.78
699.269	356.57
699.614	342.56
699.96	362.67
700.306	358.15
700.651	355.22
700.997	364.71
701.342	365.39
701.688	354.76
702.033	344.6
702.379	353.63
702.724	341.43
703.069	340.08
703.415	338.49
703.76	340.75
704.105	338.72
704.45	345.73
704.795	337.59
705.14	373.97
705.485	351.6
705.83	329
706.175	348.44
706.52	364.48
706.865	357.48
707.209	359.51
707.554	336.23
707.899	361.09
708.243	356.8
708.588	355.67
708.932	359.51
709.277	361.77
709.621	346.63
709.966	354.09
710.31	352.5
710.654	354.99
710.998	349.34
711.342	334.43
711.687	355.44
712.031	327.42
712.375	357.25
712.719	345.5
713.063	341.43
713.407	337.82
713.75	352.5
714.094	336.69
714.438	337.82
714.782	341.66
715.125	361.09
715.469	349.12
715.812	337.36
716.156	317.03
716.499	339.85
716.843	331.04
717.186	330.58
717.53	333.75
717.873	351.6
718.216	333.52
718.559	328.55
718.902	340.08
719.246	339.17
719.589	322.22
719.932	358.83
720.275	324.71
720.617	346.4
720.96	306.18
721.303	350.25
721.646	353.86
721.989	329.68
722.331	342.79
722.674	346.86
723.016	352.73
723.359	318.16
723.701	333.07
724.044	348.44
724.386	321.55
724.729	345.5
725.071	336.69
725.413	343.01
725.755	330.36
726.097	341.21
726.439	347.99
726.782	335.33
727.124	337.36
727.465	348.44
727.807	310.7
728.149	342.11
728.491	338.95
728.833	324.03
729.175	324.93
729.516	326.97
729.858	332.62
730.199	334.43
730.541	332.84
730.882	335.33
731.224	327.19
731.565	358.38
731.906	314.09
732.248	342.56
732.589	341.43
732.93	340.3
733.271	345.27
733.612	337.82
733.953	333.3
734.294	307.99
734.635	315.44
734.976	353.18
735.317	338.95
735.658	329.91
735.999	343.24
736.339	316.35
736.68	325.16
737.021	323.13
737.361	349.12
737.702	326.52
738.042	332.84
738.383	336.46
738.723	337.36
739.063	322.22
739.404	339.17
739.744	343.24
740.084	335.33
740.424	345.05
740.764	336.91
741.104	353.18
741.444	363.8
741.784	346.63
742.124	324.48
742.464	318.38
742.804	332.17
743.143	335.1
743.483	337.82
743.823	323.35
744.162	354.31
744.502	336.69
744.841	344.37
745.181	357.7
745.52	334.88
745.86	322.9
746.199	323.35
746.538	336.23
746.877	338.72
747.216	339.17
747.556	342.34
747.895	315.22
748.234	325.61
748.573	347.53
748.911	323.58
749.25	359.74
749.589	332.62
749.928	316.35
750.267	328.78
750.605	346.63
750.944	353.63
751.283	347.99
751.621	337.14
751.96	328.55
752.298	341.66
752.636	352.05
752.975	337.82
753.313	329
753.651	324.26
753.989	328.78
754.327	312.05
754.666	324.71
755.004	317.7
755.342	352.73
755.679	339.17
756.017	321.32
756.355	339.4
756.693	327.65
757.031	341.43
757.368	323.35
757.706	325.84
758.044	353.18
758.381	344.37
758.719	343.47
759.056	340.53
759.394	337.59
759.731	323.35
760.068	345.05
760.405	329
760.743	332.84
761.08	319.51
761.417	356.8
761.754	332.62
762.091	332.39
762.428	314.09
762.765	306.18
763.102	333.75
763.438	326.52
763.775	321.77
764.112	332.17
764.449	329
764.785	338.95
765.122	349.57
765.458	335.56
765.795	323.13
766.131	322.45
766.467	321.09
766.804	340.08
767.14	340.75
767.476	333.3
767.812	318.83
768.148	310.25
768.485	335.78
768.821	340.75
769.157	330.81
769.492	320.87
769.828	332.17
770.164	353.86
770.5	337.36
770.836	318.61
771.171	333.07
771.507	314.54
771.842	321.32
772.178	312.05
772.513	317.7
772.849	324.03
773.184	337.36
773.519	339.17
773.855	321.09
774.19	340.75
774.525	337.14
774.86	331.49
775.195	326.52
775.53	324.93
775.865	324.93
776.2	334.88
776.535	332.62
776.87	330.13
777.205	325.61
777.539	323.35
777.874	328.55
778.209	336.01
778.543	342.79
778.878	316.35
779.212	314.31
779.547	337.14
779.881	331.04
780.215	347.76
780.55	326.06
780.884	322.68
781.218	324.03
781.552	328.55
781.886	317.25
782.22	320.19
782.554	315.9
782.888	336.46
783.222	338.49
783.556	319.06
783.889	323.35
784.223	318.61
784.557	303.69
784.89	326.74
785.224	326.29
785.557	323.81
785.891	319.74
786.224	335.56
786.558	331.49
786.891	313.64
787.224	329.45
787.557	325.61
787.891	327.65
788.224	313.18
788.557	325.39
788.89	305.95
789.223	326.97
789.556	314.09
