Data from No_light_on_white_reflection_standard_FLMS001491_033.txt Node
Date: Tue Feb 07 10:32:58 GMT 2017
User: dcchb
Spectrometer: FLMS00149
Trigger mode: 0
Integration Time (sec): 2.000000E-2
Scans to average: 10
Electric dark correction enabled: true
Nonlinearity correction enabled: false
Boxcar width: 0
XAxis mode: Wavelengths
Number of Pixels in Spectrum: 2048
>>>>>Begin Spectral Data<<<<<
341.393	-11.29
341.776	-11.29
342.16	-11.29
342.543	-37.72
342.927	-71.62
343.31	-64.16
343.693	-67.78
344.077	-72.53
344.46	-47.67
344.843	-48.57
345.226	-32.75
345.61	-39.53
345.993	-28.91
346.376	7.7
346.759	-2.92
347.142	21.93
347.525	49.05
347.908	59.9
348.291	78.2
348.674	94.7
349.057	93.35
349.44	113.46
349.823	138.77
350.206	149.84
350.588	148.48
350.971	181.03
351.354	190.29
351.737	204.3
352.119	237.52
352.502	216.51
352.884	220.35
353.267	250.18
353.65	256.28
354.032	268.03
354.414	281.81
354.797	258.31
355.179	291.53
355.562	293.57
355.944	284.98
356.326	307.8
356.709	308.93
357.091	286.56
357.473	308.25
357.855	310.51
358.238	300.8
358.62	305.99
359.002	300.8
359.384	284.07
359.766	291.76
360.148	300.8
360.53	320.46
360.912	286.56
361.294	288.14
361.676	294.7
362.057	287.46
362.439	286.79
362.821	275.71
363.203	294.92
363.584	286.56
363.966	298.31
364.348	266.22
364.729	283.85
365.111	300.12
365.493	280.91
365.874	284.3
366.256	280.91
366.637	278.65
367.019	254.47
367.4	263.28
367.781	273.45
368.163	272.78
368.544	256.73
368.925	281.36
369.306	273.68
369.688	275.26
370.069	274.81
370.45	254.47
370.831	289.72
371.212	252.66
371.593	275.04
371.974	275.49
372.355	262.61
372.736	267.35
373.117	267.58
373.498	261.25
373.879	267.8
374.26	280.68
374.641	242.95
375.021	281.14
375.402	274.81
375.783	260.8
376.163	296.73
376.544	269.61
376.925	292.21
377.305	258.31
377.686	275.26
378.066	277.52
378.447	270.52
378.827	263.28
379.208	274.81
379.588	274.36
379.968	290.85
380.349	274.13
380.729	258.99
381.109	258.99
381.489	282.72
381.87	275.71
382.25	298.76
382.63	272.1
383.01	272.32
383.39	288.59
383.77	279.78
384.15	286.79
384.53	266.45
384.91	278.65
385.29	290.4
385.67	284.75
386.049	279.1
386.429	278.65
386.809	278.88
387.189	285.88
387.568	310.06
387.948	268.71
388.328	275.26
388.707	269.16
389.087	291.98
389.466	276.84
389.846	282.49
390.225	273.91
390.605	281.59
390.984	275.04
391.363	293.11
391.743	281.81
392.122	291.53
392.501	282.94
392.881	291.53
393.26	305.77
393.639	285.2
394.018	275.94
394.397	306.45
394.776	292.44
395.155	297.86
395.534	307.35
395.913	289.05
396.292	281.81
396.671	299.44
397.05	279.55
397.429	284.07
397.808	292.66
398.186	303.51
398.565	290.18
398.944	289.5
399.323	295.83
399.701	285.88
400.08	271.42
400.458	303.51
400.837	299.89
401.215	303.96
401.594	279.55
401.972	287.92
402.351	287.69
402.729	296.73
403.107	296.05
403.486	298.54
403.864	293.34
404.242	283.17
404.62	294.92
404.999	302.15
405.377	295.15
405.755	313.23
406.133	310.97
406.511	286.11
406.889	304.86
407.267	299.22
407.645	285.66
408.023	299.44
408.401	275.71
408.779	301.48
409.156	310.51
409.534	307.35
409.912	298.76
410.29	303.06
410.667	296.96
411.045	309.61
411.422	317.29
411.8	307.35
412.178	279.1
412.555	289.95
412.933	295.15
413.31	289.05
413.687	310.29
414.065	291.31
414.442	303.51
414.819	291.53
415.197	284.53
415.574	301.02
415.951	280.68
416.328	308.71
416.705	296.05
417.082	296.5
417.46	286.79
417.837	290.63
418.214	304.64
418.591	308.93
418.967	310.97
419.344	315.03
419.721	317.07
420.098	319.1
420.475	275.49
420.852	314.81
421.228	289.72
421.605	306.9
421.982	296.5
422.358	306.22
422.735	297.41
423.111	305.77
423.488	314.13
423.864	310.74
424.241	302.38
424.617	302.61
424.994	300.57
425.37	291.98
425.746	307.58
426.123	321.81
426.499	296.5
426.875	330.85
427.251	290.18
427.627	314.13
428.003	310.97
428.379	317.75
428.756	307.58
429.132	320.46
429.507	304.64
429.883	318.88
430.259	326.56
430.635	331.53
431.011	303.73
431.387	305.32
431.763	315.71
432.138	300.8
432.514	327.46
432.89	320.23
433.265	315.26
433.641	312.77
434.016	314.13
434.392	315.94
434.767	309.61
435.143	338.31
435.518	310.97
435.894	327.24
436.269	308.71
436.644	303.28
437.02	295.37
437.395	329.5
437.77	326.79
438.145	335.82
438.52	309.38
438.895	306.22
439.271	296.73
439.646	334.47
440.021	315.03
440.395	314.36
440.77	317.75
441.145	333.56
441.52	310.51
441.895	325.66
442.27	332.89
442.645	327.92
443.019	351.64
443.394	326.11
443.769	330.85
444.143	322.27
444.518	359.1
444.892	354.36
445.267	349.61
445.641	334.47
446.016	355.26
446.39	343.28
446.764	347.35
447.139	357.74
447.513	341.47
447.887	347.8
448.262	345.99
448.636	358.42
449.01	370.63
449.384	359.78
449.758	385.31
450.132	367.24
450.506	373.56
450.88	359.1
451.254	355.49
451.628	352.1
452.002	357.29
452.376	377.86
452.75	376.95
453.123	357.07
453.497	361.81
453.871	372.21
454.244	367.01
454.618	374.24
454.992	364.52
455.365	354.13
455.739	364.3
456.112	372.89
456.486	371.53
456.859	360.46
457.232	346.9
457.606	360.91
457.979	346.45
458.352	347.35
458.725	378.99
459.099	351.64
459.472	351.19
459.845	355.94
460.218	352.1
460.591	368.14
460.964	343.51
461.337	346.9
461.71	360.91
462.083	331.53
462.456	365.2
462.829	353.68
463.201	361.13
463.574	361.81
463.947	359.33
464.32	357.29
464.692	355.94
465.065	347.35
465.438	345.09
465.81	368.14
466.183	333.11
466.555	336.73
466.928	360.23
467.3	365.88
467.672	350.06
468.045	357.97
468.417	365.2
468.789	338.76
469.161	351.42
469.534	331.98
469.906	372.43
470.278	344.64
470.65	349.61
471.022	353
471.394	349.61
471.766	336.5
472.138	359.1
472.51	326.56
472.882	328.59
473.253	342.38
473.625	351.64
473.997	325.88
474.369	350.97
474.74	342.83
475.112	370.85
475.484	355.49
475.855	345.54
476.227	359.78
476.598	343.28
476.97	357.07
477.341	341.93
477.713	354.58
478.084	355.94
478.455	350.29
478.827	348.48
479.198	348.93
479.569	349.84
479.94	329.05
480.311	334.69
480.682	356.16
481.053	352.32
481.424	365.65
481.795	369.04
482.166	350.29
482.537	369.27
482.908	339.21
483.279	344.64
483.65	358.42
484.021	348.93
484.391	351.42
484.762	362.04
485.133	376.73
485.503	353.68
485.874	358.87
486.244	360.46
486.615	357.74
486.985	349.16
487.356	367.69
487.726	354.81
488.097	365.2
488.467	369.5
488.837	369.27
489.207	366.33
489.578	391.19
489.948	371.76
490.318	368.59
490.688	368.37
491.058	360.23
491.428	396.16
491.798	365.65
492.168	382.6
492.538	386.44
492.908	357.52
493.278	368.14
493.648	372.43
494.017	387.8
494.387	387.35
494.757	371.98
495.126	356.39
495.496	366.11
495.866	378.99
496.235	391.19
496.605	377.86
496.974	380.57
497.344	376.28
497.713	403.17
498.082	385.77
498.452	398.2
498.821	375.37
499.19	401.13
499.559	405.88
499.928	401.81
500.298	385.77
500.667	375.37
501.036	393.22
501.405	396.39
501.774	392.77
502.143	390.96
502.512	407.46
502.88	392.77
503.249	409.27
503.618	405.88
503.987	429.61
504.356	410.85
504.724	402.72
505.093	400.23
505.462	386.9
505.83	405.88
506.199	395.71
506.567	400.23
506.936	412.88
507.304	404.98
507.672	425.31
508.041	414.69
508.409	418.99
508.777	446.33
509.145	415.82
509.514	416.95
509.882	411.98
510.25	427.57
510.618	434.58
510.986	430.29
511.354	409.27
511.722	412.88
512.09	425.99
512.458	421.47
512.826	419.89
513.193	417.18
513.561	438.42
513.929	422.6
514.297	432.55
514.664	422.38
515.032	425.54
515.4	449.49
515.767	435.48
516.135	440.23
516.502	448.82
516.869	458.53
517.237	450.85
517.604	438.19
517.972	458.76
518.339	457.4
518.706	452.43
519.073	444.97
519.44	473
519.808	433.9
520.175	448.14
520.542	447.01
520.909	471.19
521.276	450.85
521.643	462.6
522.009	453.79
522.376	438.87
522.743	469.83
523.11	470.28
523.477	456.73
523.843	472.32
524.21	463.5
524.577	484.3
524.943	478.65
525.31	441.36
525.676	457.63
526.043	471.64
526.409	468.93
526.776	458.08
527.142	473
527.508	454.92
527.874	493.56
528.241	471.41
528.607	458.08
528.973	481.13
529.339	490.85
529.705	493.33
530.071	469.83
530.437	497.4
530.803	491.75
531.169	484.75
531.535	483.39
531.901	482.94
532.267	463.28
532.632	496.27
532.998	491.3
533.364	483.62
533.73	481.81
534.095	501.47
534.461	493.11
534.826	489.94
535.192	485.88
535.557	484.97
535.923	471.19
536.288	480.23
536.653	503.5
537.019	494.24
537.384	494.46
537.749	503.96
538.114	501.24
538.479	505.54
538.845	515.03
539.21	500.34
539.575	522.03
539.94	494.24
540.305	507.35
540.67	505.99
541.034	492.88
541.399	513.45
541.764	502.6
542.129	498.31
542.494	503.05
542.858	496.27
543.223	510.51
543.587	515.71
543.952	495.59
544.316	496.5
544.681	507.12
545.045	512.09
545.41	523.62
545.774	505.76
546.138	514.12
546.503	510.96
546.867	503.73
547.231	513.9
547.595	509.15
547.959	522.94
548.324	524.97
548.688	511.41
549.052	527.01
549.416	510.51
549.779	512.77
550.143	513.9
550.507	522.94
550.871	493.56
551.235	516.61
551.599	512.09
551.962	533.56
552.326	519.77
552.689	527.46
553.053	502.37
553.417	542.82
553.78	511.19
554.143	534.01
554.507	517.51
554.87	530.4
555.234	516.84
555.597	548.7
555.96	524.52
556.323	520.9
556.686	537.85
557.05	505.31
557.413	503.5
557.776	536.5
558.139	545.54
558.502	534.92
558.865	548.47
559.228	547.34
559.59	550.51
559.953	540.79
560.316	537.4
560.679	561.81
561.041	553.67
561.404	544.18
561.767	534.69
562.129	541.92
562.492	554.58
562.854	553.9
563.217	531.53
563.579	524.75
563.941	547.34
564.304	558.64
564.666	539.66
565.028	572.43
565.39	562.49
565.753	550.06
566.115	563.62
566.477	553.9
566.839	551.19
567.201	573.11
567.563	537.18
567.925	571.75
568.287	570.39
568.648	548.25
569.01	557.51
569.372	553.22
569.734	563.62
570.095	561.36
570.457	550.96
570.819	562.03
571.18	583.05
571.542	567.23
571.903	561.58
572.265	546.89
572.626	562.26
572.987	556.16
573.349	587.34
573.71	576.72
574.071	560.23
574.432	556.84
574.794	576.04
575.155	592.54
575.516	575.37
575.877	561.58
576.238	572.65
576.599	570.17
576.96	558.42
577.32	556.84
577.681	585.76
578.042	607.68
578.403	583.95
578.763	573.78
579.124	574.01
579.485	568.13
579.845	588.93
580.206	562.26
580.566	587.12
580.927	587.57
581.287	600.9
581.648	591.19
582.008	589.38
582.368	579.66
582.728	563.39
583.089	580.11
583.449	575.37
583.809	556.38
584.169	592.99
584.529	592.77
584.889	609.72
585.249	576.72
585.609	573.33
585.969	587.57
586.329	586.67
586.688	566.1
587.048	585.08
587.408	566.33
587.768	576.95
588.127	580.34
588.487	581.24
588.846	583.05
589.206	568.36
589.565	554.58
589.925	554.58
590.284	562.26
590.643	579.21
591.003	582.37
591.362	573.33
591.721	573.33
592.08	587.34
592.44	576.5
592.799	572.65
593.158	564.07
593.517	554.12
593.876	565.87
594.235	550.96
594.593	562.26
594.952	554.35
595.311	574.01
595.67	540.56
596.029	563.39
596.387	555.48
596.746	553.45
597.104	582.82
597.463	570.85
597.822	564.52
598.18	568.81
598.538	554.8
598.897	575.14
599.255	567.46
599.613	566.33
599.972	552.77
600.33	577.17
600.688	573.78
601.046	549.83
601.404	575.59
601.762	569.04
602.12	556.84
602.478	564.97
602.836	566.1
603.194	575.37
603.552	579.89
603.91	529.27
604.268	558.19
604.625	541.69
604.983	560.9
605.341	550.06
605.698	553.45
606.056	550.51
606.413	573.78
606.771	541.24
607.128	547.34
607.485	539.43
607.843	543.05
608.2	570.62
608.557	552.54
608.914	548.02
609.272	536.27
609.629	549.38
609.986	559.32
610.343	542.15
610.7	545.76
611.057	565.42
611.414	534.69
611.771	522.26
612.127	543.28
612.484	525.42
612.841	533.33
613.198	536.05
613.554	510.74
613.911	569.49
614.267	555.71
614.624	524.29
614.98	547.34
615.337	545.54
615.693	523.84
616.05	534.46
616.406	541.02
616.762	524.29
617.118	538.76
617.475	527.46
617.831	527.01
618.187	522.94
618.543	528.81
618.899	520
619.255	504.63
619.611	518.42
619.967	518.42
620.323	535.37
620.678	540.34
621.034	510.28
621.39	517.29
621.746	540.11
622.101	506.44
622.457	520.23
622.812	531.53
623.168	514.58
623.523	498.53
623.879	511.41
624.234	508.02
624.589	509.38
624.945	515.03
625.3	531.07
625.655	500.34
626.01	506.67
626.365	490.85
626.72	513.67
627.075	499.66
627.43	502.6
627.785	501.02
628.14	498.08
628.495	506.44
628.85	513.45
629.205	498.98
629.559	500.57
629.914	493.79
630.269	492.88
630.623	480.91
630.978	480.45
631.332	491.75
631.687	476.16
632.041	477.97
632.396	481.36
632.75	487.23
633.104	505.31
633.459	465.09
633.813	486.56
634.167	463.28
634.521	473.45
634.875	477.52
635.229	491.75
635.583	462.37
635.937	475.71
636.291	469.83
636.645	478.87
636.999	457.86
637.352	457.4
637.706	480.23
638.06	493.79
638.413	472.54
638.767	440.45
639.121	469.38
639.474	468.93
639.828	462.6
640.181	462.37
640.534	453.11
640.888	472.54
641.241	455.6
641.594	451.3
641.947	454.24
642.301	467.57
642.654	477.74
643.007	439.78
643.36	433.22
643.713	455.14
644.066	450.85
644.419	442.26
644.771	458.53
645.124	436.84
645.477	439.78
645.83	451.3
646.182	438.65
646.535	421.7
646.888	440.23
647.24	438.42
647.593	435.26
647.945	415.6
648.298	438.87
648.65	438.87
649.002	434.8
649.355	444.75
649.707	416.95
650.059	422.38
650.411	430.96
650.763	425.77
651.115	431.64
651.467	443.39
651.819	419.66
652.171	433
652.523	431.42
652.875	429.38
653.227	430.51
653.578	424.41
653.93	411.3
654.282	426.22
654.633	421.92
654.985	432.77
655.337	409.49
655.688	412.43
656.039	390.51
656.391	415.82
656.742	412.88
657.094	392.32
657.445	412.43
657.796	411.98
658.147	406.56
658.498	393.9
658.849	418.31
659.2	400.68
659.551	418.31
659.902	417.63
660.253	382.6
660.604	418.31
660.955	396.61
661.306	417.86
661.656	407.69
662.007	402.94
662.358	393.9
662.708	409.27
663.059	397.29
663.409	410.85
663.76	374.47
664.11	391.42
664.461	415.37
664.811	422.6
665.161	399.78
665.511	405.88
665.862	396.16
666.212	400
666.562	386.44
666.912	406.78
667.262	360.68
667.612	381.7
667.962	384.18
668.312	400
668.662	394.35
669.011	371.98
669.361	407.46
669.711	391.87
670.06	392.77
670.41	379.89
670.76	384.86
671.109	377.63
671.459	393.22
671.808	385.99
672.157	390.51
672.507	375.82
672.856	395.71
673.205	378.76
673.554	388.93
673.904	397.52
674.253	352.55
674.602	387.12
674.951	361.59
675.3	350.97
675.649	368.37
675.998	375.6
676.346	373.79
676.695	365.65
677.044	385.77
677.393	379.89
677.741	373.79
678.09	367.91
678.438	366.33
678.787	377.63
679.135	364.98
679.484	373.11
679.832	373.11
680.181	361.36
680.529	369.04
680.877	366.56
681.225	375.15
681.573	389.61
681.922	358.87
682.27	371.08
682.618	367.69
682.966	380.8
683.314	370.4
683.661	347.58
684.009	383.96
684.357	363.39
684.705	372.21
685.053	385.31
685.4	364.3
685.748	359.1
686.095	339.89
686.443	357.74
686.79	364.98
687.138	369.72
687.485	379.67
687.832	347.58
688.18	359.33
688.527	341.93
688.874	362.26
689.221	370.4
689.568	362.04
689.915	356.61
690.262	360
690.609	356.39
690.956	360.46
691.303	358.65
691.65	359.78
691.997	401.13
692.344	355.49
692.69	346.67
693.037	364.75
693.383	350.74
693.73	364.07
694.077	361.36
694.423	349.84
694.769	338.54
695.116	355.03
695.462	360
695.808	343.51
696.155	335.6
696.501	366.78
696.847	330.63
697.193	363.62
697.539	355.94
697.885	337.18
698.231	355.03
698.577	362.72
698.923	352.1
699.269	340.12
699.614	343.51
699.96	353
700.306	357.07
700.651	359.55
700.997	344.64
701.342	355.94
701.688	361.36
702.033	353.9
702.379	344.64
702.724	355.71
703.069	338.76
703.415	339.89
703.76	346.67
704.105	354.81
704.45	354.13
704.795	335.37
705.14	347.12
705.485	338.31
705.83	329.95
706.175	334.02
706.52	344.86
706.865	353.45
707.209	345.09
707.554	361.59
707.899	353.23
708.243	340.57
708.588	361.36
708.932	363.62
709.277	327.24
709.621	339.21
709.966	328.59
710.31	362.26
710.654	341.47
710.998	344.64
711.342	341.25
711.687	333.34
712.031	329.27
712.375	349.38
712.719	369.27
713.063	363.85
713.407	333.56
713.75	347.12
714.094	329.27
714.438	339.44
714.782	340.12
715.125	337.18
715.469	358.2
715.812	355.26
716.156	343.28
716.499	354.81
716.843	338.76
717.186	326.79
717.53	323.85
717.873	323.85
718.216	343.96
718.559	342.83
718.902	340.12
719.246	334.47
719.589	339.44
719.932	329.95
720.275	316.16
720.617	331.53
720.96	334.47
721.303	333.56
721.646	335.15
721.989	338.54
722.331	327.01
722.674	335.15
723.016	349.61
723.359	342.83
723.701	329.72
724.044	313.9
724.386	355.49
724.729	327.46
725.071	322.04
725.413	327.69
725.755	310.97
726.097	316.84
726.439	321.36
726.782	341.7
727.124	330.63
727.465	317.52
727.807	317.97
728.149	334.24
728.491	336.28
728.833	316.16
729.175	326.33
729.516	326.79
729.858	340.57
730.199	331.3
730.541	345.54
730.882	331.3
731.224	338.99
731.565	321.81
731.906	326.33
732.248	345.77
732.589	336.73
732.93	327.92
733.271	333.34
733.612	338.76
733.953	334.47
734.294	321.36
734.635	336.95
734.976	339.67
735.317	360.91
735.658	331.76
735.999	335.6
736.339	339.44
736.68	340.57
737.021	327.69
737.361	326.33
737.702	328.14
738.042	322.04
738.383	345.54
738.723	330.4
739.063	312.55
739.404	337.63
739.744	336.28
740.084	329.05
740.424	349.16
740.764	333.34
741.104	332.89
741.444	323.4
741.784	345.09
742.124	320.46
742.464	334.69
742.804	340.57
743.143	327.46
743.483	335.37
743.823	317.52
744.162	322.04
744.502	345.09
744.841	320.91
745.181	317.97
745.52	308.48
745.86	316.16
746.199	321.36
746.538	333.11
746.877	331.53
747.216	338.08
747.556	343.73
747.895	339.21
748.234	325.2
748.573	326.56
748.911	334.47
749.25	327.24
749.589	337.41
749.928	322.27
750.267	326.79
750.605	321.14
750.944	310.74
751.283	332.66
751.621	336.28
751.96	322.94
752.298	331.08
752.636	316.39
752.975	344.41
753.313	321.14
753.651	316.16
753.989	324.75
754.327	326.33
754.666	329.05
755.004	334.69
755.342	338.99
755.679	342.83
756.017	331.3
756.355	332.43
756.693	323.4
757.031	335.37
757.368	323.62
757.706	329.05
758.044	331.76
758.381	336.05
758.719	310.97
759.056	341.02
759.394	324.07
759.731	324.3
760.068	322.72
760.405	325.2
760.743	306.45
761.08	325.2
761.417	331.98
761.754	322.94
762.091	306.67
762.428	331.76
762.765	324.07
763.102	331.53
763.438	334.24
763.775	321.59
764.112	319.1
764.449	316.39
764.785	331.98
765.122	315.71
765.458	337.63
765.795	309.84
766.131	323.17
766.467	296.73
766.804	322.04
767.14	317.52
767.476	335.15
767.812	337.41
768.148	368.14
768.485	341.02
768.821	338.54
769.157	327.46
769.492	324.53
769.828	325.2
770.164	331.98
770.5	325.88
770.836	321.14
771.171	328.82
771.507	327.92
771.842	331.53
772.178	328.14
772.513	332.43
772.849	335.82
773.184	347.12
773.519	312.1
773.855	323.4
774.19	330.85
774.525	336.5
774.86	333.56
775.195	314.58
775.53	333.11
775.865	330.4
776.2	318.88
776.535	316.39
776.87	314.81
777.205	316.62
777.539	314.13
777.874	310.97
778.209	335.37
778.543	322.27
778.878	313.45
779.212	337.63
779.547	333.79
779.881	332.21
780.215	325.2
780.55	317.75
780.884	310.51
781.218	318.42
781.552	358.87
781.886	302.83
782.22	320.23
782.554	330.4
782.888	332.89
783.222	316.39
783.556	314.36
783.889	310.06
784.223	336.5
784.557	320.01
784.89	342.15
785.224	325.66
785.557	330.63
785.891	307.8
786.224	339.67
786.558	324.53
786.891	342.83
787.224	330.63
787.557	301.7
787.891	328.37
788.224	330.4
788.557	319.55
788.89	320.01
789.223	324.07
