Data from No_light_on_white_reflection_standard_FLMS001491_058.txt Node
Date: Tue Feb 07 10:33:03 GMT 2017
User: dcchb
Spectrometer: FLMS00149
Trigger mode: 0
Integration Time (sec): 2.000000E-2
Scans to average: 10
Electric dark correction enabled: true
Nonlinearity correction enabled: false
Boxcar width: 0
XAxis mode: Wavelengths
Number of Pixels in Spectrum: 2048
>>>>>Begin Spectral Data<<<<<
341.393	-9.03
341.776	-9.03
342.16	-9.03
342.543	-54.9
342.927	-43.37
343.31	-58.06
343.693	-75.69
344.077	-56.93
344.46	-67.55
344.843	-54
345.226	-15.8
345.61	-38.63
345.993	-14.45
346.376	-0.44
346.759	2.73
347.142	28.26
347.525	33.01
347.908	55.15
348.291	49.05
348.674	87.02
349.057	126.34
349.44	130.41
349.823	140.58
350.206	153
350.588	159.78
350.971	191.42
351.354	183.51
351.737	203.85
352.119	231.42
352.502	213.79
352.884	237.75
353.267	254.92
353.65	261.7
354.032	261.7
354.414	253.79
354.797	270.74
355.179	296.73
355.562	297.18
355.944	286.56
356.326	315.49
356.709	299.67
357.091	276.84
357.473	319.78
357.855	299.22
358.238	317.07
358.62	312.77
359.002	315.03
359.384	302.61
359.766	294.47
360.148	319.33
360.53	325.2
360.912	299.67
361.294	304.19
361.676	321.81
362.057	318.65
362.439	303.28
362.821	296.28
363.203	310.51
363.584	290.4
363.966	302.38
364.348	299.22
364.729	275.94
365.111	289.05
365.493	276.84
365.874	288.59
366.256	291.08
366.637	290.63
367.019	266
367.4	280.68
367.781	282.94
368.163	303.51
368.544	295.83
368.925	306.9
369.306	285.43
369.688	280.91
370.069	272.78
370.45	262.15
370.831	261.7
371.212	267.8
371.593	264.41
371.974	293.11
372.355	275.94
372.736	279.78
373.117	273.91
373.498	288.14
373.879	283.17
374.26	261.7
374.641	274.13
375.021	269.16
375.402	279.33
375.783	291.98
376.163	268.48
376.544	292.89
376.925	283.62
377.305	274.36
377.686	282.49
378.066	288.37
378.447	293.11
378.827	288.59
379.208	291.31
379.588	272.55
379.968	284.75
380.349	269.16
380.729	279.33
381.109	286.56
381.489	307.58
381.87	296.5
382.25	281.81
382.63	274.36
383.01	264.87
383.39	286.56
383.77	297.41
384.15	282.72
384.53	289.05
384.91	289.72
385.29	268.26
385.67	292.44
386.049	305.09
386.429	286.33
386.809	306.22
387.189	298.54
387.568	301.7
387.948	308.93
388.328	302.61
388.707	310.06
389.087	301.48
389.466	297.86
389.846	312.77
390.225	312.77
390.605	278.65
390.984	315.71
391.363	303.73
391.743	301.7
392.122	277.97
392.501	311.19
392.881	300.35
393.26	286.11
393.639	305.54
394.018	289.5
394.397	271.65
394.776	296.5
395.155	300.35
395.534	291.31
395.913	300.57
396.292	307.35
396.671	301.02
397.05	304.41
397.429	284.98
397.808	283.17
398.186	296.5
398.565	311.87
398.944	303.51
399.323	305.77
399.701	294.24
400.08	308.71
400.458	298.54
400.837	301.25
401.215	300.12
401.594	306.45
401.972	289.05
402.351	302.38
402.729	300.12
403.107	295.6
403.486	324.98
403.864	306.22
404.242	306.9
404.62	298.99
404.999	309.84
405.377	297.63
405.755	306.67
406.133	311.64
406.511	288.14
406.889	321.59
407.267	297.86
407.645	317.97
408.023	303.73
408.401	321.14
408.779	304.64
409.156	316.16
409.534	309.61
409.912	324.3
410.29	331.3
410.667	301.93
411.045	302.83
411.422	324.3
411.8	294.24
412.178	320.68
412.555	315.49
412.933	323.85
413.31	295.15
413.687	315.26
414.065	310.06
414.442	298.31
414.819	316.84
415.197	315.03
415.574	303.96
415.951	289.72
416.328	315.71
416.705	303.51
417.082	312.1
417.46	332.89
417.837	303.06
418.214	310.29
418.591	310.74
418.967	298.31
419.344	322.49
419.721	308.93
420.098	289.27
420.475	311.19
420.852	291.76
421.228	307.12
421.605	317.97
421.982	296.28
422.358	316.62
422.735	325.43
423.111	303.06
423.488	310.97
423.864	322.94
424.241	301.48
424.617	315.26
424.994	308.71
425.37	328.82
425.746	297.86
426.123	338.99
426.499	318.65
426.875	303.28
427.251	324.3
427.627	320.46
428.003	323.17
428.379	317.29
428.756	337.18
429.132	323.17
429.507	322.94
429.883	313.23
430.259	318.65
430.635	320.91
431.011	310.29
431.387	328.59
431.763	339.67
432.138	318.88
432.514	320.23
432.89	319.33
433.265	336.5
433.641	339.21
434.016	331.53
434.392	320.91
434.767	322.49
435.143	329.5
435.518	326.11
435.894	326.79
436.269	340.34
436.644	317.97
437.02	347.58
437.395	332.66
437.77	345.54
438.145	331.76
438.52	328.14
438.895	332.89
439.271	323.85
439.646	346.22
440.021	326.56
440.395	348.03
440.77	336.5
441.145	334.47
441.52	323.17
441.895	338.99
442.27	333.11
442.645	337.41
443.019	343.51
443.394	365.43
443.769	353.68
444.143	341.93
444.518	370.63
444.892	368.82
445.267	378.31
445.641	327.69
446.016	352.1
446.39	354.81
446.764	349.84
447.139	348.48
447.513	347.35
447.887	341.25
448.262	367.01
448.636	362.26
449.01	370.4
449.384	372.21
449.758	353.9
450.132	380.8
450.506	360.68
450.88	376.73
451.254	367.46
451.628	356.39
452.002	385.09
452.376	353.23
452.75	367.24
453.123	370.85
453.497	381.7
453.871	364.3
454.244	376.95
454.618	377.86
454.992	369.72
455.365	374.69
455.739	393.9
456.112	358.87
456.486	365.2
456.859	376.95
457.232	362.72
457.606	374.92
457.979	362.26
458.352	353.45
458.725	378.99
459.099	384.86
459.472	355.94
459.845	380.8
460.218	376.73
460.591	370.85
460.964	364.75
461.337	346.45
461.71	368.82
462.083	376.28
462.456	368.59
462.829	369.5
463.201	364.3
463.574	375.6
463.947	366.78
464.32	378.76
464.692	365.65
465.065	355.49
465.438	359.55
465.81	364.52
466.183	365.43
466.555	359.55
466.928	368.82
467.3	346.22
467.672	368.14
468.045	341.7
468.417	361.59
468.789	366.56
469.161	356.39
469.534	345.32
469.906	373.11
470.278	377.63
470.65	362.49
471.022	379.44
471.394	369.5
471.766	352.32
472.138	365.2
472.51	337.63
472.882	363.85
473.253	370.63
473.625	355.03
473.997	360.91
474.369	368.82
474.74	370.63
475.112	377.63
475.484	364.52
475.855	344.86
476.227	343.06
476.598	342.6
476.97	350.06
477.341	358.2
477.713	373.79
478.084	350.97
478.455	351.64
478.827	373.34
479.198	353
479.569	360.68
479.94	360.91
480.311	366.78
480.682	363.62
481.053	336.95
481.424	350.29
481.795	344.19
482.166	364.98
482.537	347.12
482.908	352.32
483.279	353.9
483.65	341.02
484.021	395.48
484.391	365.43
484.762	358.65
485.133	361.81
485.503	377.63
485.874	353.9
486.244	364.75
486.615	355.03
486.985	379.21
487.356	388.48
487.726	357.52
488.097	375.37
488.467	397.07
488.837	388.03
489.207	400
489.578	400.68
489.948	379.21
490.318	376.95
490.688	371.53
491.058	388.7
491.428	359.1
491.798	375.82
492.168	366.78
492.538	373.11
492.908	394.58
493.278	378.99
493.648	375.15
494.017	375.82
494.387	400.23
494.757	390.96
495.126	407.24
495.496	394.35
495.866	416.5
496.235	385.31
496.605	393.22
496.974	395.71
497.344	402.94
497.713	371.08
498.082	391.64
498.452	398.65
498.821	393
499.19	403.17
499.559	410.17
499.928	391.19
500.298	396.61
500.667	401.81
501.036	402.04
501.405	396.39
501.774	417.86
502.143	425.09
502.512	421.25
502.88	403.62
503.249	426.9
503.618	410.4
503.987	392.55
504.356	404.75
504.724	408.36
505.093	420.34
505.462	426.67
505.83	423.05
506.199	423.05
506.567	422.83
506.936	428.25
507.304	434.58
507.672	441.36
508.041	433.45
508.409	426.9
508.777	417.4
509.145	416.27
509.514	434.13
509.882	440.45
510.25	452.88
510.618	442.49
510.986	421.02
511.354	459.21
511.722	430.29
512.09	467.12
512.458	447.46
512.826	454.92
513.193	450.85
513.561	443.62
513.929	452.21
514.297	447.46
514.664	459.89
515.032	473
515.4	445.43
515.767	446.1
516.135	462.15
516.502	465.54
516.869	485.43
517.237	470.06
517.604	447.46
517.972	464.18
518.339	463.73
518.706	458.53
519.073	467.8
519.44	466.44
519.808	471.41
520.175	456.95
520.542	485.43
520.909	442.71
521.276	484.97
521.643	477.97
522.009	470.51
522.376	468.93
522.743	485.43
523.11	485.88
523.477	491.53
523.843	491.53
524.21	470.06
524.577	497.85
524.943	484.07
525.31	476.16
525.676	484.97
526.043	493.11
526.409	477.29
526.776	490.62
527.142	489.94
527.508	485.88
527.874	507.35
528.241	470.06
528.607	493.11
528.973	498.76
529.339	500.79
529.705	494.69
530.071	506.44
530.437	491.07
530.803	500.11
531.169	520.23
531.535	511.64
531.901	494.24
532.267	480.91
532.632	499.44
532.998	514.58
533.364	499.21
533.73	516.84
534.095	499.89
534.461	498.76
534.826	505.99
535.192	517.97
535.557	489.94
535.923	509.83
536.288	501.24
536.653	511.64
537.019	509.38
537.384	515.71
537.749	510.06
538.114	520.68
538.479	515.93
538.845	506.67
539.21	542.15
539.575	520.45
539.94	514.35
540.305	501.24
540.67	552.32
541.034	508.02
541.399	520
541.764	516.38
542.129	517.74
542.494	509.38
542.858	523.39
543.223	500.79
543.587	523.62
543.952	518.64
544.316	529.72
544.681	542.37
545.045	522.03
545.41	523.39
545.774	520.45
546.138	534.69
546.503	511.41
546.867	529.94
547.231	530.85
547.595	526.1
547.959	517.06
548.324	545.31
548.688	531.3
549.052	531.07
549.416	546.21
549.779	508.25
550.143	533.56
550.507	530.85
550.871	539.89
551.235	538.08
551.599	542.6
551.962	545.31
552.326	529.72
552.689	548.47
553.053	524.52
553.417	541.02
553.78	550.28
554.143	540.56
554.507	550.28
554.87	550.96
555.234	556.16
555.597	527.68
555.96	556.16
556.323	555.48
556.686	557.51
557.05	548.7
557.413	513.45
557.776	538.76
558.139	550.28
558.502	531.07
558.865	557.29
559.228	560.9
559.59	538.76
559.953	555.93
560.316	559.77
560.679	563.16
561.041	556.38
561.404	558.64
561.767	557.29
562.129	548.93
562.492	556.16
562.854	574.69
563.217	571.07
563.579	579.43
563.941	561.58
564.304	562.94
564.666	567.23
565.028	591.41
565.39	558.19
565.753	580.11
566.115	573.33
566.477	564.97
566.839	563.16
567.201	587.8
567.563	602.03
567.925	569.94
568.287	567.91
568.648	583.05
569.01	566.78
569.372	575.59
569.734	586.67
570.095	601.35
570.457	582.82
570.819	591.41
571.18	585.31
571.542	589.6
571.903	596.16
572.265	593.44
572.626	588.47
572.987	584.86
573.349	599.55
573.71	604.07
574.071	574.46
574.432	601.13
574.794	600.9
575.155	601.58
575.516	581.24
575.877	592.09
576.238	602.48
576.599	604.74
576.96	604.74
577.32	597.51
577.681	588.02
578.042	581.92
578.403	582.15
578.763	607.68
579.124	598.64
579.485	607
579.845	583.28
580.206	606.1
580.566	610.85
580.927	562.71
581.287	575.59
581.648	599.09
582.008	599.77
582.368	575.14
582.728	597.51
583.089	599.32
583.449	589.38
583.809	568.81
584.169	592.99
584.529	604.74
584.889	595.7
585.249	595.25
585.609	602.94
585.969	585.99
586.329	585.31
586.688	610.39
587.048	602.94
587.408	596.61
587.768	609.72
588.127	574.24
588.487	591.86
588.846	607.68
589.206	587.8
589.565	599.32
589.925	577.63
590.284	564.52
590.643	597.29
591.003	606.1
591.362	589.6
591.721	607.23
592.08	585.76
592.44	575.82
592.799	601.81
593.158	594.35
593.517	610.62
593.876	592.77
594.235	556.84
594.593	608.13
594.952	588.7
595.311	583.5
595.67	561.13
596.029	576.95
596.387	580.56
596.746	607.68
597.104	585.76
597.463	583.73
597.822	600
598.18	584.18
598.538	570.17
598.897	581.69
599.255	567
599.613	601.13
599.972	571.3
600.33	579.21
600.688	588.02
601.046	576.72
601.404	577.17
601.762	554.58
602.12	594.35
602.478	579.21
602.836	591.19
603.194	599.32
603.552	583.5
603.91	578.98
604.268	569.26
604.625	574.91
604.983	567.46
605.341	565.42
605.698	597.51
606.056	568.36
606.413	588.02
606.771	567.91
607.128	583.05
607.485	568.36
607.843	576.27
608.2	567.23
608.557	598.42
608.914	560.45
609.272	530.85
609.629	569.49
609.986	580.79
610.343	552.99
610.7	555.93
611.057	565.87
611.414	571.07
611.771	588.93
612.127	590.06
612.484	560.9
612.841	562.49
613.198	576.5
613.554	559.1
613.911	550.06
614.267	548.7
614.624	560.68
614.98	549.38
615.337	546.21
615.693	556.16
616.05	550.06
616.406	538.08
616.762	558.64
617.118	543.5
617.475	546.44
617.831	537.4
618.187	545.99
618.543	563.16
618.899	573.56
619.255	547.34
619.611	533.33
619.967	538.08
620.323	556.16
620.678	531.3
621.034	546.44
621.39	545.08
621.746	520.9
622.101	541.69
622.457	538.53
622.812	527.68
623.168	538.98
623.523	540.56
623.879	537.63
624.234	514.8
624.589	531.3
624.945	525.42
625.3	520.9
625.655	507.12
626.01	533.56
626.365	503.96
626.72	535.59
627.075	532.88
627.43	534.24
627.785	524.52
628.14	510.96
628.495	520.45
628.85	500.11
629.205	490.17
629.559	518.42
629.914	527.23
630.269	481.58
630.623	511.64
630.978	523.39
631.332	503.73
631.687	504.41
632.041	520.9
632.396	498.76
632.75	492.2
633.104	465.31
633.459	489.72
633.813	497.18
634.167	476.16
634.521	515.25
634.875	491.07
635.229	495.82
635.583	476.61
635.937	482.49
636.291	494.69
636.645	495.37
636.999	490.85
637.352	501.47
637.706	498.53
638.06	506.22
638.413	473.67
638.767	485.65
639.121	475.93
639.474	499.44
639.828	480.68
640.181	484.52
640.534	467.8
640.888	483.17
641.241	452.88
641.594	467.8
641.947	461.92
642.301	468.93
642.654	467.57
643.007	488.36
643.36	471.64
643.713	457.86
644.066	482.94
644.419	477.06
644.771	488.36
645.124	460.57
645.477	476.39
645.83	451.53
646.182	440.45
646.535	449.95
646.888	446.56
647.24	446.56
647.593	442.04
647.945	450.62
648.298	451.53
648.65	428.7
649.002	449.72
649.355	444.3
649.707	427.57
650.059	433.22
650.411	424.18
650.763	452.66
651.115	445.2
651.467	444.07
651.819	455.14
652.171	455.14
652.523	430.96
652.875	454.01
653.227	410.62
653.578	416.05
653.93	433.22
654.282	430.06
654.633	427.57
654.985	429.61
655.337	444.52
655.688	431.19
656.039	410.4
656.391	417.86
656.742	428.48
657.094	415.82
657.445	425.09
657.796	423.73
658.147	429.61
658.498	445.43
658.849	410.62
659.2	428.48
659.551	420.12
659.902	418.53
660.253	427.57
660.604	430.06
660.955	425.09
661.306	413.11
661.656	411.3
662.007	412.66
662.358	422.83
662.708	404.07
663.059	406.33
663.409	415.82
663.76	413.79
664.11	425.77
664.461	400.46
664.811	420.34
665.161	410.85
665.511	409.72
665.862	401.59
666.212	419.89
666.562	387.8
666.912	417.86
667.262	402.26
667.612	422.83
667.962	409.49
668.312	410.4
668.662	398.42
669.011	410.85
669.361	392.55
669.711	405.65
670.06	390.29
670.41	401.81
670.76	395.94
671.109	398.42
671.459	386.67
671.808	392.32
672.157	393.68
672.507	414.69
672.856	389.16
673.205	389.38
673.554	380.8
673.904	400.46
674.253	403.39
674.602	357.07
674.951	406.78
675.3	421.47
675.649	396.61
675.998	381.92
676.346	383.28
676.695	368.82
677.044	421.47
677.393	395.03
677.741	372.66
678.09	376.28
678.438	380.34
678.787	381.47
679.135	381.25
679.484	368.37
679.832	384.41
680.181	378.31
680.529	374.24
680.877	380.34
681.225	385.09
681.573	384.64
681.922	379.67
682.27	397.07
682.618	399.55
682.966	381.47
683.314	409.27
683.661	391.87
684.009	358.65
684.357	375.37
684.705	389.83
685.053	373.79
685.4	372.66
685.748	387.8
686.095	383.51
686.443	378.08
686.79	376.95
687.138	360
687.485	387.57
687.832	351.42
688.18	383.28
688.527	367.46
688.874	378.76
689.221	356.61
689.568	389.38
689.915	391.19
690.262	364.3
690.609	353.9
690.956	353
691.303	375.6
691.65	364.52
691.997	378.31
692.344	355.49
692.69	345.09
693.037	352.55
693.383	361.81
693.73	374.47
694.077	359.33
694.423	361.59
694.769	351.64
695.116	386.9
695.462	351.87
695.808	363.62
696.155	376.28
696.501	347.8
696.847	361.59
697.193	349.16
697.539	366.33
697.885	384.64
698.231	338.31
698.577	369.95
698.923	346.67
699.269	375.82
699.614	388.25
699.96	365.43
700.306	362.94
700.651	348.93
700.997	377.41
701.342	345.77
701.688	355.26
702.033	373.11
702.379	368.14
702.724	332.21
703.069	349.16
703.415	352.32
703.76	375.37
704.105	358.42
704.45	355.94
704.795	360.68
705.14	341.25
705.485	341.25
705.83	362.49
706.175	357.52
706.52	360.68
706.865	374.69
707.209	353.68
707.554	331.53
707.899	349.61
708.243	344.86
708.588	342.38
708.932	348.93
709.277	347.12
709.621	367.24
709.966	366.78
710.31	350.74
710.654	362.94
710.998	349.38
711.342	361.36
711.687	344.19
712.031	340.34
712.375	350.06
712.719	349.38
713.063	338.76
713.407	349.38
713.75	369.27
714.094	347.12
714.438	371.98
714.782	343.28
715.125	350.51
715.469	338.76
715.812	350.06
716.156	343.51
716.499	330.17
716.843	361.13
717.186	359.33
717.53	352.77
717.873	338.99
718.216	357.29
718.559	331.53
718.902	348.25
719.246	343.73
719.589	340.34
719.932	379.67
720.275	348.71
720.617	333.34
720.96	348.25
721.303	344.41
721.646	351.42
721.989	346.22
722.331	363.62
722.674	346.9
723.016	355.49
723.359	355.26
723.701	330.17
724.044	348.93
724.386	345.54
724.729	333.56
725.071	333.56
725.413	359.78
725.755	336.5
726.097	357.97
726.439	345.09
726.782	327.69
727.124	350.97
727.465	316.62
727.807	338.54
728.149	358.2
728.491	343.73
728.833	356.39
729.175	347.12
729.516	333.79
729.858	341.02
730.199	341.25
730.541	345.99
730.882	325.66
731.224	342.6
731.565	352.32
731.906	324.75
732.248	339.21
732.589	333.11
732.93	352.32
733.271	337.41
733.612	348.48
733.953	329.27
734.294	343.73
734.635	351.42
734.976	362.94
735.317	323.62
735.658	331.76
735.999	339.89
736.339	322.04
736.68	329.27
737.021	348.93
737.361	348.48
737.702	336.73
738.042	336.73
738.383	353.9
738.723	355.26
739.063	342.6
739.404	348.03
739.744	345.09
740.084	349.61
740.424	336.28
740.764	338.99
741.104	352.55
741.444	344.86
741.784	334.02
742.124	336.5
742.464	333.34
742.804	338.76
743.143	340.12
743.483	339.44
743.823	320.23
744.162	355.94
744.502	338.08
744.841	357.29
745.181	347.35
745.52	330.4
745.86	351.19
746.199	331.76
746.538	344.41
746.877	337.63
747.216	360
747.556	323.85
747.895	341.7
748.234	335.6
748.573	324.3
748.911	334.92
749.25	332.21
749.589	343.28
749.928	341.02
750.267	346.9
750.605	338.54
750.944	334.69
751.283	340.8
751.621	343.51
751.96	346.67
752.298	339.89
752.636	343.96
752.975	348.93
753.313	345.54
753.651	316.62
753.989	318.65
754.327	348.03
754.666	344.19
755.004	355.49
755.342	322.27
755.679	340.34
756.017	342.15
756.355	330.85
756.693	345.99
757.031	333.11
757.368	346.45
757.706	338.76
758.044	335.15
758.381	330.4
758.719	355.49
759.056	325.88
759.394	326.11
759.731	332.21
760.068	347.12
760.405	322.27
760.743	320.23
761.08	339.67
761.417	324.07
761.754	338.31
762.091	319.1
762.428	316.16
762.765	326.79
763.102	333.34
763.438	321.59
763.775	352.1
764.112	324.75
764.449	345.32
764.785	313.9
765.122	318.2
765.458	336.95
765.795	315.26
766.131	336.73
766.467	347.8
766.804	350.97
767.14	346.9
767.476	342.15
767.812	345.54
768.148	342.83
768.485	329.27
768.821	337.18
769.157	349.84
769.492	325.2
769.828	310.29
770.164	332.43
770.5	327.01
770.836	323.17
771.171	331.3
771.507	331.76
771.842	350.51
772.178	348.25
772.513	344.64
772.849	355.94
773.184	333.11
773.519	343.06
773.855	338.54
774.19	343.96
774.525	348.71
774.86	333.79
775.195	340.34
775.53	339.44
775.865	322.94
776.2	348.71
776.535	339.21
776.87	329.95
777.205	330.17
777.539	319.78
777.874	324.53
778.209	331.53
778.543	317.97
778.878	327.46
779.212	329.27
779.547	333.34
779.881	360
780.215	320.91
780.55	337.41
780.884	345.99
781.218	342.83
781.552	338.08
781.886	343.28
782.22	306.22
782.554	324.07
782.888	320.23
783.222	327.69
783.556	341.93
783.889	328.82
784.223	329.27
784.557	330.85
784.89	337.63
785.224	326.79
785.557	342.6
785.891	333.11
786.224	343.73
786.558	343.51
786.891	342.15
787.224	339.44
787.557	342.38
787.891	335.82
788.224	317.29
788.557	338.76
788.89	328.37
789.223	323.17
789.556	343.96
789.888	344.41
