Data from No_light_on_white_reflection_standard_FLMS001491_070.txt Node
Date: Tue Feb 07 10:33:06 GMT 2017
User: dcchb
Spectrometer: FLMS00149
Trigger mode: 0
Integration Time (sec): 2.000000E-2
Scans to average: 10
Electric dark correction enabled: true
Nonlinearity correction enabled: false
Boxcar width: 0
XAxis mode: Wavelengths
Number of Pixels in Spectrum: 2048
>>>>>Begin Spectral Data<<<<<
341.393	-18.74
341.776	-18.74
342.16	-18.74
342.543	-31.17
342.927	-67.78
343.31	-46.31
343.693	-70.04
344.077	-74.11
344.46	-55.8
344.843	-62.36
345.226	-43.15
345.61	-24.39
345.993	1.6
346.376	-4.28
346.759	-0.66
347.142	4.08
347.525	27.36
347.908	71.88
348.291	64.19
348.674	100.12
349.057	111.88
349.44	134.02
349.823	151.2
350.206	174.47
350.588	155.72
350.971	174.92
351.354	193
351.737	233
352.119	221.7
352.502	225.32
352.884	257.86
353.267	243.4
353.65	271.65
354.032	269.39
354.414	274.81
354.797	289.05
355.179	290.18
355.562	296.5
355.944	294.92
356.326	320.91
356.709	306.67
357.091	298.09
357.473	309.61
357.855	337.18
358.238	284.98
358.62	329.95
359.002	315.71
359.384	294.24
359.766	301.7
360.148	313.9
360.53	300.12
360.912	318.2
361.294	300.35
361.676	303.06
362.057	310.97
362.439	287.01
362.821	291.08
363.203	280.68
363.584	282.72
363.966	308.03
364.348	288.59
364.729	315.71
365.111	290.18
365.493	278.2
365.874	277.29
366.256	260.8
366.637	288.14
367.019	296.73
367.4	268.03
367.781	284.3
368.163	284.75
368.544	283.62
368.925	290.85
369.306	294.7
369.688	281.81
370.069	280.23
370.45	266.45
370.831	271.65
371.212	290.63
371.593	280.01
371.974	298.76
372.355	277.07
372.736	268.48
373.117	280.46
373.498	286.56
373.879	293.57
374.26	262.83
374.641	266.45
375.021	288.59
375.402	293.11
375.783	288.59
376.163	280.68
376.544	285.2
376.925	286.11
377.305	292.89
377.686	289.05
378.066	262.83
378.447	288.37
378.827	293.79
379.208	280.23
379.588	285.88
379.968	291.31
380.349	282.72
380.729	282.27
381.109	315.49
381.489	287.92
381.87	294.47
382.25	297.86
382.63	287.24
383.01	294.7
383.39	269.16
383.77	278.65
384.15	301.25
384.53	280.68
384.91	289.27
385.29	306.9
385.67	288.14
386.049	304.64
386.429	282.04
386.809	296.28
387.189	295.15
387.568	295.15
387.948	288.82
388.328	296.05
388.707	281.59
389.087	292.21
389.466	303.28
389.846	305.54
390.225	292.21
390.605	285.88
390.984	301.93
391.363	295.6
391.743	293.34
392.122	284.98
392.501	286.11
392.881	288.82
393.26	295.15
393.639	302.83
394.018	276.17
394.397	290.85
394.776	314.81
395.155	294.47
395.534	321.14
395.913	299.44
396.292	296.96
396.671	305.77
397.05	297.18
397.429	288.82
397.808	300.8
398.186	282.27
398.565	275.04
398.944	266.22
399.323	282.72
399.701	319.1
400.08	310.06
400.458	310.97
400.837	310.29
401.215	285.88
401.594	304.19
401.972	308.93
402.351	292.66
402.729	286.56
403.107	310.97
403.486	315.49
403.864	307.58
404.242	306.22
404.62	300.57
404.999	303.51
405.377	314.36
405.755	317.07
406.133	308.93
406.511	313.45
406.889	307.8
407.267	290.18
407.645	274.58
408.023	300.12
408.401	304.86
408.779	304.19
409.156	287.01
409.534	286.56
409.912	293.57
410.29	301.7
410.667	313.9
411.045	313.45
411.422	324.07
411.8	320.91
412.178	298.31
412.555	324.53
412.933	327.46
413.31	321.59
413.687	309.84
414.065	312.77
414.442	300.35
414.819	313.9
415.197	321.36
415.574	300.12
415.951	312.1
416.328	308.48
416.705	315.94
417.082	304.19
417.46	291.31
417.837	301.02
418.214	295.15
418.591	299.67
418.967	292.89
419.344	286.79
419.721	303.73
420.098	291.08
420.475	310.51
420.852	339.21
421.228	324.98
421.605	321.81
421.982	313.68
422.358	297.41
422.735	335.15
423.111	326.56
423.488	313
423.864	305.54
424.241	314.36
424.617	316.39
424.994	320.23
425.37	317.75
425.746	333.79
426.123	319.78
426.499	328.82
426.875	324.98
427.251	317.52
427.627	320.46
428.003	336.95
428.379	301.25
428.756	337.18
429.132	318.65
429.507	315.26
429.883	311.64
430.259	319.55
430.635	316.62
431.011	329.5
431.387	312.77
431.763	314.13
432.138	314.13
432.514	314.36
432.89	318.2
433.265	320.01
433.641	333.56
434.016	324.53
434.392	333.79
434.767	316.84
435.143	322.72
435.518	331.08
435.894	330.85
436.269	302.38
436.644	326.11
437.02	327.46
437.395	329.5
437.77	318.88
438.145	337.63
438.52	323.85
438.895	330.17
439.271	322.72
439.646	329.72
440.021	333.56
440.395	322.49
440.77	326.79
441.145	338.31
441.52	349.16
441.895	320.01
442.27	354.13
442.645	340.8
443.019	341.02
443.394	329.27
443.769	348.71
444.143	331.08
444.518	351.42
444.892	350.51
445.267	344.86
445.641	371.3
446.016	336.5
446.39	347.58
446.764	368.82
447.139	353.23
447.513	366.33
447.887	363.62
448.262	371.98
448.636	351.64
449.01	352.1
449.384	385.54
449.758	369.5
450.132	366.33
450.506	373.11
450.88	364.75
451.254	352.1
451.628	371.3
452.002	360.68
452.376	360
452.75	371.3
453.123	366.33
453.497	377.41
453.871	377.18
454.244	383.96
454.618	377.18
454.992	363.39
455.365	379.44
455.739	377.41
456.112	371.08
456.486	370.17
456.859	370.17
457.232	366.56
457.606	375.37
457.979	359.78
458.352	362.94
458.725	349.84
459.099	370.63
459.472	353.9
459.845	356.39
460.218	371.76
460.591	364.75
460.964	351.87
461.337	352.55
461.71	361.59
462.083	365.43
462.456	362.26
462.829	350.74
463.201	347.12
463.574	372.21
463.947	371.98
464.32	376.28
464.692	352.1
465.065	367.24
465.438	354.13
465.81	369.27
466.183	366.33
466.555	374.47
466.928	361.13
467.3	353.68
467.672	368.59
468.045	368.37
468.417	353
468.789	380.8
469.161	347.35
469.534	356.16
469.906	369.5
470.278	372.66
470.65	355.26
471.022	352.32
471.394	352.1
471.766	336.05
472.138	368.59
472.51	368.37
472.882	363.39
473.253	343.51
473.625	365.88
473.997	359.55
474.369	356.84
474.74	342.83
475.112	368.14
475.484	355.94
475.855	367.24
476.227	344.64
476.598	357.97
476.97	365.88
477.341	369.72
477.713	365.88
478.084	365.43
478.455	345.54
478.827	373.56
479.198	356.84
479.569	341.25
479.94	348.93
480.311	359.55
480.682	385.77
481.053	348.03
481.424	357.52
481.795	351.64
482.166	358.42
482.537	346.22
482.908	343.73
483.279	354.58
483.65	366.33
484.021	382.15
484.391	386.67
484.762	364.75
485.133	370.85
485.503	381.47
485.874	367.46
486.244	365.88
486.615	373.79
486.985	358.2
487.356	370.85
487.726	360.23
488.097	374.69
488.467	362.26
488.837	367.91
489.207	354.58
489.578	370.63
489.948	365.65
490.318	381.7
490.688	370.85
491.058	384.18
491.428	362.04
491.798	381.47
492.168	384.41
492.538	394.81
492.908	378.76
493.278	380.34
493.648	385.54
494.017	389.83
494.387	395.71
494.757	389.83
495.126	403.17
495.496	389.83
495.866	382.6
496.235	392.77
496.605	378.54
496.974	391.64
497.344	403.62
497.713	373.79
498.082	397.52
498.452	388.93
498.821	397.29
499.19	406.56
499.559	398.65
499.928	412.21
500.298	405.43
500.667	383.73
501.036	421.02
501.405	413.79
501.774	400.91
502.143	418.99
502.512	398.87
502.88	432.55
503.249	405.43
503.618	407.91
503.987	418.31
504.356	388.03
504.724	418.31
505.093	443.17
505.462	427.35
505.83	414.01
506.199	440.91
506.567	426.67
506.936	433.22
507.304	418.76
507.672	433
508.041	451.75
508.409	425.31
508.777	443.62
509.145	440.68
509.514	437.52
509.882	442.26
510.25	421.25
510.618	416.05
510.986	440
511.354	444.52
511.722	440
512.09	430.29
512.458	428.93
512.826	435.93
513.193	453.11
513.561	451.3
513.929	461.02
514.297	454.47
514.664	447.46
515.032	471.41
515.4	463.96
515.767	448.14
516.135	447.69
516.502	459.66
516.869	457.4
517.237	464.18
517.604	477.52
517.972	435.03
518.339	467.12
518.706	464.63
519.073	453.56
519.44	470.51
519.808	460.34
520.175	467.35
520.542	472.77
520.909	467.12
521.276	468.7
521.643	489.04
522.009	476.39
522.376	458.53
522.743	477.29
523.11	466.67
523.477	476.61
523.843	475.93
524.21	488.14
524.577	481.36
524.943	473.67
525.31	471.41
525.676	476.84
526.043	471.87
526.409	482.26
526.776	480.45
527.142	487.46
527.508	490.4
527.874	509.38
528.241	494.46
528.607	493.79
528.973	485.2
529.339	499.66
529.705	478.42
530.071	490.85
530.437	507.12
530.803	501.02
531.169	508.48
531.535	470.74
531.901	507.8
532.267	503.5
532.632	507.57
532.998	517.74
533.364	491.07
533.73	510.96
534.095	514.12
534.461	496.05
534.826	512.77
535.192	515.25
535.557	497.4
535.923	511.41
536.288	519.32
536.653	504.41
537.019	506.67
537.384	517.06
537.749	518.64
538.114	499.44
538.479	506.22
538.845	528.59
539.21	505.09
539.575	520.23
539.94	495.14
540.305	504.18
540.67	520.68
541.034	510.96
541.399	502.6
541.764	507.57
542.129	527.23
542.494	491.53
542.858	529.04
543.223	515.25
543.587	538.08
543.952	526.33
544.316	518.64
544.681	510.28
545.045	515.71
545.41	511.41
545.774	534.24
546.138	532.66
546.503	548.02
546.867	538.98
547.231	511.19
547.595	534.01
547.959	546.67
548.324	538.53
548.688	515.93
549.052	529.49
549.416	546.44
549.779	536.27
550.143	519.1
550.507	541.92
550.871	544.18
551.235	535.59
551.599	529.94
551.962	537.63
552.326	523.39
552.689	549.6
553.053	535.14
553.417	545.76
553.78	518.64
554.143	544.63
554.507	528.14
554.87	555.93
555.234	528.36
555.597	562.94
555.96	558.42
556.323	564.52
556.686	552.99
557.05	548.93
557.413	537.4
557.776	559.32
558.139	546.21
558.502	556.61
558.865	564.07
559.228	554.58
559.59	577.17
559.953	559.55
560.316	551.64
560.679	550.51
561.041	570.85
561.404	563.16
561.767	556.84
562.129	567
562.492	557.97
562.854	573.11
563.217	564.75
563.579	570.17
563.941	562.26
564.304	573.33
564.666	574.24
565.028	578.76
565.39	584.18
565.753	566.55
566.115	605.87
566.477	578.08
566.839	581.24
567.201	586.67
567.563	580.34
567.925	582.82
568.287	583.95
568.648	593.22
569.01	589.15
569.372	594.35
569.734	562.49
570.095	580.79
570.457	586.21
570.819	545.76
571.18	605.42
571.542	596.83
571.903	571.07
572.265	588.7
572.626	577.4
572.987	572.65
573.349	581.47
573.71	593.22
574.071	571.52
574.432	594.8
574.794	602.94
575.155	591.19
575.516	591.41
575.877	593.9
576.238	596.83
576.599	588.93
576.96	592.31
577.32	573.33
577.681	600
578.042	600.22
578.403	600.45
578.763	564.29
579.124	607
579.485	569.04
579.845	578.76
580.206	608.59
580.566	583.28
580.927	617.4
581.287	590.06
581.648	592.31
582.008	583.5
582.368	578.53
582.728	597.06
583.089	600.22
583.449	603.39
583.809	586.44
584.169	605.2
584.529	600.22
584.889	592.54
585.249	585.54
585.609	603.39
585.969	593.9
586.329	596.83
586.688	590.96
587.048	569.72
587.408	590.28
587.768	602.71
588.127	592.54
588.487	609.26
588.846	616.95
589.206	601.35
589.565	597.74
589.925	580.11
590.284	611.07
590.643	595.25
591.003	588.25
591.362	595.03
591.721	576.27
592.08	587.34
592.44	591.41
592.799	602.48
593.158	579.43
593.517	603.16
593.876	582.37
594.235	586.44
594.593	590.73
594.952	591.64
595.311	578.08
595.67	571.07
596.029	574.01
596.387	583.28
596.746	581.24
597.104	578.53
597.463	567.23
597.822	580.79
598.18	561.81
598.538	568.59
598.897	557.97
599.255	586.21
599.613	571.07
599.972	584.18
600.33	578.76
600.688	570.62
601.046	569.49
601.404	585.99
601.762	564.52
602.12	595.7
602.478	554.12
602.836	588.02
603.194	567.68
603.552	545.99
603.91	577.85
604.268	583.5
604.625	559.55
604.983	559.77
605.341	562.71
605.698	578.3
606.056	566.55
606.413	567
606.771	558.64
607.128	548.47
607.485	563.16
607.843	542.15
608.2	583.95
608.557	550.73
608.914	576.72
609.272	528.59
609.629	579.43
609.986	563.84
610.343	570.39
610.7	576.95
611.057	571.98
611.414	547.12
611.771	552.77
612.127	568.36
612.484	547.57
612.841	557.51
613.198	534.46
613.554	548.25
613.911	553.9
614.267	546.44
614.624	562.26
614.98	556.61
615.337	560
615.693	560
616.05	559.55
616.406	549.15
616.762	537.85
617.118	517.51
617.475	536.95
617.831	552.32
618.187	535.59
618.543	564.97
618.899	540.79
619.255	538.76
619.611	543.73
619.967	539.89
620.323	547.12
620.678	538.31
621.034	552.54
621.39	546.44
621.746	526.33
622.101	522.49
622.457	535.37
622.812	524.97
623.168	510.51
623.523	526.78
623.879	510.28
624.234	508.25
624.589	534.92
624.945	525.42
625.3	519.55
625.655	523.16
626.01	520.45
626.365	522.71
626.72	528.36
627.075	511.87
627.43	508.7
627.785	538.53
628.14	511.64
628.495	521.36
628.85	501.47
629.205	495.37
629.559	498.98
629.914	497.63
630.269	511.19
630.623	517.29
630.978	508.02
631.332	491.07
631.687	509.83
632.041	491.98
632.396	490.62
632.75	491.3
633.104	515.93
633.459	494.69
633.813	502.37
634.167	498.76
634.521	472.32
634.875	492.43
635.229	485.65
635.583	488.59
635.937	483.62
636.291	489.72
636.645	491.07
636.999	487.91
637.352	474.13
637.706	490.85
638.06	481.13
638.413	468.25
638.767	496.05
639.121	494.92
639.474	464.63
639.828	468.7
640.181	486.1
640.534	487.01
640.888	474.35
641.241	482.49
641.594	461.02
641.947	494.69
642.301	435.71
642.654	465.76
643.007	455.82
643.36	471.64
643.713	459.21
644.066	472.09
644.419	480.91
644.771	470.51
645.124	447.01
645.477	430.74
645.83	440.45
646.182	440
646.535	451.98
646.888	453.34
647.24	433.68
647.593	460.12
647.945	453.79
648.298	451.98
648.65	461.02
649.002	445.43
649.355	441.13
649.707	446.78
650.059	429.83
650.411	440.23
650.763	441.81
651.115	447.46
651.467	430.29
651.819	446.33
652.171	460.57
652.523	426.44
652.875	442.94
653.227	432.77
653.578	437.06
653.93	442.04
654.282	419.66
654.633	429.38
654.985	428.7
655.337	425.54
655.688	413.34
656.039	414.01
656.391	416.95
656.742	404.52
657.094	416.5
657.445	423.05
657.796	407.69
658.147	408.36
658.498	421.02
658.849	410.62
659.2	434.13
659.551	404.75
659.902	432.77
660.253	414.47
660.604	429.38
660.955	403.62
661.306	411.3
661.656	414.69
662.007	417.86
662.358	441.81
662.708	423.05
663.059	400.23
663.409	395.94
663.76	409.95
664.11	418.31
664.461	420.34
664.811	410.4
665.161	413.11
665.511	403.85
665.862	414.24
666.212	398.2
666.562	402.72
666.912	397.07
667.262	393.45
667.612	373.56
667.962	406.33
668.312	395.48
668.662	391.87
669.011	391.19
669.361	401.81
669.711	413.11
670.06	376.5
670.41	391.87
670.76	380.8
671.109	376.05
671.459	386.22
671.808	390.29
672.157	382.6
672.507	376.73
672.856	402.26
673.205	392.32
673.554	381.47
673.904	397.52
674.253	401.81
674.602	414.24
674.951	378.76
675.3	381.02
675.649	385.99
675.998	394.13
676.346	395.94
676.695	390.96
677.044	360
677.393	381.7
677.741	383.28
678.09	393.9
678.438	361.13
678.787	383.96
679.135	377.41
679.484	405.2
679.832	385.09
680.181	380.8
680.529	386.9
680.877	381.02
681.225	375.6
681.573	361.13
681.922	370.85
682.27	358.42
682.618	379.21
682.966	368.59
683.314	392.32
683.661	384.41
684.009	373.11
684.357	369.04
684.705	377.86
685.053	360.23
685.4	362.26
685.748	376.28
686.095	380.12
686.443	363.39
686.79	376.05
687.138	382.38
687.485	373.34
687.832	374.24
688.18	362.49
688.527	380.34
688.874	366.56
689.221	392.55
689.568	377.41
689.915	388.93
690.262	353.23
690.609	375.37
690.956	358.65
691.303	370.17
691.65	368.14
691.997	404.98
692.344	359.33
692.69	365.65
693.037	374.02
693.383	353.45
693.73	378.99
694.077	362.49
694.423	373.34
694.769	364.98
695.116	372.21
695.462	336.5
695.808	350.97
696.155	370.63
696.501	358.2
696.847	371.53
697.193	333.56
697.539	351.19
697.885	366.78
698.231	363.85
698.577	353.68
698.923	368.82
699.269	360.46
699.614	360.23
699.96	370.85
700.306	363.39
700.651	346.22
700.997	345.54
701.342	383.73
701.688	341.7
702.033	347.8
702.379	348.25
702.724	354.81
703.069	366.11
703.415	357.74
703.76	364.3
704.105	362.72
704.45	366.56
704.795	350.97
705.14	350.74
705.485	356.16
705.83	356.84
706.175	356.16
706.52	356.61
706.865	343.06
707.209	365.2
707.554	346.22
707.899	324.98
708.243	355.94
708.588	351.87
708.932	354.13
709.277	365.88
709.621	358.65
709.966	364.75
710.31	360.46
710.654	355.71
710.998	344.19
711.342	357.74
711.687	370.17
712.031	350.74
712.375	346.22
712.719	346.67
713.063	367.24
713.407	317.52
713.75	349.61
714.094	359.1
714.438	338.08
714.782	327.92
715.125	357.74
715.469	336.95
715.812	345.77
716.156	338.99
716.499	325.88
716.843	355.49
717.186	332.43
717.53	357.07
717.873	351.42
718.216	349.38
718.559	344.41
718.902	354.58
719.246	352.77
719.589	342.15
719.932	336.28
720.275	317.97
720.617	337.63
720.96	330.4
721.303	338.08
721.646	352.77
721.989	329.05
722.331	365.88
722.674	336.5
723.016	339.44
723.359	350.74
723.701	343.51
724.044	330.85
724.386	344.86
724.729	366.56
725.071	342.83
725.413	341.93
725.755	372.89
726.097	336.95
726.439	327.92
726.782	342.15
727.124	348.71
727.465	345.32
727.807	369.95
728.149	342.83
728.491	331.98
728.833	343.06
729.175	338.54
729.516	321.59
729.858	367.01
730.199	340.12
730.541	342.83
730.882	326.33
731.224	330.85
731.565	342.83
731.906	344.19
732.248	341.02
732.589	334.92
732.93	329.95
733.271	336.95
733.612	332.43
733.953	339.21
734.294	337.86
734.635	327.46
734.976	338.54
735.317	334.47
735.658	323.4
735.999	339.89
736.339	328.59
736.68	337.18
737.021	325.66
737.361	338.31
737.702	346.22
738.042	336.95
738.383	360.46
738.723	324.98
739.063	346.45
739.404	345.77
739.744	340.8
740.084	350.29
740.424	362.94
740.764	333.79
741.104	352.1
741.444	338.08
741.784	341.93
742.124	342.38
742.464	337.63
742.804	350.74
743.143	335.6
743.483	339.67
743.823	354.58
744.162	318.2
744.502	357.07
744.841	356.16
745.181	365.43
745.52	350.06
745.86	336.05
746.199	355.94
746.538	338.31
746.877	336.28
747.216	339.67
747.556	345.32
747.895	350.51
748.234	352.55
748.573	317.07
748.911	316.62
749.25	321.59
749.589	321.36
749.928	315.71
750.267	321.81
750.605	340.57
750.944	331.76
751.283	314.13
751.621	332.21
751.96	333.56
752.298	354.36
752.636	319.1
752.975	325.88
753.313	329.5
753.651	313.9
753.989	351.87
754.327	343.96
754.666	330.63
755.004	362.49
755.342	340.34
755.679	339.89
756.017	315.94
756.355	339.21
756.693	337.63
757.031	326.33
757.368	343.28
757.706	341.7
758.044	340.8
758.381	329.95
758.719	333.34
759.056	333.56
759.394	331.08
759.731	340.12
760.068	332.89
760.405	359.1
760.743	344.19
761.08	320.46
761.417	348.03
761.754	324.3
762.091	336.05
762.428	338.99
762.765	334.69
763.102	328.59
763.438	335.6
763.775	322.72
764.112	324.75
764.449	325.66
764.785	352.32
765.122	349.16
765.458	309.38
765.795	328.14
766.131	332.21
766.467	327.46
766.804	301.93
767.14	340.12
767.476	328.59
767.812	337.86
768.148	338.76
768.485	320.46
768.821	330.85
769.157	336.5
769.492	340.8
769.828	346.9
770.164	341.93
770.5	327.69
770.836	313.68
771.171	344.86
771.507	337.18
771.842	323.4
772.178	318.65
772.513	340.12
772.849	337.86
773.184	322.27
773.519	343.96
773.855	345.09
774.19	351.87
774.525	348.03
774.86	329.05
775.195	335.82
775.53	336.5
775.865	365.88
776.2	344.86
776.535	339.21
776.87	352.77
777.205	327.69
777.539	336.95
777.874	326.11
778.209	336.73
778.543	329.05
778.878	324.75
779.212	332.66
779.547	335.6
779.881	314.13
780.215	303.96
780.55	323.4
780.884	329.5
781.218	346.45
781.552	332.66
781.886	336.5
782.22	341.25
782.554	315.49
782.888	334.47
783.222	330.4
783.556	349.16
783.889	312.1
784.223	356.39
784.557	321.59
784.89	321.14
785.224	346.45
785.557	316.16
785.891	341.25
786.224	318.42
786.558	328.82
786.891	329.05
787.224	330.85
787.557	329.95
787.891	314.81
788.224	327.01
788.557	339.67
788.89	325.43
789.223	337.63
789.556	338.08
