Data from orange_diffuse_book_FLMS001491_00080.txt Node
Date: Wed Feb 08 15:30:02 GMT 2017
User: dcchb
Spectrometer: FLMS00149
Trigger mode: 0
Integration Time (sec): 2.000000E-2
Scans to average: 10
Electric dark correction enabled: true
Nonlinearity correction enabled: false
Boxcar width: 0
XAxis mode: Wavelengths
Number of Pixels in Spectrum: 2048
>>>>>Begin Spectral Data<<<<<
341.393	13.16
341.776	13.16
342.16	13.16
342.543	-55.99
342.927	-55.08
343.31	-63.22
343.693	-83.56
344.077	-75.42
344.46	-71.58
344.843	-53.28
345.226	-59.6
345.61	-14.86
345.993	-12.6
346.376	0.28
346.759	30.11
347.142	32.37
347.525	50
347.908	45.48
348.291	74.18
348.674	94.29
349.057	107.4
349.44	146.04
349.823	139.94
350.206	164.8
350.588	211.12
350.971	258.35
351.354	247.28
351.737	245.25
352.119	254.74
352.502	267.39
352.884	300.16
353.267	294.51
353.65	324.79
354.032	309.2
354.414	318.92
354.797	320.95
355.179	344.45
355.562	356.21
355.944	355.98
356.326	363.66
356.709	345.81
357.091	349.2
357.473	353.27
357.855	334.28
358.238	355.53
358.62	369.54
359.002	354.62
359.384	360.95
359.766	371.12
360.148	353.04
360.53	367.28
360.912	338.58
361.294	351.69
361.676	353.27
362.057	342.42
362.439	334.74
362.821	335.64
363.203	344
363.584	329.31
363.966	337.22
364.348	352.14
364.729	327.73
365.111	356.88
365.493	329.31
365.874	341.97
366.256	317.34
366.637	344.23
367.019	323.44
367.4	337.9
367.781	335.19
368.163	328.64
368.544	327.73
368.925	329.77
369.306	341.06
369.688	332.03
370.069	338.35
370.45	330.9
370.831	335.87
371.212	335.64
371.593	326.83
371.974	335.64
372.355	347.62
372.736	333.83
373.117	314.62
373.498	329.99
373.879	344.91
374.26	326.38
374.641	325.92
375.021	333.83
375.402	346.49
375.783	350.33
376.163	337
376.544	330.44
376.925	331.8
377.305	347.39
377.686	354.4
378.066	318.24
378.447	323.89
378.827	338.58
379.208	326.83
379.588	349.2
379.968	335.19
380.349	362.53
380.729	365.24
381.109	360.72
381.489	368.41
381.87	347.39
382.25	354.85
382.63	364.11
383.01	362.31
383.39	356.21
383.77	361.63
384.15	360.05
384.53	352.82
384.91	374.74
385.29	357.79
385.67	366.83
386.049	366.83
386.429	350.56
386.809	386.71
387.189	365.02
387.568	368.63
387.948	361.4
388.328	377.45
388.707	394.4
389.087	356.21
389.466	362.08
389.846	390.33
390.225	391.46
390.605	402.08
390.984	364.34
391.363	374.51
391.743	378.13
392.122	369.76
392.501	390.33
392.881	381.06
393.26	363.21
393.639	402.53
394.018	399.82
394.397	416.32
394.776	401.18
395.155	411.12
395.534	400.27
395.913	413.38
396.292	404.79
396.671	391.46
397.05	416.54
397.429	402.31
397.808	420.61
398.186	393.94
398.565	401.18
398.944	405.02
399.323	405.02
399.701	416.32
400.08	422.87
400.458	454.06
400.837	408.41
401.215	409.54
401.594	434.85
401.972	405.7
402.351	411.35
402.729	432.59
403.107	423.77
403.486	445.47
403.864	453.83
404.242	440.95
404.62	435.07
404.999	428.52
405.377	442.3
405.755	433.49
406.133	446.6
406.511	432.81
406.889	453.83
407.267	456.54
407.645	447.95
408.023	463.77
408.401	490.89
408.779	456.99
409.156	482.76
409.534	477.78
409.912	485.47
410.29	488.41
410.667	476.65
411.045	481.17
411.422	482.53
411.8	489.08
412.178	484.79
412.555	496.54
412.933	506.48
413.31	498.35
413.687	500.61
414.065	501.29
414.442	515.98
414.819	511
415.197	498.8
415.574	511.46
415.951	543.77
416.328	523.66
416.705	541.74
417.082	522.3
417.46	535.86
417.837	541.29
418.214	536.77
418.591	548.74
418.967	551.91
419.344	550.55
419.721	546.26
420.098	558.69
420.475	571.11
420.852	572.02
421.228	570.89
421.605	579.25
421.982	573.37
422.358	568.18
422.735	589.19
423.111	591
423.488	569.53
423.864	605.46
424.241	613.83
424.617	604.11
424.994	591
425.37	598.91
425.746	625.8
426.123	618.57
426.499	623.09
426.875	640.49
427.251	653.15
427.627	643.2
428.003	637.78
428.379	647.5
428.756	651.79
429.132	620.83
429.507	656.54
429.883	672.36
430.259	670.55
430.635	683.2
431.011	685.01
431.387	685.46
431.763	706.25
432.138	690.43
432.514	700.15
432.89	707.83
433.265	715.29
433.641	708.51
434.016	727.04
434.392	742.41
434.767	742.18
435.143	778.34
435.518	750.32
435.894	747.16
436.269	755.52
436.644	771.56
437.02	757.32
437.395	769.75
437.77	777.21
438.145	793.26
438.52	809.3
438.895	792.13
439.271	812.92
439.646	825.12
440.021	808.85
440.395	814.27
440.77	807.27
441.145	834.38
441.52	834.61
441.895	833.48
442.27	813.14
442.645	820.15
443.019	863.31
443.394	837.1
443.769	854.72
444.143	851.79
444.518	863.76
444.892	863.08
445.267	848.4
445.641	871.9
446.016	894.5
446.39	884.1
446.764	897.66
447.139	869.86
447.513	888.17
447.887	873.03
448.262	885.23
448.636	891.56
449.01	881.39
449.384	918.45
449.758	935.4
450.132	900.15
450.506	915.06
450.88	917.32
451.254	935.4
451.628	936.76
452.002	944.21
452.376	946.92
452.75	950.77
453.123	954.16
453.497	970.88
453.871	966.58
454.244	988.05
454.618	982.86
454.992	1002.29
455.365	1015.62
455.739	1004.55
456.112	1028.28
456.486	1030.31
456.859	1028.28
457.232	1049.52
457.606	1049.07
457.979	1055.62
458.352	1084.77
458.725	1092.91
459.099	1062.4
459.472	1089.97
459.845	1097.2
460.218	1116.41
460.591	1107.82
460.964	1125.68
461.337	1144.21
461.71	1109.86
462.083	1154.15
462.456	1160.48
462.829	1154.38
463.201	1163.19
463.574	1188.5
463.947	1182.62
464.32	1191.44
464.692	1200.02
465.065	1201.38
465.438	1208.84
465.81	1214.04
466.183	1222.62
466.555	1261.72
466.928	1263.07
467.3	1249.52
467.672	1277.31
468.045	1298.1
468.417	1307.59
468.789	1303.98
469.161	1306.46
469.534	1325.22
469.906	1345.11
470.278	1329.06
470.65	1349.4
471.022	1350.53
471.394	1394.14
471.766	1391.43
472.138	1409.28
472.51	1435.95
472.882	1464.42
473.253	1476.63
473.625	1479.34
473.997	1514.82
474.369	1494.93
474.74	1514.37
475.112	1551.2
475.484	1571.09
475.855	1578.77
476.227	1590.52
476.598	1616.74
476.97	1665.32
477.341	1682.27
477.713	1708.26
478.084	1700.58
478.455	1740.8
478.827	1743.29
479.198	1788.71
479.569	1772.44
479.94	1812.21
480.311	1834.36
480.682	1882.04
481.053	1910.06
481.424	1960.91
481.795	1941.47
482.166	1967.01
482.537	1986.9
482.908	2036.16
483.279	2026.67
483.65	2093.11
484.021	2116.61
484.391	2171.98
484.762	2197.74
485.133	2200.68
485.503	2211.3
485.874	2259.88
486.244	2317.51
486.615	2326.32
486.985	2380.56
487.356	2436.83
487.726	2415.59
488.097	2463.27
488.467	2484.28
488.837	2508.92
489.207	2544.17
489.578	2599.99
489.948	2623.72
490.318	2679.53
490.688	2724.5
491.058	2744.84
491.428	2783.03
491.798	2779.87
492.168	2851.73
492.538	2865.07
492.908	2906.19
493.278	2958.4
493.648	2985.06
494.017	2998.4
494.387	3041.78
494.757	3080.2
495.126	3109.81
495.496	3168.11
495.866	3213.08
496.235	3229.12
496.605	3250.82
496.974	3303.92
497.344	3338.5
497.713	3329.46
498.082	3344.83
498.452	3405.16
498.821	3408.33
499.19	3436.12
499.559	3539.17
499.928	3511.38
500.298	3601.32
500.667	3652.39
501.036	3640.64
501.405	3623.24
501.774	3678.15
502.143	3718.15
502.512	3760.86
502.88	3778.49
503.249	3790.69
503.618	3834.98
503.987	3878.15
504.356	3866.85
504.724	3927.41
505.093	3954.53
505.462	3970.8
505.83	4014.19
506.199	4012.61
506.567	4111.13
506.936	4104.81
507.304	4138.03
507.672	4209.21
508.041	4204.01
508.409	4225.03
508.777	4231.81
509.145	4298.02
509.514	4335.76
509.882	4319.72
510.25	4384.57
510.618	4436.1
510.986	4399.26
511.354	4467.74
511.722	4495.08
512.09	4550.9
512.458	4552.25
512.826	4593.83
513.193	4584.12
513.561	4691.68
513.929	4654.17
514.297	4739.82
514.664	4804.9
515.032	4790.44
515.4	4822.53
515.767	4873.83
516.135	4878.57
516.502	4899.36
516.869	4953.82
517.237	4998.12
517.604	5008.96
517.972	5010.09
518.339	5027.72
518.706	5106.14
519.073	5122.86
519.44	5174.38
519.808	5243.76
520.175	5236.53
520.542	5272.01
520.909	5327.83
521.276	5308.84
521.643	5368.5
522.009	5420.93
522.376	5471.1
522.743	5515.84
523.11	5567.37
523.477	5624.09
523.843	5641.04
524.21	5669.74
524.577	5720.81
524.943	5732.56
525.31	5788.83
525.676	5777.53
526.043	5867.47
526.409	5846.23
526.776	5936.85
527.142	5952.89
527.508	5983.18
527.874	6055.49
528.241	6120.57
528.607	6080.57
528.973	6141.59
529.339	6234.24
529.705	6179.78
530.071	6216.16
530.437	6301.13
530.803	6258.2
531.169	6350.85
531.535	6314.01
531.901	6367.57
532.267	6427.46
532.632	6477.85
532.998	6456.84
533.364	6498.42
533.73	6531.41
534.095	6580.67
534.461	6591.3
534.826	6673.33
535.192	6629.26
535.557	6700.22
535.923	6717.62
536.288	6663.61
536.653	6747
537.019	6768.69
537.384	6779.09
537.749	6812.53
538.114	6841.23
538.479	6762.59
538.845	6888.01
539.21	6923.04
539.575	6972.08
539.94	6998.97
540.305	7020.89
540.67	6998.74
541.034	7061.11
541.399	7093.88
541.764	7168.68
542.129	7111.96
542.494	7177.27
542.858	7192.86
543.223	7177.72
543.587	7286.42
543.952	7276.48
544.316	7314.44
544.681	7312.86
545.045	7410.26
545.41	7468.33
545.774	7449.58
546.138	7514.89
546.503	7551.04
546.867	7597.37
547.231	7615
547.595	7582.68
547.959	7659.06
548.324	7702
548.688	7729.8
549.052	7763.02
549.416	7821.77
549.779	7817.93
550.143	7851.15
550.507	7986.74
550.871	8066.29
551.235	7967.3
551.599	8040.52
551.962	8113.97
552.326	8123.68
552.689	8195.1
553.053	8185.83
553.417	8263.79
553.78	8397.58
554.143	8391.7
554.507	8362.55
554.87	8423.56
555.234	8557.57
555.597	8519.83
555.96	8555.76
556.323	8612.71
556.686	8706.27
557.05	8782.88
557.413	8808.64
557.776	8856.09
558.139	8913.04
558.502	8930.67
558.865	8990.1
559.228	9141.29
559.59	9181.51
559.953	9278.46
560.316	9336.53
560.679	9332.92
561.041	9546.25
561.404	9553.93
561.767	9587.83
562.129	9665.79
562.492	9790.99
562.854	9792.79
563.217	9850.42
563.579	9964.31
563.941	10091.09
564.304	10154.14
564.666	10270.52
565.028	10347.36
565.39	10390.29
565.753	10533.11
566.115	10615.14
566.477	10745.76
566.839	10809.26
567.201	10922.03
567.563	11054
567.925	11245.18
568.287	11217.61
568.648	11345.52
569.01	11462.35
569.372	11682.24
569.734	11695.79
570.095	11922.91
570.457	12005.16
570.819	12115.44
571.18	12277.7
571.542	12430.01
571.903	12585.26
572.265	12707.29
572.626	12832.71
572.987	13088.75
573.349	13236.32
573.71	13487.84
574.071	13640.38
574.432	13818.45
574.794	14103.87
575.155	14293.69
575.516	14344.76
575.877	14710.63
576.238	14794.92
576.599	15033.56
576.96	15371.4
577.32	15479.65
577.681	15796.93
578.042	16028.79
578.403	16236.47
578.763	16513.97
579.124	16789.9
579.485	17136.1
579.845	17387.17
580.206	17678.24
580.566	17927.49
580.927	18238.45
581.287	18620.58
581.648	18819.45
582.008	19224.86
582.368	19551.86
582.728	19915.69
583.089	20159.07
583.449	20455.56
583.809	20893.97
584.169	21319.95
584.529	21654.85
584.889	22171
585.249	22302.52
585.609	22715.17
585.969	23225.66
586.329	23533
586.688	24044.17
587.048	24311.06
587.408	24788.11
587.768	25254.76
588.127	25611.59
588.487	25942.65
588.846	26582.86
589.206	26814.04
589.565	27310.98
589.925	27795.03
590.284	28205.87
590.643	28779.41
591.003	29199.51
591.362	29818.48
591.721	30039.49
592.08	30525.36
592.44	31128.73
592.799	31548.61
593.158	31995.83
593.517	32492.54
593.876	32985.4
594.235	33465.39
594.593	33927.75
594.952	34367.51
595.311	34777.67
595.67	35238
596.029	35870.75
596.387	36460.11
596.746	36797.73
597.104	37116.37
597.463	37615.34
597.822	38126.29
598.18	38428.42
598.538	38982.76
598.897	39460.26
599.255	39549.53
599.613	40584.98
599.972	40629.5
600.33	41107.45
600.688	41537.27
601.046	42061.32
601.404	42637.13
601.762	42905.37
602.12	43375.64
602.478	43668.96
602.836	44081.38
603.194	44286.8
603.552	44606.57
603.91	44926.11
604.268	45313.22
604.625	45664.62
604.983	46047.43
605.341	46353.41
605.698	46655.55
606.056	47027.75
606.413	47238.14
606.771	47626.83
607.128	47966.7
607.485	47883.32
607.843	48297.77
608.2	48700.47
608.557	49020.01
608.914	49095.94
609.272	49427.46
609.629	49688.02
609.986	49964.17
610.343	49982.7
610.7	50306.3
611.057	50543.13
611.414	50650.48
611.771	50782.22
612.127	51077.36
612.484	51179.05
612.841	51440.74
613.198	51337.46
613.554	51570.23
613.911	51883.21
614.267	51937.67
614.624	51922.53
614.98	52202.53
615.337	52397.32
615.693	52461.95
616.05	52538.79
616.406	52748.27
616.762	52694.94
617.118	52858.78
617.475	52975.61
617.831	53066.01
618.187	53225.32
618.543	53289.28
618.899	53477.29
619.255	53516.39
619.611	53541.02
619.967	53767
620.323	53816.49
620.678	53703.73
621.034	53758.64
621.39	53778.53
621.746	53856.49
622.101	54103.27
622.457	53906.89
622.812	54126.09
623.168	54193.21
623.523	54219.65
623.879	54348.68
624.234	54147.33
624.589	54417.61
624.945	54327.89
625.3	54428.68
625.655	54426.87
626.01	54550.26
626.365	54560.66
626.72	54548.45
627.075	54455.35
627.43	54559.3
627.785	54556.14
628.14	54612.63
628.495	54707.09
628.85	54611.5
629.205	54571.95
629.559	54803.36
629.914	54643.14
630.269	54728.33
630.623	54681.1
630.978	54680.43
631.332	54829.12
631.687	54803.59
632.041	54630.94
632.396	54765.4
632.75	54650.6
633.104	54800.88
633.459	54644.04
633.813	54671.84
634.167	54681.33
634.521	54659.18
634.875	54721.56
635.229	54669.58
635.583	54583.25
635.937	54599.98
636.291	54613.08
636.645	54543.71
636.999	54547.1
637.352	54532.63
637.706	54476.59
638.06	54520.43
638.413	54483.6
638.767	54458.29
639.121	54439.98
639.474	54344.62
639.828	54375.12
640.181	54417.38
640.534	54435.69
640.888	54440.43
641.241	54220.1
641.594	54300.78
641.947	54430.26
642.301	54357.05
642.654	54352.3
643.007	54421.45
643.36	54378.06
643.713	54306.2
644.066	54345.07
644.419	54143.72
644.771	54138.97
645.124	53731.75
645.477	53772.2
645.83	53556.84
646.182	53520.91
646.535	53407.47
646.888	53592.55
647.24	53346.9
647.593	53558.65
647.945	53507.58
648.298	53343.74
648.65	53344.19
649.002	53144.42
649.355	53471.19
649.707	53364.08
650.059	53400.91
650.411	53766.1
650.763	53848.58
651.115	54054.68
651.467	53948.24
651.819	53951.41
652.171	53913.67
652.523	53936.49
652.875	53933.78
653.227	53706.44
653.578	54059.43
653.93	53895.59
654.282	53769.72
654.633	53790.05
654.985	53816.27
655.337	53901.92
655.688	53866.89
656.039	53951.86
656.391	53723.84
656.742	53778.98
657.094	53753.9
657.445	53913.44
657.796	53852.65
658.147	53799.32
658.498	53794.12
658.849	53784.41
659.2	53792.31
659.551	53730.17
659.902	53774.69
660.253	53706.89
660.604	53814.91
660.955	53630.74
661.306	53775.59
661.656	53586.9
662.007	53736.27
662.358	53760.68
662.708	53699.44
663.059	53690.85
663.409	53488.59
663.76	53719.55
664.11	53715.93
664.461	53702.15
664.811	53718.19
665.161	53662.37
665.511	53590.74
665.862	53605.88
666.212	53712.77
666.562	53701.02
666.912	53567.46
667.262	53524.52
667.612	53494.7
667.962	53559.55
668.312	53548.03
668.662	53642.04
669.011	53520.68
669.361	53518.2
669.711	53529.95
670.06	53463.28
670.41	53355.72
670.76	53357.75
671.109	53519.33
671.459	53368.14
671.808	53308.49
672.157	53299.45
672.507	53104.87
672.856	53222.16
673.205	53277.75
673.554	53283.63
673.904	53242.5
674.253	53393.23
674.602	53201.14
674.951	52749.86
675.3	52646.81
675.649	53095.61
675.998	53117.08
676.346	53154.14
676.695	53195.27
677.044	52914.6
677.393	53007.25
677.741	53084.99
678.09	52974.93
678.438	52939.46
678.787	52898.33
679.135	52945.11
679.484	52719.8
679.832	52920.25
680.181	52647.26
680.529	52790.76
680.877	52768.16
681.225	52696.98
681.573	52817.42
681.922	52588.05
682.27	52532.91
682.618	52525.91
682.966	52490.88
683.314	52551.9
683.661	52479.58
684.009	52301.51
684.357	52284.78
684.705	52167.5
685.053	52303.54
685.4	52128.63
685.748	52060.16
686.095	52018.8
686.443	51889.99
686.79	51931.12
687.138	51943.32
687.485	51971.57
687.832	51836.21
688.18	51693.84
688.527	51665.59
688.874	51547.4
689.221	51520.74
689.568	51410.23
689.915	51367.97
690.262	51366.62
690.609	51215.66
690.956	50984.7
691.303	51031.94
691.65	50998.72
691.997	50874.43
692.344	50778.38
692.69	50643.7
693.037	50738.16
693.383	50432.18
693.73	50613.64
694.077	50294.1
694.423	50359.86
694.769	50299.07
695.116	50105.86
695.462	50086.65
695.808	49918.97
696.155	49981.34
696.501	49628.36
696.847	49761.69
697.193	49424.52
697.539	49548.36
697.885	49377.52
698.231	49180.68
698.577	49226.11
698.923	49077.18
699.269	49010.97
699.614	48801.71
699.96	48814.37
700.306	48733.69
700.651	48496.41
700.997	48450.53
701.342	48440.82
701.688	48353.14
702.033	48136.42
702.379	48123.76
702.724	47997.89
703.069	48062.52
703.415	47632.48
703.76	47687.84
704.105	47798.35
704.45	47623.89
704.795	47340.96
705.14	47191.36
705.485	47189.1
705.83	47079.5
706.175	47048.08
706.52	47005.37
706.865	46816.45
707.209	46785.04
707.554	46621.66
707.899	46542.56
708.243	46502.79
708.588	46476.8
708.932	46046.53
709.277	46125.62
709.621	46067.32
709.966	45809.02
710.31	46059.18
710.654	45653.09
710.998	45753.66
711.342	45656.94
711.687	45592.98
712.031	45472.53
712.375	45192.54
712.719	45355.47
713.063	45240.67
713.407	45306.89
713.75	45177.4
714.094	45080.91
714.438	44810.86
714.782	44998.42
715.125	44708.26
715.469	44781.48
715.812	44628.04
716.156	44422.39
716.499	44492.45
716.843	44471.2
717.186	44283.86
717.53	44281.83
717.873	44396.86
718.216	44308.5
718.559	44128.61
718.902	43895.17
719.246	43921.84
719.589	43815.18
719.932	43751.67
720.275	43702.41
720.617	43666.48
720.96	43673.71
721.303	43488.86
721.646	43430.78
721.989	43349.88
722.331	43572.92
722.674	43338.58
723.016	43351.91
723.359	43141.52
723.701	43277.56
724.044	43038.02
724.386	42790.57
724.729	43040.28
725.071	42858.36
725.413	42946.72
725.755	42933.62
726.097	42776.11
726.439	42391.48
726.782	42450.47
727.124	42671.93
727.465	42501.54
727.807	42408.43
728.149	42418.6
728.491	42386.74
728.833	42327.98
729.175	42165.28
729.516	42322.11
729.858	42105.39
730.199	42035.79
730.541	41990.36
730.882	42092.51
731.224	42106.75
731.565	41845.28
731.906	41974.09
732.248	42011.38
732.589	41818.17
732.93	41601.22
733.271	41631.28
733.612	41700.43
733.953	41675.34
734.294	41484.84
734.635	41308.8
734.976	41505.41
735.317	41293.66
735.658	41313.77
735.999	41207.33
736.339	41164.85
736.68	41382.92
737.021	41242.14
737.361	41095.93
737.702	41222.93
738.042	41117.39
738.383	41102.25
738.723	41111.97
739.063	40886.44
739.404	41058.64
739.744	40919.43
740.084	40861.13
740.424	40755.37
740.764	40716.95
741.104	40854.58
741.444	40569.16
741.784	40435.38
742.124	40692.77
742.464	40524.87
742.804	40548.82
743.143	40333.23
743.483	40376.4
743.823	40206.68
744.162	40241.48
744.502	40227.02
744.841	40143.18
745.181	40257.3
745.52	40034.03
745.86	40185.89
746.199	39989.06
746.538	39938.22
746.877	40111.54
747.216	40072.45
747.556	39967.59
747.895	39861.38
748.234	39829.29
748.573	39717.43
748.911	39641.73
749.25	39667.04
749.589	39503.88
749.928	39496.65
750.267	39665.68
750.605	39317.89
750.944	39338.68
751.283	39375.07
751.621	39362.41
751.96	39052.14
752.298	38994.29
752.636	39223.21
752.975	38947.96
753.313	38881.29
753.651	38949.09
753.989	38697.57
754.327	38661.19
754.666	38509.78
755.004	38519.95
755.342	38580.74
755.679	38599.04
756.017	38296
756.355	38320.63
756.693	38194.98
757.031	38346.62
757.368	38098.26
757.706	37930.13
758.044	37890.13
758.381	37825.95
758.719	37784.15
759.056	37863.02
759.394	37665.28
759.731	37348.23
