Data from orange_diffuse_book_FLMS001491_00046.txt Node
Date: Wed Feb 08 15:29:37 GMT 2017
User: dcchb
Spectrometer: FLMS00149
Trigger mode: 0
Integration Time (sec): 2.000000E-2
Scans to average: 10
Electric dark correction enabled: true
Nonlinearity correction enabled: false
Boxcar width: 0
XAxis mode: Wavelengths
Number of Pixels in Spectrum: 2048
>>>>>Begin Spectral Data<<<<<
341.393	-19.82
341.776	-19.82
342.16	-19.82
342.543	-49.19
342.927	-56.43
343.31	-74.5
343.693	-79.93
344.077	-60.94
344.46	-64.33
344.843	-64.33
345.226	-34.05
345.61	-56.2
345.993	0.3
346.376	5.04
346.759	26.51
347.142	23.57
347.525	32.16
347.908	52.27
348.291	68.09
348.674	104.25
349.057	122.1
349.44	128.43
349.823	148.09
350.206	163.91
350.588	208.43
350.971	231.7
351.354	255.66
351.737	264.92
352.119	286.84
352.502	271.93
352.884	300.63
353.267	311.47
353.65	313.73
354.032	339.72
354.414	317.58
354.797	327.29
355.179	317.58
355.562	321.42
355.944	352.83
356.326	343.79
356.709	345.37
357.091	344.02
357.473	367.07
357.855	362.55
358.238	348.31
358.62	361.19
359.002	330.68
359.384	379.04
359.766	363.22
360.148	354.19
360.53	366.84
360.912	336.56
361.294	351.93
361.676	362.09
362.057	342.21
362.439	353.51
362.821	342.21
363.203	346.5
363.584	357.35
363.966	342.66
364.348	349.44
364.729	338.37
365.111	329.33
365.493	344.02
365.874	341.76
366.256	338.37
366.637	342.66
367.019	306.28
367.4	333.62
367.781	319.84
368.163	319.16
368.544	329.78
368.925	323
369.306	334.3
369.688	333.85
370.069	329.1
370.45	348.08
370.831	326.39
371.212	328.88
371.593	330.91
371.974	351.25
372.355	339.72
372.736	339.04
373.117	326.16
373.498	322.77
373.879	343.34
374.26	335.43
374.641	334.3
375.021	327.07
375.402	335.88
375.783	334.98
376.163	354.41
376.544	345.82
376.925	360.29
377.305	335.2
377.686	342.66
378.066	336.11
378.447	340.85
378.827	345.37
379.208	349.44
379.588	325.94
379.968	373.17
380.349	352.83
380.729	346.95
381.109	347.41
381.489	379.72
381.87	368.42
382.25	375.2
382.63	375.65
383.01	351.25
383.39	360.51
383.77	351.02
384.15	355.32
384.53	361.64
384.91	380.85
385.29	371.36
385.67	362.09
386.049	377.24
386.429	372.94
386.809	360.29
387.189	368.2
387.568	374.75
387.948	376.78
388.328	362.09
388.707	377.46
389.087	374.75
389.466	399.38
389.846	378.37
390.225	371.59
390.605	385.15
390.984	385.82
391.363	390.34
391.743	393.28
392.122	377.46
392.501	392.15
392.881	381.08
393.26	384.92
393.639	390.12
394.018	386.28
394.397	384.02
394.776	399.16
395.155	405.26
395.534	419.27
395.913	411.13
396.292	404.58
396.671	416.78
397.05	410.68
397.429	403.68
397.808	412.72
398.186	406.16
398.565	406.16
398.944	425.37
399.323	421.3
399.701	414.97
400.08	417.01
400.458	438.03
400.837	413.85
401.215	450
401.594	398.25
401.972	426.73
402.351	413.62
402.729	445.03
403.107	426.95
403.486	429.66
403.864	440.06
404.242	434.41
404.62	456.1
404.999	447.97
405.377	446.84
405.755	458.14
406.133	445.03
406.511	434.18
406.889	466.05
407.267	468.08
407.645	463.79
408.023	447.06
408.401	464.24
408.779	448.65
409.156	472.37
409.534	463.56
409.912	478.48
410.29	478.25
410.667	499.94
411.045	490.91
411.422	476.44
411.8	475.99
412.178	494.29
412.555	488.19
412.933	495.42
413.31	497.68
413.687	499.04
414.065	493.16
414.442	528.42
414.819	504.69
415.197	507.18
415.574	527.29
415.951	522.54
416.328	525.03
416.705	529.32
417.082	543.33
417.46	549.43
417.837	528.87
418.214	515.09
418.591	548.08
418.967	535.2
419.344	561.41
419.721	539.04
420.098	532.71
420.475	549.66
420.852	566.16
421.228	565.71
421.605	581.3
421.982	570.23
422.358	576.55
422.735	558.02
423.111	570
423.488	587.85
423.864	591.24
424.241	590.34
424.617	612.48
424.994	588.98
425.37	592.82
425.746	584.69
426.123	621.3
426.499	620.17
426.875	634.86
427.251	630.79
427.627	627.4
428.003	625.82
428.379	634.18
428.756	625.36
429.132	624.91
429.507	669.66
429.883	648.42
430.259	639.38
430.635	674.18
431.011	649.55
431.387	685.7
431.763	682.76
432.138	683.89
432.514	705.36
432.89	692.93
433.265	699.94
433.641	715.08
434.016	720.5
434.392	735.87
434.767	726.83
435.143	733.38
435.518	735.19
435.894	741.52
436.269	754.18
436.644	752.59
437.02	769.77
437.395	767.73
437.77	778.81
438.145	778.13
438.52	796.21
438.895	784.91
439.271	798.69
439.646	800.05
440.021	800.28
440.395	806.15
440.77	805.47
441.145	854.74
441.52	833.04
441.895	829.43
442.27	854.51
442.645	822.65
443.019	845.02
443.394	832.14
443.769	857
444.143	831.69
444.518	870.33
444.892	845.7
445.267	842.08
445.641	867.62
446.016	868.97
446.39	890.44
446.764	894.28
447.139	866.04
447.513	885.47
447.887	875.08
448.262	898.8
448.636	912.14
449.01	879.82
449.384	893.61
449.758	922.98
450.132	914.17
450.506	891.8
450.88	924.57
451.254	937.9
451.628	927.5
452.002	951.23
452.376	972.25
452.75	935.64
453.123	970.21
453.497	962.98
453.871	962.98
454.244	961.4
454.618	1000.95
454.992	1000.5
455.365	1011.12
455.739	1027.16
456.112	1034.17
456.486	1027.84
456.859	1046.6
457.232	1029.65
457.606	1041.85
457.979	1042.08
458.352	1070.1
458.725	1064.22
459.099	1075.3
459.472	1101.96
459.845	1093.15
460.218	1114.39
460.591	1119.36
460.964	1108.97
461.337	1134.28
461.71	1154.39
462.083	1152.13
462.456	1152.13
462.829	1158.68
463.201	1169.53
463.574	1184.45
463.947	1182.19
464.32	1193.71
464.692	1204.78
465.065	1226.03
465.438	1224.22
465.81	1247.27
466.183	1241.39
466.555	1258.79
466.928	1259.25
467.3	1264.22
467.672	1284.56
468.045	1279.36
468.417	1316.65
468.789	1308.06
469.161	1339.92
469.534	1370.2
469.906	1374.05
470.278	1369.07
470.65	1373.59
471.022	1405.23
471.394	1411.56
471.766	1434.16
472.138	1419.47
472.51	1444.1
472.882	1491.33
473.253	1483.2
473.625	1519.58
473.997	1513.48
474.369	1534.27
474.74	1572.01
475.112	1589.63
475.484	1623.53
475.855	1630.08
476.227	1625.79
476.598	1633.7
476.97	1681.61
477.341	1703.75
477.713	1713.92
478.084	1736.3
478.455	1779.91
478.827	1783.07
479.198	1807.71
479.569	1843.41
479.94	1854.26
480.311	1895.16
480.682	1930.64
481.053	1967.02
481.424	2011.09
481.795	1999.34
482.166	2044.08
482.537	2055.38
482.908	2070.75
483.279	2099.45
483.65	2107.59
484.021	2158.66
484.391	2212.22
484.762	2244.98
485.133	2249.28
485.503	2301.93
485.874	2295.15
486.244	2359.1
486.615	2364.3
486.985	2368.14
487.356	2441.36
487.726	2483.62
488.097	2502.15
488.467	2526.56
488.837	2570.17
489.207	2606.1
489.578	2654.92
489.948	2682.26
490.318	2719.1
490.688	2732.43
491.058	2776.27
491.428	2817.62
491.798	2873.22
492.168	2889.03
492.538	2934.68
492.908	2985.08
493.278	2991.18
493.648	2994.34
494.017	3010.39
494.387	3081.8
494.757	3117.5
495.126	3148.46
495.496	3142.81
495.866	3209.7
496.235	3229.82
496.605	3283.15
496.974	3314.79
497.344	3339.87
497.713	3400.89
498.082	3405.4
498.452	3440.66
498.821	3397.04
499.19	3484.95
499.559	3503.48
499.928	3543.03
500.298	3583.25
500.667	3608.79
501.036	3618.96
501.405	3668.45
501.774	3649.01
502.143	3762.46
502.512	3740.09
502.88	3779.41
503.249	3795.68
503.618	3833.87
503.987	3865.05
504.356	3863.25
504.724	3924.49
505.093	3910.48
505.462	3976.01
505.83	3976.01
506.199	3996.35
506.567	4086.97
506.936	4083.58
507.304	4132.17
507.672	4145.27
508.041	4190.92
508.409	4221.43
508.777	4250.13
509.145	4315.66
509.514	4283.8
509.882	4282.22
510.25	4346.62
510.618	4437.92
510.986	4373.29
511.354	4447.86
511.722	4477.69
512.09	4512.49
512.458	4518.82
512.826	4541.42
513.193	4552.72
513.561	4622.32
513.929	4601.31
514.297	4714.3
514.664	4710
515.032	4721.53
515.4	4771.02
515.767	4810.11
516.135	4810.79
516.502	4782.32
516.869	4891.47
517.237	4922.2
517.604	4942.99
517.972	5007.17
518.339	5018.24
518.706	5051.01
519.073	5070.22
519.44	5159.93
519.808	5153.61
520.175	5144.57
520.542	5200.61
520.909	5287.84
521.276	5295.98
521.643	5282.42
522.009	5373.94
522.376	5382.08
522.743	5383.21
523.11	5458.23
523.477	5475.18
523.843	5531.68
524.21	5596.31
524.577	5643.54
524.943	5663.88
525.31	5676.76
525.676	5688.06
526.043	5790.88
526.409	5769.86
526.776	5829.75
527.142	5892.35
527.508	5883.31
527.874	5932.8
528.241	5973.7
528.607	6006.47
528.973	6052.11
529.339	6091.44
529.705	6142.06
530.071	6189.74
530.437	6187.93
530.803	6246.91
531.169	6233.58
531.535	6268.61
531.901	6293.24
532.267	6301.37
532.632	6388.15
532.998	6365.1
533.364	6430.86
533.73	6433.8
534.095	6481.48
534.461	6500.92
534.826	6530.07
535.192	6595.6
535.557	6608.48
535.923	6643.74
536.288	6629.27
536.653	6684.64
537.019	6685.32
537.384	6717.18
537.749	6766.22
538.114	6757.86
538.479	6737.97
538.845	6775.26
539.21	6874.69
539.575	6863.17
539.94	6909.72
540.305	6939.78
540.67	7005.54
541.034	7055.93
541.399	7023.16
541.764	7063.16
542.129	7011.41
542.494	7160.79
542.858	7144.06
543.223	7127.11
543.587	7232.2
543.952	7207.56
544.316	7232.87
544.681	7244.17
545.045	7312.19
545.41	7335.92
545.774	7402.81
546.138	7358.97
546.503	7394.45
546.867	7444.62
547.231	7529.82
547.595	7535.92
547.959	7549.7
548.324	7618.63
548.688	7617.27
549.052	7688.91
549.416	7714.22
549.779	7753.54
550.143	7786.53
550.507	7847.1
550.871	7910.6
551.235	7884.84
551.599	8002.35
551.962	8014.32
552.326	8054.32
552.689	8148.56
553.053	8093.42
553.417	8202.57
553.78	8250.48
554.143	8194.21
554.507	8305.39
554.87	8334.31
555.234	8414.99
555.597	8405.5
555.96	8527.3
556.323	8550.35
556.686	8603.91
557.05	8716.9
557.413	8712.61
557.776	8723.46
558.139	8860.63
558.502	8817.69
558.865	8919.16
559.228	9025.37
559.59	9016.78
559.953	9159.15
560.316	9205.93
560.679	9270.79
561.041	9366.83
561.404	9366.38
561.767	9476.88
562.129	9465.36
562.492	9661.74
562.854	9699.25
563.217	9765.69
563.579	9834.39
563.941	9952.13
564.304	9996.19
564.666	10112.12
565.028	10156.19
565.39	10192.57
565.753	10383.53
566.115	10468.72
566.477	10545.33
566.839	10630.98
567.201	10812.44
567.563	10870.29
567.925	11033.23
568.287	11016.28
568.648	11124.52
569.01	11299.21
569.372	11394.8
569.734	11509.6
570.095	11655.13
570.457	11864.62
570.819	11863.04
571.18	12091.96
571.542	12180.77
571.903	12348.22
572.265	12556.35
572.626	12707.99
572.987	12767.19
573.349	12957.02
573.71	13147.3
574.071	13385.48
574.432	13579.37
574.794	13760.61
575.155	13993.37
575.516	13998.57
575.877	14299.13
576.238	14570.76
576.599	14650.98
576.96	14859.79
577.32	15099.33
577.681	15435.37
578.042	15638.08
578.403	15836.94
578.763	16050.95
579.124	16363.48
579.485	16671.27
579.845	16826.75
580.206	17195.55
580.566	17446.39
580.927	17732.71
581.287	18116.66
581.648	18332.47
582.008	18747.83
582.368	19047.48
582.728	19369.28
583.089	19592.1
583.449	19787.57
583.809	20304.62
584.169	20600.21
584.529	20904.83
584.889	21440.41
585.249	21670.01
585.609	21941.64
585.969	22485.13
586.329	22791.11
586.688	23186.58
587.048	23470.87
587.408	23829.27
587.768	24341.58
588.127	24766.65
588.487	25127.32
588.846	25678.04
589.206	25852.27
589.565	26416.1
589.925	26888.18
590.284	27133.82
590.643	27627.14
591.003	28169.95
591.362	28571.97
591.721	28868.46
592.08	29337.6
592.44	29857.59
592.799	30326.28
593.158	30711.81
593.517	31216.65
593.876	31712.23
594.235	32137.98
594.593	32514.47
594.952	33086.88
595.311	33428.57
595.67	34052.06
596.029	34501.08
596.387	34833.73
596.746	35437.1
597.104	35645.01
597.463	36170.42
597.822	36697.41
598.18	37033.22
598.538	37388.47
598.897	38085.17
599.255	38121.33
599.613	39019.61
599.972	39207.18
600.33	39574.62
600.688	39847.61
601.046	40369.18
601.404	40895.04
601.762	41172.32
602.12	41761.68
602.478	42057.27
602.836	42428.33
603.194	42697.25
603.552	43000.3
603.91	43172.95
604.268	43859.93
604.625	43854.28
604.983	44587.6
605.341	44594.6
605.698	45150.52
606.056	45461.02
606.413	45647.91
606.771	46177.39
607.128	46395.23
607.485	46499.41
607.843	46678.17
608.2	47134.2
608.557	47510.91
608.914	47491.03
609.272	48008.75
609.629	48171.23
609.986	48485.35
610.343	48488.74
610.7	48940.48
611.057	49042.62
611.414	49184.77
611.771	49416.62
612.127	49680.57
612.484	49759.67
612.841	50014.35
613.198	49964.41
613.554	50160.33
613.911	50501.79
614.267	50602.58
614.624	50661.11
614.98	50889.35
615.337	51025.85
615.693	51181.32
616.05	51220.19
616.406	51459.28
616.762	51403.92
617.118	51517.59
617.475	51659.5
617.831	51811.82
618.187	51782.44
618.543	51969.55
618.899	52281.41
619.255	52222.2
619.611	52273.05
619.967	52486.83
620.323	52562.53
620.678	52472.82
621.034	52476.2
621.39	52518.92
621.746	52527.5
622.101	52964.33
622.457	52707.61
622.812	52871.45
623.168	52995.74
623.523	52981.5
623.879	53116.64
624.234	52958
624.589	53093.82
624.945	53238.67
625.3	53264.88
625.655	53267.37
626.01	53251.33
626.365	53334.94
626.72	53302.85
627.075	53395.95
627.43	53363.64
627.785	53327.93
628.14	53364.32
628.495	53470.08
628.85	53462.62
629.205	53404.32
629.559	53509.85
629.914	53432.56
630.269	53510.53
630.623	53502.17
630.978	53484.77
631.332	53535.16
631.687	53615.84
632.041	53489.74
632.396	53609.51
632.75	53471.88
633.104	53506.23
633.459	53409.97
633.813	53471.88
634.167	53463.75
634.521	53435.05
634.875	53528.83
635.229	53506.01
635.583	53359.57
635.937	53357.99
636.291	53397.08
636.645	53380.59
636.999	53308.95
637.352	53424.88
637.706	53272.34
638.06	53345.33
638.413	53284.32
638.767	53252.46
639.121	53299.01
639.474	53139.46
639.828	53219.24
640.181	53245.22
640.534	53249.29
640.888	53170.65
641.241	53040.03
641.594	53141.95
641.947	53185.34
642.301	53101.95
642.654	53207.49
643.007	53189.63
643.36	53176.75
643.713	53180.37
644.066	53264.88
644.419	52965.91
644.771	52805.91
645.124	52536.99
645.477	52568.18
645.83	52399.14
646.182	52243.44
646.535	52204.12
646.888	52226.49
647.24	52108.53
647.593	52348.98
647.945	52228.98
648.298	52097.46
648.65	52005.48
649.002	51946.05
649.355	52104.92
649.707	51925.03
650.059	52175.65
650.411	52466.71
650.763	52486.83
651.115	52862.41
651.467	52819.7
651.819	52793.71
652.171	52730.44
652.523	52692.02
652.875	52739.47
653.227	52606.37
653.578	52819.25
653.93	52668.06
654.282	52667.61
654.633	52543.55
654.985	52526.6
655.337	52627.84
655.688	52601.17
656.039	52734.5
656.391	52434.62
656.742	52543.1
657.094	52588.52
657.445	52665.13
657.796	52647.95
658.147	52521.18
658.498	52608.63
658.849	52565.02
659.2	52504.68
659.551	52458.58
659.902	52614.05
660.253	52579.03
660.604	52566.6
660.955	52496.32
661.306	52511.68
661.656	52445.92
662.007	52475.98
662.358	52421.97
662.708	52400.27
663.059	52468.07
663.409	52207.96
663.76	52464
664.11	52405.02
664.461	52404.57
664.811	52495.19
665.161	52437.79
665.511	52236.21
665.862	52342.42
666.212	52437.34
666.562	52523.89
666.912	52376.09
667.262	52311.24
667.612	52304.68
667.962	52416.77
668.312	52270.11
668.662	52432.14
669.011	52245.7
669.361	52191.92
669.711	52290
670.06	52221.52
670.41	52206.38
670.76	52124.8
671.109	52198.92
671.459	52144.91
671.808	52103.56
672.157	52172.03
672.507	52000.29
672.856	51971.59
673.205	52072.37
673.554	52152.6
673.904	51833.51
674.253	52079.15
674.602	52001.87
674.951	51553.29
675.3	51399.62
675.649	51872.83
675.998	51751.7
676.346	51824.92
676.695	51949.44
677.044	51741.76
677.393	51714.87
677.741	51770.01
678.09	51758.48
678.438	51696.34
678.787	51741.31
679.135	51686.17
679.484	51505.83
679.832	51640.29
680.181	51419.96
680.529	51518.49
680.877	51535.44
681.225	51383.8
681.573	51527.76
681.922	51313.75
682.27	51353.3
682.618	51240.98
682.966	51168.44
683.314	51247.08
683.661	51204.37
684.009	50911.05
684.357	50946.98
684.705	50860.43
685.053	50963.25
685.4	50902.91
685.748	50667.89
686.095	50700.43
686.443	50594.45
686.79	50491.17
687.138	50644.61
687.485	50608.46
687.832	50377.73
688.18	50328.92
688.527	50254.34
688.874	50213.67
689.221	50045.31
689.568	50052.54
689.915	50004.18
690.262	49991.98
690.609	49848.7
690.956	49678.54
691.303	49510.41
691.65	49469.5
691.997	49528.49
692.344	49276.74
692.69	49239.91
693.037	49281.03
693.383	48938.22
693.73	49021.61
694.077	48954.26
694.423	48918.78
694.769	48786.13
695.116	48699.58
695.462	48624.55
695.808	48461.17
696.155	48498.23
696.501	48240.38
696.847	48317.44
697.193	47878.59
697.539	48194.51
697.885	47951.58
698.231	47783.45
698.577	47700.51
698.923	47572.61
699.269	47411.93
699.614	47207.64
699.96	47289.45
700.306	47225.72
700.651	47036.57
700.997	46938.27
701.342	46849.23
701.688	46878.61
702.033	46575.8
702.379	46573.08
702.724	46572.41
703.069	46560.88
703.415	46202.02
703.76	46115.92
704.105	46039.31
704.45	45988.24
704.795	45848.13
705.14	45684.75
705.485	45685.65
705.83	45466.45
706.175	45608.14
706.52	45345.77
706.865	45239.79
707.209	45107.59
707.554	45041.6
707.899	45073.01
708.243	44642.51
708.588	44848.83
708.932	44640.93
709.277	44494.72
709.621	44623.3
709.966	44305.57
710.31	44411.56
710.654	43922.31
710.998	44049.31
711.342	44104.9
711.687	44037.1
712.031	43696.32
712.375	43627.85
712.719	43836.66
713.063	43672.14
713.407	43861.52
713.75	43459.27
714.094	43388.53
714.438	43337.24
714.782	43160.52
715.125	43239.84
715.469	43199.16
715.812	43038.26
716.156	42878.04
716.499	42893.18
716.843	42998.94
717.186	42523.02
717.53	42776.57
717.873	42910.81
718.216	42705.61
718.559	42406.41
718.902	42284.61
719.246	42317.83
719.589	42275.8
719.932	42032.41
720.275	42090.72
720.617	42187.44
720.96	42068.79
721.303	41864.51
721.646	42041.45
721.989	41776.37
722.331	41906.54
722.674	41751.52
723.016	41862.92
723.359	41666.77
723.701	41647.34
724.044	41496.61
724.386	41351.53
724.729	41469.26
725.071	41530.96
725.413	41393.56
725.755	41263.84
726.097	41020.69
726.439	40966.23
726.782	40970.07
727.124	41257.06
727.465	40831.77
727.807	41079.22
728.149	40868.15
728.491	40696.85
728.833	40840.13
729.175	40683.52
729.516	40680.36
729.858	40628.38
730.199	40539.57
730.541	40488.95
730.882	40526.01
731.224	40575.27
731.565	40290.08
731.906	40348.39
732.248	40404.21
732.589	40203.53
732.93	40127.15
733.271	40135.06
733.612	40271.33
733.953	39950.66
734.294	39902.52
734.635	39976.65
734.976	40058.23
735.317	39741.4
735.658	39811
735.999	39760.83
736.339	39736.2
736.68	39855.75
737.021	39609.88
737.361	39501.86
737.702	39826.37
738.042	39601.74
738.383	39617.11
738.723	39652.59
739.063	39418.02
739.404	39455.08
739.744	39340.05
740.084	39201.3
740.424	39245.59
740.764	39163.79
741.104	39378.7
741.444	39138.48
741.784	39043.11
742.124	39116.56
742.464	39044.24
742.804	39008.31
743.143	38921.08
743.483	38811.03
743.823	38792.27
744.162	38534.88
744.502	38675.44
744.841	38587.53
745.181	38758.6
745.52	38566.51
745.86	38489.68
746.199	38497.14
746.538	38391.38
746.877	38566.74
747.216	38422.56
747.556	38333.07
747.895	38408.1
748.234	38122.68
748.573	38036.58
748.911	38216.24
749.25	38089.69
749.589	37992.52
749.928	37904.61
750.267	38038.17
750.605	37871.17
750.944	37941.9
751.283	37955
751.621	37818.29
751.96	37517.05
752.298	37627.33
752.636	37634.11
752.975	37484.96
753.313	37202.71
753.651	37587.78
753.989	37298.98
754.327	37124.07
754.666	37029.38
755.004	37078.64
755.342	37276.15
755.679	36975.82
756.017	36888.37
756.355	36916.16
756.693	36640.69
757.031	36764.75
757.368	36627.81
757.706	36494.7
758.044	36287.03
758.381	36367.48
758.719	36333.8
759.056	36349.62
759.394	36159.35
