Data from orange_diffuse_book_FLMS001491_00098.txt Node
Date: Wed Feb 08 15:30:19 GMT 2017
User: dcchb
Spectrometer: FLMS00149
Trigger mode: 0
Integration Time (sec): 2.000000E-2
Scans to average: 10
Electric dark correction enabled: true
Nonlinearity correction enabled: false
Boxcar width: 0
XAxis mode: Wavelengths
Number of Pixels in Spectrum: 2048
>>>>>Begin Spectral Data<<<<<
341.393	6.98
341.776	6.98
342.16	6.98
342.543	-53.59
342.927	-61.5
343.31	-65.34
343.693	-60.82
344.077	-59.91
344.46	-55.17
344.843	-72.34
345.226	-30.54
345.61	-28.05
345.993	-31.44
346.376	-3.19
346.759	-0.48
347.142	15.11
347.525	44.72
347.908	64.15
348.291	83.36
348.674	76.81
349.057	123.13
349.44	112.74
349.823	134.21
350.206	154.77
350.588	195.67
350.971	238.84
351.354	223.69
351.737	257.59
352.119	264.6
352.502	272.51
352.884	276.12
353.267	284.71
353.65	313.86
354.032	313.41
354.414	312.73
354.797	325.84
355.179	326.06
355.562	328.78
355.944	332.84
356.326	332.39
356.709	346.86
357.091	344.14
357.473	373.75
357.855	360.41
358.238	376.23
358.62	348.21
359.002	347.53
359.384	341.21
359.766	351.15
360.148	360.41
360.53	345.95
360.912	364.03
361.294	336.91
361.676	329.91
362.057	351.15
362.439	358.83
362.821	343.69
363.203	338.04
363.584	340.53
363.966	347.53
364.348	337.14
364.729	337.36
365.111	341.43
365.493	334.2
365.874	329
366.256	330.13
366.637	330.58
367.019	339.85
367.4	328.1
367.781	321.77
368.163	329.91
368.544	331.26
368.925	327.19
369.306	348.44
369.688	324.26
370.069	319.96
370.45	318.16
370.831	312.73
371.212	329.45
371.593	334.2
371.974	295.11
372.355	322.22
372.736	344.6
373.117	331.49
373.498	327.65
373.879	353.86
374.26	322.22
374.641	321.09
375.021	325.61
375.402	305.27
375.783	334.88
376.163	344.37
376.544	353.18
376.925	350.92
377.305	336.91
377.686	313.86
378.066	337.14
378.447	331.49
378.827	348.66
379.208	347.53
379.588	345.5
379.968	344.82
380.349	368.1
380.729	348.21
381.109	341.88
381.489	342.56
381.87	358.61
382.25	357.93
382.63	365.16
383.01	347.08
383.39	349.79
383.77	339.85
384.15	360.19
384.53	359.74
384.91	373.07
385.29	367.42
385.67	372.39
386.049	367.65
386.429	385.5
386.809	360.41
387.189	369.91
387.568	369.91
387.948	374.88
388.328	383.69
388.707	385.95
389.087	387.08
389.466	389.11
389.846	385.05
390.225	378.04
390.605	377.36
390.984	382.11
391.363	397.7
391.743	380.75
392.122	378.04
392.501	377.59
392.881	406.97
393.26	399.06
393.639	411.03
394.018	399.74
394.397	414.2
394.776	413.29
395.155	405.38
395.534	413.29
395.913	399.51
396.292	398.83
396.671	423.92
397.05	418.04
397.429	421.88
397.808	398.83
398.186	421.43
398.565	421.88
398.944	418.72
399.323	414.42
399.701	424.37
400.08	415.78
400.458	420.98
400.837	406.29
401.215	423.24
401.594	425.72
401.972	424.59
402.351	444.93
402.729	424.37
403.107	435.89
403.486	425.72
403.864	443.58
404.242	450.13
404.62	420.75
404.999	459.17
405.377	455.33
405.755	449.45
406.133	453.75
406.511	474.99
406.889	467.53
407.267	474.31
407.645	479.51
408.023	444.71
408.401	485.83
408.779	482.67
409.156	470.24
409.534	481.32
409.912	483.57
410.29	484.03
410.667	481.09
411.045	500.98
411.422	486.96
411.8	491.26
412.178	502.11
412.555	489.45
412.933	504.14
413.31	493.07
413.687	497.59
414.065	542.78
414.442	539.39
414.819	524.7
415.197	528.55
415.574	538.71
415.951	536.23
416.328	542.33
416.705	528.77
417.082	557.47
417.46	565.83
417.837	552.05
418.214	567.41
418.591	573.97
418.967	555.44
419.344	549.11
419.721	584.82
420.098	575.78
420.475	567.19
420.852	566.28
421.228	563.12
421.605	585.04
421.982	594.08
422.358	611.93
422.735	604.7
423.111	586.4
423.488	616.45
423.864	629.11
424.241	625.49
424.617	625.94
424.994	639.73
425.37	611.26
425.746	605.38
426.123	649.45
426.499	639.73
426.875	652.38
427.251	693.74
427.627	675.21
428.003	669.11
428.379	670.91
428.756	673.17
429.132	675.89
429.507	693.06
429.883	679.73
430.259	714.53
430.635	700.74
431.011	726.73
431.387	729.67
431.763	733.29
432.138	699.39
432.514	745.71
432.89	739.61
433.265	745.71
433.641	738.03
434.016	767.41
434.392	769.67
434.767	783
435.143	773.51
435.518	784.36
435.894	789.1
436.269	814.64
436.644	814.41
437.02	816.22
437.395	809.22
437.77	841.76
438.145	821.19
438.52	837.01
438.895	852.6
439.271	842.21
439.646	855.09
440.021	830.91
440.395	871.36
440.77	882.66
441.145	842.21
441.52	877.24
441.895	883.79
442.27	886.73
442.645	880.17
443.019	884.92
443.394	907.07
443.769	912.49
444.143	905.71
444.518	886.5
444.892	911.59
445.267	887.86
445.641	932.15
446.016	944.58
446.39	932.6
446.764	946.39
447.139	936.67
447.513	946.39
447.887	940.74
448.262	936.67
448.636	944.13
449.01	936.22
449.384	966.95
449.758	987.29
450.132	945.48
450.506	984.8
450.88	991.13
451.254	979.83
451.628	980.06
452.002	985.26
452.376	1008.98
452.75	1013.28
453.123	1012.6
453.497	1026.39
453.871	1024.35
454.244	1040.17
454.618	1027.52
454.992	1035.88
455.365	1051.7
455.739	1105.03
456.112	1081.98
456.486	1079.04
456.859	1117.46
457.232	1120.62
457.606	1093.5
457.979	1119.49
458.352	1130.79
458.725	1117.68
459.099	1137.57
459.472	1164.01
459.845	1180.51
460.218	1168.08
460.591	1159.72
460.964	1185.03
461.337	1187.29
461.71	1200.39
462.083	1215.31
462.456	1224.57
462.829	1231.58
463.201	1243.33
463.574	1267.74
463.947	1261.86
464.32	1286.94
464.692	1261.41
465.065	1267.28
465.438	1305.25
465.81	1301.41
466.183	1282.65
466.555	1330.11
466.928	1348.18
467.3	1333.95
467.672	1367.17
468.045	1402.65
468.417	1387.05
468.789	1380.27
469.161	1383.66
469.534	1435.87
469.906	1455.98
470.278	1419.82
470.65	1440.39
471.022	1482.19
471.394	1459.14
471.766	1472.02
472.138	1498.92
472.51	1524.45
472.882	1559.03
473.253	1548.63
473.625	1561.51
473.997	1617.1
474.369	1635.41
474.74	1629.08
475.112	1671.79
475.484	1659.14
475.855	1682.87
476.227	1680.38
476.598	1736.88
476.97	1760.15
477.341	1778.68
477.713	1758.8
478.084	1799.7
478.455	1835.18
478.827	1891.67
479.198	1918.34
479.569	1901.16
479.94	1934.61
480.311	1951.78
480.682	1971.45
481.053	2049.18
481.424	2055.74
481.795	2085.57
482.166	2084.44
482.537	2147.03
482.908	2154.49
483.279	2180.48
483.65	2223.19
484.021	2261.83
484.391	2275.84
484.762	2302.96
485.133	2357.65
485.503	2309.97
485.874	2422.51
486.244	2408.5
486.615	2484.2
486.985	2504.09
487.356	2571.2
487.726	2547.02
488.097	2626.12
488.467	2632.44
488.837	2709.05
489.207	2713.12
489.578	2777.07
489.948	2810.75
490.318	2842.61
490.688	2833.12
491.058	2907.92
491.428	2925.54
491.798	2955.37
492.168	3019.55
492.538	3013.9
492.908	3034.02
493.278	3110.17
493.648	3143.39
494.017	3178.65
494.387	3199.44
494.757	3221.58
495.126	3276.27
495.496	3345.19
495.866	3298.64
496.235	3376.83
496.605	3389.71
496.974	3443.5
497.344	3469.26
497.713	3493.44
498.082	3521.91
498.452	3569.6
498.821	3599.65
499.19	3631.74
499.559	3668.12
499.928	3706.99
500.298	3709.93
500.667	3770.27
501.036	3798.52
501.405	3876.48
501.774	3805.52
502.143	3881.23
502.512	3885.07
502.88	3953.54
503.249	3915.58
503.618	3978.17
503.987	4065.85
504.356	4054.55
504.724	4079.41
505.093	4092.07
505.462	4154.44
505.83	4176.59
506.199	4182.91
506.567	4241.44
506.936	4242.8
507.304	4317.82
507.672	4342.68
508.041	4360.08
508.409	4437.14
508.777	4427.65
509.145	4452.28
509.514	4486.18
509.882	4517.59
510.25	4557.37
510.618	4577.7
510.986	4603.69
511.354	4656.8
511.722	4681.66
512.09	4724.37
512.458	4727.53
512.826	4760.75
513.193	4769.79
513.561	4809.11
513.929	4852.5
514.297	4890.92
514.664	4927.75
515.032	4960.29
515.4	4971.59
515.767	5050.91
516.135	5060.18
516.502	5054.53
516.869	5163.45
517.237	5156.22
517.604	5179.95
517.972	5190.12
518.339	5279.83
518.706	5249.1
519.073	5277.57
519.44	5341.07
519.808	5352.83
520.175	5368.19
520.542	5465.14
520.909	5490.22
521.276	5524.8
521.643	5513.05
522.009	5542.65
522.376	5640.73
522.743	5628.3
523.11	5742.19
523.477	5767.5
523.843	5829.42
524.21	5862.64
524.577	5899.93
524.943	5970.66
525.31	5981.28
525.676	6034.16
526.043	6037.55
526.409	6094.27
526.776	6113.94
527.142	6179.7
527.508	6223.99
527.874	6242.97
528.241	6264.21
528.607	6286.81
528.973	6386.92
529.339	6377.21
529.705	6372.91
530.071	6442.51
530.437	6455.85
530.803	6527.03
531.169	6520.03
531.535	6508.28
531.901	6507.6
532.267	6581.49
532.632	6653.13
532.998	6635.73
533.364	6704.88
533.73	6741.26
534.095	6775.16
534.461	6823.52
534.826	6793.47
535.192	6822.39
535.557	6883.18
535.923	6885.21
536.288	6903.07
536.653	6952.33
537.019	6974.25
537.384	6998.43
537.749	7103.06
538.114	7053.57
538.479	7135.38
538.845	7111.42
539.21	7120.24
539.575	7161.59
539.94	7224.41
540.305	7308.48
540.67	7339.89
541.034	7312.77
541.399	7350.06
541.764	7392.55
542.129	7393.22
542.494	7424.86
542.858	7508.47
543.223	7472.32
543.587	7543.95
543.952	7568.81
544.316	7532.88
544.681	7609.04
545.045	7696.27
545.41	7683.61
545.774	7734.91
546.138	7803.16
546.503	7794.34
546.867	7812.2
547.231	7901.68
547.595	7946.66
547.959	7935.36
548.324	7979.87
548.688	8049.93
549.052	8092.87
549.416	8071.4
549.779	8123.6
550.143	8094.45
550.507	8216.25
550.871	8248.34
551.235	8280.21
551.599	8371.73
551.962	8343.26
552.326	8421.22
552.689	8467.77
553.053	8442.01
553.417	8510.03
553.78	8670.03
554.143	8605.85
554.507	8713.64
554.87	8739.85
555.234	8881.32
555.597	8794.99
555.96	8895.56
556.323	8939.17
556.686	8966.06
557.05	9132.84
557.413	9126.06
557.776	9146.62
558.139	9266.62
558.502	9267.98
558.865	9332.38
559.228	9439.05
559.59	9486.95
559.953	9521.76
560.316	9690.34
560.679	9691.47
561.041	9771.92
561.404	9805.36
561.767	9910.67
562.129	9959.03
562.492	10088.75
562.854	10164.68
563.217	10270.44
563.579	10302.75
563.941	10424.56
564.304	10589.3
564.666	10501.39
565.028	10654.83
565.39	10746.36
565.753	10859.35
566.115	10955.84
566.477	11091.88
566.839	11161.49
567.201	11250.75
567.563	11330.75
567.925	11527.58
568.287	11544.75
568.648	11804.86
569.01	11846.89
569.372	12071.52
569.734	12055.93
570.095	12209.59
570.457	12454.11
570.819	12525.52
571.18	12663.37
571.542	12841.22
571.903	12959.86
572.265	13134.09
572.626	13271.94
572.987	13521.88
573.349	13643.91
573.71	13857.46
574.071	14017.91
574.432	14237.34
574.794	14406.37
575.155	14576.31
575.516	14720.94
575.877	15026.24
576.238	15266.91
576.599	15546.46
576.96	15709.84
577.32	15845.88
577.681	16196.16
578.042	16479.09
578.403	16652.64
578.763	16998.17
579.124	17277.94
579.485	17653.29
579.845	17911.59
580.206	18264.8
580.566	18505.93
580.927	18719.03
581.287	19138.23
581.648	19294.83
582.008	19779.79
582.368	20033.12
582.728	20402.6
583.089	20835.58
583.449	21168.45
583.809	21508.56
584.169	21836.91
584.529	22130.46
584.889	22733.84
585.249	22974.51
585.609	23301.05
585.969	23934.03
586.329	24157.3
586.688	24627.57
587.048	25058.3
587.408	25451.28
587.768	25994.99
588.127	26337.36
588.487	26734.64
588.846	27293.72
589.206	27622.3
589.565	28204.43
589.925	28742.49
590.284	28951.75
590.643	29524.85
591.003	29915.34
591.362	30593.74
591.721	30973.85
592.08	31472.59
592.44	32036.64
592.799	32336.97
593.158	32821.48
593.517	33358.87
593.876	33830.04
594.235	34336.47
594.593	34735.56
594.952	35351.36
595.311	35634.97
595.67	36208.29
596.029	36927.14
596.387	37416.39
596.746	37836.72
597.104	38145.18
597.463	38645.06
597.822	39224.7
598.18	39461.08
598.538	39982.2
598.897	40634.16
599.255	40606.59
599.613	41689.95
599.972	41769.72
600.33	42436.37
600.688	42558.63
601.046	43114.77
601.404	43669.78
601.762	43986.16
602.12	44559.03
602.478	44817.1
602.836	45003.76
603.194	45320.14
603.552	45788.6
603.91	46020.46
604.268	46487.79
604.625	46864.05
604.983	47147.88
605.341	47279.18
605.698	47829.45
606.056	48185.82
606.413	48386.5
606.771	48619.26
607.128	49002.53
607.485	49075.29
607.843	49308.51
608.2	49756.86
608.557	50072.55
608.914	50050.86
609.272	50550.28
609.629	50725.87
609.986	50951.4
610.343	50959.54
610.7	51378.06
611.057	51474.55
611.414	51570.14
611.771	51765.39
612.127	51991.37
612.484	52183.01
612.841	52313.62
613.198	52373.51
613.554	52439.04
613.911	52750.68
614.267	52859.37
614.624	52884
614.98	53089.42
615.337	53332.58
615.693	53333.48
616.05	53414.84
616.406	53695.28
616.762	53667.71
617.118	53769.86
617.475	53842.62
617.831	54003.07
618.187	54037.42
618.543	54111.32
618.899	54428.37
619.255	54408.26
619.611	54389.73
619.967	54565.77
620.323	54649.16
620.678	54501.36
621.034	54549.95
621.39	54640.34
621.746	54638.31
622.101	55003.95
622.457	54732.09
622.812	54886.66
623.168	54971.41
623.523	55055.7
623.879	55163.49
624.234	54917.4
624.589	55142.48
624.945	55104.51
625.3	55290.95
625.655	55233.1
626.01	55273.32
626.365	55312.42
626.72	55304.51
627.075	55318.29
627.43	55412.98
627.785	55349.25
628.14	55383.6
628.495	55498.4
628.85	55511.96
629.205	55397.84
629.559	55559.87
629.914	55459.76
630.269	55529.59
630.623	55450.72
630.978	55424.73
631.332	55526.87
631.687	55546.53
632.041	55503.15
632.396	55620.88
632.75	55479.19
633.104	55561
633.459	55431.73
633.813	55441.68
634.167	55497.72
634.521	55477.16
634.875	55499.98
635.229	55440.32
635.583	55396.71
635.937	55389.25
636.291	55396.26
636.645	55312.64
636.999	55354.45
637.352	55496.14
637.706	55256.37
638.06	55380.21
638.413	55337.73
638.767	55323.26
639.121	55290.04
639.474	55165.3
639.828	55198.07
640.181	55302.7
640.534	55296.37
640.888	55175.7
641.241	55111.29
641.594	55180.22
641.947	55271.96
642.301	55143.38
642.654	55230.84
643.007	55291.85
643.36	55176.6
643.713	55196.03
644.066	55229.25
644.419	55118.3
644.771	54872.43
645.124	54615.26
645.477	54566.67
645.83	54531.19
646.182	54369.62
646.535	54297.53
646.888	54376.4
647.24	54223.63
647.593	54396.06
647.945	54271.77
648.298	54199
648.65	54127.81
649.002	54041.04
649.355	54246.46
649.707	54081.94
650.059	54300.69
650.411	54619.33
650.763	54692.09
651.115	54973.44
651.467	54800.11
651.819	54913.33
652.171	54775.71
652.523	54690.29
652.875	54749.72
653.227	54637.18
653.578	54904.52
653.93	54838.3
654.282	54737.97
654.633	54690.06
654.985	54774.35
655.337	54707.46
655.688	54718.98
656.039	54783.62
656.391	54611.42
656.742	54648.93
657.094	54693.9
657.445	54738.42
657.796	54676.05
658.147	54584.98
658.498	54646.9
658.849	54642.6
659.2	54562.38
659.551	54471.76
659.902	54648.48
660.253	54612.55
660.604	54717.86
660.955	54621.81
661.306	54745.42
661.656	54586.79
662.007	54581.81
662.358	54614.58
662.708	54700.45
663.059	54573.45
663.409	54505.43
663.76	54659.78
664.11	54582.04
664.461	54602.15
664.811	54625.88
665.161	54588.14
665.511	54457.07
665.862	54500.46
666.212	54559.44
666.562	54605.32
666.912	54528.48
667.262	54498.43
667.612	54476.96
667.962	54547.92
668.312	54394.93
668.662	54538.42
669.011	54510.85
669.361	54402.84
669.711	54528.26
670.06	54389.5
670.41	54312.67
670.76	54306.79
671.109	54387.24
671.459	54259.56
671.808	54255.04
672.157	54266.34
672.507	54113.58
672.856	54150.86
673.205	54190.41
673.554	54246.68
673.904	54040.58
674.253	54304.76
674.602	54174.59
674.951	53670.2
675.3	53623.19
675.649	54028.61
675.998	54057.08
676.346	54029.06
676.695	54100.47
677.044	53947.93
677.393	53941.15
677.741	53957.88
678.09	53924.43
678.438	53884.88
678.787	53943.19
679.135	53915.39
679.484	53675.4
679.832	53820.03
680.181	53648.96
680.529	53721.05
680.877	53639.47
681.225	53670.42
681.573	53808.95
681.922	53522.86
682.27	53507.72
682.618	53434.5
682.966	53487.15
683.314	53497.1
683.661	53380.94
684.009	53196.99
684.357	53188.86
684.705	53167.39
685.053	53249.65
685.4	53162.42
685.748	52957.45
686.095	52996.54
686.443	52836.55
686.79	52864.8
687.138	52879.03
687.485	52924.23
687.832	52753.84
688.18	52761.3
688.527	52577.12
688.874	52537.35
689.221	52444.69
689.568	52442.66
689.915	52258.71
690.262	52331.7
690.609	52351.36
690.956	52134.19
691.303	52143.23
691.65	51926.52
691.997	51865.95
692.344	51769.01
692.69	51696.24
693.037	51788.89
693.383	51492.86
693.73	51628.67
694.077	51433.42
694.423	51510.26
694.769	51315.01
695.116	51311.39
695.462	51137.61
695.808	51067.56
696.155	51046.09
696.501	50868.01
696.847	50846.54
697.193	50612.88
697.539	50695.59
697.885	50357.74
698.231	50289.04
698.577	50311.87
698.923	50278.2
699.269	50143.96
699.614	49989.62
699.96	49869.17
700.306	49980.58
700.651	49645.22
700.997	49546.47
701.342	49609.97
701.688	49525
702.033	49346.47
702.379	49234.16
702.724	49278.9
703.069	49221.28
703.415	48718.69
703.76	48905.13
704.105	48865.58
704.45	48634.85
704.795	48441.18
705.14	48376.1
705.485	48292.94
705.83	48188.99
706.175	48247.52
706.52	48079.39
706.865	47946.51
707.209	47880.52
707.554	47768.89
707.899	47900.18
708.243	47613.41
708.588	47622.9
708.932	47231.05
709.277	47340.42
709.621	47320.76
709.966	47121.9
710.31	47185.62
710.654	46818.4
710.998	46925.29
711.342	46919.64
711.687	46763.26
712.031	46715.58
712.375	46409.6
712.719	46546.77
713.063	46567.79
713.407	46632.19
713.75	46489.6
714.094	46249.6
714.438	46177.74
714.782	46281.92
715.125	45937.97
715.469	46038.99
715.812	45831.31
716.156	45644.2
716.499	45746.11
716.843	45680.8
717.186	45611.43
717.53	45652.56
717.873	45668.83
718.216	45424.31
718.559	45363.98
718.902	45076.75
719.246	45214.83
719.589	45080.14
719.932	44991.33
720.275	44999.24
720.617	45011.9
720.96	44848.96
721.303	44728.29
721.646	44842.86
721.989	44494.62
722.331	44785.69
722.674	44562.87
723.016	44657.55
723.359	44540.95
723.701	44550.44
724.044	44178.92
724.386	44171.69
724.729	44381.63
725.071	44142.77
725.413	44180.05
725.755	44196.1
726.097	44027.29
726.439	43789.78
726.782	43860.51
727.124	44032.94
727.465	43684.92
727.807	43681.76
728.149	43737.8
728.491	43623.46
728.833	43654.87
729.175	43481.54
729.516	43357.7
729.858	43397.93
730.199	43371.49
730.541	43379.62
730.882	43284.71
731.224	43310.92
731.565	43198.61
731.906	43051.72
732.248	43268.89
732.589	42953.19
732.93	42930.37
733.271	42948.45
733.612	42905.51
733.953	42898.73
734.294	42860.77
734.635	42763.59
734.976	42724.5
735.317	42544.39
735.658	42681.11
735.999	42630.94
736.339	42429.14
736.68	42653.09
737.021	42486.76
737.361	42353.21
737.702	42630.26
738.042	42311.18
738.383	42323.83
738.723	42316.37
739.063	42141.69
739.404	42285.41
739.744	42166.32
740.084	42068.7
740.424	42195.92
740.764	41948.02
741.104	42061.69
741.444	42074.57
741.784	41734.69
742.124	41961.13
742.464	41860.11
742.804	41818.31
743.143	41627.35
743.483	41721.13
743.823	41580.57
744.162	41494.7
744.502	41593.68
744.841	41344.2
745.181	41571.76
745.52	41452.89
745.86	41366.79
746.199	41270.75
746.538	41236.18
746.877	41253.35
747.216	41287.7
747.556	41206.12
747.895	41025.11
748.234	41042.73
748.573	40971.55
748.911	40894.72
749.25	40998.44
749.589	40703.99
749.928	40759.58
750.267	40749.41
750.605	40640.71
750.944	40525.91
751.283	40474.16
751.621	40652.46
751.96	40389.19
752.298	40387.84
752.636	40365.92
752.975	40238.91
753.313	40075.08
753.651	40340.38
753.989	39956.44
754.327	39986.49
754.666	39810.9
755.004	39832.14
755.342	39828.76
755.679	39762.77
756.017	39612.26
756.355	39606.16
756.693	39438.26
757.031	39444.13
757.368	39281.42
757.706	39217.25
758.044	39153.97
758.381	39160.75
758.719	39091.15
759.056	38990.36
