Data from orange_diffuse_book_FLMS001491_00093.txt Node
Date: Wed Feb 08 15:30:18 GMT 2017
User: dcchb
Spectrometer: FLMS00149
Trigger mode: 0
Integration Time (sec): 2.000000E-2
Scans to average: 10
Electric dark correction enabled: true
Nonlinearity correction enabled: false
Boxcar width: 0
XAxis mode: Wavelengths
Number of Pixels in Spectrum: 2048
>>>>>Begin Spectral Data<<<<<
341.393	-23.22
341.776	-23.22
342.16	-23.22
342.543	-71.35
342.927	-60.28
343.31	-74.07
343.693	-53.28
344.077	-55.54
344.46	-59.6
344.843	-55.99
345.226	-59.38
345.61	-41.07
345.993	-10.79
346.376	-8.98
346.759	22.88
347.142	30.34
347.525	42.09
347.908	56.55
348.291	78.25
348.674	67.63
349.057	120.96
349.44	130
349.823	132.03
350.206	160.5
350.588	201.63
350.971	259.48
351.354	216.77
351.737	247.06
352.119	271.01
352.502	273.95
352.884	280.5
353.267	289.99
353.65	298.35
354.032	324.79
354.414	314.4
354.797	320.05
355.179	345.36
355.562	352.36
355.944	338.8
356.326	353.95
356.709	371.35
357.091	332.7
357.473	356.21
357.855	358.01
358.238	361.18
358.62	351.69
359.002	341.74
359.384	353.27
359.766	353.04
360.148	349.43
360.53	370.22
360.912	355.75
361.294	347.39
361.676	360.05
362.057	345.58
362.439	320.73
362.821	346.49
363.203	341.06
363.584	331.35
363.966	338.35
364.348	335.41
364.729	324.34
365.111	316.66
365.493	344
365.874	336.09
366.256	332.7
366.637	329.31
367.019	346.49
367.4	350.1
367.781	315.98
368.163	341.06
368.544	321.63
368.925	322.31
369.306	348.3
369.688	328.18
370.069	320.95
370.45	322.76
370.831	318.47
371.212	331.57
371.593	329.31
371.974	325.02
372.355	322.53
372.736	336.77
373.117	331.8
373.498	314.4
373.879	322.53
374.26	335.19
374.641	339.03
375.021	334.06
375.402	345.13
375.783	325.92
376.163	321.4
376.544	331.57
376.925	350.1
377.305	349.65
377.686	346.04
378.066	331.35
378.447	355.08
378.827	352.59
379.208	333.61
379.588	345.81
379.968	334.96
380.349	347.62
380.729	355.08
381.109	345.36
381.489	350.56
381.87	355.08
382.25	348.07
382.63	348.97
383.01	358.47
383.39	383.32
383.77	340.16
384.15	365.02
384.53	369.99
384.91	348.75
385.29	370.67
385.67	367.96
386.049	379.93
386.429	367.96
386.809	365.92
387.189	367.5
387.568	363.21
387.948	356.21
388.328	361.4
388.707	383.55
389.087	367.96
389.466	386.71
389.846	359.82
390.225	367.28
390.605	389.88
390.984	382.42
391.363	372.48
391.743	367.28
392.122	390.1
392.501	394.17
392.881	395.53
393.26	416.99
393.639	418.12
394.018	420.84
394.397	384
394.776	394.85
395.155	409.09
395.534	408.18
395.913	391.46
396.292	402.76
396.671	400.5
397.05	407.05
397.429	422.87
397.808	393.94
398.186	416.32
398.565	413.6
398.944	405.24
399.323	415.19
399.701	395.53
400.08	409.31
400.458	416.09
400.837	419.25
401.215	434.85
401.594	420.84
401.972	410.22
402.351	451.8
402.729	453.6
403.107	430.33
403.486	431.01
403.864	419.93
404.242	450.21
404.62	435.07
404.999	455.86
405.377	447.05
405.755	456.09
406.133	469.2
406.511	442.53
406.889	469.65
407.267	464.9
407.645	455.64
408.023	458.12
408.401	467.61
408.779	480.27
409.156	475.07
409.534	479.59
409.912	466.94
410.29	476.65
410.667	483.21
411.045	486.82
411.422	500.38
411.8	510.55
412.178	508.52
412.555	519.59
412.933	521.4
413.31	520.72
413.687	520.49
414.065	530.66
414.442	525.24
414.819	549.87
415.197	562.53
415.574	543.77
415.951	543.55
416.328	541.51
416.705	538.57
417.082	554.62
417.46	549.65
417.837	571.34
418.214	555.97
418.591	581.74
418.967	556.65
419.344	581.51
419.721	580.83
420.098	566.37
420.475	574.73
420.852	587.61
421.228	600.49
421.605	608.18
421.982	591.91
422.358	616.09
422.735	600.04
423.111	596.42
423.488	631
423.864	606.82
424.241	618.12
424.617	621.51
424.994	632.36
425.37	638.68
425.746	630.77
426.123	629.19
426.499	638.91
426.875	643.43
427.251	652.69
427.627	617.89
428.003	667.84
428.379	677.55
428.756	659.7
429.132	692.24
429.507	694.28
429.883	709.42
430.259	720.49
430.635	712.35
431.011	699.47
431.387	697.21
431.763	735.18
432.138	736.99
432.514	734.27
432.89	749.64
433.265	750.77
433.641	768.4
434.016	784.67
434.392	776.76
434.767	771.56
435.143	769.53
435.518	806.59
435.894	814.05
436.269	817.44
436.644	812.01
437.02	820.37
437.395	821.05
437.77	820.6
438.145	839.58
438.52	833.03
438.895	846.36
439.271	832.35
439.646	845.23
440.021	861.95
440.395	868.06
440.77	855.85
441.145	873.03
441.52	858.34
441.895	863.76
442.27	894.5
442.645	891.78
443.019	887.49
443.394	895.4
443.769	902.86
444.143	923.2
444.518	924.1
444.892	910.54
445.267	936.76
445.641	934.04
446.016	929.52
446.39	936.08
446.764	940.14
447.139	940.37
447.513	932.24
447.887	930.88
448.262	962.29
448.636	971.56
449.01	950.09
449.384	964.1
449.758	960.03
450.132	972.23
450.506	968.62
450.88	974.27
451.254	960.48
451.628	998.67
452.002	1038.67
452.376	996.41
452.75	1012.91
453.123	1015.4
453.497	1019.46
453.871	1028.96
454.244	1038
454.618	1062.18
454.992	1057.2
455.365	1048.39
455.739	1049.97
456.112	1087.49
456.486	1090.2
456.859	1089.07
457.232	1117.77
457.606	1111.67
457.979	1107.82
458.352	1121.61
458.725	1139.69
459.099	1154.83
459.472	1162.74
459.845	1158.44
460.218	1167.03
460.591	1157.09
460.964	1181.04
461.337	1221.72
461.71	1223.3
462.083	1235.28
462.456	1215.17
462.829	1228.05
463.201	1242.96
463.574	1236.86
463.947	1263.53
464.32	1298.78
464.692	1291.77
465.065	1327.93
465.438	1320.47
465.81	1293.13
466.183	1314.82
466.555	1345.56
466.928	1327.71
467.3	1310.98
467.672	1339
468.045	1375.84
468.417	1372.45
468.789	1381.72
469.161	1391.88
469.534	1395.5
469.906	1450.41
470.278	1433.92
470.65	1457.65
471.022	1435.5
471.394	1482.28
471.766	1474.59
472.138	1507.36
472.51	1527.7
472.882	1554.37
473.253	1592.33
473.625	1586.23
473.997	1597.08
474.369	1573.12
474.74	1622.16
475.112	1653.8
475.484	1665.55
475.855	1718.88
476.227	1709.39
476.598	1723.63
476.97	1775.83
477.341	1761.82
477.713	1813.57
478.084	1794.59
478.455	1849.27
478.827	1877.07
479.198	1889.95
479.569	1907.12
479.94	1935.37
480.311	1972.21
480.682	2012.21
481.053	2032.55
481.424	2062.6
481.795	2094.01
482.166	2101.24
482.537	2165.88
482.908	2174.01
483.279	2188.47
483.65	2218.76
484.021	2263.27
484.391	2280.45
484.762	2319.54
485.133	2369.49
485.503	2345.08
485.874	2391.18
486.244	2432.08
486.615	2453.78
486.985	2502.14
487.356	2555.24
487.726	2576.03
488.097	2632.53
488.467	2634.34
488.837	2679.31
489.207	2704.39
489.578	2762.24
489.948	2793.88
490.318	2820.55
490.688	2831.62
491.058	2893.77
491.428	2938.06
491.798	2944.39
492.168	3011.5
492.538	3032.75
492.908	3079.98
493.278	3096.7
493.648	3137.38
494.017	3181.89
494.387	3220.76
494.757	3216.7
495.126	3263.7
495.496	3299.86
495.866	3355
496.235	3364.49
496.605	3418.5
496.974	3433.19
497.344	3484.94
497.713	3504.37
498.082	3547.08
498.452	3575.78
498.821	3629.79
499.19	3606.97
499.559	3677.93
499.928	3687.19
500.298	3725.16
500.667	3764.03
501.036	3789.56
501.405	3823.23
501.774	3837.24
502.143	3888.32
502.512	3921.76
502.88	3947.52
503.249	3963.57
503.618	3992.04
503.987	3990.69
504.356	4067.07
504.724	4031.59
505.093	4091.93
505.462	4121.53
505.83	4115.88
506.199	4186.84
506.567	4243.79
506.936	4292.82
507.304	4284.69
507.672	4328.76
508.041	4340.96
508.409	4376.44
508.777	4451.46
509.145	4476.77
509.514	4433.61
509.882	4549.32
510.25	4527.4
510.618	4528.52
510.986	4622.99
511.354	4631.35
511.722	4702.31
512.09	4678.35
512.458	4741.4
512.826	4785.02
513.193	4797.44
513.561	4868.18
513.929	4822.98
514.297	4927.61
514.664	4917.89
515.032	4975.29
515.4	5006.93
515.767	5070.43
516.135	5016.87
516.502	5025.69
516.869	5161.5
517.237	5128.96
517.604	5131.22
517.972	5236.53
518.339	5257.55
518.706	5257.55
519.073	5317.66
519.44	5307.71
519.808	5424.55
520.175	5395.17
520.542	5479.23
520.909	5445.11
521.276	5482.4
521.643	5538.44
522.009	5571.21
522.376	5662.96
522.743	5654.82
523.11	5731.21
523.477	5790.19
523.843	5837.19
524.21	5880.81
524.577	5895.49
524.943	5909.51
525.31	5980.24
525.676	6017.98
526.043	6062.04
526.409	6058.65
526.776	6108.37
527.142	6175.71
527.508	6127.13
527.874	6271.53
528.241	6248.48
528.607	6269.27
528.973	6306.78
529.339	6372.54
529.705	6465.65
530.071	6421.81
530.437	6418.42
530.803	6459.1
531.169	6544.74
531.535	6519.21
531.901	6618.64
532.267	6610.73
532.632	6649.15
532.998	6704.74
533.364	6705.64
533.73	6717.39
534.095	6728.47
534.461	6805.75
534.826	6848.92
535.192	6826.54
535.557	6853.66
535.923	6927.56
536.288	6947.44
536.653	7016.82
537.019	6998.97
537.384	6984.28
537.749	7023.6
538.114	7063.37
538.479	7119.42
538.845	7138.4
539.21	7143.6
539.575	7177.95
539.94	7214.1
540.305	7255.68
540.67	7280.77
541.034	7347.66
541.399	7382.24
541.764	7411.61
542.129	7405.51
542.494	7433.08
542.858	7498.84
543.223	7476.7
543.587	7539.97
543.952	7565.28
544.316	7534.77
544.681	7594.66
545.045	7692.28
545.41	7708.33
545.774	7707.2
546.138	7826.74
546.503	7810.25
546.867	7814.77
547.231	7875.1
547.595	7897.25
547.959	7943.8
548.324	8029.9
548.688	7964.14
549.052	8026.96
549.416	8088.66
549.779	8093.85
550.143	8212.04
550.507	8183.8
550.871	8264.02
551.235	8245.72
551.599	8325.71
551.962	8364.81
552.326	8411.59
552.689	8508.08
553.053	8504.01
553.417	8543.79
553.78	8614.75
554.143	8566.16
554.507	8662.88
554.87	8700.17
555.234	8863.78
555.597	8835.08
555.96	8879.82
556.323	8949.88
556.686	8970.89
557.05	9038.24
557.413	9141.74
557.776	9166.14
558.139	9216.99
558.502	9287.5
558.865	9341.73
559.228	9436.19
559.59	9524.1
559.953	9534.04
560.316	9690.42
560.679	9667.15
561.041	9794.83
561.404	9861.49
561.767	9893.36
562.129	9982.17
562.492	10104.65
562.854	10129.28
563.217	10222.61
563.579	10281.59
563.941	10381.25
564.304	10477.07
564.666	10642.49
565.028	10685.88
565.39	10734.24
565.753	10875.93
566.115	10932.65
566.477	11089.48
566.839	11178.07
567.201	11305.75
567.563	11334.45
567.925	11488.57
568.287	11611.95
568.648	11684.72
569.01	11822.8
569.372	12039.06
569.734	12089.68
570.095	12282.22
570.457	12406.74
570.819	12509.33
571.18	12675.66
571.542	12784.81
571.903	12948.87
572.265	13098.7
572.626	13326.26
572.987	13461.62
573.349	13665.46
573.71	13887.15
574.071	14047.37
574.432	14291.43
574.794	14508.6
575.155	14643.74
575.516	14782.27
575.877	15020
576.238	15321.69
576.599	15475.58
576.96	15733.88
577.32	15832.18
577.681	16200.99
578.042	16466.06
578.403	16813.17
578.763	16900.86
579.124	17268.75
579.485	17590.1
579.845	18011.79
580.206	18162.97
580.566	18503.3
580.927	18785.1
581.287	19213.79
581.648	19390.96
582.008	19797.28
582.368	20084.73
582.728	20389.8
583.089	20769.23
583.449	21041.09
583.809	21427.74
584.169	21857.79
584.529	22176.87
584.889	22838.33
585.249	23071.09
585.609	23361.48
585.969	23914.23
586.329	24155.81
586.688	24691.84
587.048	25003.92
587.408	25564.81
587.768	25896.1
588.127	26319.36
588.487	26846.36
588.846	27311.65
589.206	27615.83
589.565	28006.78
589.925	28777.6
590.284	28955
590.643	29510.92
591.003	29987.97
591.362	30455.07
591.721	30999.02
592.08	31491.21
592.44	31947.92
592.799	32436.04
593.158	32862.02
593.517	33271.72
593.876	33879.39
594.235	34243.9
594.593	34743.55
594.952	35425.34
595.311	35743.3
595.67	36241.36
596.029	36914.79
596.387	37351.84
596.746	37747.54
597.104	38027.08
597.463	38564.01
597.822	39122.19
598.18	39432.01
598.538	39839.69
598.897	40674.92
599.255	40656.84
599.613	41653.2
599.972	41850.93
600.33	42263.13
600.688	42517.81
601.046	43092.03
601.404	43670.55
601.762	43866.47
602.12	44554.37
602.478	44837.3
602.836	45294.68
603.194	45345.3
603.552	45778.06
603.91	45994.78
604.268	46470.47
604.625	46719.73
604.983	47259.6
605.341	47279.94
605.698	47785.92
606.056	48167.83
606.413	48345.9
606.771	48730.98
607.128	48952.22
607.485	49059.11
607.843	49353.11
608.2	49672.65
608.557	49999.42
608.914	50204.16
609.272	50478.5
609.629	50644.83
609.986	50996.23
610.343	51028.32
610.7	51281.65
611.057	51479.15
611.414	51685.93
611.771	51785.14
612.127	51936.32
612.484	52168.18
612.841	52320.94
613.198	52322.97
613.554	52475.29
613.911	52755.28
614.267	52750.76
614.624	52909.17
614.98	52983.97
615.337	53285.66
615.693	53463.06
616.05	53395.04
616.406	53690.4
616.762	53604.75
617.118	53790.05
617.475	53746.67
617.831	53879.32
618.187	54035.25
618.543	54195.47
618.899	54408.57
619.255	54322.47
619.611	54372.19
619.967	54589.81
620.323	54618.06
620.678	54597.94
621.034	54557.72
621.39	54635.91
621.746	54680.43
622.101	54937.37
622.457	54763.59
622.812	54839.07
623.168	55058.04
623.523	55019.63
623.879	55194.09
624.234	54989.8
624.589	55129.91
624.945	55216.01
625.3	55229.34
625.655	55236.12
626.01	55293.52
626.365	55350.69
626.72	55333.06
627.075	55246.51
627.43	55365.15
627.785	55394.08
628.14	55458.71
628.495	55463.91
628.85	55468.2
629.205	55439.5
629.559	55693.96
629.914	55462.78
630.269	55515.88
630.623	55491.25
630.978	55410.35
631.332	55618.03
631.687	55653.73
632.041	55457.81
632.396	55549.56
632.75	55425.04
633.104	55519.27
633.459	55398.15
633.813	55463
634.167	55444.02
634.521	55522.21
634.875	55544.13
635.229	55454.19
635.583	55338.49
635.937	55383.46
636.291	55368.54
636.645	55346.17
636.999	55336.45
637.352	55465.94
637.706	55247.19
638.06	55384.14
638.413	55318.38
638.767	55291.48
639.121	55348.88
639.474	55192.28
639.828	55186.63
640.181	55318.38
640.534	55285.61
640.888	55138.72
641.241	55201.09
641.594	55244.03
641.947	55266.4
642.301	55176.01
642.654	55172.84
643.007	55213.97
643.36	55168.78
643.713	55192.73
644.066	55199.96
644.419	55096.69
644.771	54875.68
645.124	54692.4
645.477	54644.27
645.83	54443.82
646.182	54279.76
646.535	54273.21
646.888	54404.28
647.24	54228.46
647.593	54409.25
647.945	54316.37
648.298	54206.09
648.65	54178.74
649.002	54082.7
649.355	54274.56
649.707	54184.39
650.059	54277.05
650.411	54692.86
650.763	54669.13
651.115	54962
651.467	54933.98
651.819	54837.26
652.171	54820.31
652.523	54714.55
652.875	54804.27
653.227	54747.32
653.578	54849.69
653.93	54829.12
654.282	54711.16
654.633	54573.99
654.985	54671.61
655.337	54747.77
655.688	54762.46
656.039	54802.23
656.391	54542.13
656.742	54634.33
657.094	54652.18
657.445	54818.95
657.796	54693.99
658.147	54712.74
658.498	54668.45
658.849	54710.03
659.2	54644.04
659.551	54604.95
659.902	54671.61
660.253	54548.23
660.604	54673.65
660.955	54509.81
661.306	54628.45
661.656	54554.78
662.007	54647.43
662.358	54564.72
662.708	54627.32
663.059	54556.59
663.409	54386.65
663.76	54670.94
664.11	54672.74
664.461	54614.21
664.811	54555.68
665.161	54580.77
665.511	54534.44
665.862	54580.54
666.212	54583.71
666.562	54649.92
666.912	54483.82
667.262	54421.22
667.612	54499.64
667.962	54435.01
668.312	54429.13
668.662	54533.99
669.011	54458.29
669.361	54412.41
669.711	54412.19
670.06	54333.77
670.41	54344.39
670.76	54256.93
671.109	54343.71
671.459	54351.17
671.808	54235.24
672.157	54366.99
672.507	54055.81
672.856	54121.57
673.205	54204.73
673.554	54179.65
673.904	54130.61
674.253	54346.2
674.602	54150.27
674.951	53743.73
675.3	53620.34
675.649	54052.65
675.998	54001.35
676.346	54015.59
676.695	54200.21
677.044	53847.45
677.393	53968.35
677.741	54013.1
678.09	53843.61
678.438	53870.73
678.787	53928.36
679.135	53876.38
679.484	53654.92
679.832	53839.09
680.181	53617.18
680.529	53690.4
680.877	53705.09
681.225	53668.48
681.573	53763.84
681.922	53480.91
682.27	53432.1
682.618	53514.36
682.966	53462.38
683.314	53415.83
683.661	53335.38
684.009	53244.31
684.357	53184.19
684.705	53128.6
685.053	53127.7
685.4	53188.04
685.748	53007.48
686.095	52909.63
686.443	52887.71
686.79	52915.73
687.138	52940.13
687.485	52931.55
687.832	52738.1
688.18	52775.17
688.527	52474.16
688.874	52591.67
689.221	52545.12
689.568	52412.92
689.915	52329.75
690.262	52336.53
690.609	52276.42
690.956	52098.35
691.303	52137.22
691.65	51936.77
691.997	52009.08
692.344	51758.24
692.69	51697.91
693.037	51713.05
693.383	51510.79
693.73	51611.35
694.077	51393.06
694.423	51344.02
694.769	51346.05
695.116	51199.84
695.462	51207.98
695.808	50961.65
696.155	51156.9
696.501	50793.07
696.847	50864.93
697.193	50515.34
697.539	50758.5
697.885	50422.23
698.231	50319.41
698.577	50278.73
698.923	50332.97
699.269	50079.64
699.614	49884.85
699.96	49893.43
700.306	49889.37
700.651	49702.93
700.997	49649.82
701.342	49552.2
701.688	49591.29
702.033	49340.91
702.379	49354.46
702.724	49193.34
703.069	49269.5
703.415	48819.56
703.76	48864.08
704.105	48908.83
704.45	48762.84
704.795	48531.66
705.14	48405.11
705.485	48321.05
705.83	48218.9
706.175	48288.5
706.52	48116.31
706.865	47991.11
707.209	47883.54
707.554	47708.18
707.899	47910.89
708.243	47557.22
708.588	47491.01
708.932	47345.93
709.277	47279.94
709.621	47291.02
709.966	47070.01
710.31	47230
710.654	46771.93
710.998	46997.24
711.342	46882.44
711.687	46796.34
712.031	46640.64
712.375	46517.25
712.719	46636.57
713.063	46468.89
713.407	46492.62
713.75	46325.84
714.094	46267.54
714.438	46115.68
714.782	46225.06
715.125	46039.75
715.469	46178.73
715.812	45778.51
716.156	45715.46
716.499	45671.85
716.843	45690.61
717.186	45405.87
717.53	45733.54
717.873	45619.2
718.216	45369.71
718.559	45270.5
718.902	45157.06
719.246	45130.4
719.589	45043.17
719.932	44920.68
720.275	44894.24
720.617	44861.93
720.96	44789.39
721.303	44760.01
721.646	44838.2
721.989	44516.17
722.331	44790.97
722.674	44621.03
723.016	44686.34
723.359	44573.12
723.701	44480.69
724.044	44210.42
724.386	44055.4
724.729	44438.44
725.071	44128.61
725.413	44259.46
725.755	44057.43
726.097	43833.03
726.439	43780.6
726.782	43903.99
727.124	44044.77
727.465	43878.45
727.807	43784.22
728.149	43708.06
728.491	43613.82
728.833	43621.73
729.175	43558.23
729.516	43417.67
729.858	43458.35
730.199	43488.18
730.541	43291.12
730.882	43261.97
731.224	43393.72
731.565	43145.36
731.906	43198.02
732.248	43151.01
732.589	43006.16
732.93	42856.33
733.271	42890.45
733.612	42901.3
733.953	42965.25
734.294	42823.79
734.635	42756.45
734.976	42930.91
735.317	42596.68
735.658	42484.14
735.999	42674.19
736.339	42576.11
736.68	42662.44
737.021	42595.32
737.361	42427.87
737.702	42487.3
738.042	42389.22
738.383	42297.25
738.723	42411.82
739.063	42250.7
739.404	42209.57
739.744	42183.58
740.084	42103.13
740.424	42143.81
740.764	41899.52
741.104	42045.28
741.444	41803.03
741.784	41880.99
742.124	42013.87
742.464	41822.01
742.804	41611.17
743.143	41621.11
743.483	41721.22
743.823	41474.67
744.162	41460.66
744.502	41568.23
744.841	41465.41
745.181	41587.21
745.52	41425.63
745.86	41444.16
746.199	41308.12
746.538	41245.98
746.877	41378.18
747.216	41394
747.556	41105.87
747.895	41278.07
748.234	41041.24
748.573	40951.52
748.911	40874.24
749.25	40811.86
749.589	40742.49
749.928	40868.81
750.267	40861.58
750.605	40711.98
750.944	40718.76
751.283	40445.77
751.621	40486.9
751.96	40370.97
752.298	40344.31
752.636	40342.72
752.975	40095.73
753.313	40102.28
753.651	40174.82
753.989	39922.62
754.327	39935.96
754.666	39851.89
755.004	39786.81
755.342	39938.44
755.679	39708.84
756.017	39456.19
756.355	39679.92
756.693	39497.78
757.031	39524.89
757.368	39279.7
757.706	39259.82
758.044	39116.32
758.381	39130.1
758.719	39104.79
759.056	39018.47
759.394	38799.49
