Data from orange_diffuse_book_FLMS001491_00094.txt Node
Date: Wed Feb 08 15:30:18 GMT 2017
User: dcchb
Spectrometer: FLMS00149
Trigger mode: 0
Integration Time (sec): 2.000000E-2
Scans to average: 10
Electric dark correction enabled: true
Nonlinearity correction enabled: false
Boxcar width: 0
XAxis mode: Wavelengths
Number of Pixels in Spectrum: 2048
>>>>>Begin Spectral Data<<<<<
341.393	2.29
341.776	2.29
342.16	2.29
342.543	-51.5
342.927	-68.9
343.31	-67.31
343.693	-41.33
344.077	-46.98
344.46	-57.37
344.843	-49.24
345.226	-56.24
345.61	-39.29
345.993	-16.47
346.376	0.03
346.759	30.54
347.142	9.52
347.525	24.66
347.908	57.88
348.291	59.01
348.674	74.6
349.057	117.99
349.44	128.39
349.823	142.17
350.206	178.1
350.588	209.97
350.971	226.24
351.354	264.2
351.737	261.72
352.119	278.44
352.502	278.89
352.884	275.95
353.267	310.53
353.65	293.81
354.032	322.96
354.414	322.73
354.797	307.82
355.179	336.29
355.562	339
355.944	339.91
356.326	340.36
356.709	375.61
357.091	357.53
357.473	374.93
357.855	353.92
358.238	353.92
358.62	356.86
359.002	344.88
359.384	355.95
359.766	385.55
360.148	335.39
360.53	342.17
360.912	352.56
361.294	351.21
361.676	340.13
362.057	346.46
362.439	331.09
362.821	339.68
363.203	338.78
363.584	329.06
363.966	317.99
364.348	317.53
364.729	343.3
365.111	332.45
365.493	336.97
365.874	335.84
366.256	327.03
366.637	344.2
367.019	318.44
367.4	330.19
367.781	348.49
368.163	343.07
368.544	335.16
368.925	342.62
369.306	332
369.688	308.95
370.069	301.49
370.45	337.65
370.831	332.22
371.212	324.77
371.593	341.49
371.974	337.19
372.355	330.64
372.736	339.23
373.117	343.52
373.498	319.79
373.879	333.8
374.26	324.09
374.641	318.89
375.021	336.06
375.402	341.26
375.783	350.53
376.163	345.33
376.544	347.14
376.925	332
377.305	344.65
377.686	355.27
378.066	352.79
378.447	347.36
378.827	359.34
379.208	335.39
379.588	359.79
379.968	366.57
380.349	330.19
380.729	363.63
381.109	355.5
381.489	361.37
381.87	367.25
382.25	351.88
382.63	340.58
383.01	376.74
383.39	380.36
383.77	362.73
384.15	380.81
384.53	356.18
384.91	349.17
385.29	381.26
385.67	386.91
386.049	373.13
386.429	382.62
386.809	366.35
387.189	378.1
387.568	367.02
387.948	362.96
388.328	371.77
388.707	361.6
389.087	362.96
389.466	387.81
389.846	366.8
390.225	379
390.605	363.63
390.984	381.71
391.363	390.75
391.743	398.44
392.122	411.54
392.501	392.56
392.881	403.63
393.26	368.15
393.639	397.53
394.018	384.42
394.397	388.04
394.776	392.56
395.155	410.41
395.534	388.49
395.913	390.98
396.292	418.55
396.671	414.71
397.05	435.95
397.429	408.83
397.808	422.16
398.186	435.27
398.565	430.75
398.944	424.88
399.323	419.68
399.701	410.64
400.08	421.03
400.458	409.73
400.837	418.77
401.215	440.24
401.594	437.76
401.972	433.24
402.351	442.05
402.729	421.94
403.107	430.98
403.486	442.95
403.864	431.88
404.242	449.28
404.62	451.77
404.999	434.59
405.377	439.34
405.755	466.46
406.133	454.25
406.511	454.25
406.889	448.83
407.267	470.75
407.645	454.71
408.023	472.33
408.401	480.47
408.779	481.6
409.156	466.23
409.534	495.38
409.912	474.82
410.29	505.1
410.667	496.51
411.045	500.58
411.422	473.91
411.8	487.47
412.178	492.44
412.555	496.74
412.933	500.81
413.31	528.15
413.687	519.11
414.065	549.17
414.442	541.03
414.819	528.15
415.197	530.41
415.574	541.93
415.951	553.46
416.328	545.32
416.705	541.93
417.082	558.21
417.46	559.11
417.837	561.6
418.214	567.92
418.591	574.7
418.967	560.47
419.344	582.84
419.721	581.48
420.098	564.31
420.475	576.06
420.852	578.54
421.228	575.38
421.605	601.37
421.982	580.35
422.358	595.04
422.735	593.91
423.111	597.75
423.488	606.57
423.864	637.07
424.241	637.98
424.617	610.86
424.994	601.37
425.37	616.06
425.746	641.82
426.123	643.18
426.499	655.83
426.875	652.67
427.251	657.19
427.627	669.62
428.003	631.2
428.379	640.92
428.756	660.12
429.132	668.49
429.507	699.22
429.883	686.34
430.259	695.83
430.635	702.83
431.011	714.59
431.387	731.31
431.763	726.79
432.138	731.31
432.514	747.35
432.89	729.05
433.265	753.68
433.641	758.88
434.016	769.73
434.392	769.27
434.767	756.84
435.143	792.55
435.518	802.49
435.894	800.91
436.269	795.04
436.644	834.58
437.02	824.19
437.395	821.7
437.77	814.24
438.145	835.03
438.52	823.06
438.895	843.17
439.271	827.13
439.646	842.04
440.021	887.01
440.395	837.29
440.77	863.73
441.145	874.81
441.52	874.13
441.895	854.24
442.27	895.6
442.645	859.21
443.019	876.84
443.394	907.12
443.769	890.4
444.143	908.93
444.518	903.06
444.892	900.57
445.267	930.17
445.641	905.09
446.016	901.02
446.39	923.17
446.764	928.59
447.139	918.2
447.513	932.89
447.887	945.77
448.262	963.39
448.636	943.28
449.01	957.97
449.384	968.36
449.758	974.47
450.132	971.98
450.506	980.12
450.88	958.87
451.254	977.4
451.628	988.93
452.002	1004.97
452.376	1018.08
452.75	1002.71
453.123	1008.36
453.497	1061.47
453.871	1036.84
454.244	1042.94
454.618	1034.58
454.992	1045.65
455.365	1044.29
455.739	1080.68
456.112	1078.64
456.486	1082.26
456.859	1123.39
457.232	1099.43
457.606	1126.55
457.979	1083.62
458.352	1121.13
458.725	1139.66
459.099	1155.25
459.472	1152.77
459.845	1176.95
460.218	1177.17
460.591	1176.27
460.964	1207.23
461.337	1167.46
461.71	1234.57
462.083	1222.14
462.456	1219.43
462.829	1204.06
463.201	1210.39
463.574	1253.55
463.947	1256.27
464.32	1271.18
464.692	1294.23
465.065	1285.42
465.438	1306.89
465.81	1288.81
466.183	1348.92
466.555	1329.48
466.928	1324.51
467.3	1361.35
467.672	1358.41
468.045	1395.7
468.417	1373.1
468.789	1390.95
469.161	1428.01
469.534	1394.34
469.906	1451.97
470.278	1451.06
470.65	1447.9
471.022	1471.63
471.394	1506.66
471.766	1511.85
472.138	1501.01
472.51	1548.46
472.882	1541.91
473.253	1574.22
473.625	1579.42
473.997	1592.08
474.369	1597.27
474.74	1638.18
475.112	1668.46
475.484	1685.41
475.855	1729.02
476.227	1723.37
476.598	1738.51
476.97	1759.3
477.341	1802.92
477.713	1804.95
478.084	1820.32
478.455	1831.17
478.827	1864.39
479.198	1897.83
479.569	1912.07
479.94	1935.8
480.311	1978.06
480.682	1999.07
481.053	2037.49
481.424	2033.65
481.795	2032.52
482.166	2120.88
482.537	2131.27
482.908	2137.6
483.279	2204.04
483.65	2210.82
484.021	2220.76
484.391	2284.26
484.762	2311.83
485.133	2336.46
485.503	2380.76
485.874	2444.94
486.244	2458.49
486.615	2457.36
486.985	2492.62
487.356	2530.58
487.726	2561.09
488.097	2627.08
488.467	2637.25
488.837	2690.58
489.207	2713.4
489.578	2757.7
489.948	2826.39
490.318	2766.06
490.688	2843.57
491.058	2867.75
491.428	2927.63
491.798	2980.51
492.168	2990.01
492.538	3034.07
492.908	3083.79
493.278	3148.65
493.648	3116.78
494.017	3180.96
494.387	3202.43
494.757	3259.6
495.126	3246.95
495.496	3303.9
495.866	3335.08
496.235	3374.85
496.605	3435.19
496.974	3457.11
497.344	3503.44
497.713	3580.05
498.082	3563.32
498.452	3598.58
498.821	3616.88
499.19	3651.01
499.559	3647.39
499.928	3646.71
500.298	3744.11
500.667	3820.94
501.036	3735.98
501.405	3807.61
501.774	3828.4
502.143	3876.76
502.512	3898
502.88	3973.03
503.249	3931.45
503.618	4018
503.987	4048.96
504.356	4071.11
504.724	4110.2
505.093	4132.57
505.462	4135.51
505.83	4204.66
506.199	4213.48
506.567	4285.57
506.936	4267.94
507.304	4320.59
507.672	4336.41
508.041	4308.39
508.409	4412.34
508.777	4427.26
509.145	4512.9
509.514	4460.48
509.882	4547.71
510.25	4518.33
510.618	4592.68
510.986	4595.84
511.354	4671.32
511.722	4671.09
512.09	4729.17
512.458	4684.42
512.826	4792.44
513.193	4807.36
513.561	4817.98
513.929	4876.51
514.297	4910.41
514.664	4934.81
515.032	4945.66
515.4	5015.26
515.767	5056.17
516.135	5081.02
516.502	5085.77
516.869	5142.27
517.237	5170.06
517.604	5157.41
517.972	5221.13
518.339	5278.76
518.706	5278.53
519.073	5323.73
519.44	5327.8
519.808	5401.02
520.175	5417.51
520.542	5452.31
520.909	5501.8
521.276	5500.67
521.643	5542.48
522.009	5595.59
522.376	5615.02
522.743	5638.75
523.11	5721.23
523.477	5733.44
523.843	5800.55
524.21	5828.58
524.577	5898.4
524.943	5960.55
525.31	5984.73
525.676	5974.56
526.043	6059.53
526.409	6118.74
526.776	6116.7
527.142	6129.81
527.508	6131.39
527.874	6276.7
528.241	6239.41
528.607	6336.58
528.973	6363.93
529.339	6323.25
529.705	6401.67
530.071	6445.06
530.437	6448.9
530.803	6484.15
531.169	6537.94
531.535	6500.42
531.901	6575.9
532.267	6582
532.632	6663.13
532.998	6692.51
533.364	6771.38
533.73	6743.81
534.095	6758.95
534.461	6786.29
534.826	6834.65
535.192	6851.37
535.557	6968.66
535.923	6913.07
536.288	6937.7
536.653	7036.45
537.019	6936.12
537.384	7030.8
537.749	7114.64
538.114	7140.18
538.479	7117.36
538.845	7159.16
539.21	7155.09
539.575	7216.79
539.94	7238.93
540.305	7280.74
540.67	7300.85
541.034	7280.06
541.399	7328.42
541.764	7356.67
542.129	7392.6
542.494	7422.43
542.858	7488.87
543.223	7534.75
543.587	7499.04
543.952	7522.54
544.316	7570.68
544.681	7618.13
545.045	7619.49
545.41	7685.48
545.774	7671.92
546.138	7725.47
546.503	7759.37
546.867	7822.65
547.231	7928.18
547.595	7873.95
547.959	7965.02
548.324	7990.1
548.688	8024.45
549.052	8032.59
549.416	8099.25
549.779	8078.01
550.143	8146.48
550.507	8169.53
550.871	8163.43
551.235	8239.36
551.599	8332.01
551.962	8353.25
552.326	8349.19
552.689	8482.52
553.053	8479.81
553.417	8485
553.78	8624.66
554.143	8648.84
554.507	8664.21
554.87	8751.89
555.234	8801.6
555.597	8783.07
555.96	8863.3
556.323	8870.53
556.686	9013.8
557.05	9041.15
557.413	9133.8
557.776	9174.48
558.139	9267.36
558.502	9230.52
558.865	9285.89
559.228	9479.55
559.59	9487.24
559.953	9575.14
560.316	9644.29
560.679	9676.38
561.041	9800.22
561.404	9884.06
561.767	9919.77
562.129	10010.84
562.492	10102.36
562.854	10114.11
563.217	10216.03
563.579	10308.68
563.941	10421.9
564.304	10472.97
564.666	10574.67
565.028	10727.43
565.39	10679.52
565.753	10911.83
566.115	10898.72
566.477	11058.95
566.839	11214.65
567.201	11244.48
567.563	11394.3
567.925	11439.05
568.287	11581.64
568.648	11725.37
569.01	11896.89
569.372	11965.82
569.734	12122.2
570.095	12248.52
570.457	12361.06
570.819	12546.82
571.18	12675.18
571.542	12853.02
571.903	12996.52
572.265	13129.63
572.626	13267.93
572.987	13464.76
573.349	13642.38
573.71	13849.38
574.071	14030.62
574.432	14199.43
574.794	14567.1
575.155	14664.73
575.516	14735.69
575.877	15064.94
576.238	15167.31
576.599	15492.95
576.96	15765.72
577.32	15957.35
577.681	16208.19
578.042	16490.22
578.403	16763.88
578.763	17038.68
579.124	17279.35
579.485	17629.4
579.845	17906.22
580.206	18202.94
580.566	18452.2
580.927	18836.82
581.287	19173.31
581.648	19305.74
582.008	19771.94
582.368	20041.08
582.728	20382.54
583.089	20711.12
583.449	21135.29
583.809	21408.28
584.169	21926.91
584.529	22320.35
584.889	22782.25
585.249	22980.44
585.609	23371.17
585.969	23939.06
586.329	24131.82
586.688	24756.44
587.048	25073.95
587.408	25419.25
587.768	25979.01
588.127	26291.31
588.487	26681.81
588.846	27359.99
589.206	27566.99
589.565	28064.83
589.925	28641.31
590.284	28973.5
590.643	29555.86
591.003	29984.55
591.362	30464.54
591.721	30953.79
592.08	31467.9
592.44	31930.71
592.799	32334.77
593.158	32931.37
593.517	33383.78
593.876	33845.47
594.235	34266.7
594.593	34686.8
594.952	35295.6
595.311	35648.36
595.67	36187.78
596.029	36937.81
596.387	37290.8
596.746	37893.27
597.104	38080.38
597.463	38676.3
597.822	39210.52
598.18	39507.46
598.538	39952.2
598.897	40520.32
599.255	40809.12
599.613	41610.46
599.972	41853.62
600.33	42300.16
600.688	42556.65
601.046	43100.14
601.404	43715.26
601.762	43941.47
602.12	44565.64
602.478	44848.34
602.836	45194.77
603.194	45357.71
603.552	45874.75
603.91	46020.51
604.268	46547.73
604.625	46683.09
604.983	47265.9
605.341	47410.31
605.698	47847.36
606.056	48189.95
606.413	48300.91
606.771	48640.78
607.128	49040.32
607.485	48905.18
607.843	49334.1
608.2	49625.16
608.557	50076
608.914	50124.59
609.272	50493.84
609.629	50718.02
609.986	50974.51
610.343	50996.43
610.7	51407.26
611.057	51437.77
611.414	51624.21
611.771	51804.54
612.127	51938.78
612.484	52115.27
612.841	52250.41
613.198	52349.39
613.554	52494.69
613.911	52787.79
614.267	52876.83
614.624	52894.46
614.98	53028.69
615.337	53288.8
615.693	53395.91
616.05	53396.82
616.406	53702.57
616.762	53602.91
617.118	53686.07
617.475	53846.3
617.831	54004.48
618.187	54024.14
618.543	54179.17
618.899	54384.36
619.255	54387.07
619.611	54322.89
619.967	54542.32
620.323	54650.79
620.678	54587.97
621.034	54583
621.39	54631.36
621.746	54684.92
622.101	54918.58
622.457	54751.58
622.812	54886.95
623.168	54963.1
623.523	55050.33
623.879	55161.52
624.234	54991.58
624.589	55079.48
624.945	55131.01
625.3	55214.17
625.655	55220.27
626.01	55304.11
626.365	55249.2
626.72	55288.97
627.075	55215.53
627.43	55355.63
627.785	55361.74
628.14	55454.84
628.495	55481.51
628.85	55479.93
629.205	55417.55
629.559	55603.99
629.914	55482.86
630.269	55508.4
630.623	55521.05
630.978	55500.04
631.332	55523.77
631.687	55609.87
632.041	55512.92
632.396	55558.34
632.75	55472.02
633.104	55587.27
633.459	55395.63
633.813	55404
634.167	55442.64
634.521	55438.8
634.875	55511.56
635.229	55548.4
635.583	55345.69
635.937	55413.26
636.291	55337.78
636.645	55413.71
636.999	55330.1
637.352	55398.57
637.706	55244.23
638.06	55381.4
638.413	55293.49
638.767	55293.72
639.121	55380.04
639.474	55214.85
639.828	55252.36
640.181	55310.21
640.534	55303.21
640.888	55204.9
641.241	55061.41
641.594	55186.37
641.947	55275.19
642.301	55133.49
642.654	55226.37
643.007	55206.03
643.36	55244.45
643.713	55148.41
644.066	55246.26
644.419	55084.23
644.771	54868.87
645.124	54624.58
645.477	54528.54
645.83	54424.81
646.182	54409.9
646.535	54286.96
646.888	54355.44
647.24	54189.56
647.593	54440.18
647.945	54318.15
648.298	54138.27
648.65	54190.47
649.002	54143.69
649.355	54288.77
649.707	54179.85
650.059	54245.38
650.411	54647.18
650.763	54717.91
651.115	54957.68
651.467	54880.85
651.819	54890.11
652.171	54747.97
652.523	54735.76
652.875	54751.58
653.227	54718.59
653.578	54822.99
653.93	54800.17
654.282	54648.08
654.633	54692.38
654.985	54702.32
655.337	54726.05
655.688	54690.57
656.039	54773.73
656.391	54549.55
656.742	54651.02
657.094	54657.8
657.445	54816.67
657.796	54704.35
658.147	54689.89
658.498	54526.96
658.849	54781.64
659.2	54737.35
659.551	54627.07
659.902	54696.22
660.253	54633.39
660.604	54685.14
660.955	54519.05
661.306	54710.23
661.656	54525.15
662.007	54583.68
662.358	54608.54
662.708	54526.05
663.059	54585.71
663.409	54333.74
663.76	54624.81
664.11	54568.54
664.461	54622.77
664.811	54676.56
665.161	54618.48
665.511	54468.88
665.862	54522.21
666.212	54620.29
666.562	54658.25
666.912	54494.64
667.262	54470.01
667.612	54444.47
667.962	54459.84
668.312	54428.88
668.662	54628.42
669.011	54447.18
669.361	54392.95
669.711	54373.51
670.06	54340.97
670.41	54317.47
670.76	54281.54
671.109	54431.82
671.459	54260.75
671.808	54273.63
672.157	54283.8
672.507	54022.56
672.856	54188.89
673.205	54173.52
673.554	54147.76
673.904	54082
674.253	54291.26
674.602	54219.39
674.951	53724.27
675.3	53607.43
675.649	54039.06
675.998	53995.22
676.346	54041.32
676.695	54091.04
677.044	53869.35
677.393	53896.24
677.741	53947.31
678.09	53990.7
678.438	53838.16
678.787	53923.36
679.135	53923.58
679.484	53749.58
679.832	53798.39
680.181	53632.29
680.529	53727.43
680.877	53609.24
681.225	53660.76
681.573	53834.09
681.922	53477.49
682.27	53531.73
682.618	53518.17
682.966	53464.61
683.314	53480.43
683.661	53388.45
684.009	53248.57
684.357	53238.63
684.705	53116.82
685.053	53147.33
685.4	53204.28
685.748	52961.8
686.095	52998.41
686.443	52930.39
686.79	52831.63
687.138	52959.31
687.485	52873.21
687.832	52783.27
688.18	52746.44
688.527	52631.41
688.874	52527.23
689.221	52573.79
689.568	52426.67
689.915	52275.72
690.262	52313.45
690.609	52185.77
690.956	52202.05
691.303	52133.57
691.65	51986.68
691.997	51900.81
692.344	51771.55
692.69	51757.99
693.037	51790.98
693.383	51518.45
693.73	51631.21
694.077	51427.15
694.423	51442.07
694.769	51351.9
695.116	51228.06
695.462	51170.89
695.808	50972.93
696.155	51099.02
696.501	50832.59
696.847	50823.78
697.193	50521.86
697.539	50693.38
697.885	50454.52
698.231	50313.96
698.577	50235.77
698.923	50328.42
699.269	50052.05
699.614	49920.98
699.96	49802.33
700.306	49852.95
700.651	49723.24
700.997	49544.71
701.342	49436.47
701.688	49478.28
702.033	49338.62
702.379	49346.75
702.724	49217.72
703.069	49331.84
703.415	48822.25
703.76	48835.35
704.105	48860.21
704.45	48827.44
704.795	48660.67
705.14	48336.61
705.485	48389.04
705.83	48373.22
706.175	48255.48
706.52	48129.61
706.865	47973
707.209	47840.58
707.554	47720.13
707.899	47971.2
708.243	47701.82
708.588	47633.35
708.932	47350.65
709.277	47255.51
709.621	47292.12
709.966	47074.04
710.31	47082.18
710.654	46824.79
710.998	46981.39
711.342	46957.21
711.687	46818.68
712.031	46624.34
712.375	46366.72
712.719	46591.8
713.063	46586.15
713.407	46599.25
713.75	46477.9
714.094	46336.66
714.438	46072.94
714.782	46150.91
715.125	45830.46
715.469	46091.25
715.812	45913.17
716.156	45693.97
716.499	45688.54
716.843	45850.12
717.186	45550.24
717.53	45685.83
717.873	45574.42
718.216	45442.68
718.559	45390.7
718.902	45060.54
719.246	45067.77
719.589	45037.26
719.932	44937.15
720.275	44974.44
720.617	44893.31
720.96	44714.33
721.303	44773.77
721.646	44754.78
721.989	44410.61
722.331	44720.66
722.674	44599.31
723.016	44442.25
723.359	44475.47
723.701	44527.45
724.044	44179.88
724.386	44089.26
724.729	44248.13
725.071	44053.33
725.413	44137.85
725.755	44187.57
726.097	44028.02
726.439	43798.88
726.782	43764.3
727.124	43977.85
727.465	43823.73
727.807	43766.11
728.149	43616.06
728.491	43566.11
728.833	43678.2
729.175	43470.07
729.516	43468.04
729.858	43427.13
730.199	43425.55
730.541	43384.42
730.882	43339.45
731.224	43457.19
731.565	43173.58
731.906	43205.67
732.248	43312.11
732.589	42944.21
732.93	42870.77
733.271	42939.69
733.612	43002.97
733.953	42897.21
734.294	42898.34
734.635	42734.95
734.976	42850.65
735.317	42523.43
735.658	42538.12
735.999	42517.1
736.339	42565.24
736.68	42575.41
737.021	42519.36
737.361	42258.35
737.702	42454.51
738.042	42400.95
738.383	42256.32
738.723	42311.91
739.063	42148.98
739.404	42268.97
739.744	42122.54
740.084	42026.49
740.424	42133.38
740.764	41956.21
741.104	42192.14
741.444	41814.97
741.784	41776.56
742.124	41889.32
742.464	41924.12
742.804	41722.32
743.143	41683.9
743.483	41662.44
743.823	41534.3
744.162	41478.26
744.502	41595.54
744.841	41457.24
745.181	41637.35
745.52	41465.38
745.86	41366.17
746.199	41289.79
746.538	41270.81
746.877	41350.13
747.216	41287.3
747.556	41141.32
747.895	41121.43
748.234	41008.89
748.573	40915.56
748.911	40980.65
749.25	40953.53
749.589	40699.75
749.928	40720.77
750.267	40790.14
750.605	40634.89
750.944	40575.01
751.283	40540.66
751.621	40578.62
751.96	40325.52
752.298	40327.1
752.636	40318.74
752.975	40209.37
753.313	40102.48
753.651	40180.89
753.989	39946.55
754.327	39888.24
754.666	39812.31
755.004	39905.87
755.342	39782.26
755.679	39723.5
756.017	39491.42
756.355	39760.79
756.693	39337.3
757.031	39500.91
757.368	39239.9
757.706	39268.15
758.044	39069.28
758.381	39037.19
758.719	38962.85
759.056	38944.99
759.394	38844.88
