Data from orange_diffuse_book_FLMS001491_00020.txt Node
Date: Wed Feb 08 15:29:13 GMT 2017
User: dcchb
Spectrometer: FLMS00149
Trigger mode: 0
Integration Time (sec): 2.000000E-2
Scans to average: 10
Electric dark correction enabled: true
Nonlinearity correction enabled: false
Boxcar width: 0
XAxis mode: Wavelengths
Number of Pixels in Spectrum: 2048
>>>>>Begin Spectral Data<<<<<
341.393	-9.15
341.776	-9.15
342.16	-9.15
342.543	-60.9
342.927	-59.77
343.31	-99.09
343.693	-76.95
344.077	-61.81
344.46	-65.42
344.843	-48.7
345.226	-54.57
345.61	-31.52
345.993	-3.73
346.376	8.7
346.759	15.25
347.142	38.08
347.525	36.72
347.908	68.13
348.291	92.09
348.674	89.38
349.057	93.44
349.44	129.6
349.823	159.2
350.206	198.3
350.588	196.04
350.971	248.69
351.354	236.26
351.737	257.51
352.119	264.96
352.502	267.22
352.884	296.15
353.267	313.78
353.65	292.31
354.032	297.73
354.414	311.07
354.797	323.04
355.179	349.03
355.562	349.93
355.944	355.58
356.326	346.54
356.709	341.35
357.091	349.93
357.473	375.92
357.855	369.59
358.238	358.97
358.62	370.95
359.002	371.85
359.384	375.47
359.766	361.01
360.148	362.36
360.53	362.82
360.912	358.07
361.294	355.36
361.676	343.38
362.057	363.04
362.439	342.7
362.821	338.41
363.203	342.02
363.584	336.83
363.966	341.57
364.348	342.02
364.729	337.28
365.111	342.02
365.493	357.62
365.874	328.47
366.256	313.78
366.637	328.47
367.019	347
367.4	341.57
367.781	353.1
368.163	345.19
368.544	325.75
368.925	329.82
369.306	331.86
369.688	339.09
370.069	328.47
370.45	324.85
370.831	310.39
371.212	359.2
371.593	348.13
371.974	338.41
372.355	315.36
372.736	345.64
373.117	353.32
373.498	336.6
373.879	325.08
374.26	333.66
374.641	337.73
375.021	335.92
375.402	330.73
375.783	361.69
376.163	365.75
376.544	347
376.925	335.25
377.305	343.61
377.686	325.08
378.066	332.31
378.447	347.45
378.827	348.13
379.208	347.22
379.588	358.3
379.968	346.32
380.349	329.82
380.729	348.8
381.109	356.71
381.489	350.61
381.87	348.8
382.25	353.55
382.63	364.85
383.01	356.26
383.39	377.73
383.77	358.07
384.15	358.3
384.53	361.01
384.91	370.05
385.29	382.93
385.67	389.48
386.049	371.18
386.429	372.53
386.809	372.98
387.189	373.66
387.568	404.4
387.948	364.62
388.328	368.24
388.707	386.54
389.087	366.88
389.466	363.27
389.846	352.42
390.225	385.41
390.605	380.89
390.984	370.72
391.363	391.52
391.743	364.85
392.122	392.65
392.501	365.75
392.881	384.96
393.26	389.71
393.639	383.83
394.018	384.51
394.397	385.19
394.776	398.97
395.155	401.46
395.534	398.29
395.913	394.68
396.292	407.33
396.671	393.55
397.05	404.62
397.429	400.78
397.808	424.73
398.186	408.69
398.565	420.67
398.944	412.98
399.323	410.95
399.701	390.61
400.08	415.02
400.458	401.46
400.837	408.01
401.215	433.1
401.594	439.88
401.972	407.11
402.351	412.98
402.729	420.67
403.107	433.1
403.486	420.89
403.864	439.65
404.242	454.34
404.62	428.8
404.999	432.64
405.377	426.99
405.755	462.02
406.133	465.86
406.511	457.73
406.889	447.78
407.267	460.44
407.645	449.14
408.023	451.17
408.401	451.17
408.779	469.93
409.156	474.22
409.534	440.55
409.912	468.12
410.29	478.07
410.667	472.87
411.045	487.78
411.422	487.33
411.8	514
412.178	482.59
412.555	490.27
412.933	480.1
413.31	518.52
413.687	515.81
414.065	468.35
414.442	497.28
414.819	526.43
415.197	512.64
415.574	507.44
415.951	525.07
416.328	502.25
416.705	512.64
417.082	530.04
417.46	539.99
417.837	528.01
418.214	530.49
418.591	532.98
418.967	568.69
419.344	538.4
419.721	549.7
420.098	562.58
420.475	552.41
420.852	551.06
421.228	554.9
421.605	569.14
421.982	577.72
422.358	582.92
422.735	568.46
423.111	561.91
423.488	582.02
423.864	581.34
424.241	624.05
424.617	588.8
424.994	589.93
425.37	593.77
425.746	609.36
426.123	622.7
426.499	607.33
426.875	625.63
427.251	609.59
427.627	603.49
428.003	625.86
428.379	616.14
428.756	654.79
429.132	639.42
429.507	674.22
429.883	666.08
430.259	658.85
430.635	673.77
431.011	678.97
431.387	673.77
431.763	672.41
432.138	695.24
432.514	693.88
432.89	696.37
433.265	707.21
433.641	738.85
434.016	720.09
434.392	733.2
434.767	740.66
435.143	728
435.518	745.63
435.894	747.21
436.269	740.88
436.644	743.6
437.02	760.32
437.395	764.61
437.77	767.1
438.145	768.23
438.52	779.53
438.895	774.56
439.271	763.03
439.646	807.1
440.021	798.06
440.395	809.36
440.77	777.49
441.145	807.55
441.52	822.24
441.895	829.47
442.27	858.4
442.645	818.62
443.019	818.85
443.394	831.28
443.769	852.07
444.143	813.2
444.518	835.8
444.892	865.17
445.267	865.85
445.641	856.14
446.016	874.44
446.39	855.23
446.764	874.89
447.139	871.95
447.513	875.12
447.887	873.54
448.262	895.68
448.636	874.21
449.01	903.14
449.384	889.36
449.758	901.78
450.132	910.15
450.506	914.89
450.88	905.63
451.254	928
451.628	940.88
452.002	942.24
452.376	934.78
452.75	956.25
453.123	954.44
453.497	955.57
453.871	949.92
454.244	983.59
454.618	1003.02
454.992	981.78
455.365	979.97
455.739	1027.2
456.112	1043.93
456.486	1016.58
456.859	1010.03
457.232	1039.63
457.606	1043.93
457.979	1030.37
458.352	1063.14
458.725	1077.15
459.099	1084.38
459.472	1092.51
459.845	1106.52
460.218	1103.59
460.591	1090.48
460.964	1107.65
461.337	1150.14
461.71	1136.58
462.083	1154.66
462.456	1133.19
462.829	1146.98
463.201	1182.45
463.574	1163.25
463.947	1184.71
464.32	1201.44
464.692	1206.18
465.065	1186.75
465.438	1227.65
465.81	1226.75
466.183	1229.69
466.555	1249.57
466.928	1244.83
467.3	1265.62
467.672	1279.85
468.045	1299.29
468.417	1329.8
468.789	1314.88
469.161	1335.22
469.534	1323.24
469.906	1378.38
470.278	1367.99
470.65	1366.4
471.022	1420.87
471.394	1397.59
471.766	1440.53
472.138	1436.01
472.51	1445.72
472.882	1477.81
473.253	1502.45
473.625	1517.14
473.997	1505.16
474.369	1522.11
474.74	1558.49
475.112	1561.43
475.484	1602.78
475.855	1616.12
476.227	1614.08
476.598	1654.53
476.97	1666.96
477.341	1680.97
477.713	1718.49
478.084	1704.02
478.455	1739.73
478.827	1772.27
479.198	1814.08
479.569	1836.45
479.94	1876.9
480.311	1889.78
480.682	1908.31
481.053	1933.62
481.424	1961.42
481.795	1978.59
482.166	2031.7
482.537	2023.11
482.908	2080.51
483.279	2100.4
483.65	2138.81
484.021	2159.15
484.391	2207.51
484.762	2226.5
485.133	2226.95
485.503	2268.75
485.874	2320.5
486.244	2305.82
486.615	2362.31
486.985	2379.49
487.356	2456.09
487.726	2452.7
488.097	2492.25
488.467	2518.46
488.837	2572.93
489.207	2597.11
489.578	2681.62
489.948	2690.66
490.318	2695.86
490.688	2713.71
491.058	2764.79
491.428	2801.17
491.798	2824.22
492.168	2864.44
492.538	2911.9
492.908	2918.68
493.278	2958.91
493.648	3012.46
494.017	3036.19
494.387	3106.02
494.757	3115.29
495.126	3138.56
495.496	3176.07
495.866	3182.63
496.235	3248.39
496.605	3290.2
496.974	3318.67
497.344	3354.83
497.713	3357.99
498.082	3393.02
498.452	3428.72
498.821	3499
499.19	3517.08
499.559	3482.28
499.928	3563.41
500.298	3586.46
500.667	3652.67
501.036	3583.97
501.405	3655.38
501.774	3682.73
502.143	3721.82
502.512	3753.69
502.88	3760.92
503.249	3835.04
503.618	3852.44
503.987	3839.79
504.356	3857.86
504.724	3893.34
505.093	3944.19
505.462	3974.7
505.83	3956.39
506.199	4029.84
506.567	4076.39
506.936	4063.96
507.304	4135.15
507.672	4155.03
508.041	4173.11
508.409	4202.49
508.777	4227.57
509.145	4218.31
509.514	4251.75
509.882	4319.1
510.25	4332.88
510.618	4338.08
510.986	4429.6
511.354	4473.22
511.722	4492.65
512.09	4512.54
512.458	4494.46
512.826	4538.75
513.193	4550.28
513.561	4608.81
513.929	4648.13
514.297	4746.2
514.664	4715.7
515.032	4774.9
515.4	4786.2
515.767	4819.2
516.135	4843.83
516.502	4809.7
516.869	4895.8
517.237	4924.05
517.604	4956.14
517.972	5016.48
518.339	5068.91
518.706	4997.72
519.073	5092.86
519.44	5105.06
519.808	5135.12
520.175	5155.23
520.542	5225.96
520.909	5247.66
521.276	5293.99
521.643	5322.23
522.009	5351.16
522.376	5397.94
522.743	5375.34
523.11	5496.92
523.477	5500.08
523.843	5507.99
524.21	5588.21
524.577	5633.64
524.943	5614.88
525.31	5658.27
525.676	5728.55
526.043	5750.7
526.409	5758.61
526.776	5885.83
527.142	5866.4
527.508	5914.76
527.874	5978.49
528.241	5990.24
528.607	5940.3
528.973	6079.28
529.339	6058.94
529.705	6119.05
530.071	6211.7
530.437	6214.86
530.803	6205.15
531.169	6227.75
531.535	6252.38
531.901	6264.36
532.267	6376.67
532.632	6329.44
532.998	6347.52
533.364	6370.79
533.73	6425.03
534.095	6433.39
534.461	6506.38
534.826	6517.23
535.192	6569.21
535.557	6620.96
535.923	6609.43
536.288	6604.91
536.653	6691.91
537.019	6650.11
537.384	6699.82
537.749	6707.28
538.114	6763.55
538.479	6721.52
538.845	6788.18
539.21	6802.19
539.575	6852.14
539.94	6909.54
540.305	6888.52
540.67	6946.37
541.034	6970.55
541.399	6974.62
541.764	6995.64
542.129	7074.5
542.494	7121.96
542.858	7064.56
543.223	7119.93
543.587	7202.64
543.952	7209.64
544.316	7218.23
544.681	7282.41
545.045	7276.08
545.41	7352.46
545.774	7367.38
546.138	7372.35
546.503	7433.82
546.867	7394.49
547.231	7530.31
547.595	7575.73
547.959	7552.46
548.324	7583.42
548.688	7606.69
549.052	7676.07
549.416	7697.99
549.779	7672
550.143	7737.99
550.507	7828.83
550.871	7893.69
551.235	7873.35
551.599	7914.48
551.962	8016.4
552.326	8008.49
552.689	8136.4
553.053	8019.56
553.417	8098.66
553.78	8271.31
554.143	8239.67
554.507	8269.5
554.87	8319.67
555.234	8433.79
555.597	8418.65
555.96	8468.14
556.323	8562.15
556.686	8614.58
557.05	8676.04
557.413	8759.2
557.776	8730.73
558.139	8889.14
558.502	8896.6
558.865	8984.28
559.228	8951.29
559.59	9046.2
559.953	9146.99
560.316	9221.79
560.679	9293.65
561.041	9384.5
561.404	9424.5
561.767	9521.67
562.129	9569.8
562.492	9651.16
562.854	9770.03
563.217	9800.53
563.579	9920.53
563.941	9919.85
564.304	10060.19
564.666	10202.33
565.028	10240.52
565.39	10307.86
565.753	10438.03
566.115	10461.76
566.477	10667.63
566.839	10687.97
567.201	10859.94
567.563	10955.08
567.925	11057.22
568.287	11133.38
568.648	11206.6
569.01	11438.46
569.372	11527.95
569.734	11645
570.095	11770.88
570.457	11958.22
570.819	12081.6
571.18	12097.42
571.542	12312.78
571.903	12360.92
572.265	12675.94
572.626	12784.41
572.987	12925.42
573.349	13123.16
573.71	13346.65
574.071	13512.98
574.432	13703.93
574.794	13943.93
575.155	14137.37
575.516	14248.55
575.877	14463.24
576.238	14721.31
576.599	14889.66
576.96	15078.13
577.32	15340.05
577.681	15598.57
578.042	15828.85
578.403	16143.19
578.763	16305
579.124	16676.28
579.485	16997.18
579.845	17261.81
580.206	17480.56
580.566	17708.12
580.927	18051.84
581.287	18472.85
581.648	18550.81
582.008	19037.13
582.368	19349.89
582.728	19696.32
583.089	19901.96
583.449	20286.81
583.809	20674.15
584.169	21090.41
584.529	21343.73
584.889	21874.34
585.249	22081.11
585.609	22456.47
585.969	23004.03
586.329	23272.5
586.688	23781.86
587.048	24086.94
587.408	24418
587.768	24865.67
588.127	25342.27
588.487	25605.54
588.846	26159.2
589.206	26600.54
589.565	26871.27
589.925	27635.77
590.284	27808.65
590.643	28372.25
591.003	28840.94
591.362	29335.16
591.721	29709.16
592.08	30198.64
592.44	30782.13
592.799	31225.96
593.158	31637.93
593.517	32045.15
593.876	32498.24
594.235	33030.88
594.593	33455.96
594.952	33860.24
595.311	34313.34
595.67	34853.66
596.029	35458.62
596.387	35922.33
596.746	36478.48
597.104	36746.04
597.463	37076.65
597.822	37864.65
598.18	38023.29
598.538	38447.69
598.897	39125.41
599.255	39119.99
599.613	40182.33
599.972	40343.23
600.33	40789.1
600.688	41077.68
601.046	41611.67
601.404	42065
601.762	42348.6
602.12	43106.55
602.478	43272.2
602.836	43654.56
603.194	43888.22
603.552	44221.32
603.91	44461.77
604.268	45073.96
604.625	45214.52
604.983	45752.13
605.341	45792.58
605.698	46431.66
606.056	46808.15
606.413	46931.76
606.771	47254.01
607.128	47569.48
607.485	47609.03
607.843	47875.46
608.2	48358.39
608.557	48771.03
608.914	48854.42
609.272	49161.08
609.629	49379.38
609.986	49593.39
610.343	49740.95
610.7	50099.13
611.057	50228.4
611.414	50387.71
611.771	50599.69
612.127	50855.27
612.484	50953.8
612.841	51166.9
613.198	51111.76
613.554	51307.46
613.911	51625.42
614.267	51685.99
614.624	51826.55
614.98	51945.41
615.337	52174.11
615.693	52358.74
616.05	52326.42
616.406	52558.51
616.762	52581.1
617.118	52656.13
617.475	52753.3
617.831	52911.49
618.187	52977.48
618.543	53003.47
618.899	53298.82
619.255	53350.35
619.611	53288.66
619.967	53460.63
620.323	53581.53
620.678	53545.6
621.034	53563.45
621.39	53638.02
621.746	53699.04
622.101	53926.38
622.457	53753.73
622.812	53820.39
623.168	54017.9
623.523	54001.4
623.879	54120.95
624.234	54025.36
624.589	54104.68
624.945	54150.1
625.3	54205.92
625.655	54236.65
626.01	54277.33
626.365	54331.79
626.72	54298.57
627.075	54297.67
627.43	54397.55
627.785	54435.52
628.14	54422.18
628.495	54566.81
628.85	54480.49
629.205	54438.68
629.559	54612.91
629.914	54515.06
630.269	54588.73
630.623	54498.57
630.978	54457.44
631.332	54565.23
631.687	54670.54
632.041	54526.59
632.396	54665.34
632.75	54461.96
633.104	54601.62
633.459	54463.09
633.813	54532.01
634.167	54502.63
634.521	54508.28
634.875	54558.9
635.229	54467.83
635.583	54360.49
635.937	54414.05
636.291	54450.66
636.645	54382.41
636.999	54339.02
637.352	54421.96
637.706	54307.84
638.06	54397.55
638.413	54339.25
638.767	54217.9
639.121	54373.15
639.474	54137.9
639.828	54240.27
640.181	54239.14
640.534	54312.36
640.888	54176.09
641.241	54090.89
641.594	54150.33
641.947	54235.75
642.301	54204.11
642.654	54186.71
643.007	54220.38
643.36	54149.42
643.713	54113.94
644.066	54285.01
644.419	53977.9
644.771	53917.57
645.124	53549.44
645.477	53555.09
645.83	53423.79
646.182	53230.13
646.535	53186.74
646.888	53363.91
647.24	53168.88
647.593	53454.53
647.945	53247.07
648.298	53145.61
648.65	53134.76
649.002	53130.24
649.355	53207.75
649.707	53108.1
650.059	53277.81
650.411	53636.67
650.763	53593.96
651.115	53939.26
651.467	53810.9
651.819	53810.45
652.171	53745.59
652.523	53758.7
652.875	53734.29
653.227	53605.03
653.578	53820.62
653.93	53788.08
654.282	53593.96
654.633	53541.3
654.985	53679.61
655.337	53709.44
655.688	53606.39
656.039	53693.62
656.391	53449.56
656.742	53607.74
657.094	53668.31
657.445	53721.86
657.796	53668.76
658.147	53547.41
658.498	53588.08
658.849	53718.02
659.2	53586.05
659.551	53494.53
659.902	53622.21
660.253	53651.58
660.604	53633.51
660.955	53468.31
661.306	53558.7
661.656	53477.8
662.007	53558.03
662.358	53484.13
662.708	53567.74
663.059	53462.66
663.409	53353.51
663.76	53622.88
664.11	53543.79
664.461	53538.37
664.811	53490.46
665.161	53534.98
665.511	53481.87
665.862	53514.64
666.212	53517.58
666.562	53548.31
666.912	53442.78
667.262	53359.84
667.612	53433.96
667.962	53456.11
668.312	53327.98
668.662	53503.79
669.011	53446.39
669.361	53398.93
669.711	53382.66
670.06	53291.59
670.41	53259.96
670.76	53240.07
671.109	53307.41
671.459	53265.38
671.808	53234.42
672.157	53188.09
672.507	53038.94
672.856	53031.49
673.205	53144.7
673.554	53146.74
673.904	53072.16
674.253	53232.84
674.602	53136.12
674.951	52549.47
675.3	52470.37
675.649	53022.45
675.998	52978.16
676.346	53002.56
676.695	53082.56
677.044	52797.14
677.393	52880.76
677.741	52957.36
678.09	52902.68
678.438	52789.69
678.787	52864.94
679.135	52857.71
679.484	52573.19
679.832	52720.76
680.181	52571.16
680.529	52690.93
680.877	52556.7
681.225	52592.18
681.573	52747.88
681.922	52468.11
682.27	52344.95
682.618	52398.28
682.966	52321.22
683.314	52394.22
683.661	52163.71
684.009	52093.66
684.357	52093.43
684.705	52064.73
685.053	52142.92
685.4	52045.98
685.748	51904.74
686.095	51842.82
686.443	51757.85
686.79	51725.76
687.138	51817.28
687.485	51719.21
687.832	51542.03
688.18	51636.27
688.527	51463.39
688.874	51436.05
689.221	51286.67
689.568	51293.91
689.915	51142.5
690.262	51200.57
690.609	51051.2
690.956	51083.74
691.303	50960.35
691.65	50837.65
691.997	50787.48
692.344	50563.53
692.69	50548.61
693.037	50612.79
693.383	50267.04
693.73	50353.82
694.077	50144.33
694.423	50294.61
694.769	50111.79
695.116	50082.86
695.462	49798.13
695.808	49738.47
696.155	49735.08
696.501	49624.12
696.847	49536.44
697.193	49289.89
697.539	49486.27
697.885	49227.75
698.231	49049.44
698.577	49046.28
698.923	48974.64
699.269	48751.83
699.614	48611.26
699.96	48661.66
700.306	48603.13
700.651	48342.8
700.997	48319.07
701.342	48119.3
701.688	48232.07
702.033	48061.9
702.379	48009.7
702.724	47877.5
703.069	47922.02
703.415	47433.67
703.76	47467.34
704.105	47508.24
704.45	47261.02
704.795	47282.26
705.14	47097.86
705.485	47110.06
705.83	46865.1
706.175	46912.78
706.52	46832.1
706.865	46736.96
707.209	46624.42
707.554	46416.97
707.899	46460.13
708.243	46286.58
708.588	46169.52
708.932	45837.1
709.277	45938.11
709.621	45985.12
709.966	45653.15
710.31	45733.15
710.654	45536.09
710.998	45516.66
711.342	45424.91
711.687	45343.1
712.031	45257.45
712.375	45025.37
712.719	45071.24
713.063	45103.33
713.407	45231.24
713.75	45011.36
714.094	44936.11
714.438	44619.96
714.782	44824.02
715.125	44510.13
715.469	44643.01
715.812	44445.95
716.156	44372.28
716.499	44236.69
716.843	44287.99
717.186	44046.19
717.53	44226.52
717.873	44176.58
718.216	44081.21
718.559	43879.41
718.902	43737.04
719.246	43848.23
719.589	43585.41
719.932	43589.7
720.275	43636.93
720.617	43564.84
720.96	43507.67
721.303	43371.63
721.646	43368.69
721.989	43150.16
722.331	43260.9
722.674	43142.93
723.016	43114.23
723.359	42999.21
723.701	43078.08
724.044	42893.22
724.386	42754.24
724.729	42835.14
725.071	42809.83
725.413	42705.43
725.755	42763.73
726.097	42421.37
726.439	42377.76
726.782	42487.58
727.124	42576.17
727.465	42315.16
727.807	42364.65
728.149	42198.78
728.491	42333.46
728.833	42127.59
729.175	42138.89
729.516	42051.21
729.858	41974.38
730.199	41982.74
730.541	41932.57
730.882	41906.58
731.224	42014.83
731.565	41707.72
731.906	41714.04
732.248	41754.04
732.589	41677.66
732.93	41519.7
733.271	41434.73
733.612	41625.23
733.953	41540.49
734.294	41442.41
734.635	41285.81
734.976	41371.68
735.317	41308.18
735.658	41317.22
735.999	41246.49
736.339	41267.28
736.68	41119.48
737.021	41016.89
737.361	40904.12
737.702	41091.91
738.042	40972.59
738.383	40867.96
738.723	40888.3
739.063	40921.97
739.404	40872.03
739.744	40754.97
740.084	40543.23
740.424	40684.47
740.764	40507.52
741.104	40686.73
741.444	40487.41
741.784	40336
742.124	40593.17
742.464	40526.96
742.804	40412.84
743.143	40308.66
743.483	40116.8
743.823	39977.37
744.162	40093.97
744.502	40103.24
744.841	40025.28
745.181	40226.63
745.52	40036.35
745.86	40075.22
746.199	39881.1
746.538	39909.8
746.877	39854.21
747.216	39948.22
747.556	39843.81
747.895	39780.54
748.234	39588.68
748.573	39571.95
748.911	39570.37
749.25	39516.81
749.589	39336.25
749.928	39297.61
750.267	39480.88
750.605	39369.02
750.944	39275.01
751.283	39127.22
751.621	39237.73
751.96	38987.79
752.298	39153.21
752.636	39058.07
752.975	38814.23
753.313	38715.48
753.651	38819.43
753.989	38567.01
754.327	38655.14
754.666	38428.03
755.004	38531.76
755.342	38487.91
755.679	38467.8
756.017	38302.83
756.355	38283.17
756.693	38080.69
757.031	38165.89
757.368	37883.86
757.706	37933.13
758.044	37768.61
758.381	37793.7
758.719	37685.45
759.056	37622.63
759.394	37536.3
759.731	37326.14
