Data from orange_diffuse_book_FLMS001491_00003.txt Node
Date: Wed Feb 08 15:29:02 GMT 2017
User: dcchb
Spectrometer: FLMS00149
Trigger mode: 0
Integration Time (sec): 2.000000E-2
Scans to average: 10
Electric dark correction enabled: true
Nonlinearity correction enabled: false
Boxcar width: 0
XAxis mode: Wavelengths
Number of Pixels in Spectrum: 2048
>>>>>Begin Spectral Data<<<<<
341.393	-12.67
341.776	-12.67
342.16	-12.67
342.543	-58.09
342.927	-71.65
343.31	-66.91
343.693	-66.91
344.077	-73.23
344.46	-41.59
344.843	-54.02
345.226	-30.97
345.61	-27.58
345.993	-19.22
346.376	-12.67
346.759	-13.35
347.142	18.74
347.525	57.39
347.908	49.93
348.291	86.31
348.674	94.45
349.057	99.64
349.44	133.09
349.823	146.87
350.206	181.22
350.588	204.5
350.971	218.96
351.354	235.01
351.737	245.4
352.119	268.68
352.502	277.72
352.884	279.3
353.267	277.72
353.65	290.83
354.032	316.36
354.414	326.3
354.797	314.78
355.179	334.21
355.562	319.98
355.944	356.59
356.326	349.36
356.709	368.56
357.091	362.46
357.473	335.8
357.855	362.24
358.238	344.38
358.62	373.99
359.002	346.64
359.384	374.44
359.766	348.9
360.148	342.35
360.53	343.93
360.912	380.31
361.294	343.93
361.676	337.15
362.057	351.62
362.439	360.2
362.821	336.02
363.203	327.66
363.584	359.52
363.966	313.65
364.348	326.53
364.729	355
365.111	328.34
365.493	321.79
365.874	328.56
366.256	351.16
366.637	333.99
367.019	334.21
367.4	326.53
367.781	315.23
368.163	307.1
368.544	313.42
368.925	307.1
369.306	342.8
369.688	315.23
370.069	327.66
370.45	310.26
370.831	315.46
371.212	331.5
371.593	329.92
371.974	342.35
372.355	317.04
372.736	337.38
373.117	325.4
373.498	303.48
373.879	330.15
374.26	332.41
374.641	298.96
375.021	340.77
375.402	337.38
375.783	354.55
376.163	350.49
376.544	362.91
376.925	351.62
377.305	350.71
377.686	329.02
378.066	328.11
378.447	348.23
378.827	324.95
379.208	347.32
379.588	336.02
379.968	349.58
380.349	345.97
380.729	351.16
381.109	356.81
381.489	341.45
381.87	353.42
382.25	338.06
382.63	346.87
383.01	361.56
383.39	362.24
383.77	355.68
384.15	364.27
384.53	358.62
384.91	340.09
385.29	365.85
385.67	378.06
386.049	371.5
386.429	362.91
386.809	365.85
387.189	363.82
387.568	357.72
387.948	371.95
388.328	379.86
388.707	357.04
389.087	370.82
389.466	366.53
389.846	374.21
390.225	368.79
390.605	404.27
390.984	389.13
391.363	389.58
391.743	393.42
392.122	390.71
392.501	395.91
392.881	400.88
393.26	387.09
393.639	404.27
394.018	401.33
394.397	380.77
394.776	388.9
395.155	396.36
395.534	420.77
395.913	420.09
396.292	420.54
396.671	400.2
397.05	416.92
397.429	414.21
397.808	402.46
398.186	424.38
398.565	395.68
398.944	426.42
399.323	415.79
399.701	418.96
400.08	416.25
400.458	420.09
400.837	425.74
401.215	418.73
401.594	423.48
401.972	438.17
402.351	429.81
402.729	448.79
403.107	445.17
403.486	459.18
403.864	443.59
404.242	437.04
404.62	446.3
404.999	461.22
405.377	443.82
405.755	450.14
406.133	457.37
406.511	453.99
406.889	451.5
407.267	448.34
407.645	472.29
408.023	459.41
408.401	461.22
408.779	479.3
409.156	480.88
409.534	455.79
409.912	488.79
410.29	487.43
410.667	499.18
411.045	488.56
411.422	493.31
411.8	494.89
412.178	508.67
412.555	514.32
412.933	497.83
413.31	509.35
413.687	526.98
414.065	528.11
414.442	513.64
414.819	536.24
415.197	512.97
415.574	521.1
415.951	541.21
416.328	557.49
416.705	525.85
417.082	547.09
417.46	527.2
417.837	557.71
418.214	558.62
418.591	556.58
418.967	560.88
419.344	564.72
419.721	560.88
420.098	573.76
420.475	573.76
420.852	576.47
421.228	562.46
421.605	581.89
421.982	559.07
422.358	604.72
422.735	600.87
423.111	587.77
423.488	608.11
423.864	599.97
424.241	617.82
424.617	621.21
424.994	609.91
425.37	593.42
425.746	631.83
426.123	635.22
426.499	638.39
426.875	638.16
427.251	617.37
427.627	655.11
428.003	656.01
428.379	667.31
428.756	676.13
429.132	652.85
429.507	682
429.883	698.72
430.259	692.17
430.635	675.9
431.011	689.69
431.387	702.57
431.763	731.49
432.138	708.22
432.514	732.85
432.89	711.38
433.265	754.77
433.641	771.49
434.016	745.5
434.392	763.36
434.767	754.54
435.143	747.99
435.518	768.1
435.894	759.29
436.269	792.06
436.644	803.81
437.02	810.59
437.395	798.16
437.77	814.2
438.145	833.86
438.52	803.58
438.895	837.25
439.271	828.89
439.646	838.83
440.021	842
440.395	852.84
440.77	841.55
441.145	850.36
441.52	862.79
441.895	894.2
442.27	865.73
442.645	860.53
443.019	892.39
443.394	904.14
443.769	877.02
444.143	892.39
444.518	884.71
444.892	906.18
445.267	905.05
445.641	910.47
446.016	917.02
446.39	933.52
446.764	936.01
447.139	918.38
447.513	922
447.887	934.65
448.262	926.74
448.636	924.26
449.01	949.11
449.384	942.11
449.758	980.3
450.132	977.36
450.506	987.08
450.88	964.48
451.254	983.01
451.628	1016
452.002	1005.38
452.376	1002.45
452.75	995.67
453.123	1014.87
453.497	1042.22
453.871	1024.14
454.244	1057.13
454.618	1052.16
454.992	1052.84
455.365	1063.46
455.739	1086.74
456.112	1097.36
456.486	1105.72
456.859	1077.02
457.232	1126.74
457.606	1152.95
457.979	1130.35
458.352	1136
458.725	1136.45
459.099	1144.36
459.472	1166.28
459.845	1194.08
460.218	1172.61
460.591	1192.72
460.964	1200.86
461.337	1233.4
461.71	1237.92
462.083	1271.82
462.456	1244.02
462.829	1225.72
463.201	1264.36
463.574	1267.75
463.947	1265.26
464.32	1321.31
464.692	1316.34
465.065	1335.77
465.438	1331.93
465.81	1352.94
466.183	1379.84
466.555	1372.83
466.928	1384.58
467.3	1377.58
467.672	1402.43
468.045	1455.54
468.417	1431.59
468.789	1412.15
469.161	1441.76
469.534	1448.76
469.906	1460.29
470.278	1466.16
470.65	1510.68
471.022	1525.82
471.394	1554.97
471.766	1583
472.138	1535.54
472.51	1589.1
472.882	1622.32
473.253	1622.54
473.625	1648.08
473.997	1663.67
474.369	1678.81
474.74	1686.5
475.112	1730.56
475.484	1732.37
475.855	1770.56
476.227	1752.26
476.598	1805.81
476.97	1824.8
477.341	1885.81
477.713	1866.15
478.084	1888.98
478.455	1913.61
478.827	1968.3
479.198	2006.71
479.569	2007.39
479.94	2027.05
480.311	2062.53
480.682	2106.82
481.053	2169.42
481.424	2156.09
481.795	2213.04
482.166	2206.71
482.537	2271.79
482.908	2286.48
483.279	2291.9
483.65	2373.03
484.021	2395.4
484.391	2450.54
484.762	2466.14
485.133	2446.48
485.503	2486.47
485.874	2589.52
486.244	2560.82
486.615	2632.91
486.985	2643.53
487.356	2682.63
487.726	2726.02
488.097	2808.05
488.467	2807.82
488.837	2849.18
489.207	2894.37
489.578	2946.35
489.948	2955.39
490.318	3015.27
490.688	3009.17
491.058	3092.56
491.428	3134.14
491.798	3154.71
492.168	3238.77
492.538	3226.57
492.908	3303.85
493.278	3351.31
493.648	3367.81
494.017	3383.85
494.387	3448.93
494.757	3457.07
495.126	3516.5
495.496	3507.92
495.866	3535.26
496.235	3622.94
496.605	3656.84
496.974	3638.53
497.344	3730.51
497.713	3743.84
498.082	3791.52
498.452	3784.97
498.821	3811.86
499.19	3822.03
499.559	3908.13
499.928	3924.85
500.298	3927.79
500.667	3982.48
501.036	4011.18
501.405	4073.55
501.774	4064.29
502.143	4111.97
502.512	4158.52
502.88	4174.57
503.249	4222.93
503.618	4228.8
503.987	4278.29
504.356	4329.14
504.724	4315.58
505.093	4388.8
505.462	4352.41
505.83	4392.86
506.199	4448.46
506.567	4522.58
506.936	4496.82
507.304	4552.41
507.672	4600.77
508.041	4630.37
508.409	4642.12
508.777	4675.8
509.145	4755.57
509.514	4771.61
509.882	4785.85
510.25	4792.63
510.618	4857.71
510.986	4861.33
511.354	4904.04
511.722	4990.82
512.09	4973.64
512.458	4953.08
512.826	5035.79
513.193	5097.48
513.561	5152.17
513.929	5126.18
514.297	5179.51
514.664	5252.96
515.032	5263.58
515.4	5260.86
515.767	5353.97
516.135	5362.33
516.502	5327.98
516.869	5399.17
517.237	5452.5
517.604	5458.6
517.972	5514.64
518.339	5550.12
518.706	5603.68
519.073	5637.35
519.44	5616.79
519.808	5749.67
520.175	5730.23
520.542	5765.48
520.909	5816.56
521.276	5873.28
521.643	5856.78
522.009	5936.1
522.376	6016.32
522.743	6006.61
523.11	6077.11
523.477	6133.61
523.843	6133.84
524.21	6233.72
524.577	6284.34
524.943	6302.65
525.31	6324.11
525.676	6356.43
526.043	6362.98
526.409	6502.41
526.776	6513.26
527.142	6551
527.508	6602.52
527.874	6655.18
528.241	6654.5
528.607	6698.57
528.973	6746.02
529.339	6761.16
529.705	6848.17
530.071	6926.58
530.437	6840.71
530.803	6903.53
531.169	6958.9
531.535	6984.43
531.901	7015.17
532.267	7008.84
532.632	7130.42
532.998	7131.32
533.364	7170.42
533.73	7198.67
534.095	7247.03
534.461	7289.51
534.826	7289.29
535.192	7355.72
535.557	7336.97
535.923	7355.72
536.288	7402.73
536.653	7482.05
537.019	7456.96
537.384	7535.61
537.749	7499
538.114	7521.37
538.479	7584.42
538.845	7648.37
539.21	7562.05
539.575	7641.82
539.94	7677.07
540.305	7738.31
540.67	7784.19
541.034	7787.35
541.399	7806.56
541.764	7895.37
542.129	7875.03
542.494	7910.96
542.858	8011.3
543.223	8032.54
543.587	8064.41
543.952	8077.97
544.316	8091.98
544.681	8102.37
545.045	8217.17
545.41	8199.09
545.774	8248.58
546.138	8272.99
546.503	8311.63
546.867	8306.89
547.231	8396.6
547.595	8441.35
547.959	8449.71
548.324	8463.94
548.688	8521.8
549.052	8535.81
549.416	8580.55
549.779	8571.51
550.143	8709.36
550.507	8758.17
550.871	8785.97
551.235	8756.59
551.599	8863.71
551.962	8914.33
552.326	8954.1
552.689	9003.14
553.053	8965.63
553.417	8979.64
553.78	9105.06
554.143	9139.86
554.507	9177.15
554.87	9246.75
555.234	9283.58
555.597	9300.08
555.96	9407.2
556.323	9497.59
556.686	9571.71
557.05	9575.55
557.413	9667.53
557.776	9654.42
558.139	9730.35
558.502	9788.66
558.865	9826.85
559.228	9914.98
559.59	9984.13
559.953	10060.74
560.316	10119.49
560.679	10130.57
561.041	10222.32
561.404	10324.46
561.767	10487.17
562.129	10445.59
562.492	10514.96
562.854	10663.89
563.217	10667.28
563.579	10720.16
563.941	10872.02
564.304	10978.91
564.666	11003.99
565.028	11181.39
565.39	11255.74
565.753	11277.88
566.115	11393.81
566.477	11428.84
566.839	11602.17
567.201	11777.53
567.563	11837.64
567.925	11945.66
568.287	11997.18
568.648	12218.42
569.01	12305.43
569.372	12499.32
569.734	12495.48
570.095	12678.07
570.457	12721.69
570.819	12915.8
571.18	13103.6
571.542	13158.51
571.903	13339.97
572.265	13425.85
572.626	13547.2
572.987	13781.09
573.349	13960.52
573.71	14130.24
574.071	14218.37
574.432	14432.15
574.794	14676.89
575.155	14827.17
575.516	14928.63
575.877	15158.46
576.238	15410.2
576.599	15637.31
576.96	15865.33
577.32	16001.37
577.681	16193.01
578.042	16568.36
578.403	16720.9
578.763	16867.34
579.124	17241.34
579.485	17515.23
579.845	17855.11
580.206	17979.63
580.566	18228.21
580.927	18516.11
581.287	18931.01
581.648	19116.32
582.008	19503.88
582.368	19676.08
582.728	19999.23
583.089	20266.57
583.449	20574.59
583.809	21033.78
584.169	21305.19
584.529	21584.05
584.889	22051.38
585.249	22227.2
585.609	22504.93
585.969	23050.45
586.329	23300.62
586.688	23720.49
587.048	24117.77
587.408	24571.32
587.768	24896.28
588.127	25209.94
588.487	25604.96
588.846	26128.79
589.206	26386.64
589.565	26712.5
589.925	27332.37
590.284	27621.63
590.643	28045.12
591.003	28453.7
591.362	29083.97
591.721	29343.85
592.08	29719.88
592.44	30189.7
592.799	30731.61
593.158	31076.68
593.517	31556.9
593.876	31980.84
594.235	32324.11
594.593	32826.47
594.952	33278.88
595.311	33597.52
595.67	34081.12
596.029	34675.46
596.387	35075.22
596.746	35574.64
597.104	35870.46
597.463	36263.67
597.822	36868.17
598.18	37110.65
598.538	37415.73
598.897	38105.2
599.255	38149.27
599.613	38975.01
599.972	39252.97
600.33	39573.41
600.688	39977.01
601.046	40417.45
601.404	41029.42
601.762	41168.17
602.12	41805.44
602.478	42133.12
602.836	42346.44
603.194	42545.99
603.552	42979.19
603.91	43312.29
604.268	43819.62
604.625	43922.22
604.983	44392.04
605.341	44534.18
605.698	45165.35
606.056	45567.15
606.413	45576.64
606.771	45959.46
607.128	46330.52
607.485	46410.07
607.843	46680.57
608.2	47130.95
608.557	47488.45
608.914	47477.83
609.272	47839.41
609.629	48150.36
609.986	48328.66
610.343	48367.98
610.7	48851.13
611.057	48879.83
611.414	49101.97
611.771	49177.45
612.127	49617.66
612.484	49646.82
612.841	49906.92
613.198	49921.84
613.554	50063.98
613.911	50461.94
614.267	50475.72
614.624	50619.22
614.98	50794.13
615.337	51091.07
615.693	51054.24
616.05	51119.09
616.406	51372.19
616.762	51362.7
617.118	51504.85
617.475	51613.77
617.831	51721.34
618.187	51809.47
618.543	51963.14
618.899	52179.63
619.255	52279.29
619.611	52193.87
619.967	52318.38
620.323	52501.88
620.678	52427.08
621.034	52419.4
621.39	52463.24
621.746	52521.09
622.101	52914.53
622.457	52689.9
622.812	52826.17
623.168	52935.77
623.523	52946.62
623.879	53000.17
624.234	52954.07
624.589	53012.15
624.945	53114.75
625.3	53246.27
625.655	53202.43
626.01	53230.68
626.365	53303.44
626.72	53133.05
627.075	53220.96
627.43	53229.55
627.785	53255.53
628.14	53389.54
628.495	53416.43
628.85	53397.23
629.205	53295.53
629.559	53515.41
629.914	53333.05
630.269	53448.75
630.623	53386.6
630.978	53316.55
631.332	53466.6
631.687	53576.88
632.041	53336.66
632.396	53523.55
632.75	53383.67
633.104	53475.42
633.459	53231.58
633.813	53385.02
634.167	53326.72
634.521	53317.23
634.875	53444.23
635.229	53375.98
635.583	53292.6
635.937	53301.64
636.291	53323.56
636.645	53292.82
636.999	53242.43
637.352	53375.76
637.706	53185.93
638.06	53317.45
638.413	53139.38
638.767	53165.82
639.121	53108.42
639.474	52983.45
639.828	53038.82
640.181	53091.02
640.534	53227.74
640.888	53041.3
641.241	52964.92
641.594	52993.85
641.947	53114.52
642.301	52958.82
642.654	53083.79
643.007	53105.03
643.36	53044.69
643.713	52991.81
644.066	53036.33
644.419	52918.14
644.771	52809.44
645.124	52491.49
645.477	52436.35
645.83	52292.4
646.182	52241.78
646.535	52100.08
646.888	52186.86
647.24	51891.95
647.593	52160.42
647.945	52050.37
648.298	51947.77
648.65	51915.23
649.002	51815.57
649.355	52009.24
649.707	51863.48
650.059	52041.33
650.411	52413.07
650.763	52455.56
651.115	52730.8
651.467	52619.85
651.819	52564.03
652.171	52659.39
652.523	52538.49
652.875	52521.77
653.227	52441.54
653.578	52729.45
653.93	52584.14
654.282	52415.33
654.633	52377.59
654.985	52561.32
655.337	52550.24
655.688	52445.61
656.039	52595.89
656.391	52259.63
656.742	52335.56
657.094	52451.49
657.445	52528.1
657.796	52475.67
658.147	52332.85
658.498	52458.72
658.849	52475.67
659.2	52399.29
659.551	52333.98
659.902	52420.3
660.253	52417.59
660.604	52472.96
660.955	52255.34
661.306	52433.18
661.656	52333.53
662.007	52359.29
662.358	52195.9
662.708	52279.97
663.059	52335.56
663.409	52166.98
663.76	52279.97
664.11	52340.76
664.461	52365.39
664.811	52353.19
665.161	52263.02
665.511	52215.56
665.862	52185.51
666.212	52332.4
666.562	52308.22
666.912	52267.09
667.262	52250.82
667.612	52185.96
667.962	52152.96
668.312	52175.56
668.662	52338.95
669.011	52185.96
669.361	52122.23
669.711	52197.48
670.06	52172.17
670.41	52045.4
670.76	52026.87
671.109	52149.58
671.459	51995.45
671.808	51998.84
672.157	52050.14
672.507	51743.71
672.856	51858.96
673.205	51885.4
673.554	52015.79
673.904	51834.78
674.253	51966.53
674.602	51853.76
674.951	51349.82
675.3	51201.58
675.649	51745.74
675.998	51751.62
676.346	51775.12
676.695	51797.49
677.044	51522.25
677.393	51642.92
677.741	51686.54
678.09	51543.04
678.438	51489.93
678.787	51595.47
679.135	51592.08
679.484	51277.28
679.832	51452.19
680.181	51279.99
680.529	51445.19
680.877	51298.75
681.225	51211.75
681.573	51488.58
681.922	51232.76
682.27	51156.83
682.618	51195.48
682.966	50953.9
683.314	51119.55
683.661	51005.2
684.009	50738.09
684.357	50844.52
684.705	50840.46
685.053	50860.34
685.4	50755.04
685.748	50602.05
686.095	50525.89
686.443	50407.93
686.79	50347.36
687.138	50430.07
687.485	50423.97
687.832	50306.69
688.18	50219
688.527	50051.78
688.874	50103.98
689.221	50054.71
689.568	49796.19
689.915	49801.39
690.262	49847.04
690.609	49676.87
690.956	49604.33
691.303	49664.22
691.65	49399.59
691.997	49389.65
692.344	49157.79
692.69	49094.97
693.037	49182.42
693.383	48876.21
693.73	48867.85
694.077	48839.83
694.423	48736.56
694.769	48673.51
695.116	48609.1
695.462	48515.77
695.808	48363.91
696.155	48375.44
696.501	48089.79
696.847	48198.72
697.193	47953.3
697.539	47932.96
697.885	47668.56
698.231	47481.22
698.577	47519.64
698.923	47540.66
699.269	47270.83
699.614	47131.85
699.96	47114
700.306	47103.38
700.651	46845.53
700.997	46786.1
701.342	46720.34
701.688	46567.35
702.033	46513.11
702.379	46416.39
702.724	46476.28
703.069	46558.08
703.415	45886.24
703.76	45945.9
704.105	45854.37
704.45	45955.61
704.795	45578.45
705.14	45569.86
705.485	45541.84
705.83	45312.47
706.175	45331.9
706.52	45247.61
706.865	44959.93
707.209	45038.35
707.554	44735.08
707.899	44931.46
708.243	44714.06
708.588	44590.23
708.932	44473.62
709.277	44292.38
709.621	44334.19
709.966	43960.19
710.31	44283.79
710.654	43846.74
710.998	43908.44
711.342	43838.61
711.687	43788.67
712.031	43665.05
712.375	43480.42
712.719	43636.13
713.063	43471.16
713.407	43608.56
713.75	43360.43
714.094	43304.61
714.438	43134.67
714.782	43086.54
715.125	42990.95
715.469	43081.79
715.812	42826.66
716.156	42727.68
716.499	42699.43
716.843	42780.33
717.186	42442.49
717.53	42540.34
717.873	42680.9
718.216	42611.97
718.559	42309.16
718.902	42183.74
719.246	42182.61
719.589	42100.8
719.932	41965.66
720.275	41973.8
720.617	41776.06
720.96	41863.97
721.303	41768.38
721.646	41801.6
721.989	41643.41
722.331	41772.9
722.674	41638.21
723.016	41524.32
723.359	41386.02
723.701	41450.87
724.044	41182.63
724.386	41100.15
724.729	41321.39
725.071	41151.9
725.413	41118.9
725.755	41159.13
726.097	40938.34
726.439	40768.63
726.782	40899.25
727.124	41061.96
727.465	40667.62
727.807	40763.21
728.149	40664
728.491	40613.61
728.833	40743.55
729.175	40443.89
729.516	40456.78
729.858	40517.79
730.199	40468.75
730.541	40250.9
730.882	40178.36
731.224	40453.84
731.565	40103.79
731.906	40130.23
732.248	40155.99
732.589	40078.93
732.93	39944.92
733.271	39943.79
733.612	40078.71
733.953	40007.52
734.294	39787.41
734.635	39795.78
734.976	39786.74
735.317	39516.23
735.658	39532.73
735.999	39520.53
736.339	39601.43
736.68	39710.13
737.021	39496.35
737.361	39391.27
737.702	39555.56
738.042	39316.69
738.383	39223.36
738.723	39447.99
739.063	39168
739.404	39295.9
739.744	39120.31
740.084	39025.4
740.424	39154.66
740.764	39041.45
741.104	39078.05
741.444	38819.98
741.784	38746.99
742.124	38868.57
742.464	38780.66
742.804	38722.58
743.143	38705.86
743.483	38814.33
743.823	38555.58
744.162	38417.73
744.502	38526.66
744.841	38395.36
745.181	38559.42
745.52	38419.99
745.86	38329.15
746.199	38267.91
746.538	38397.62
746.877	38396.04
747.216	38233.1
747.556	38225.65
747.895	38063.84
748.234	37974.81
748.573	37757.41
748.911	37936.39
749.25	37955.82
749.589	37911.53
749.928	37810.07
750.267	37900.46
750.605	37643.74
750.944	37587.02
751.283	37599.22
751.621	37520.58
751.96	37353.81
752.298	37428.38
752.636	37455.05
752.975	37202.17
753.313	37049.63
753.651	37215.28
753.989	37189.74
754.327	36984.32
754.666	36824.78
755.004	36910.88
755.342	36942.74
755.679	36831.79
756.017	36689.19
756.355	36825.23
756.693	36529.65
757.031	36540.95
757.368	36376.2
757.706	36314.74
758.044	36202.65
758.381	36139.37
758.719	36065.7
759.056	36102.31
