Data from orange_diffuse_book_FLMS001491_00054.txt Node
Date: Wed Feb 08 15:29:45 GMT 2017
User: dcchb
Spectrometer: FLMS00149
Trigger mode: 0
Integration Time (sec): 2.000000E-2
Scans to average: 10
Electric dark correction enabled: true
Nonlinearity correction enabled: false
Boxcar width: 0
XAxis mode: Wavelengths
Number of Pixels in Spectrum: 2048
>>>>>Begin Spectral Data<<<<<
341.393	7.51
341.776	7.51
342.16	7.51
342.543	-53.28
342.927	-61.64
343.31	-71.35
343.693	-60.28
344.077	-59.83
344.46	-75.65
344.843	-50.79
345.226	-60.05
345.61	-23.67
345.993	-4.01
346.376	-0.17
346.759	10.9
347.142	11.36
347.525	36.67
347.908	63.33
348.291	80.51
348.674	90.9
349.057	112.14
349.44	121.86
349.823	151.69
350.206	196.89
350.588	192.82
350.971	240.28
351.354	235.98
351.737	251.12
352.119	270.56
352.502	281.63
352.884	303.1
353.267	300.16
353.65	303.55
354.032	324.57
354.414	343.78
354.797	327.05
355.179	321.63
355.562	334.06
355.944	351.01
356.326	362.53
356.709	367.5
357.091	358.47
357.473	365.24
357.855	351.91
358.238	375.87
358.62	360.5
359.002	335.87
359.384	352.59
359.766	371.8
360.148	356.21
360.53	351.69
360.912	348.07
361.294	346.26
361.676	361.4
362.057	351.46
362.439	342.42
362.821	327.05
363.203	337.22
363.584	343.78
363.966	351.91
364.348	347.62
364.729	334.74
365.111	346.26
365.493	336.54
365.874	348.07
366.256	341.97
366.637	343.32
367.019	341.52
367.4	317.11
367.781	329.31
368.163	353.04
368.544	325.02
368.925	346.71
369.306	332.48
369.688	343.1
370.069	336.09
370.45	336.54
370.831	333.38
371.212	339.03
371.593	358.69
371.974	322.31
372.355	328.64
372.736	327.73
373.117	339.48
373.498	315.3
373.879	328.86
374.26	327.05
374.641	323.89
375.021	363.44
375.402	346.04
375.783	346.71
376.163	350.78
376.544	329.77
376.925	334.28
377.305	338.35
377.686	336.09
378.066	335.41
378.447	360.05
378.827	358.01
379.208	337
379.588	341.97
379.968	334.06
380.349	357.79
380.729	370.67
381.109	369.54
381.489	358.01
381.87	367.28
382.25	349.65
382.63	344.68
383.01	350.78
383.39	371.35
383.77	349.43
384.15	374.96
384.53	348.97
384.91	374.74
385.29	360.5
385.67	371.35
386.049	383.32
386.429	372.25
386.809	370.67
387.189	362.76
387.568	373.15
387.948	368.86
388.328	382.42
388.707	374.28
389.087	388.07
389.466	387.16
389.846	384
390.225	387.62
390.605	389.2
390.984	382.65
391.363	376.32
391.743	386.49
392.122	399.37
392.501	396.2
392.881	423.77
393.26	385.13
393.639	396.88
394.018	396.2
394.397	396.43
394.776	397.33
395.155	403.89
395.534	419.71
395.913	413.6
396.292	414.06
396.671	404.34
397.05	405.24
397.429	421.06
397.808	418.35
398.186	419.71
398.565	425.36
398.944	398.01
399.323	397.79
399.701	427.62
400.08	411.35
400.458	401.85
400.837	422.64
401.215	424.68
401.594	413.38
401.972	435.98
402.351	435.75
402.729	443.43
403.107	440.27
403.486	438.46
403.864	431.91
404.242	436.2
404.62	415.19
404.999	429.42
405.377	437.79
405.755	420.16
406.133	453.38
406.511	420.38
406.889	463.55
407.267	451.12
407.645	479.82
408.023	455.19
408.401	429.2
408.779	437.56
409.156	461.06
409.534	464.45
409.912	475.75
410.29	460.38
410.667	467.61
411.045	457.67
411.422	473.04
411.8	481.4
412.178	498.35
412.555	466.03
412.933	487.05
413.31	492.92
413.687	503.77
414.065	496.31
414.442	518.91
414.819	526.82
415.197	508.97
415.574	513.49
415.951	521.85
416.328	505.13
416.705	518.69
417.082	514.62
417.46	521.62
417.837	522.53
418.214	551.23
418.591	525.01
418.967	541.51
419.344	546.48
419.721	555.97
420.098	549.87
420.475	533.38
420.852	566.6
421.228	558.01
421.605	556.88
421.982	568.4
422.358	574.73
422.735	605.46
423.111	571.79
423.488	566.82
423.864	605.24
424.241	608.4
424.617	586.03
424.994	591.45
425.37	615.18
425.746	583.77
426.123	599.14
426.499	581.74
426.875	613.6
427.251	598.01
427.627	621.28
428.003	633.49
428.379	629.87
428.756	626.48
429.132	654.73
429.507	648.18
429.883	637.78
430.259	654.05
430.635	649.53
431.011	668.74
431.387	670.1
431.763	700.38
432.138	685.01
432.514	688.85
432.89	687.72
433.265	705.8
433.641	688.85
434.016	693.82
434.392	725.46
434.767	727.72
435.143	696.99
435.518	737.44
435.894	739.7
436.269	744.9
436.644	760.49
437.02	740.15
437.395	734.5
437.77	783.99
438.145	768.4
438.52	807.94
438.895	776.08
439.271	785.8
439.646	825.57
440.021	795.74
440.395	807.27
440.77	785.35
441.145	792.8
441.52	815.85
441.895	818.57
442.27	827.83
442.645	816.53
443.019	841.62
443.394	828.06
443.769	844.1
444.143	842.75
444.518	847.04
444.892	842.97
445.267	837.1
445.641	852.01
446.016	869.19
446.39	846.36
446.764	892.91
447.139	857.66
447.513	863.08
447.887	852.46
448.262	889.3
448.636	867.15
449.01	883.65
449.384	894.27
449.758	902.63
450.132	900.6
450.506	909.64
450.88	921.84
451.254	892.24
451.628	906.47
452.002	923.87
452.376	952.57
452.75	956.42
453.123	925.46
453.497	958.9
453.871	966.81
454.244	958.22
454.618	969.3
454.992	971.1
455.365	995.96
455.739	1006.13
456.112	1006.36
456.486	997.09
456.859	1012.01
457.232	1019.24
457.606	1019.69
457.979	1042.97
458.352	1058.33
458.725	1059.46
459.099	1076.41
459.472	1067.83
459.845	1095.62
460.218	1081.38
460.591	1103.53
460.964	1100.37
461.337	1106.69
461.71	1105.56
462.083	1131.78
462.456	1147.37
462.829	1141.27
463.201	1161.83
463.574	1178.1
463.947	1156.41
464.32	1174.26
464.692	1177.65
465.065	1185.56
465.438	1192.57
465.81	1202.74
466.183	1226.01
466.555	1245.45
466.928	1242.96
467.3	1258.78
467.672	1278.21
468.045	1300.36
468.417	1291.77
468.789	1254.26
469.161	1288.38
469.534	1321.6
469.906	1318.21
470.278	1343.52
470.65	1333.81
471.022	1356.41
471.394	1369.29
471.766	1405.22
472.138	1418.1
472.51	1414.93
472.882	1449.51
473.253	1426.69
473.625	1476.4
473.997	1522.05
474.369	1483.63
474.74	1510.98
475.112	1523.63
475.484	1553.24
475.855	1570.86
476.227	1568.83
476.598	1618.09
476.97	1602.73
477.341	1632.33
477.713	1684.98
478.084	1674.36
478.455	1717.07
478.827	1740.12
479.198	1766.11
479.569	1744.19
479.94	1818.31
480.311	1829.84
480.682	1869.39
481.053	1930.85
481.424	1916.84
481.795	1981.47
482.166	1964.52
482.537	1977.41
482.908	2043.17
483.279	2064.86
483.65	2087.69
484.021	2107.35
484.391	2155.93
484.762	2174.69
485.133	2167.91
485.503	2231.64
485.874	2282.48
486.244	2293.56
486.615	2296.27
486.985	2320.45
487.356	2399.09
487.726	2364.29
488.097	2436.15
488.467	2444.74
488.837	2482.25
489.207	2550.95
489.578	2570.61
489.948	2574
490.318	2615.35
490.688	2675.24
491.058	2741
491.428	2753.88
491.798	2775.58
492.168	2882.24
492.538	2839.98
492.908	2859.87
493.278	2932.41
493.648	2909.13
494.017	2943.48
494.387	3018.28
494.757	3029.58
495.126	3041.78
495.496	3064.61
495.866	3110.26
496.235	3149.35
496.605	3126.75
496.974	3219.41
497.344	3215.79
497.713	3239.07
498.082	3304.38
498.452	3353.87
498.821	3383.24
499.19	3412.62
499.559	3413.07
499.928	3443.13
500.298	3464.15
500.667	3486.74
501.036	3509.79
501.405	3568.78
501.774	3573.3
502.143	3601.32
502.512	3637.47
502.88	3674.31
503.249	3686.97
503.618	3722.67
503.987	3727.64
504.356	3742.33
504.724	3805.38
505.093	3830.24
505.462	3815.1
505.83	3878.15
506.199	3862.1
506.567	3924.25
506.936	3966.96
507.304	4022.32
507.672	4003.12
508.041	4053.96
508.409	4103.9
508.777	4111.13
509.145	4113.17
509.514	4177.35
509.882	4182.77
510.25	4126.28
510.618	4231.81
510.986	4235.2
511.354	4284.92
511.722	4353.61
512.09	4382.77
512.458	4376.21
512.826	4379.15
513.193	4425.25
513.561	4424.8
513.929	4498.02
514.297	4562.87
514.664	4536.21
515.032	4597.68
515.4	4674.06
515.767	4665.92
516.135	4692.14
516.502	4670.44
516.869	4743.89
517.237	4755.64
517.604	4748.63
517.972	4813.26
518.339	4865.47
518.706	4858.91
519.073	4916.99
519.44	4928.74
519.808	5008.96
520.175	4999.93
520.542	5019.13
520.909	5070.88
521.276	5079.7
521.643	5106.59
522.009	5168.73
522.376	5212.35
522.743	5218.68
523.11	5286.92
523.477	5335.06
523.843	5389.29
524.21	5354.04
524.577	5407.37
524.943	5447.82
525.31	5448.27
525.676	5579.57
526.043	5549.97
526.409	5615.73
526.776	5650.08
527.142	5684.2
527.508	5717.87
527.874	5734.14
528.241	5754.71
528.607	5782.96
528.973	5868.83
529.339	5865.44
529.705	5880.35
530.071	5937.75
530.437	6009.16
530.803	6002.16
531.169	6044.87
531.535	6013.23
531.901	6059.33
532.267	6155.6
532.632	6149.05
532.998	6176.84
533.364	6187.24
533.73	6205.09
534.095	6251.64
534.461	6302.04
534.826	6381.36
535.192	6333.45
535.557	6346.56
535.923	6393.11
536.288	6414.8
536.653	6432.88
537.019	6410.28
537.384	6505.2
537.749	6510.39
538.114	6473.78
538.479	6534.57
538.845	6560.56
539.21	6624.06
539.575	6634.46
539.94	6663.16
540.305	6681.46
540.67	6692.08
541.034	6765.08
541.399	6824.74
541.764	6786.32
542.129	6798.3
542.494	6846.43
542.858	6857.73
543.223	6926.88
543.587	6941.12
543.952	6856.83
544.316	6955.81
544.681	6966.2
545.045	7108.57
545.41	7107.67
545.774	7094.79
546.138	7134.11
546.503	7169.59
546.867	7218.4
547.231	7240.77
547.595	7300.66
547.959	7309.69
548.324	7348.56
548.688	7348.79
549.052	7422.01
549.416	7448
549.779	7427.43
550.143	7537.26
550.507	7558.73
550.871	7647.77
551.235	7639.86
551.599	7621.33
551.962	7724.6
552.326	7762.11
552.689	7809.34
553.053	7819.51
553.417	7861.54
553.78	7974.31
554.143	7916.01
554.507	8009.79
554.87	8051.14
555.234	8161.2
555.597	8097.92
555.96	8173.4
556.323	8247.75
556.686	8301.08
557.05	8412.26
557.413	8362.32
557.776	8514.18
558.139	8569.32
558.502	8550.34
558.865	8570.45
559.228	8681.41
559.59	8776.1
559.953	8807.51
560.316	8891.35
560.679	8961.18
561.041	9078.24
561.404	9101.74
561.767	9160.04
562.129	9249.3
562.492	9315.52
562.854	9403.65
563.217	9499.24
563.579	9560.03
563.941	9606.81
564.304	9683.64
564.666	9774.49
565.028	9902.39
565.39	9958.44
565.753	10066.91
566.115	10158.21
566.477	10279.56
566.839	10391.42
567.201	10478.88
567.563	10625.54
567.925	10772.43
568.287	10844.29
568.648	10849.71
569.01	11026.66
569.372	11160.22
569.734	11223.26
570.095	11510.04
570.457	11597.94
570.819	11688.34
571.18	11832.06
571.542	11950.02
571.903	12137.36
572.265	12226.18
572.626	12483.12
572.987	12634.75
573.349	12803.79
573.71	13080.84
574.071	13156.77
574.432	13404.68
574.794	13646.7
575.155	13739.13
575.516	13918.11
575.877	14139.8
576.238	14328.04
576.599	14618.43
576.96	14798.54
577.32	15042.82
577.681	15266.77
578.042	15568.23
578.403	15831.73
578.763	16026.75
579.124	16404.82
579.485	16689.79
579.845	16961.64
580.206	17181.07
580.566	17519.82
580.927	17850.21
581.287	18204.78
581.648	18379.91
582.008	18746.68
582.368	19013.57
582.728	19474.8
583.089	19701.91
583.449	20053.31
583.809	20431.16
584.169	20876.8
584.529	21144.13
584.889	21787.28
585.249	21950.44
585.609	22304.33
585.969	22774.6
586.329	23188.83
586.688	23630.85
587.048	23925.3
587.408	24254.11
587.768	24742.68
588.127	25161.65
588.487	25520.06
588.846	26193.72
589.206	26445.91
589.565	26872.57
589.925	27429.17
590.284	27767.69
590.643	28291.52
591.003	28824.38
591.362	29422.33
591.721	29630.46
592.08	30145.48
592.44	30597.44
592.799	31234.72
593.158	31713.8
593.517	32012.32
593.876	32630.38
594.235	32936.14
594.593	33426.52
594.952	34111.7
595.311	34283.9
595.67	34974.5
596.029	35631.89
596.387	36029.39
596.746	36485.2
597.104	36844.51
597.463	37367.89
597.822	37842
598.18	38139.39
598.538	38528.99
598.897	39377.1
599.255	39321.96
599.613	40201.71
599.972	40545.88
600.33	40937.29
600.688	41171.63
601.046	41784.72
601.404	42349
601.762	42410.69
602.12	43043.22
602.478	43372.02
602.836	43785.35
603.194	44021.95
603.552	44333.35
603.91	44571.77
604.268	45219.21
604.625	45403.38
604.983	45937.83
605.341	46064.16
605.698	46468.44
606.056	46889.22
606.413	47049.21
606.771	47589.54
607.128	47779.82
607.485	47810.78
607.843	48173.71
608.2	48552.9
608.557	48733.69
608.914	48913.57
609.272	49293
609.629	49672.65
609.986	49927.11
610.343	49936.14
610.7	50338.39
611.057	50398.96
611.414	50550.14
611.771	50769.8
612.127	51052.73
612.484	51129.79
612.841	51338.59
613.198	51289.78
613.554	51475.54
613.911	51720.73
614.267	51966.83
614.624	51966.83
614.98	52066.26
615.337	52395.06
615.693	52435.51
616.05	52468.51
616.406	52804.54
616.762	52716.41
617.118	52848.16
617.475	52874.82
617.831	53014.48
618.187	53149.85
618.543	53275.49
618.899	53534.47
619.255	53483.17
619.611	53591.64
619.967	53688.81
620.323	53774.24
620.678	53732.65
621.034	53695.59
621.39	53780.79
621.746	53795.48
622.101	54221.91
622.457	53908.24
622.812	54049.03
623.168	54177.84
623.523	54201.57
623.879	54312.3
624.234	54128.35
624.589	54267.33
624.945	54412.19
625.3	54454.9
625.655	54438.17
626.01	54475.23
626.365	54535.35
626.72	54492.86
627.075	54545.29
627.43	54586.42
627.785	54530.83
628.14	54548.68
628.495	54665.29
628.85	54634.55
629.205	54648.34
629.559	54832.51
629.914	54601.33
630.269	54723.14
630.623	54689.24
630.978	54644.72
631.332	54720.43
631.687	54866.18
632.041	54654.21
632.396	54803.36
632.75	54689.69
633.104	54744.15
633.459	54637.72
633.813	54592.29
634.167	54612.86
634.521	54643.14
634.875	54632.74
635.229	54666.19
635.583	54564.95
635.937	54598.17
636.291	54538.96
636.645	54521.33
636.999	54551.62
637.352	54620.09
637.706	54468
638.06	54641.11
638.413	54488.57
638.767	54474.1
639.121	54516.59
639.474	54290.38
639.828	54383.26
640.181	54416.48
640.534	54473.43
640.888	54441.11
641.241	54312.07
641.594	54373.54
641.947	54448.12
642.301	54403.6
642.654	54318.4
643.007	54326.31
643.36	54413.09
643.713	54378.97
644.066	54481.11
644.419	54323.83
644.771	53999.09
645.124	53710.06
645.477	53737.4
645.83	53567.91
646.182	53474.81
646.535	53437.52
646.888	53541.93
647.24	53361.14
647.593	53535.37
647.945	53452.44
648.298	53329.73
648.65	53287.69
649.002	53290.86
649.355	53399.33
649.707	53318.2
650.059	53442.95
650.411	53722.94
650.763	53815.82
651.115	54081.8
651.467	54074.57
651.819	53865.08
652.171	53960.9
652.523	53886.78
652.875	53879.32
653.227	53802.71
653.578	53988.24
653.93	53927.9
654.282	53816.72
654.633	53759.32
654.985	53875.48
655.337	53809.94
655.688	53955.7
656.039	53920.22
656.391	53749.15
656.742	53747.57
657.094	53703.05
657.445	53872.76
657.796	53825.76
658.147	53841.35
658.498	53743.28
658.849	53831.64
659.2	53780.34
659.551	53644.75
659.902	53874.57
660.253	53769.26
660.604	53809.04
660.955	53630.28
661.306	53735.82
661.656	53686.1
662.007	53669.15
662.358	53784.63
662.708	53680.9
663.059	53743.28
663.409	53597.07
663.76	53746.44
664.11	53739.89
664.461	53784.18
664.811	53744.41
665.161	53655.82
665.511	53631.19
665.862	53631.64
666.212	53749.83
666.562	53705.31
666.912	53688.14
667.262	53636.61
667.612	53638.42
667.962	53625.54
668.312	53506.22
668.662	53722.26
669.011	53633
669.361	53518.65
669.711	53488.37
670.06	53453.57
670.41	53435.26
670.76	53354.59
671.109	53608.14
671.459	53363.17
671.808	53349.84
672.157	53463.96
672.507	53197.53
672.856	53339.22
673.205	53311.42
673.554	53373.34
673.904	53261.93
674.253	53532.66
674.602	53273.68
674.951	52828.27
675.3	52706.47
675.649	53138.32
675.998	53223.74
676.346	53168.6
676.695	53309.16
677.044	52946.69
677.393	53056.06
677.741	53074.37
678.09	53089.96
678.438	52941.49
678.787	52976.74
679.135	52972.9
679.484	52829.18
679.832	52909.4
680.181	52802.96
680.529	52874.37
680.877	52728.84
681.225	52628.28
681.573	52955.05
681.922	52636.64
682.27	52520.03
682.618	52510.09
682.966	52465.57
683.314	52689.07
683.661	52440.71
684.009	52328.4
684.357	52278.46
684.705	52233.26
685.053	52224.67
685.4	52252.47
685.748	52112.13
686.095	52086.14
686.443	51893.83
686.79	51834.17
687.138	51956.88
687.485	51886.6
687.832	51824.23
688.18	51782.65
688.527	51628.76
688.874	51614.74
689.221	51536.55
689.568	51458.14
689.915	51356.67
690.262	51418.59
690.609	51184.47
690.956	51108.32
691.303	51105.83
691.65	50953.52
691.997	50979.28
692.344	50715.11
692.69	50769.57
693.037	50780.42
693.383	50419.52
693.73	50555.79
694.077	50344.27
694.423	50320.99
694.769	50273.99
695.116	50165.07
695.462	50165.52
695.808	49978.63
696.155	49956.03
696.501	49736.83
696.847	49730.95
697.193	49456.61
697.539	49582.03
697.885	49323.96
698.231	49260
698.577	49298.42
698.923	49155.37
699.269	48946.57
699.614	48815.27
699.96	48751.99
700.306	48841.26
700.651	48639.23
700.997	48563.75
701.342	48427.26
701.688	48329.63
702.033	48257.77
702.379	48144.55
702.724	48066.82
703.069	48199.47
703.415	47756.77
703.76	47764
704.105	47801.51
704.45	47498.92
704.795	47211.47
705.14	47274.52
705.485	47273.16
705.83	47046.05
706.175	47210.34
706.52	46980.06
706.865	46830.69
707.209	46930.35
707.554	46549.57
707.899	46708.88
708.243	46442.9
708.588	46512.51
708.932	46157.03
709.277	46057.6
709.621	46105.06
709.966	45939.41
710.31	45993.65
710.654	45567.67
710.998	45646.31
711.342	45699.65
711.687	45601.34
712.031	45336.94
712.375	45204.52
712.719	45385.08
713.063	45227.12
713.407	45442.93
713.75	45070.51
714.094	45034.58
714.438	44905.77
714.782	44986.67
715.125	44765.21
715.469	44998.42
715.812	44593.46
716.156	44513.24
716.499	44539.9
716.843	44544.2
717.186	44273.92
717.53	44480.47
717.873	44489.96
718.216	44265.11
718.559	44140.59
718.902	43963.42
719.246	44097.2
719.589	43924.1
719.932	43634.84
720.275	43802.07
720.617	43678.46
720.96	43595.07
721.303	43469.2
721.646	43661.73
721.989	43231.24
722.331	43525.92
722.674	43224.68
723.016	43295.19
723.359	43170.45
723.701	43343.32
724.044	43030.11
724.386	42838.25
724.729	43116.89
725.071	42991.24
725.413	42870.34
725.755	42784.69
726.097	42756.9
726.439	42648.43
726.782	42580.41
727.124	42778.59
727.465	42560.29
727.807	42411.14
728.149	42446.17
728.491	42492.95
728.833	42486.4
729.175	42191.04
729.516	42276.01
729.858	42110.81
730.199	42285.5
730.541	42080.98
730.882	41987.43
731.224	42120.76
731.565	41774.55
731.906	41871.05
732.248	42062.68
732.589	41724.61
732.93	41697.04
733.271	41694.33
733.612	41743.82
733.953	41711.05
734.294	41394.22
734.635	41488.23
734.976	41578.17
735.317	41300.44
735.658	41377.73
735.999	41478.74
736.339	41208.69
736.68	41393.09
737.021	41208.92
737.361	41070.62
737.702	41285.75
738.042	41144.51
738.383	41034.01
738.723	41136.38
739.063	40997.85
739.404	41029.26
739.744	40988.13
740.084	40789.27
740.424	40843.28
740.764	40648.93
741.104	40933.44
741.444	40570.29
741.784	40525.09
742.124	40600.34
742.464	40624.53
742.804	40463.4
743.143	40285.78
743.483	40437.41
743.823	40286
744.162	40190.19
744.502	40299.11
744.841	40132.11
745.181	40246
745.52	40144.76
745.86	40246.68
746.199	39921.94
746.538	39940.02
746.877	40022.28
747.216	39956.97
747.556	39926.92
747.895	39935.5
748.234	39769.18
748.573	39676.3
748.911	39644.21
749.25	39765.79
749.589	39534.84
749.928	39594.95
750.267	39512.46
750.605	39349.08
750.944	39478.79
751.283	39310.44
751.621	39331.68
751.96	39098.24
752.298	38960.61
752.636	39065.02
752.975	38894.18
753.313	38776.66
753.651	38992.48
753.989	38807.62
754.327	38719.26
754.666	38465.71
755.004	38453.28
755.342	38592.04
755.679	38467.52
756.017	38271.37
756.355	38481.08
756.693	38228.88
757.031	38190.69
757.368	37997.25
757.706	37963.13
758.044	37893.75
758.381	37869.34
758.719	37834.99
759.056	37721.78
759.394	37660.99
759.731	37276.36
