Data from orange_diffuse_book_FLMS001491_00057.txt Node
Date: Wed Feb 08 15:29:46 GMT 2017
User: dcchb
Spectrometer: FLMS00149
Trigger mode: 0
Integration Time (sec): 2.000000E-2
Scans to average: 10
Electric dark correction enabled: true
Nonlinearity correction enabled: false
Boxcar width: 0
XAxis mode: Wavelengths
Number of Pixels in Spectrum: 2048
>>>>>Begin Spectral Data<<<<<
341.393	-23.16
341.776	-23.16
342.16	-23.16
342.543	-44.86
342.927	-55.03
343.31	-63.16
343.693	-54.57
344.077	-65.2
344.46	-69.26
344.843	-33.56
345.226	-36.95
345.61	-39.43
345.993	-19.32
346.376	3.28
346.759	-5.76
347.142	29.72
347.525	38.08
347.908	53.44
348.291	68.13
348.674	93.9
349.057	100.68
349.44	125.76
349.823	162.59
350.206	174.12
350.588	218.19
350.971	227.23
351.354	263.16
351.737	241.69
352.119	257.28
352.502	276.72
352.884	282.14
353.267	284.4
353.65	304.29
354.032	326.21
354.414	323.27
354.797	329.37
355.179	339.99
355.562	340.89
355.944	373.66
356.326	358.3
356.709	346.09
357.091	339.54
357.473	337.28
357.855	351.74
358.238	351.06
358.62	355.36
359.002	363.95
359.384	360.1
359.766	340.22
360.148	363.72
360.53	343.15
360.912	355.58
361.294	338.64
361.676	353.32
362.057	337.05
362.439	339.54
362.821	361.01
363.203	353.1
363.584	346.77
363.966	344.74
364.348	332.99
364.729	364.4
365.111	327.34
365.493	329.6
365.874	324.17
366.256	330.5
366.637	310.61
367.019	339.31
367.4	338.41
367.781	337.96
368.163	339.09
368.544	310.16
368.925	337.73
369.306	337.51
369.688	330.95
370.069	344.96
370.45	334.79
370.831	338.86
371.212	336.15
371.593	317.39
371.974	326.21
372.355	337.96
372.736	322.82
373.117	341.12
373.498	341.35
373.879	324.62
374.26	338.41
374.641	334.34
375.021	342.02
375.402	325.53
375.783	339.09
376.163	356.71
376.544	354
376.925	323.72
377.305	347.67
377.686	332.76
378.066	342.48
378.447	336.6
378.827	335.25
379.208	339.99
379.588	352.19
379.968	353.55
380.349	339.31
380.729	331.63
381.109	365.98
381.489	360.56
381.87	356.26
382.25	371.4
382.63	358.3
383.01	350.84
383.39	344.51
383.77	335.92
384.15	377.96
384.53	360.33
384.91	351.97
385.29	350.61
385.67	349.71
386.049	373.21
386.429	380.67
386.809	358.97
387.189	382.48
387.568	369.82
387.948	360.78
388.328	358.52
388.707	384.74
389.087	368.01
389.466	372.98
389.846	372.76
390.225	394.23
390.605	401.23
390.984	384.51
391.363	396.71
391.743	372.08
392.122	390.61
392.501	394.9
392.881	418.86
393.26	376.6
393.639	379.31
394.018	392.42
394.397	386.77
394.776	387.9
395.155	399.2
395.534	382.93
395.913	395.81
396.292	406.66
396.671	407.56
397.05	394.9
397.429	398.07
397.808	379.99
398.186	386.09
398.565	417.5
398.944	414.11
399.323	423.83
399.701	406.43
400.08	419.99
400.458	409.14
400.837	421.57
401.215	425.41
401.594	417.96
401.972	414.57
402.351	422.7
402.729	424.51
403.107	444.62
403.486	428.8
403.864	429.48
404.242	418.63
404.62	426.32
404.999	432.64
405.377	441.01
405.755	451.85
406.133	450.5
406.511	449.82
406.889	446.88
407.267	456.6
407.645	460.21
408.023	463.38
408.401	457.28
408.779	485.07
409.156	464.73
409.534	457.73
409.912	478.74
410.29	481.91
410.667	470.84
411.045	479.65
411.422	484.17
411.8	497.73
412.178	487.11
412.555	489.59
412.933	476.03
413.31	507.44
413.687	493.21
414.065	503.15
414.442	487.78
414.819	526.2
415.197	508.8
415.574	528.01
415.951	515.13
416.328	518.97
416.705	523.49
417.082	525.07
417.46	525.97
417.837	528.23
418.214	542.25
418.591	543.6
418.967	540.89
419.344	562.58
419.721	543.15
420.098	563.71
420.475	551.51
420.852	534.56
421.228	550.83
421.605	571.17
421.982	565.3
422.358	563.49
422.735	579.53
423.111	573.43
423.488	587.67
423.864	575.24
424.241	599.42
424.617	612.07
424.994	599.19
425.37	597.84
425.746	575.92
426.123	607.1
426.499	602.81
426.875	618.63
427.251	631.73
427.627	645.75
428.003	616.37
428.379	609.81
428.756	613.43
429.132	636.71
429.507	639.19
429.883	659.53
430.259	658.85
430.635	675.58
431.011	679.42
431.387	668.8
431.763	706.54
432.138	715.57
432.514	678.06
432.89	699.53
433.265	710.83
433.641	702.02
434.016	698.63
434.392	727.33
434.767	734.78
435.143	744.05
435.518	725.97
435.894	716.7
436.269	753.31
436.644	746.76
437.02	755.35
437.395	770.49
437.77	751.51
438.145	784.5
438.52	786.31
438.895	775.23
439.271	783.14
439.646	787.66
440.021	801
440.395	792.18
440.77	808.23
441.145	805.06
441.52	818.62
441.895	814.78
442.27	819.3
442.645	827.21
443.019	837.61
443.394	803.26
443.769	825.63
444.143	814.33
444.518	857.04
444.892	835.12
445.267	848.9
445.641	850.94
446.016	850.71
446.39	858.4
446.764	863.59
447.139	871.95
447.513	855.01
447.887	854.55
448.262	872.18
448.636	874.89
449.01	883.71
449.384	875.8
449.758	900.88
450.132	903.14
450.506	907.21
450.88	922.35
451.254	903.59
451.628	912.18
452.002	930.71
452.376	932.52
452.75	926.87
453.123	921.9
453.497	968.68
453.871	928
454.244	951.5
454.618	958.05
454.992	964.38
455.365	938.62
455.739	1004.83
456.112	1011.84
456.486	1013.87
456.859	986.08
457.232	1018.39
457.606	1033.53
457.979	1017.04
458.352	1030.82
458.725	1044.61
459.099	1044.15
459.472	1069.69
459.845	1058.84
460.218	1081.21
460.591	1082.8
460.964	1119.18
461.337	1110.59
461.71	1118.05
462.083	1125.96
462.456	1163.02
462.829	1136.35
463.201	1153.98
463.574	1159.4
463.947	1166.64
464.32	1171.38
464.692	1189.69
465.065	1161.66
465.438	1194.66
465.81	1209.12
466.183	1238.95
466.555	1263.81
466.928	1255.67
467.3	1245.96
467.672	1273.53
468.045	1267.42
468.417	1273.98
468.789	1287.99
469.161	1313.52
469.534	1320.08
469.906	1347.2
470.278	1339.06
470.65	1338.61
471.022	1360.53
471.394	1371.15
471.766	1406.4
472.138	1357.59
472.51	1446.85
472.882	1443.01
473.253	1465.61
473.625	1472.62
473.997	1477.36
474.369	1501.77
474.74	1518.04
475.112	1532.05
475.484	1549.9
475.855	1586.96
476.227	1617.47
476.598	1616.57
476.97	1603.01
477.341	1688.43
477.713	1648.21
478.084	1719.16
478.455	1718.49
478.827	1739.05
479.198	1779.95
479.569	1806.39
479.94	1806.85
480.311	1836.9
480.682	1880.74
481.053	1929.78
481.424	1938.37
481.795	1981.76
482.166	1943.34
482.537	1961.87
482.908	2002.32
483.279	2043.22
483.65	2099.94
484.021	2137.46
484.391	2125.93
484.762	2161.41
485.133	2156.89
485.503	2188.76
485.874	2245.7
486.244	2266.49
486.615	2311.92
486.985	2344.23
487.356	2381.07
487.726	2439.37
488.097	2442.31
488.467	2466.71
488.837	2500.84
489.207	2518.24
489.578	2573.6
489.948	2610.21
490.318	2639.37
490.688	2650.66
491.058	2722.3
491.428	2732.02
491.798	2761.17
492.168	2815.63
492.538	2835.52
492.908	2866.7
493.278	2916.42
493.648	2927.27
494.017	2968.62
494.387	2985.8
494.757	3008.85
495.126	3059.24
495.496	3067.6
495.866	3134.27
496.235	3147.37
496.605	3178.33
496.974	3199.35
497.344	3240.93
497.713	3259.24
498.082	3304.21
498.452	3322.74
498.821	3328.39
499.19	3358.44
499.559	3420.36
499.928	3449.97
500.298	3473.92
500.667	3494.03
501.036	3506.46
501.405	3571.77
501.774	3563.64
502.143	3625.33
502.512	3643.86
502.88	3696.74
503.249	3681.37
503.618	3712.33
503.987	3699
504.356	3768.83
504.724	3781.48
505.093	3800.47
505.462	3811.76
505.83	3880.01
506.199	3909.84
506.567	3941.48
506.936	3954.13
507.304	4028.71
507.672	4016.96
508.041	4039.55
508.409	4084.53
508.777	4093.34
509.145	4152.09
509.514	4158.2
509.882	4180.57
510.25	4169.27
510.618	4244.52
510.986	4232.32
511.354	4278.64
511.722	4262.6
512.09	4381.69
512.458	4412.2
512.826	4431.41
513.193	4464.18
513.561	4485.19
513.929	4469.83
514.297	4541.24
514.664	4541.69
515.032	4589.14
515.4	4596.83
515.767	4627.11
516.135	4660.1
516.502	4656.26
516.869	4726.54
517.237	4764.96
517.604	4774
517.972	4802.02
518.339	4827.33
518.706	4895.58
519.073	4914.33
519.44	4941.68
519.808	4974.22
520.175	4959.53
520.542	5042.69
520.909	5022.35
521.276	5048.12
521.643	5085.18
522.009	5191.16
522.376	5221.22
522.743	5239.52
523.11	5288.34
523.477	5321.78
523.843	5362.01
524.21	5458.27
524.577	5464.38
524.943	5434.77
525.31	5547.76
525.676	5527.65
526.043	5573.07
526.409	5638.61
526.776	5660.76
527.142	5719.74
527.508	5670.25
527.874	5711.83
528.241	5779.62
528.607	5789.79
528.973	5841.77
529.339	5872.27
529.705	5894.87
530.071	5951.59
530.437	5969.9
530.803	5987.75
531.169	6049.9
531.535	6021.65
531.901	6072.95
532.267	6081.54
532.632	6126.05
532.998	6166.05
533.364	6143
533.73	6257.35
534.095	6188.65
534.461	6286.28
534.826	6298.25
535.192	6359.27
535.557	6399.72
535.923	6383.45
536.288	6390.91
536.653	6446.95
537.019	6466.38
537.384	6480.62
537.749	6455.99
538.114	6502.77
538.479	6552.48
538.845	6605.14
539.21	6534.63
539.575	6613.72
539.94	6612.37
540.305	6675.42
540.67	6688.52
541.034	6716.55
541.399	6791.12
541.764	6765.58
542.129	6836.77
542.494	6828.18
542.858	6894.85
543.223	6892.14
543.587	6876.99
543.952	6918.35
544.316	6995.86
544.681	7001.96
545.045	7015.07
545.41	7051.68
545.774	7076.31
546.138	7209.87
546.503	7147.27
546.867	7179.81
547.231	7281.28
547.595	7261.84
547.959	7263.42
548.324	7301.62
548.688	7426.36
549.052	7420.93
549.416	7441.05
549.779	7470.2
550.143	7450.09
550.507	7538.67
550.871	7579.35
551.235	7567.82
551.599	7692.79
551.962	7680.59
552.326	7758.55
552.689	7819.12
553.053	7873.13
553.417	7883.3
553.78	7980.92
554.143	7923.75
554.507	7955.16
554.87	8058.43
555.234	8194.02
555.597	8101.59
555.96	8221.59
556.323	8240.12
556.686	8349.05
557.05	8422.49
557.413	8373.23
557.776	8419.1
558.139	8469.95
558.502	8626.55
558.865	8604.18
559.228	8716.72
559.59	8754.46
559.953	8820.9
560.316	8861.57
560.679	8911.97
561.041	9070.38
561.404	9052.76
561.767	9186.54
562.129	9266.08
562.492	9333.88
562.854	9463.82
563.217	9473.08
563.579	9511.95
563.941	9628.56
564.304	9738.84
564.666	9816.35
565.028	9914.88
565.39	9991.71
565.753	10084.59
566.115	10152.84
566.477	10274.19
566.839	10366.39
567.201	10452.49
567.563	10579.95
567.925	10722.99
568.287	10861.3
568.648	10901.07
569.01	11038.24
569.372	11228.07
569.734	11212.47
570.095	11466.25
570.457	11569.75
570.819	11673.93
571.18	11877.99
571.542	11992.34
571.903	12079.8
572.265	12355.27
572.626	12400.69
572.987	12618.99
573.349	12803.84
573.71	12983.27
574.071	13206.55
574.432	13351.85
574.794	13645.4
575.155	13775.34
575.516	13820.31
575.877	14213.75
576.238	14328.32
576.599	14631.14
576.96	14759.05
577.32	14992.71
577.681	15308.41
578.042	15522.64
578.403	15845.35
578.763	16046.47
579.124	16298.67
579.485	16713.12
579.845	16998.31
580.206	17260
580.566	17470.39
580.927	17829.02
581.287	18115.79
581.648	18264.27
582.008	18819.73
582.368	19021.53
582.728	19409.09
583.089	19707.17
583.449	20110.32
583.809	20365.23
584.169	20783.75
584.529	21065.1
584.889	21684.51
585.249	21964.96
585.609	22124.28
585.969	22761.1
586.329	23210.35
586.688	23467.29
587.048	23887.62
587.408	24371.22
587.768	24748.16
588.127	25159.45
588.487	25505.43
588.846	26063.83
589.206	26487.1
589.565	26884.83
589.925	27452.27
590.284	27742.89
590.643	28333.61
591.003	28829.64
591.362	29399.34
591.721	29640.46
592.08	30079.1
592.44	30712.53
592.799	31181.44
593.158	31515.67
593.517	32067.52
593.876	32580.73
594.235	32868.4
594.593	33479.46
594.952	34045.77
595.311	34306.56
595.67	34893.88
596.029	35480.08
596.387	36012.27
596.746	36577.46
597.104	36806.38
597.463	37183.99
597.822	37886.35
598.18	38114.82
598.538	38544.18
598.897	39135.81
599.255	39426.19
599.613	40278.83
599.972	40351.59
600.33	40881.75
600.688	41204.45
601.046	41660.03
601.404	42295.72
601.762	42516.28
602.12	43098.41
602.478	43380.44
602.836	43815.01
603.194	44047.99
603.552	44398.49
603.91	44584.7
604.268	45294.52
604.625	45361.86
604.983	45885.01
605.341	46044.1
605.698	46591.2
606.056	46946.9
606.413	47093.56
606.771	47596.6
607.128	47874.56
607.485	47930.38
607.843	48198.85
608.2	48586.41
608.557	48869.11
608.914	48970.8
609.272	49316.78
609.629	49696.89
609.986	49898.01
610.343	49910.44
610.7	50363.99
611.057	50476.3
611.414	50632
611.771	50734.37
612.127	50952.67
612.484	51176.62
612.841	51361.7
613.198	51428.37
613.554	51500.91
613.911	51837.85
614.267	51867.9
614.624	51936.37
614.98	52059.31
615.337	52343.6
615.693	52377.49
616.05	52486.64
616.406	52694.55
616.762	52657.94
617.118	52840.53
617.475	52881.43
617.831	53031.49
618.187	53127.3
618.543	53301.08
618.899	53502.44
619.255	53562.09
619.611	53494.3
619.967	53626.5
620.323	53735.42
620.678	53694.29
621.034	53762.32
621.39	53787.17
621.746	53796.21
622.101	54167.73
622.457	53950.33
622.812	54046.83
623.168	54175.86
623.523	54225.35
623.879	54364.79
624.234	54075.98
624.589	54368.85
624.945	54317.1
625.3	54396.87
625.655	54438.46
626.01	54497.66
626.365	54451.11
626.72	54443.65
627.075	54484.33
627.43	54527.04
627.785	54468.29
628.14	54660.82
628.495	54704.21
628.85	54587.15
629.205	54655.4
629.559	54829.41
629.914	54696.3
630.269	54778.56
630.623	54692.91
630.978	54708.51
631.332	54811.33
631.687	54780.14
632.041	54740.59
632.396	54766.58
632.75	54634.61
633.104	54667.83
633.459	54656.53
633.813	54633.7
634.167	54675.06
634.521	54682.52
634.875	54697.43
635.229	54726.13
635.583	54567.72
635.937	54557.77
636.291	54600.49
636.645	54572.01
636.999	54472.13
637.352	54686.36
637.706	54410.43
638.06	54546.02
638.413	54509.64
638.767	54395.74
639.121	54579.92
639.474	54392.58
639.828	54369.98
640.181	54440.04
640.534	54516.87
640.888	54411.11
641.241	54303.32
641.594	54389.42
641.947	54446.82
642.301	54384.67
642.654	54395.74
643.007	54389.87
643.36	54384.45
643.713	54334.73
644.066	54422.86
644.419	54142.87
644.771	54113.04
645.124	53872.82
645.477	53713.95
645.83	53558.48
646.182	53486.39
646.535	53504.69
646.888	53481.42
647.24	53325.04
647.593	53504.47
647.945	53482.1
648.298	53337.69
648.65	53277.13
649.002	53258.37
649.355	53405.94
649.707	53300.18
650.059	53361.65
650.411	53748.98
650.763	53755.76
651.115	54115.75
651.467	53988.98
651.819	54009.77
652.171	53859.94
652.523	53944.01
652.875	53858.81
653.227	53772.03
653.578	54078.92
653.93	53879.6
654.282	53812.71
654.633	53652.94
654.985	53892.71
655.337	53906.94
655.688	53780.85
656.039	53939.71
656.391	53644.58
656.742	53688.87
657.094	53720.51
657.445	53872.37
657.796	53767.29
658.147	53708.31
658.498	53709.66
658.849	53850.9
659.2	53782.43
659.551	53733.16
659.902	53816.33
660.253	53733.39
660.604	53849.32
660.955	53655.2
661.306	53783.11
661.656	53730.45
662.007	53781.52
662.358	53728.42
662.708	53672.6
663.059	53706.27
663.409	53543.34
663.76	53726.84
664.11	53686.84
664.461	53734.29
664.811	53739.04
665.161	53715.08
665.511	53666.95
665.862	53596.22
666.212	53676.22
666.562	53736.33
666.912	53687.51
667.262	53583.56
667.612	53621.75
667.962	53603.68
668.312	53596.67
668.662	53648.87
669.011	53522.1
669.361	53545.15
669.711	53506.95
670.06	53430.35
670.41	53524.36
670.76	53426.96
671.109	53465.37
671.459	53435.32
671.808	53273.51
672.157	53406.62
672.507	53275.32
672.856	53276
673.205	53289.33
673.554	53334.98
673.904	53272.16
674.253	53432.38
674.602	53255.44
674.951	52857.25
675.3	52632.85
675.649	53229.9
675.998	53158.72
676.346	53133.41
676.695	53243.46
677.044	52963.92
677.393	53022.67
677.741	53114.42
678.09	53035.33
678.438	53047.53
678.787	53053.63
679.135	52966.18
679.484	52823.58
679.832	52958.49
680.181	52700.42
680.529	52884.15
680.877	52725.05
681.225	52686.41
681.573	52879.63
681.922	52612.97
682.27	52585.62
682.618	52704.04
682.966	52477.15
683.314	52582.69
683.661	52385.4
684.009	52319.64
684.357	52187.44
684.705	52215.01
685.053	52370.04
685.4	52257.27
685.748	52122.36
686.095	52008.46
686.443	51917.39
686.79	51901.35
687.138	51981.12
687.485	51927.79
687.832	51754.46
688.18	51846.66
688.527	51639.43
688.874	51564.18
689.221	51494.58
689.568	51445.31
689.915	51368.48
690.262	51380
690.609	51194.7
690.956	51241.7
691.303	51133.01
691.65	50901.37
691.997	50958.32
692.344	50682.4
692.69	50730.08
693.037	50792
693.383	50487.15
693.73	50549.97
694.077	50351.11
694.423	50332.12
694.769	50293.93
695.116	50225.46
695.462	50223.65
695.808	49983.43
696.155	50042.41
696.501	49854.85
696.847	49784.79
697.193	49445.59
697.539	49651.91
697.885	49338.93
698.231	49304.13
698.577	49237.69
698.923	49117.47
699.269	48966.28
699.614	48802.22
699.96	48724.93
700.306	48690.58
700.651	48536.46
700.997	48383.7
701.342	48358.62
701.688	48378.5
702.033	48389.58
702.379	48148
702.724	47985.97
703.069	48078.62
703.415	47779.42
703.76	47763.6
704.105	47709.37
704.45	47603.83
704.795	47329.49
705.14	47264.63
705.485	47180.34
705.83	47205.88
706.175	47165.88
706.52	47061.25
706.865	46861.71
707.209	46719.34
707.554	46641.6
707.899	46666.23
708.243	46455.16
708.588	46364.77
708.932	46087.94
709.277	46085.23
709.621	46305.56
709.966	45882.97
710.31	46023.76
710.654	45600.04
710.998	45717.78
711.342	45622.64
711.687	45650.21
712.031	45458.8
712.375	45218.81
712.719	45465.36
713.063	45262.43
713.407	45411.35
713.75	45165.48
714.094	45176.78
714.438	44918.25
714.782	44825.38
715.125	44792.16
715.469	44898.82
715.812	44677.81
716.156	44407.53
716.499	44360.98
716.843	44577.02
717.186	44250.93
717.53	44479.4
717.873	44483.69
718.216	44236.46
718.559	44025.62
718.902	43722.81
719.246	44042.57
719.589	43812.97
719.932	43700.21
720.275	43755.57
720.617	43688.46
720.96	43552.19
721.303	43559.19
721.646	43629.7
721.989	43402.59
722.331	43527.56
722.674	43303.61
723.016	43339.31
723.359	43216.15
723.701	43170.28
724.044	42905.43
724.386	42754.47
724.729	42985.65
725.071	42919.89
725.413	42933.67
725.755	42867.91
726.097	42813.22
726.439	42626.34
726.782	42595.83
727.124	42661.59
727.465	42509.96
727.807	42492.78
728.149	42443.74
728.491	42258.44
728.833	42408.49
729.175	42218.44
729.516	42147.93
729.858	42111.77
730.199	42228.61
730.541	42076.97
730.882	42081.49
731.224	42142.06
731.565	41868.16
731.906	42011.21
732.248	41891.44
732.589	41742.52
732.93	41712.01
733.271	41768.96
733.612	41665.23
733.953	41711.33
734.294	41505.69
734.635	41395.63
734.976	41640.6
735.317	41328.07
735.658	41308.18
735.999	41289.42
736.339	41160.16
736.68	41338.69
737.021	41199.48
737.361	41083.33
737.702	41216.66
738.042	41154.06
738.383	41136.88
738.723	41121.29
739.063	41047.85
739.404	41081.52
739.744	40890.79
740.084	40767.63
740.424	40801.07
740.764	40752.26
741.104	40878.36
741.444	40535.54
741.784	40604.7
742.124	40612.38
742.464	40653.96
742.804	40410.12
743.143	40429.33
743.483	40349.56
743.823	40192.05
744.162	40198.38
744.502	40295.32
744.841	40152.05
745.181	40191.37
745.52	40071.83
745.86	40180.3
746.199	39946.86
746.538	39987.99
746.877	40023.47
747.216	39960.42
747.556	39827.54
747.895	39796.13
748.234	39697.6
748.573	39680.2
748.911	39622.57
749.25	39709.35
749.589	39432.75
749.928	39483.14
750.267	39571.95
750.605	39305.97
750.944	39406.53
751.283	39343.26
751.621	39278.85
751.96	39033.89
752.298	39040.44
752.636	39146.2
752.975	38828.02
753.313	38942.82
753.651	38984.62
753.989	38664.41
754.327	38722.03
754.666	38585.09
755.004	38552.09
755.342	38620.34
755.679	38634.58
756.017	38302.16
756.355	38381.7
756.693	38058.1
757.031	38234.14
757.368	37994.59
757.706	37949.62
758.044	37812.9
758.381	37945.33
758.719	37701.49
759.056	37786.01
759.394	37516.87
759.731	37358.9
