Data from orange_diffuse_book_FLMS001491_00079.txt Node
Date: Wed Feb 08 15:30:02 GMT 2017
User: dcchb
Spectrometer: FLMS00149
Trigger mode: 0
Integration Time (sec): 2.000000E-2
Scans to average: 10
Electric dark correction enabled: true
Nonlinearity correction enabled: false
Boxcar width: 0
XAxis mode: Wavelengths
Number of Pixels in Spectrum: 2048
>>>>>Begin Spectral Data<<<<<
341.393	-19.91
341.776	-19.91
342.16	-19.91
342.543	-73.02
342.927	-61.95
343.31	-63.53
343.693	-72.12
344.077	-79.8
344.46	-48.61
344.843	-63.98
345.226	-39.58
345.61	-38.67
345.993	-28.95
346.376	3.81
346.759	10.14
347.142	29.8
347.525	59.63
347.908	71.38
348.291	61.89
348.674	101.44
349.057	97.14
349.44	143.02
349.823	128.56
350.206	166.07
350.588	205.84
350.971	215.33
351.354	234.99
351.737	245.84
352.119	258.04
352.502	256.91
352.884	287.42
353.267	284.71
353.65	300.98
354.032	320.42
354.414	292.62
354.797	309.57
355.179	319.96
355.562	336.69
355.944	341.88
356.326	345.5
356.709	329.91
357.091	340.98
357.473	331.71
357.855	351.37
358.238	354.31
358.62	333.3
359.002	361.09
359.384	349.79
359.766	361.32
360.148	354.54
360.53	344.14
360.912	359.06
361.294	362.45
361.676	335.33
362.057	347.31
362.439	332.17
362.821	336.01
363.203	320.42
363.584	329.91
363.966	340.53
364.348	345.5
364.729	325.61
365.111	343.01
365.493	316.8
365.874	304.37
366.256	327.42
366.637	323.81
367.019	339.17
367.4	314.77
367.781	302.34
368.163	319.06
368.544	321.55
368.925	320.64
369.306	332.62
369.688	330.58
370.069	354.09
370.45	318.16
370.831	345.73
371.212	335.56
371.593	321.55
371.974	322.22
372.355	340.75
372.736	340.08
373.117	310.25
373.498	311.15
373.879	330.13
374.26	329
374.641	323.81
375.021	326.97
375.402	328.55
375.783	316.35
376.163	339.62
376.544	341.43
376.925	327.65
377.305	330.58
377.686	320.42
378.066	312.28
378.447	356.57
378.827	343.01
379.208	334.65
379.588	337.59
379.968	353.18
380.349	360.64
380.729	339.17
381.109	346.63
381.489	357.25
381.87	348.21
382.25	340.75
382.63	340.53
383.01	338.49
383.39	370.13
383.77	358.38
384.15	357.7
384.53	354.31
384.91	336.91
385.29	352.96
385.67	368.78
386.049	359.96
386.429	367.87
386.809	363.58
387.189	333.07
387.568	387.08
387.948	355.67
388.328	375.78
388.707	359.51
389.087	369
389.466	382.11
389.846	355.44
390.225	365.61
390.605	378.27
390.984	366.97
391.363	383.46
391.743	366.52
392.122	378.94
392.501	392.05
392.881	381.88
393.26	401.09
393.639	388.44
394.018	399.06
394.397	375.1
394.776	379.62
395.155	376.23
395.534	374.43
395.913	377.59
396.292	415.55
396.671	393.86
397.05	401.32
397.429	397.48
397.808	421.66
398.186	394.54
398.565	410.13
398.944	392.5
399.323	407.42
399.701	421.88
400.08	397.7
400.458	425.05
400.837	419.85
401.215	414.88
401.594	399.06
401.972	416.23
402.351	411.71
402.729	422.33
403.107	413.75
403.486	411.94
403.864	435.44
404.242	405.16
404.62	420.75
404.999	412.16
405.377	458.94
405.755	439.73
406.133	434.08
406.511	434.76
406.889	453.75
407.267	461.2
407.645	440.41
408.023	453.29
408.401	458.04
408.779	451.94
409.156	461.2
409.534	479.96
409.912	481.09
410.29	474.54
410.667	472.28
411.045	482.44
411.422	459.39
411.8	492.39
412.178	473.63
412.555	479.06
412.933	480.64
413.31	502.78
413.687	481.77
414.065	488.09
414.442	484.7
414.819	498.72
415.197	504.37
415.574	503.46
415.951	519.96
416.328	514.76
416.705	529.22
417.082	511.82
417.46	524.48
417.837	540.75
418.214	529.45
418.591	535.78
418.967	540.97
419.344	544.14
419.721	548.88
420.098	561.54
420.475	585.95
420.852	538.94
421.228	574.87
421.605	565.61
421.982	564.02
422.358	581.43
422.735	601.99
423.111	607.19
423.488	572.61
423.864	596.79
424.241	551.82
424.617	603.8
424.994	597.02
425.37	592.5
425.746	586.85
426.123	628.43
426.499	620.97
426.875	612.39
427.251	629.79
427.627	620.29
428.003	640.41
428.379	647.86
428.756	646.06
429.132	652.61
429.507	672.27
429.883	652.16
430.259	671.82
430.635	671.82
431.011	662.78
431.387	674.53
431.763	703.46
432.138	679.95
432.514	687.19
432.89	714.98
433.265	720.18
433.641	700.07
434.016	735.09
434.392	726.96
434.767	726.73
435.143	724.7
435.518	741.2
435.894	765.38
436.269	753.85
436.644	774.19
437.02	774.19
437.395	764.25
437.77	758.37
438.145	767.18
438.52	777.58
438.895	792.72
439.271	769.44
439.646	799.05
440.021	791.82
440.395	826.16
440.77	822.55
441.145	811.93
441.52	824.81
441.895	819.16
442.27	831.36
442.645	813.96
443.019	819.84
443.394	808.99
443.769	820.97
444.143	843.11
444.518	862.1
444.892	858.25
445.267	830.91
445.641	869.1
446.016	863.68
446.39	872.94
446.764	883.79
447.139	848.31
447.513	869.1
447.887	877.01
448.262	882.66
448.636	898.71
449.01	910.23
449.384	912.26
449.758	905.71
450.132	916.33
450.506	911.13
450.88	900.74
451.254	898.25
451.628	924.47
452.002	924.92
452.376	927.63
452.75	947.97
453.123	953.84
453.497	949.1
453.871	937.57
454.244	945.03
454.618	995.65
454.992	980.96
455.365	1001.53
455.739	1003.11
456.112	1021.41
456.486	1020.51
456.859	1038.36
457.232	1025.26
457.606	1026.16
457.979	1025.71
458.352	1037.91
458.725	1080.4
459.099	1056.22
459.472	1075.2
459.845	1100.73
460.218	1097.57
460.591	1115.42
460.964	1055.76
461.337	1139.38
461.71	1138.25
462.083	1124.01
462.456	1140.05
462.829	1165.14
463.201	1168.75
463.574	1183.67
463.947	1170.34
464.32	1183.44
464.692	1197.68
465.065	1195.42
465.438	1214.18
465.81	1227.28
466.183	1236.55
466.555	1213.05
466.928	1243.33
467.3	1268.86
467.672	1279.26
468.045	1293.05
468.417	1291.01
468.789	1309.32
469.161	1339.82
469.534	1297.79
469.906	1342.99
470.278	1337.34
470.65	1372.82
471.022	1394.06
471.394	1399.71
471.766	1421.18
472.138	1392.25
472.51	1432.02
472.882	1421.4
473.253	1476.32
473.625	1466.6
473.997	1507.05
474.369	1495.53
474.74	1486.71
475.112	1528.75
475.484	1547.73
475.855	1577.11
476.227	1581.4
476.598	1621.17
476.97	1610.55
477.341	1628.18
477.713	1663.2
478.084	1660.27
478.455	1756.54
478.827	1766.25
479.198	1770.77
479.569	1778
479.94	1838.57
480.311	1854.39
480.682	1856.42
481.053	1887.61
481.424	1918.11
481.795	1942.75
482.166	1978
482.537	2002.4
482.908	2039.01
483.279	2033.36
483.65	2066.13
484.021	2111.1
484.391	2174.6
484.762	2190.87
485.133	2195.62
485.503	2238.78
485.874	2256.64
486.244	2283.75
486.615	2310.87
486.985	2323.98
487.356	2379.34
487.726	2400.13
488.097	2441.94
488.467	2463.18
488.837	2541.6
489.207	2537.53
489.578	2596.06
489.948	2622.73
490.318	2653.91
490.688	2701.14
491.058	2707.7
491.428	2789.73
491.798	2760.58
492.168	2837.64
492.538	2890.97
492.908	2911.08
493.278	2957.63
493.648	2971.19
494.017	3014.81
494.387	3054.81
494.757	3092.09
495.126	3097.74
495.496	3155.37
495.866	3188.36
496.235	3216.16
496.605	3260.68
496.974	3293.44
497.344	3318.53
497.713	3324.63
498.082	3359.66
498.452	3421.12
498.821	3427.45
499.19	3480.11
499.559	3513.33
499.928	3541.8
500.298	3584.28
500.667	3614.34
501.036	3660.44
501.405	3667.9
501.774	3666.99
502.143	3745.18
502.512	3738.18
502.88	3789.93
503.249	3778.18
503.618	3857.72
503.987	3884.16
504.356	3892.75
504.724	3942.92
505.093	3907.89
505.462	3968.91
505.83	4005.52
506.199	4071.96
506.567	4057.72
506.936	4111.73
507.304	4166.42
507.672	4171.16
508.041	4212.29
508.409	4266.3
508.777	4290.25
509.145	4301.1
509.514	4311.72
509.882	4332.29
510.25	4380.2
510.618	4412.29
510.986	4422.45
511.354	4437.82
511.722	4505.84
512.09	4530.25
512.458	4572.28
512.826	4561.89
513.193	4598.49
513.561	4625.16
513.929	4654.09
514.297	4764.14
514.664	4743.12
515.032	4814.76
515.4	4841.43
515.767	4823.35
516.135	4888.66
516.502	4820.64
516.869	4964.59
517.237	4941.99
517.604	4970.91
517.972	5038.03
518.339	5118.48
518.706	5101.08
519.073	5123.68
519.44	5173.85
519.808	5205.26
520.175	5223.11
520.542	5247.97
520.909	5325.03
521.276	5340.4
521.643	5407.74
522.009	5410.45
522.376	5419.26
522.743	5516.66
523.11	5575.19
523.477	5608.41
523.843	5628.98
524.21	5652.93
524.577	5768.41
524.943	5770.89
525.31	5810.44
525.676	5802.53
526.043	5842.76
526.409	5926.82
526.776	5905.35
527.142	5959.82
527.508	5966.59
527.874	6002.3
528.241	6039.59
528.607	6090.21
528.973	6153.93
529.339	6136.08
529.705	6174.05
530.071	6270.09
530.437	6253.14
530.803	6259.24
531.169	6350.77
531.535	6346.25
531.901	6374.27
532.267	6365.45
532.632	6431.44
532.998	6477.54
533.364	6490.42
533.73	6487.71
534.095	6535.39
534.461	6597.99
534.826	6627.37
535.192	6651.55
535.557	6723.86
535.923	6676.18
536.288	6758.89
536.653	6774.71
537.019	6754.82
537.384	6813.58
537.749	6854.25
538.114	6896.51
538.479	6865.33
538.845	6903.97
539.21	6887.7
539.575	6934.48
539.94	6932.9
540.305	6966.79
540.67	6988.49
541.034	7027.36
541.399	7054.48
541.764	7121.82
542.129	7207.92
542.494	7137.86
542.858	7238.65
543.223	7211.99
543.587	7326.56
543.952	7270.74
544.316	7346.9
544.681	7345.99
545.045	7379.21
545.41	7408.14
545.774	7466.44
546.138	7460.34
546.503	7500.57
546.867	7516.61
547.231	7634.8
547.595	7613.78
547.959	7652.2
548.324	7682.03
548.688	7699.88
549.052	7790.95
549.416	7741.24
549.779	7861.91
550.143	7886.09
550.507	7978.75
550.871	7961.12
551.235	7927.45
551.599	8031.17
551.962	8080.66
552.326	8144.16
552.689	8200.89
553.053	8159.76
553.417	8271.62
553.78	8304.61
554.143	8322.69
554.507	8364.72
554.87	8372.63
555.234	8510.03
555.597	8504.38
555.96	8550.26
556.323	8609.24
556.686	8694.66
557.05	8835.45
557.413	8785.73
557.776	8827.08
558.139	8941.88
558.502	9020.98
558.865	9029.56
559.228	9065.72
559.59	9177.13
559.953	9186.85
560.316	9323.79
560.679	9369.89
561.041	9460.51
561.404	9521.98
561.767	9540.74
562.129	9654.63
562.492	9736.66
562.854	9823.67
563.217	9827.74
563.579	9983.44
563.941	10050.33
564.304	10108.86
564.666	10182.3
565.028	10335.07
565.39	10411.68
565.753	10499.13
566.115	10532.8
566.477	10744.77
566.839	10741.38
567.201	10899.12
567.563	11011.89
567.925	11128.72
568.287	11303.18
568.648	11377.07
569.01	11474.25
569.372	11723.73
569.734	11678.76
570.095	11920.34
570.457	12028.58
570.819	12184.96
571.18	12297.95
571.542	12459.31
571.903	12541.34
572.265	12793.76
572.626	12926.64
572.987	13040.08
573.349	13212.73
573.71	13490.24
574.071	13648.2
574.432	13890.68
574.794	14065.14
575.155	14164.35
575.516	14344.91
575.877	14604.33
576.238	14854.27
576.599	15081.16
576.96	15305.11
577.32	15421.26
577.681	15737.64
578.042	16051.53
578.403	16341.91
578.763	16559.08
579.124	16743.26
579.485	17149.35
579.845	17428.89
580.206	17583.24
580.566	17995.43
580.927	18213.96
581.287	18588.86
581.648	18762.42
582.008	19144.55
582.368	19528.5
582.728	19948.83
583.089	20171.19
583.449	20502.03
583.809	20867.22
584.169	21302.24
584.529	21614.32
584.889	22167.3
585.249	22335.88
585.609	22693.84
585.969	23309.87
586.329	23615.62
586.688	24046.12
587.048	24425.32
587.408	24800.45
587.768	25179.65
588.127	25607.21
588.487	25994.77
588.846	26575.09
589.206	26809.21
589.565	27316.77
589.925	27877.66
590.284	28130.76
590.643	28671.76
591.003	29193.1
591.362	29718.06
591.721	30173.64
592.08	30624.03
592.44	31097.91
592.799	31545.58
593.158	31884.33
593.517	32397.54
593.876	33056.28
594.235	33308.25
594.593	33868.46
594.952	34388.67
595.311	34684.48
595.67	35300.29
596.029	35985.92
596.387	36458
596.746	36833.58
597.104	37142.72
597.463	37650.51
597.822	38233.99
598.18	38367.78
598.538	38752.85
598.897	39470.35
599.255	39550.12
599.613	40677.77
599.972	40765.91
600.33	41264.88
600.688	41343.29
601.046	41970.62
601.404	42485.41
601.762	42842.01
602.12	43338.27
602.478	43778.03
602.836	44058.02
603.194	44206.72
603.552	44686.25
603.91	44919.02
604.268	45468.61
604.625	45613.91
604.983	46127.8
605.341	46229.49
605.698	46792.64
606.056	47165.06
606.413	47311.72
606.771	47671.26
607.128	47833.74
607.485	47993.29
607.843	48280.96
608.2	48720.5
608.557	49091.34
608.914	49056.99
609.272	49460.14
609.629	49537.2
609.986	50050.63
610.343	49976.06
610.7	50389.83
611.057	50487.91
611.414	50624.86
611.771	50777.85
612.127	51127.21
612.484	51208.79
612.841	51430.71
613.198	51311.39
613.554	51559.29
613.911	51879.29
614.267	51880.87
614.624	51966.97
614.98	52243.8
615.337	52463.23
615.693	52487.63
616.05	52510.23
616.406	52764.46
616.762	52811.24
617.118	52754.97
617.475	52915.42
617.831	53110.67
618.187	53196.99
618.543	53283.77
618.899	53490.77
619.255	53479.47
619.611	53496.64
619.967	53651.22
620.323	53747.26
620.678	53672.91
621.034	53704.55
621.39	53754.72
621.746	53836.52
622.101	54052.79
622.457	53956.07
622.812	54031.77
623.168	54194.48
623.523	54264.76
623.879	54258.66
624.234	54137.53
624.589	54314.02
624.945	54340.92
625.3	54354.7
625.655	54306.57
626.01	54485.32
626.365	54527.35
626.72	54538.2
627.075	54477.64
627.43	54582.94
627.785	54491.65
628.14	54609.84
628.495	54645.77
628.85	54747.91
629.205	54674.47
629.559	54779.55
629.914	54602.6
630.269	54671.75
630.623	54667.01
630.978	54633.34
631.332	54777.29
631.687	54822.49
632.041	54714.47
632.396	54788.14
632.75	54718.08
633.104	54695.26
633.459	54572.77
633.813	54614.81
634.167	54624.98
634.521	54632.43
634.875	54737.97
635.229	54745.65
635.583	54553.57
635.937	54580.46
636.291	54521.48
636.645	54582.49
636.999	54475.38
637.352	54595.6
637.706	54434.92
638.06	54617.29
638.413	54472.21
638.767	54466.34
639.121	54518.54
639.474	54351.54
639.828	54406.9
640.181	54440.12
640.534	54421.14
640.888	54347.7
641.241	54272.22
641.594	54403.74
641.947	54426.34
642.301	54343.4
642.654	54294.82
643.007	54347.47
643.36	54354.02
643.713	54334.59
644.066	54406.22
644.419	54212.78
644.771	54082.84
645.124	53767.15
645.477	53682.4
645.83	53615.74
646.182	53482.86
646.535	53455.06
646.888	53573.93
647.24	53337.33
647.593	53594.27
647.945	53557.66
648.298	53316.08
648.65	53235.18
649.002	53273.83
649.355	53384.1
649.707	53308.4
650.059	53439.7
650.411	53756.3
650.763	53770.99
651.115	54064.76
651.467	53936.63
651.819	54003.07
652.171	53942.73
652.523	53865.22
652.875	53980.02
653.227	53747.03
653.578	53963.07
653.93	53924.43
654.282	53752.68
654.633	53814.83
654.985	53886.46
655.337	53782.51
655.688	53876.07
656.039	53942.06
656.391	53693.25
656.742	53728.28
657.094	53796.75
657.445	53897.31
657.796	53759.91
658.147	53729.41
658.498	53686.02
658.849	53793.81
659.2	53798.33
659.551	53682.4
659.902	53740.48
660.253	53727.37
660.604	53768.05
660.955	53635.62
661.306	53786.35
661.656	53664.55
662.007	53723.98
662.358	53714.27
662.708	53714.27
663.059	53557.89
663.409	53537.32
663.76	53754.04
664.11	53652.57
664.461	53759.46
664.811	53708.16
665.161	53675.17
665.511	53573.7
665.862	53487.83
666.212	53662.97
666.562	53664.55
666.912	53578
667.262	53572.35
667.612	53590.43
667.962	53590.43
668.312	53539.58
668.662	53677.2
669.011	53599.24
669.361	53514.04
669.711	53507.49
670.06	53438.34
670.41	53414.16
670.76	53348.4
671.109	53519.24
671.459	53466.59
671.808	53324.9
672.157	53324.45
672.507	53161.29
672.856	53210.32
673.205	53201.28
673.554	53291.9
673.904	53121.29
674.253	53403.77
674.602	53151.79
674.951	52765.36
675.3	52634.07
675.649	53147.27
675.998	53138.69
676.346	53005.58
676.695	53169.42
677.044	52905.93
677.393	53024.34
677.741	53034.06
678.09	52894.4
678.438	52883.55
678.787	52941.86
679.135	52977.11
679.484	52841.97
679.832	52874.06
680.181	52701.18
680.529	52808.75
680.877	52767.17
681.225	52653.95
681.573	52874.06
681.922	52594.75
682.27	52653.5
682.618	52596.33
682.966	52473.17
683.314	52558.59
683.661	52477.24
684.009	52297.81
684.357	52278.37
684.705	52149.11
685.053	52234.76
685.4	52239.28
685.748	51977.14
686.095	51927.42
686.443	51948.44
686.79	51887.87
687.138	51872.51
687.485	51877.03
687.832	51754.77
688.18	51718.61
688.527	51514.32
688.874	51531.05
689.221	51515.23
689.568	51360.2
689.915	51376.25
690.262	51243.14
690.609	51202.69
690.956	51056.71
691.303	51140.55
691.65	50785.98
691.997	50868.69
692.344	50762.48
692.69	50622.14
693.037	50658.3
693.383	50435.93
693.73	50606.55
694.077	50284.53
694.423	50354.13
694.769	50308.93
695.116	50221.02
695.462	50186.45
695.808	49887.7
696.155	50037.75
696.501	49816.06
696.847	49661.49
697.193	49498.33
697.539	49579.91
697.885	49336.98
698.231	49255.85
698.577	49215.4
698.923	49212.24
699.269	49010.66
699.614	48803.66
699.96	48686.38
700.306	48786.71
700.651	48494.29
700.997	48411.13
701.342	48322.99
701.688	48268.99
702.033	48180.4
702.379	48169.78
702.724	48096.11
703.069	48100.85
703.415	47526.41
703.76	47710.58
704.105	47885.04
704.45	47537.03
704.795	47304.26
705.14	47296.58
705.485	47247.54
705.83	47076.93
706.175	47086.42
706.52	46949.25
706.865	46709.93
707.209	46783.37
707.554	46644.85
707.899	46801.68
708.243	46366.44
708.588	46368.47
708.932	46240.56
709.277	46082.6
709.621	46054.13
709.966	45798.09
710.31	45941.59
710.654	45684.19
710.998	45838.54
711.342	45721.26
711.687	45589.06
712.031	45346.8
712.375	45199.24
712.719	45196.07
713.063	45145.23
713.407	45309.97
713.75	45156.3
714.094	44938.9
714.438	44839.92
714.782	44868.17
715.125	44624.11
715.469	44892.8
715.812	44668.4
716.156	44368.75
716.499	44457.79
716.843	44412.82
717.186	44309.09
717.53	44530.33
717.873	44512.7
718.216	44114.29
718.559	44067.29
718.902	43848.99
719.246	43985.03
719.589	43776.9
719.932	43696.9
720.275	43608.99
720.617	43647.64
720.96	43602.89
721.303	43623.23
721.646	43507.3
721.989	43267.08
722.331	43487.87
722.674	43366.74
723.016	43344.37
723.359	43156.35
723.701	43232.73
724.044	42870.93
724.386	42977.15
724.729	43029.8
725.071	42830.26
725.413	42717.49
725.755	42778.96
726.097	42783.71
726.439	42439.76
726.782	42642.47
727.124	42549.14
727.465	42489.02
727.807	42542.13
728.149	42387.11
728.491	42325.19
728.833	42354.34
729.175	42334
729.516	42113.21
729.858	42072.31
730.199	42170.61
730.541	41950.51
730.882	41938.53
731.224	42250.84
731.565	41833.67
731.906	41918.19
732.248	41871.41
732.589	41600.23
732.93	41478.43
733.271	41684.75
733.612	41609.73
733.953	41609.05
734.294	41546.45
734.635	41496.73
734.976	41631.87
735.317	41304.2
735.658	41373.57
735.999	41243.86
736.339	41293.12
736.68	41342.39
737.021	41140.58
737.361	41019.91
737.702	41180.13
738.042	41066.01
738.383	40975.62
738.723	41131.77
739.063	40972.68
739.404	41022.17
739.744	40800.48
740.084	40745.79
740.424	40910.53
740.764	40663.31
741.104	40819.24
741.444	40550.77
741.784	40546.7
742.124	40598.68
742.464	40560.04
742.804	40527.72
743.143	40456.54
743.483	40367.5
743.823	40194.4
744.162	40227.16
744.502	40198.91
744.841	40072.36
745.181	40347.84
745.52	40054.96
745.86	40139.03
746.199	40041.4
746.538	40099.48
746.877	40014.74
747.216	40067.62
747.556	39754.41
747.895	39924.35
748.234	39721.64
748.573	39657.91
748.911	39743.56
749.25	39682.09
749.589	39531.14
749.928	39656.1
750.267	39643.22
750.605	39434.19
750.944	39330.46
751.283	39293.63
751.621	39398.94
751.96	39132.5
752.298	39281.2
752.636	39175.44
752.975	39090.24
753.313	38798.27
753.651	39016.8
753.989	38778.39
754.327	38672.85
754.666	38532.74
755.004	38612.06
755.342	38619.52
755.679	38524.83
756.017	38305.18
756.355	38440.99
756.693	38063.38
757.031	38231.06
757.368	38048.01
757.706	38079.42
758.044	37801.24
758.381	37827
758.719	37656.61
759.056	37812.31
