Data from orange_diffuse_book_FLMS001491_00050.txt Node
Date: Wed Feb 08 15:29:38 GMT 2017
User: dcchb
Spectrometer: FLMS00149
Trigger mode: 0
Integration Time (sec): 2.000000E-2
Scans to average: 10
Electric dark correction enabled: true
Nonlinearity correction enabled: false
Boxcar width: 0
XAxis mode: Wavelengths
Number of Pixels in Spectrum: 2048
>>>>>Begin Spectral Data<<<<<
341.393	4.17
341.776	4.17
342.16	4.17
342.543	-41.26
342.927	-74.02
343.31	-76.51
343.693	-69.05
344.077	-73.8
344.46	-47.58
344.843	-55.49
345.226	-52.1
345.61	-30.18
345.993	-23.18
346.376	-3.29
346.759	8.46
347.142	17.5
347.525	45.07
347.908	70.38
348.291	88.68
348.674	91.4
349.057	109.7
349.44	127.55
349.823	143.15
350.206	150.83
350.588	211.62
350.971	215.46
351.354	227.44
351.737	247.32
352.119	247.1
352.502	267.89
352.884	290.71
353.267	309.24
353.65	322.8
354.032	298.62
354.414	312.63
354.797	327.32
355.179	315.34
355.562	321.9
355.944	333.2
356.326	344.04
356.709	333.42
357.091	328.9
357.473	347.21
357.855	367.09
358.238	348.34
358.62	340.88
359.002	350.37
359.384	351.28
359.766	340.2
360.148	350.82
360.53	333.65
360.912	345.17
361.294	347.66
361.676	338.85
362.057	352.86
362.439	327.55
362.821	330.71
363.203	345.85
363.584	324.16
363.966	331.16
364.348	331.39
364.729	328.45
365.111	309.92
365.493	355.12
365.874	323.25
366.256	330.26
366.637	327.77
367.019	343.14
367.4	325.51
367.781	325.74
368.163	313.08
368.544	313.31
368.925	331.84
369.306	334.55
369.688	328.23
370.069	301.79
370.45	304.72
370.831	342.46
371.212	328.68
371.593	328
371.974	309.02
372.355	334.55
372.736	324.61
373.117	340.2
373.498	328.23
373.879	322.58
374.26	310.37
374.641	319.64
375.021	332.52
375.402	313.31
375.783	325.74
376.163	332.52
376.544	337.49
376.925	337.72
377.305	347.43
377.686	340.65
378.066	341.33
378.447	317.15
378.827	334.55
379.208	346.53
379.588	334.33
379.968	359.19
380.349	352.63
380.729	335.01
381.109	336.14
381.489	334.55
381.87	353.54
382.25	344.72
382.63	328.68
383.01	363.03
383.39	358.51
383.77	337.94
384.15	364.16
384.53	352.18
384.91	370.03
385.29	365.51
385.67	377.04
386.049	364.38
386.429	377.49
386.809	372.97
387.189	349.24
387.568	368.68
387.948	380.65
388.328	376.81
388.707	337.94
389.087	364.61
389.466	367.09
389.846	376.13
390.225	368.45
390.605	360.32
390.984	371.16
391.363	378.39
391.743	375.91
392.122	360.99
392.501	390.82
392.881	389.69
393.26	387.43
393.639	391.05
394.018	391.5
394.397	398.05
394.776	376.36
395.155	385.63
395.534	395.79
395.913	392.18
396.292	390.6
396.671	408.22
397.05	390.15
397.429	409.35
397.808	408.9
398.186	388.56
398.565	375.46
398.944	401.44
399.323	393.76
399.701	405.51
400.08	412.97
400.458	401.22
400.837	389.92
401.215	410.71
401.594	421.1
401.972	415.68
402.351	401.44
402.729	410.26
403.107	410.71
403.486	408.22
403.864	415.46
404.242	403.7
404.62	418.62
404.999	419.75
405.377	417.04
405.755	406.19
406.133	427.43
406.511	429.69
406.889	435.34
407.267	437.83
407.645	437.38
408.023	447.77
408.401	460.88
408.779	455
409.156	464.04
409.534	465.17
409.912	476.92
410.29	459.3
410.667	469.92
411.045	477.83
411.422	483.7
411.8	499.52
412.178	465.85
412.555	484.83
412.933	476.02
413.31	489.35
413.687	490.71
414.065	510.59
414.442	497.26
414.819	492.29
415.197	494.78
415.574	506.75
415.951	511.27
416.328	538.16
416.705	513.08
417.082	530.71
417.46	512.18
417.837	514.66
418.214	520.54
418.591	548.11
418.967	524.6
419.344	563.25
419.721	541.55
420.098	551.27
420.475	544.04
420.852	532.29
421.228	558.73
421.605	545.17
421.982	564.6
422.358	573.42
422.735	572.97
423.111	565.28
423.488	585.85
423.864	554.21
424.241	585.39
424.617	573.19
424.994	605.28
425.37	592.17
425.746	605.96
426.123	607.31
426.499	617.26
426.875	606.41
427.251	616.13
427.627	616.35
428.003	615
428.379	627.88
428.756	641.21
429.132	633.53
429.507	655.22
429.883	639.4
430.259	645.28
430.635	669.23
431.011	653.87
431.387	680.98
431.763	685.96
432.138	665.17
432.514	685.5
432.89	697.93
433.265	720.98
433.641	702
434.016	696.35
434.392	725.73
434.767	732.51
435.143	723.24
435.518	739.29
435.894	747.65
436.269	752.62
436.644	732.28
437.02	777.48
437.395	768.44
437.77	753.75
438.145	795.11
438.52	790.13
438.895	801.89
439.271	785.16
439.646	783.36
440.021	791.94
440.395	791.49
440.77	782.9
441.145	812.05
441.52	818.83
441.895	796.69
442.27	832.39
442.645	825.61
443.019	826.07
443.394	834.2
443.769	861.09
444.143	845.5
444.518	845.73
444.892	863.58
445.267	863.8
445.641	874.2
446.016	867.65
446.39	864.26
446.764	862.45
447.139	863.13
447.513	870.13
447.887	865.61
448.262	899.51
448.636	865.61
449.01	875.56
449.384	906.97
449.758	890.24
450.132	901.54
450.506	915.33
450.88	933.41
451.254	960.07
451.628	921.66
452.002	953.52
452.376	947.42
452.75	959.4
453.123	940.41
453.497	957.14
453.871	965.95
454.244	963.69
454.618	990.81
454.992	1007.53
455.365	977.25
455.739	989.45
456.112	1009.79
456.486	1036.23
456.859	1020.19
457.232	1026.96
457.606	1030.81
457.979	1061.54
458.352	1044.37
458.725	1084.14
459.099	1063.35
459.472	1094.99
459.845	1078.94
460.218	1081.43
460.591	1110.13
460.964	1105.38
461.337	1129.56
461.71	1137.47
462.083	1152.38
462.456	1130.69
462.829	1140.18
463.201	1166.62
463.574	1166.17
463.947	1173.4
464.32	1179.73
464.692	1216.56
465.065	1170.24
465.438	1218.15
465.81	1233.96
466.183	1228.32
466.555	1265.83
466.928	1264.25
467.3	1273.74
467.672	1287.75
468.045	1296.11
468.417	1289.1
468.789	1319.61
469.161	1341.76
469.534	1333.17
469.906	1360.74
470.278	1367.75
470.65	1380.63
471.022	1391.7
471.394	1410.91
471.766	1434.41
472.138	1430.34
472.51	1429.67
472.882	1476.44
473.253	1477.12
473.625	1471.25
473.997	1521.64
474.369	1538.82
474.74	1545.59
475.112	1562.54
475.484	1597.57
475.855	1634.63
476.227	1613.84
476.598	1642.09
476.97	1690.22
477.341	1700.39
477.713	1734.97
478.084	1721.64
478.455	1756.66
478.827	1779.04
479.198	1803.22
479.569	1829.88
479.94	1873.04
480.311	1885.02
480.682	1913.49
481.053	1959.82
481.424	1958.24
481.795	1943.55
482.166	2037.11
482.537	2031.01
482.908	2078.46
483.279	2092.47
483.65	2137.44
484.021	2151
484.391	2166.14
484.762	2189.65
485.133	2260.83
485.503	2273.71
485.874	2319.81
486.244	2310.32
486.615	2351.45
486.985	2400.71
487.356	2439.58
487.726	2416.31
488.097	2489.07
488.467	2530.2
488.837	2552.35
489.207	2584.89
489.578	2644.55
489.948	2677.32
490.318	2695.62
490.688	2687.49
491.058	2723.87
491.428	2791.21
491.798	2853.13
492.168	2864.43
492.538	2919.8
492.908	2953.92
493.278	2994.37
493.648	2981.72
494.017	3058.55
494.387	3086.35
494.757	3102.84
495.126	3140.36
495.496	3159.34
495.866	3174.03
496.235	3250.41
496.605	3276.17
496.974	3352.33
497.344	3337.86
497.713	3351.88
498.082	3363.4
498.452	3418.31
498.821	3440.01
499.19	3467.58
499.559	3477.75
499.928	3542.83
500.298	3601.36
500.667	3637.74
501.036	3611.76
501.405	3665.31
501.774	3694.01
502.143	3729.94
502.512	3739.89
502.88	3788.02
503.249	3815.59
503.618	3817.17
503.987	3854.69
504.356	3875.03
504.724	3897.17
505.093	3940.11
505.462	3914.8
505.83	3979.43
506.199	4047.22
506.567	4037.96
506.936	4043.38
507.304	4110.05
507.672	4119.09
508.041	4160.22
508.409	4191.18
508.777	4242.7
509.145	4251.96
509.514	4237.05
509.882	4326.09
510.25	4311.17
510.618	4337.16
510.986	4381
511.354	4430.94
511.722	4460.55
512.09	4476.14
512.458	4543.03
512.826	4567.66
513.193	4551.39
513.561	4569.47
513.929	4613.76
514.297	4681.56
514.664	4730.14
515.032	4718.84
515.4	4782.8
515.767	4792.97
516.135	4809.24
516.502	4842.68
516.869	4894.66
517.237	4934.66
517.604	4938.95
517.972	4987.76
518.339	4990.25
518.706	5044.71
519.073	5074.99
519.44	5077.48
519.808	5135.33
520.175	5184.82
520.542	5175.56
520.909	5232.96
521.276	5224.59
521.643	5317.25
522.009	5374.87
522.376	5392.05
522.743	5421.65
523.11	5429.79
523.477	5491.93
523.843	5506.39
524.21	5559.73
524.577	5655.77
524.943	5659.61
525.31	5704.13
525.676	5770.34
526.043	5785.26
526.409	5788.42
526.776	5836.78
527.142	5871.58
527.508	5873.39
527.874	6007.85
528.241	6003.1
528.607	5997.23
528.973	6043.78
529.339	6048.3
529.705	6134.85
530.071	6131.92
530.437	6091.92
530.803	6220.5
531.169	6264.57
531.535	6234.96
531.901	6328.75
532.267	6293.49
532.632	6362.19
532.998	6379.14
533.364	6420.5
533.73	6474.73
534.095	6460.04
534.461	6493.71
534.826	6595.63
535.192	6590.66
535.557	6617.33
535.923	6612.58
536.288	6637.66
536.653	6698.68
537.019	6661.39
537.384	6760.15
537.749	6720.6
538.114	6785.01
538.479	6801.95
538.845	6856.19
539.21	6858.9
539.575	6835.85
539.94	6853.03
540.305	6947.26
540.67	6946.58
541.034	6973.25
541.399	7035.85
541.764	7062.51
542.129	7114.04
542.494	7138.89
542.858	7102.96
543.223	7186.8
543.587	7210.98
543.952	7215.05
544.316	7195.84
544.681	7260.92
545.045	7318.78
545.41	7393.35
545.774	7391.32
546.138	7309.96
546.503	7416.18
546.867	7493.69
547.231	7497.98
547.595	7511.77
547.959	7584.53
548.324	7559
548.688	7617.07
549.052	7683.51
549.416	7717.41
549.779	7780.91
550.143	7750.63
550.507	7829.95
550.871	7878.54
551.235	7902.72
551.599	7926.9
551.962	7961.92
552.326	8036.5
552.689	8128.92
553.053	8051.19
553.417	8218.19
553.78	8240.56
554.143	8217.51
554.507	8311.97
554.87	8368.01
555.234	8470.38
555.597	8474.23
555.96	8499.76
556.323	8529.59
556.686	8544.51
557.05	8702.24
557.413	8661.34
557.776	8761.22
558.139	8837.61
558.502	8826.99
558.865	8917.83
559.228	8965.96
559.59	9012.97
559.953	9086.19
560.316	9270.36
560.679	9249.57
561.041	9353.75
561.404	9385.16
561.767	9473.75
562.129	9513.52
562.492	9642.11
562.854	9672.16
563.217	9707.19
563.579	9801.42
563.941	9888.43
564.304	10052.72
564.666	10126.16
565.028	10196.89
565.39	10227.85
565.753	10345.36
566.115	10401.41
566.477	10570.44
566.839	10617.45
567.201	10831
567.563	10796.88
567.925	10939.25
568.287	11125
568.648	11219.01
569.01	11252.23
569.372	11464.2
569.734	11541.04
570.095	11639.34
570.457	11816.51
570.819	11904.42
571.18	12141.93
571.542	12183.51
571.903	12309.15
572.265	12542.37
572.626	12698.75
572.987	12790.5
573.349	13051.73
573.71	13105.74
574.071	13309.35
574.432	13470.03
574.794	13683.81
575.155	13933.07
575.516	14049.9
575.877	14282.21
576.238	14489.44
576.599	14765.36
576.96	14950.89
577.32	15089.65
577.681	15364.44
578.042	15534.38
578.403	15916.29
578.763	16026.34
579.124	16349.05
579.485	16612.09
579.845	16933.21
580.206	17195.58
580.566	17523.71
580.927	17743.36
581.287	18121.2
581.648	18221.31
582.008	18720.06
582.368	18971.13
582.728	19184.23
583.089	19672.8
583.449	19884.32
583.809	20289.28
584.169	20647.24
584.529	20887.23
584.889	21369.25
585.249	21632.07
585.609	22016.02
585.969	22469.11
586.329	22765.15
586.688	23256.21
587.048	23488.07
587.408	23901.62
587.768	24332.34
588.127	24741.6
588.487	25115.82
588.846	25705.41
589.206	25896.82
589.565	26278.05
589.925	26882.1
590.284	27167.52
590.643	27618.58
591.003	28167.49
591.362	28725.45
591.721	29002.27
592.08	29344.41
592.44	29873.66
592.799	30366.98
593.158	30801.1
593.517	31199.96
593.876	31717.01
594.235	32072.02
594.593	32578.68
594.952	32992.45
595.311	33425.43
595.67	33858.19
596.029	34503.37
596.387	34953.53
596.746	35447.3
597.104	35741.98
597.463	36158.02
597.822	36693.15
598.18	36860.37
598.538	37356.4
598.897	37978.76
599.255	38043.39
599.613	38980.54
599.972	39070.71
600.33	39695.1
600.688	39805.38
601.046	40432.48
601.404	40952.47
601.762	41287.15
602.12	41765.78
602.478	42111.31
602.836	42439.66
603.194	42525.31
603.552	43042.13
603.91	43226.08
604.268	43856.12
604.625	43896.35
604.983	44412.26
605.341	44622.65
605.698	45088.4
606.056	45398.45
606.413	45696.75
606.771	45978.78
607.128	46429.84
607.485	46345.32
607.843	46689.94
608.2	47065.75
608.557	47454.22
608.914	47550.49
609.272	48076.57
609.629	48257.59
609.986	48432.27
610.343	48352.27
610.7	48977.79
611.057	48991.58
611.414	49152.03
611.771	49304.57
612.127	49591.34
612.484	49781.39
612.841	49922.63
613.198	50010.99
613.554	50086.24
613.911	50453.01
614.267	50502.05
614.624	50557.87
614.98	50827.24
615.337	51052.32
615.693	51196.72
616.05	51216.38
616.406	51486.88
616.762	51523.26
617.118	51518.52
617.475	51618.85
617.831	51831.96
618.187	51900.2
618.543	52068.56
618.899	52176.13
619.255	52199.63
619.611	52216.13
619.967	52449.79
620.323	52594.65
620.678	52456.35
621.034	52470.81
621.39	52511.03
621.746	52506.06
622.101	52885.71
622.457	52709.45
622.812	52838.03
623.168	52823.79
623.523	52961.19
623.879	53024.24
624.234	52930.46
624.589	53157.8
624.945	53230.11
625.3	53190.11
625.655	53274.18
626.01	53306.04
626.365	53354.18
626.72	53301.52
627.075	53327.28
627.43	53343.56
627.785	53292.93
628.14	53396.21
628.495	53560.05
628.85	53505.81
629.205	53420.16
629.559	53540.84
629.914	53439.15
630.269	53506.94
630.623	53451.12
630.978	53344.23
631.332	53554.85
631.687	53590.55
632.041	53478.92
632.396	53568.86
632.75	53455.19
633.104	53627.39
633.459	53406.83
633.813	53406.15
634.167	53420.62
634.521	53431.24
634.875	53484.34
635.229	53477.34
635.583	53310.79
635.937	53384.68
636.291	53395.31
636.645	53445.47
636.999	53345.59
637.352	53365.25
637.706	53240.51
638.06	53374.06
638.413	53327.74
638.767	53169.77
639.121	53326.61
639.474	53183.11
639.828	53129.55
640.181	53215.42
640.534	53203.9
640.888	53144.69
641.241	53047.97
641.594	53090
641.947	53252.71
642.301	53067.18
642.654	53206.84
643.007	53194.86
643.36	53106.73
643.713	53070.12
644.066	53226.04
644.419	52898.14
644.771	52773.63
645.124	52595.1
645.477	52493.86
645.83	52255.45
646.182	52220.65
646.535	52243.92
646.888	52329.57
647.24	52083.25
647.593	52345.39
647.945	52184.94
648.298	52057.04
648.65	51996.25
649.002	51904.95
649.355	51967.55
649.707	52023.14
650.059	52138.61
650.411	52543.58
650.763	52622.9
651.115	52860.86
651.467	52713.52
651.819	52788.77
652.171	52662.44
652.523	52703.35
652.875	52724.14
653.227	52513.75
653.578	52771.37
653.93	52610.47
654.282	52514.88
654.633	52461.54
654.985	52601.2
655.337	52624.03
655.688	52623.8
656.039	52764.36
656.391	52485.72
656.742	52581.54
657.094	52553.29
657.445	52661.54
657.796	52579.96
658.147	52538.6
658.498	52490.02
658.849	52659.05
659.2	52425.84
659.551	52492.73
659.902	52545.61
660.253	52515.55
660.604	52574.99
660.955	52423.13
661.306	52479.4
661.656	52422.45
662.007	52395.78
662.358	52430.13
662.708	52460.41
663.059	52401.66
663.409	52270.36
663.76	52543.35
664.11	52411.38
664.461	52510.13
664.811	52339.51
665.161	52392.39
665.511	52357.82
665.862	52318.05
666.212	52405.73
666.562	52473.75
666.912	52339.29
667.262	52359.4
667.612	52330.02
667.962	52354.65
668.312	52306.07
668.662	52452.05
669.011	52338.61
669.361	52312.62
669.711	52285.5
670.06	52253.19
670.41	52129.35
670.76	52164.15
671.109	52260.65
671.459	52218.16
671.808	52091.61
672.157	52120.08
672.507	51986.98
672.856	51994.66
673.205	52032.18
673.554	52115.56
673.904	52022.91
674.253	52077.15
674.602	52013.19
674.951	51645.97
675.3	51373.21
675.649	51908.79
675.998	51898.85
676.346	51911.95
676.695	51939.3
677.044	51641
677.393	51751.73
677.741	51809.81
678.09	51681.23
678.438	51725.52
678.787	51845.29
679.135	51726.42
679.484	51509.93
679.832	51638.52
680.181	51355.36
680.529	51520.78
680.877	51368.47
681.225	51372.08
681.573	51644.62
681.922	51408.24
682.27	51335.02
682.618	51222.71
682.966	51159.21
683.314	51234.46
683.661	51142.48
684.009	50966.89
684.357	50977.97
684.705	51024.52
685.053	50966.22
685.4	50815.26
685.748	50730.52
686.095	50690.74
686.443	50534.59
686.79	50503.63
687.138	50600.8
687.485	50477.64
687.832	50457.08
688.18	50422.28
688.527	50217.76
688.874	50214.37
689.221	50216.63
689.568	50067.48
689.915	49942.74
690.262	49948.84
690.609	49828.39
690.956	49693.48
691.303	49633.37
691.65	49573.26
691.997	49528.06
692.344	49228.18
692.69	49180.05
693.037	49399.03
693.383	48892.6
693.73	49164.68
694.077	48790.68
694.423	48865.71
694.769	48782.09
695.116	48734.64
695.462	48671.81
695.808	48463.91
696.155	48560.63
696.501	48118.61
696.847	48264.59
697.193	47942.57
697.539	48084.71
697.885	47834.1
698.231	47665.29
698.577	47686.75
698.923	47570.83
699.269	47327.89
699.614	47290.61
699.96	47139.42
700.306	47282.02
700.651	46933.78
700.997	46911.18
701.342	46888.81
701.688	46862.6
702.033	46690.17
702.379	46536.05
702.724	46540.34
703.069	46526.33
703.415	46122.73
703.76	46137.19
704.105	46148.49
704.45	45949.63
704.795	45863.53
705.14	45702.85
705.485	45689.52
705.83	45536.75
706.175	45600.48
706.52	45376.76
706.865	45133.6
707.209	45078.91
707.554	44816.77
707.899	45184.67
708.243	44738.13
708.588	44866.72
708.932	44445.03
709.277	44552.37
709.621	44491.13
709.966	44281.65
710.31	44445.03
710.654	43993.74
710.998	44174.98
711.342	44088.43
711.687	44108.32
712.031	43859.28
712.375	43624.94
712.719	43815.44
713.063	43668.33
713.407	43621.55
713.75	43516.02
714.094	43551.04
714.438	43197.61
714.782	43405.96
715.125	43009.59
715.469	43248.68
715.812	43017.27
716.156	42794.68
716.499	42841.68
716.843	42858.18
717.186	42680.56
717.53	42843.49
717.873	42814.11
718.216	42600.33
718.559	42446.89
718.902	42250.74
719.246	42386.55
719.589	42194.47
719.932	42029.95
720.275	42112.44
720.617	42109.95
720.96	42047.13
721.303	42024.98
721.646	41945.44
721.989	41756.29
722.331	41848.72
722.674	41722.39
723.016	41861.6
723.359	41693.47
723.701	41711.32
724.044	41382.74
724.386	41133.03
724.729	41545.9
725.071	41293.48
725.413	41359.24
725.755	41341.61
726.097	41065.01
726.439	40891.91
726.782	40929.19
727.124	41246.7
727.465	40981.85
727.807	40897.33
728.149	40946.82
728.491	40662.98
728.833	40823.66
729.175	40622.31
729.516	40582.76
729.858	40642.19
730.199	40734.62
730.541	40436.55
730.882	40481.07
731.224	40639.71
731.565	40262.77
731.906	40322.2
732.248	40397.23
732.589	40124.92
732.93	40110
733.271	40103.9
733.612	40149.33
733.953	40273.84
734.294	39891.25
734.635	39951.59
734.976	39906.85
735.317	39686.96
735.658	39759.73
735.999	39818.49
736.339	39677.25
736.68	39712.95
737.021	39837.02
737.361	39552.73
737.702	39696.91
738.042	39587.98
738.383	39495.78
738.723	39629.79
739.063	39368.33
739.404	39395.9
739.744	39412.17
740.084	39298.5
740.424	39347.54
740.764	39206.75
741.104	39367.65
741.444	39018.96
741.784	38995.01
742.124	39035.23
742.464	38947.78
742.804	39087.88
743.143	38740.1
743.483	38897.83
743.823	38821.45
744.162	38766.31
744.502	38680.21
744.841	38513.66
745.181	38675.01
745.52	38459.2
745.86	38653.55
746.199	38500.56
746.538	38483.61
746.877	38570.38
747.216	38446.77
747.556	38354.57
747.895	38378.75
748.234	38142.15
748.573	38076.39
748.911	38142.82
749.25	38143.05
749.589	38015.6
749.928	38061.24
750.267	38127.68
750.605	37890.63
750.944	37818.99
751.283	37825.32
751.621	37775.83
751.96	37517.53
752.298	37606.79
752.636	37626.23
752.975	37472.56
753.313	37479.11
753.651	37525.89
753.989	37157.09
754.327	37302.62
754.666	37051.33
755.004	37107.6
755.342	37182.4
755.679	37056.3
756.017	36780.37
756.355	36874.16
756.693	36611.11
757.031	36660.15
757.368	36526.82
757.706	36550.55
758.044	36361.85
758.381	36469.65
758.719	36299.71
759.056	36374.74
759.394	36188.07
