Data from orange_diffuse_book_FLMS001491_00029.txt Node
Date: Wed Feb 08 15:29:21 GMT 2017
User: dcchb
Spectrometer: FLMS00149
Trigger mode: 0
Integration Time (sec): 2.000000E-2
Scans to average: 10
Electric dark correction enabled: true
Nonlinearity correction enabled: false
Boxcar width: 0
XAxis mode: Wavelengths
Number of Pixels in Spectrum: 2048
>>>>>Begin Spectral Data<<<<<
341.393	-8.04
341.776	-8.04
342.16	-8.04
342.543	-92.78
342.927	-82.38
343.31	-69.96
343.693	-64.53
344.077	-73.57
344.46	-62.05
344.843	-34.02
345.226	-37.64
345.61	-33.12
345.993	-29.96
346.376	-21.82
346.759	19.76
347.142	18.86
347.525	48.01
347.908	55.69
348.291	86.65
348.674	92.98
349.057	104.73
349.44	119.19
349.823	135.91
350.206	150.6
350.588	223.37
350.971	221.56
351.354	239.87
351.737	251.39
352.119	291.16
352.502	279.41
352.884	283.93
353.267	294.33
353.65	322.8
354.032	306.76
354.414	324.38
354.797	314.44
355.179	341.11
355.562	339.75
355.944	333.65
356.326	352.18
356.709	365.06
357.091	331.39
357.473	355.8
357.855	355.57
358.238	337.04
358.62	349.47
359.002	337.72
359.384	346.76
359.766	355.34
360.148	369.58
360.53	349.24
360.912	339.98
361.294	359.64
361.676	343.82
362.057	338.85
362.439	356.7
362.821	346.76
363.203	313.31
363.584	334.33
363.966	334.33
364.348	320.54
364.729	320.54
365.111	337.94
365.493	319.41
365.874	329.81
366.256	344.27
366.637	339.98
367.019	327.1
367.4	340.43
367.781	320.99
368.163	318.96
368.544	311.96
368.925	331.84
369.306	335.68
369.688	333.88
370.069	332.52
370.45	311.05
370.831	329.13
371.212	323.71
371.593	318.28
371.974	320.54
372.355	337.72
372.736	333.42
373.117	330.03
373.498	329.81
373.879	338.17
374.26	323.25
374.641	321.67
375.021	326.42
375.402	335.23
375.783	317.38
376.163	355.12
376.544	336.59
376.925	331.62
377.305	338.4
377.686	334.33
378.066	330.49
378.447	334.1
378.827	341.78
379.208	335.01
379.588	340.43
379.968	341.11
380.349	341.11
380.729	355.12
381.109	355.8
381.489	360.09
381.87	347.21
382.25	344.5
382.63	348.34
383.01	353.76
383.39	351.05
383.77	365.74
384.15	341.33
384.53	374.78
384.91	376.36
385.29	356.25
385.67	385.4
386.049	351.95
386.429	353.54
386.809	362.58
387.189	354.44
387.568	365.51
387.948	359.19
388.328	385.63
388.707	366.64
389.087	355.8
389.466	363.03
389.846	360.09
390.225	397.83
390.605	376.81
390.984	343.82
391.363	395.12
391.743	379.75
392.122	402.8
392.501	393.76
392.881	392.4
393.26	396.02
393.639	373.65
394.018	386.98
394.397	390.37
394.776	409.81
395.155	405.51
395.534	403.7
395.913	406.42
396.292	383.37
396.671	412.52
397.05	396.92
397.429	403.25
397.808	407.55
398.186	415.46
398.565	407.09
398.944	396.92
399.323	390.82
399.701	399.86
400.08	418.17
400.458	425.85
400.837	403.48
401.215	388.56
401.594	426.98
401.972	419.52
402.351	431.5
402.729	405.96
403.107	434.66
403.486	421.56
403.864	397.83
404.242	440.31
404.62	427.43
404.999	432.63
405.377	440.09
405.755	431.05
406.133	439.64
406.511	450.93
406.889	463.36
407.267	476.02
407.645	456.58
408.023	458.17
408.401	445.96
408.779	448.45
409.156	447.77
409.534	436.7
409.912	463.36
410.29	467.88
410.667	472.63
411.045	475.11
411.422	489.58
411.8	474.89
412.178	465.4
412.555	506.75
412.933	505.17
413.31	496.58
413.687	516.7
414.065	525.96
414.442	518.5
414.819	524.6
415.197	504.94
415.574	520.76
415.951	525.73
416.328	512.63
416.705	524.83
417.082	546.3
417.46	545.4
417.837	537.49
418.214	542.23
418.591	530.25
418.967	545.17
419.344	548.11
419.721	558.05
420.098	541.78
420.475	559.63
420.852	552.63
421.228	553.08
421.605	569.35
421.982	570.71
422.358	585.17
422.735	592.63
423.111	597.6
423.488	591.27
423.864	588.33
424.241	626.52
424.617	563.47
424.994	600.54
425.37	600.76
425.746	586.3
426.123	614.55
426.499	610.93
426.875	612.96
427.251	634.43
427.627	665.62
428.003	635.11
428.379	629.69
428.756	636.01
429.132	667.88
429.507	662
429.883	674.88
430.259	663.81
430.635	664.26
431.011	656.8
431.387	703.36
431.763	702.91
432.138	715.56
432.514	683.24
432.89	691.15
433.265	725.28
433.641	722.11
434.016	726.86
434.392	721.66
434.767	735.45
435.143	722.57
435.518	739.74
435.894	767.31
436.269	743.36
436.644	743.13
437.02	796.01
437.395	776.12
437.77	802.79
438.145	785.39
438.52	803.02
438.895	803.47
439.271	781.77
439.646	799.17
440.021	806.41
440.395	804.82
440.77	815.9
441.145	803.92
441.52	829.46
441.895	825.61
442.27	854.54
442.645	840.98
443.019	843.92
443.394	854.31
443.769	890.7
444.143	854.77
444.518	864.93
444.892	871.49
445.267	881.43
445.641	881.88
446.016	899.74
446.39	891.37
446.764	874.2
447.139	899.06
447.513	893.86
447.887	894.54
448.262	890.47
448.636	936.35
449.01	906.97
449.384	904.48
449.758	920.3
450.132	916.23
450.506	939.96
450.88	926.63
451.254	920.75
451.628	969.11
452.002	976.57
452.376	953.52
452.75	960.98
453.123	992.16
453.497	979.73
453.871	999.39
454.244	1008.89
454.618	987.87
454.992	1028.09
455.365	1015.67
455.739	1006.63
456.112	1066.51
456.486	1057.47
456.859	1035.78
457.232	1063.57
457.606	1033.07
457.979	1068.09
458.352	1085.72
458.725	1097.02
459.099	1105.38
459.472	1098.6
459.845	1115.1
460.218	1118.26
460.591	1138.15
460.964	1121.2
461.337	1155.77
461.71	1169.56
462.083	1146.96
462.456	1170.92
462.829	1167.75
463.201	1205.04
463.574	1197.13
463.947	1202.78
464.32	1210.24
464.692	1233.96
465.065	1230.8
465.438	1243.46
465.81	1253.17
466.183	1290.46
466.555	1288.88
466.928	1296.34
467.3	1304.92
467.672	1311.7
468.045	1331.82
468.417	1356
468.789	1323
469.161	1338.82
469.534	1370.68
469.906	1386.73
470.278	1383.79
470.65	1401.19
471.022	1406.39
471.394	1415.65
471.766	1445.71
472.138	1476.22
472.51	1515.99
472.882	1479.38
473.253	1504.92
473.625	1547.18
473.997	1564.35
474.369	1581.75
474.74	1582.43
475.112	1625.37
475.484	1598.02
475.855	1634.86
476.227	1644.35
476.598	1706.49
476.97	1707.85
477.341	1733.39
477.713	1737
478.084	1771.58
478.455	1815.64
478.827	1773.61
479.198	1885.7
479.569	1864
479.94	1930.44
480.311	1926.38
480.682	1910.78
481.053	1970.22
481.424	2005.47
481.795	2045.02
482.166	2056.77
482.537	2079.37
482.908	2078.91
483.279	2133.15
483.65	2178.8
484.021	2228.97
484.391	2266.48
484.762	2255.18
485.133	2296.99
485.503	2311.68
485.874	2351.22
486.244	2371.34
486.615	2417.89
486.985	2450.43
487.356	2490.43
487.726	2529.98
488.097	2583.76
488.467	2553.93
488.837	2618.79
489.207	2670.54
489.578	2722.06
489.948	2726.13
490.318	2775.17
490.688	2809.06
491.058	2845
491.428	2896.07
491.798	2925.45
492.168	2982.39
492.538	3018.1
492.908	3030.3
493.278	3085.22
493.648	3061.04
494.017	3123.63
494.387	3172.44
494.757	3185.33
495.126	3243.4
495.496	3227.58
495.866	3324.98
496.235	3307.36
496.605	3357.75
496.974	3381.25
497.344	3443.4
497.713	3429.84
498.082	3498.31
498.452	3550.29
498.821	3575.15
499.19	3628.25
499.559	3665.54
499.928	3670.06
500.298	3701.47
500.667	3735.37
501.036	3706.44
501.405	3788.93
501.774	3761.13
502.143	3794.35
502.512	3872.31
502.88	3906.66
503.249	3888.58
503.618	3972.2
503.987	3979.43
504.356	4004.06
504.724	4025.53
505.093	3973.33
505.462	4045.87
505.83	4105.75
506.199	4119.54
506.567	4183.04
506.936	4174.45
507.304	4247.67
507.672	4252.87
508.041	4265.52
508.409	4328.35
508.777	4337.16
509.145	4393.66
509.514	4453.77
509.882	4456.7
510.25	4459.64
510.618	4502.13
510.986	4525.86
511.354	4557.72
511.722	4583.26
512.09	4692.63
512.458	4654.89
512.826	4746.87
513.193	4706.87
513.561	4738.96
513.929	4778.73
514.297	4802.68
514.664	4846.53
515.032	4875.68
515.4	4955.45
515.767	4969.46
516.135	4983.02
516.502	4983.02
516.869	5045.39
517.237	5066.18
517.604	5107.76
517.972	5149.79
518.339	5142.79
518.706	5171.26
519.073	5227.76
519.44	5253.52
519.808	5301.65
520.175	5321.31
520.542	5370.58
520.909	5418.94
521.276	5406.96
521.643	5445.61
522.009	5509.56
522.376	5585.26
522.743	5582.1
523.11	5667.29
523.477	5730.34
523.843	5705.94
524.21	5741.42
524.577	5818.93
524.943	5842.88
525.31	5829.32
525.676	5926.95
526.043	5945.48
526.409	5964.69
526.776	6054.18
527.142	6022.99
527.508	6118.13
527.874	6094.4
528.241	6138.92
528.607	6200.84
528.973	6262.53
529.339	6221.86
529.705	6313.83
530.071	6387.73
530.437	6394.51
530.803	6434.51
531.169	6425.47
531.535	6473.83
531.901	6494.17
532.267	6453.94
532.632	6556.08
532.998	6591.34
533.364	6583.43
533.73	6605.35
534.095	6671.79
534.461	6749.75
534.826	6699.13
535.192	6740.71
535.557	6818.45
535.923	6800.6
536.288	6809.86
536.653	6872.91
537.019	6904.55
537.384	6894.83
537.749	6973.25
538.114	6985.9
538.479	6994.04
538.845	7036.98
539.21	7039.01
539.575	7060.7
539.94	7086.24
540.305	7214.15
540.67	7149.52
541.034	7178.89
541.399	7264.54
541.764	7216.41
542.129	7296.86
542.494	7297.76
542.858	7375.72
543.223	7341.83
543.587	7390.86
543.952	7413.24
544.316	7439.23
544.681	7521.26
545.045	7531.43
545.41	7575.72
545.774	7575.72
546.138	7575.72
546.503	7649.62
546.867	7730.74
547.231	7743.17
547.595	7790.18
547.959	7785.43
548.324	7847.58
548.688	7856.16
549.052	7903.39
549.416	7913.11
549.779	8038.53
550.143	8005.09
550.507	8119.21
550.871	8166.66
551.235	8182.93
551.599	8219.32
551.962	8312.42
552.326	8257.51
552.689	8370.95
553.053	8359.65
553.417	8344.96
553.78	8517.84
554.143	8491.85
554.507	8550.83
554.87	8594.9
555.234	8704.5
555.597	8709.7
555.96	8762.58
556.323	8850.26
556.686	8895.91
557.05	8879.64
557.413	8984.04
557.776	9012.74
558.139	9115.57
558.502	9130.03
558.865	9184.49
559.228	9278.05
559.59	9348.1
559.953	9426.74
560.316	9538.61
560.679	9558.72
561.041	9675.32
561.404	9720.52
561.767	9854.98
562.129	9912.15
562.492	10042.32
562.854	10043.22
563.217	10086.16
563.579	10170.23
563.941	10325.48
564.304	10382.65
564.666	10434.4
565.028	10550.1
565.39	10700.61
565.753	10769.08
566.115	10835.29
566.477	10909.87
566.839	11036.42
567.201	11200.26
567.563	11288.39
567.925	11453.13
568.287	11491.77
568.648	11585.56
569.01	11684.99
569.372	11984.87
569.734	11972.21
570.095	12246.33
570.457	12277.52
570.819	12441.35
571.18	12579.88
571.542	12730.39
571.903	12886.99
572.265	13071.17
572.626	13209.24
572.987	13356.81
573.349	13567.65
573.71	13774.65
574.071	13936.23
574.432	14156.34
574.794	14460.28
575.155	14482.88
575.516	14667.28
575.877	15003.32
576.238	15185.91
576.599	15370.99
576.96	15622.06
577.32	15910.87
577.681	16147.02
578.042	16379.1
578.403	16638.31
578.763	16875.36
579.124	17233.32
579.485	17549.69
579.845	17862.45
580.206	18078.04
580.566	18380.18
580.927	18706.5
581.287	19063.1
581.648	19237.79
582.008	19702.41
582.368	19910.08
582.728	20349.62
583.089	20750.29
583.449	21022.82
583.809	21338.29
584.169	21728.79
584.529	22033.19
584.889	22634.76
585.249	22945.26
585.609	23135.99
585.969	23711.79
586.329	24057.32
586.688	24601.49
587.048	24884.64
587.408	25350.84
587.768	25842.81
588.127	26168.68
588.487	26566.63
588.846	27238.25
589.206	27513.95
589.565	27857.45
589.925	28510.99
590.284	28803.64
590.643	29263.74
591.003	29775.14
591.362	30364.72
591.721	30678.16
592.08	31199.05
592.44	31827.06
592.799	32232.02
593.158	32640.6
593.517	33075.16
593.876	33650.97
594.235	34066.55
594.593	34638.28
594.952	35165.5
595.311	35592.61
595.67	35867.63
596.029	36672.81
596.387	37065.11
596.746	37532.67
597.104	37811.99
597.463	38374.46
597.822	38937.15
598.18	39255.11
598.538	39712.05
598.897	40340.51
599.255	40443.1
599.613	41314.27
599.972	41451.21
600.33	42140.01
600.688	42328.7
601.046	42864.96
601.404	43382.46
601.762	43562.8
602.12	44163.23
602.478	44572.03
602.836	45005.24
603.194	44996.43
603.552	45440.03
603.91	45758.67
604.268	46428.48
604.625	46541.02
604.983	46908.7
605.341	47125.87
605.698	47451.96
606.056	47858.5
606.413	48075.67
606.771	48503
607.128	48801.53
607.485	48875.88
607.843	49116.1
608.2	49477.67
608.557	49793.14
608.914	49907.26
609.272	50380.47
609.629	50372.11
609.986	50743.62
610.343	50787.24
610.7	51123.27
611.057	51311.29
611.414	51372.31
611.771	51596.26
612.127	51809.36
612.484	51993.53
612.841	52118.05
613.198	52174.77
613.554	52195.79
613.911	52641.43
614.267	52732.72
614.624	52716.45
614.98	52876.9
615.337	53150.34
615.693	53084.35
616.05	53177.68
616.406	53482.99
616.762	53488.41
617.118	53526.83
617.475	53631.46
617.831	53798.91
618.187	53924.33
618.543	54026.02
618.899	54227.6
619.255	54225.11
619.611	54274.38
619.967	54379.01
620.323	54523.86
620.678	54402.28
621.034	54393.7
621.39	54495.84
621.746	54475.28
622.101	54919.78
622.457	54693.12
622.812	54743.74
623.168	54841.82
623.523	54897.86
623.879	55047.69
624.234	54851.31
624.589	55055.15
624.945	55063.51
625.3	55127.69
625.655	55078.65
626.01	55180.12
626.365	55178.99
626.72	55175.15
627.075	55265.09
627.43	55215.82
627.785	55282.94
628.14	55310.06
628.495	55356.61
628.85	55321.13
629.205	55166.78
629.559	55513.67
629.914	55281.58
630.269	55444.52
630.623	55327.23
630.978	55328.36
631.332	55420.34
631.687	55502.82
632.041	55394.57
632.396	55404.07
632.75	55398.19
633.104	55446.32
633.459	55304.63
633.813	55320.9
634.167	55353.22
634.521	55373.56
634.875	55455.59
635.229	55317.97
635.583	55212.21
635.937	55292.2
636.291	55248.36
636.645	55231.64
636.999	55275.71
637.352	55314.35
637.706	55117.75
638.06	55265.09
638.413	55275.93
638.767	55114.58
639.121	55223.96
639.474	55030.06
639.828	55115.49
640.181	55119.33
640.534	55163.85
640.888	55039.56
641.241	55026.67
641.594	55139.21
641.947	55122.49
642.301	55039.56
642.654	55051.08
643.007	55164.98
643.36	55085.88
643.713	55008.82
644.066	55096.73
644.419	54969.27
644.771	54723.63
645.124	54548.95
645.477	54510.08
645.83	54249.97
646.182	54232.12
646.535	54094.27
646.888	54280.48
647.24	54171.56
647.593	54327.03
647.945	54138.34
648.298	54056.3
648.65	54089.75
649.002	54016.08
649.355	54150.99
649.707	54041.16
650.059	54209.75
650.411	54425.11
650.763	54543.98
651.115	54895.83
651.467	54722.28
651.819	54790.3
652.171	54673.24
652.523	54609.51
652.875	54700.36
653.227	54477.54
653.578	54722.05
653.93	54701.71
654.282	54529.51
654.633	54503.52
654.985	54568.38
655.337	54553.01
655.688	54524.77
656.039	54729.28
656.391	54475.28
656.742	54502.62
657.094	54546.91
657.445	54622.39
657.796	54607.93
658.147	54410.87
658.498	54462.4
658.849	54540.81
659.2	54426.24
659.551	54454.03
659.902	54565.44
660.253	54567.25
660.604	54454.03
660.955	54435.05
661.306	54456.75
661.656	54471.66
662.007	54414.26
662.358	54507.14
662.708	54443.19
663.059	54440.02
663.409	54256.98
663.76	54484.32
664.11	54434.15
664.461	54530.87
664.811	54392.79
665.161	54495.84
665.511	54312.57
665.862	54387.6
666.212	54450.42
666.562	54499.91
666.912	54408.39
667.262	54361.61
667.612	54346.24
667.962	54357.77
668.312	54303.98
668.662	54433.47
669.011	54376.52
669.361	54273.7
669.711	54252.01
670.06	54180.82
670.41	54138.56
670.76	54144.89
671.109	54223.76
671.459	54144.44
671.808	54142.18
672.157	54082.07
672.507	53974.27
672.856	54019.47
673.205	54060.82
673.554	54193.02
673.904	54017.66
674.253	54135.62
674.602	53983.99
674.951	53653.38
675.3	53431.69
675.649	53830.32
675.998	53780.83
676.346	53886.37
676.695	54048.85
677.044	53797.33
677.393	53830.55
677.741	53912.58
678.09	53791.45
678.438	53652.25
678.787	53807.27
679.135	53764.79
679.484	53557.33
679.832	53689.99
680.181	53542.65
680.529	53611.8
680.877	53576.32
681.225	53445.25
681.573	53584.9
681.922	53371.8
682.27	53335.19
682.618	53372.48
682.966	53318.02
683.314	53402.31
683.661	53264.46
684.009	53117.12
684.357	53097.46
684.705	53006.16
685.053	53092.04
685.4	52985.37
685.748	52912.83
686.095	52873.74
686.443	52754.64
686.79	52701.31
687.138	52850.91
687.485	52733.18
687.832	52521.2
688.18	52570.92
688.527	52485.5
688.874	52476.01
689.221	52420.87
689.568	52304.71
689.915	52161.89
690.262	52128.22
690.609	52110.59
690.956	51960.31
691.303	51953.31
691.65	51810.26
691.997	51828.34
692.344	51633.09
692.69	51592.41
693.037	51564.62
693.383	51338.41
693.73	51449.37
694.077	51199.2
694.423	51317.85
694.769	51191.97
695.116	51093.9
695.462	51003.96
695.808	50830.4
696.155	50933.22
696.501	50655.26
696.847	50652.1
697.193	50405.33
697.539	50559
697.885	50283.07
698.231	50146.12
698.577	50146.35
698.923	50068.16
699.269	49937.32
699.614	49828.62
699.96	49743.88
700.306	49730.99
700.651	49484.45
700.997	49389.31
701.342	49341.63
701.688	49285.58
702.033	49227.28
702.379	49139.6
702.724	48966.27
703.069	49072.25
703.415	48665.71
703.76	48654.19
704.105	48712.94
704.45	48594.53
704.795	48310.02
705.14	48228.21
705.485	48246.97
705.83	47973.07
706.175	48070.93
706.52	47876.35
706.865	47811.05
707.209	47835.45
707.554	47603.82
707.899	47543.71
708.243	47523.37
708.588	47373.32
708.932	47144.62
709.277	47074.34
709.621	47220.55
709.966	46951.41
710.31	47011.29
710.654	46720
710.998	46748.25
711.342	46735.14
711.687	46649.95
712.031	46389.39
712.375	46308.03
712.719	46429.16
713.063	46321.82
713.407	46501.02
713.75	46174.48
714.094	46232.78
714.438	46075.27
714.782	46037.08
715.125	45694.94
715.469	45889.97
715.812	45583.99
716.156	45594.61
716.499	45614.94
716.843	45528.85
717.186	45427.38
717.53	45465.57
717.873	45517.55
718.216	45339.47
718.559	45149.19
718.902	44933.38
719.246	45052.7
719.589	44973.15
719.932	44773.38
720.275	44776.77
720.617	44745.14
720.96	44674.4
721.303	44613.62
721.646	44521.19
721.989	44398.25
722.331	44591.24
722.674	44387.41
723.016	44369.33
723.359	44341.53
723.701	44312.83
724.044	44099.73
724.386	43878.49
724.729	44019.05
725.071	43932.05
725.413	43949
725.755	43879.62
726.097	43799.85
726.439	43459.75
726.782	43516.24
727.124	43810.47
727.465	43458.62
727.807	43559.18
728.149	43585.85
728.491	43285.51
728.833	43417.94
729.175	43373.87
729.516	43273.31
729.858	43187.21
730.199	43200.09
730.541	43078.51
730.882	43176.36
731.224	43023.37
731.565	42817.5
731.906	42988.8
732.248	43002.13
732.589	42790.61
732.93	42709.71
733.271	42694.57
733.612	42822.48
733.953	42724.4
734.294	42655.02
734.635	42461.81
734.976	42637.17
735.317	42309.27
735.658	42359.89
735.999	42403.28
736.339	42287.35
736.68	42461.58
737.021	42367.12
737.361	42172.55
737.702	42313.11
738.042	42255.94
738.383	42010.07
738.723	42080.12
739.063	41973.23
739.404	42006
739.744	41890.75
740.084	41783.86
740.424	41940.24
740.764	41708.83
741.104	41976.85
741.444	41672.22
741.784	41562.4
742.124	41745.67
742.464	41697.31
742.804	41591.1
743.143	41439.01
743.483	41427.26
743.823	41384.77
744.162	41330.76
744.502	41374.15
744.841	41237.66
745.181	41257.32
745.52	41157.21
745.86	41156.53
746.199	41006.93
746.538	41123.99
746.877	41088.51
747.216	41102.97
747.556	41018.46
747.895	40883.09
748.234	40715.41
748.573	40686.71
748.911	40814.17
749.25	40764.9
749.589	40458.7
749.928	40554.06
750.267	40578.47
750.605	40484.46
750.944	40346.61
751.283	40316.33
751.621	40430.22
751.96	40093.51
752.298	40144.13
752.636	40215.09
752.975	40052.61
753.313	39881.08
753.651	40048.99
753.989	39853.51
754.327	39721.54
754.666	39393.41
755.004	39558.38
755.342	39653.29
755.679	39627.98
756.017	39379.63
756.355	39429.57
756.693	39274.09
757.031	39180.09
757.368	39124.95
757.706	38978.06
758.044	38938.51
758.381	38934.44
758.719	38940.32
759.056	38773.54
