Data from orange_diffuse_book_FLMS001491_00072.txt Node
Date: Wed Feb 08 15:30:01 GMT 2017
User: dcchb
Spectrometer: FLMS00149
Trigger mode: 0
Integration Time (sec): 2.000000E-2
Scans to average: 10
Electric dark correction enabled: true
Nonlinearity correction enabled: false
Boxcar width: 0
XAxis mode: Wavelengths
Number of Pixels in Spectrum: 2048
>>>>>Begin Spectral Data<<<<<
341.393	-25.17
341.776	-25.17
342.16	-25.17
342.543	-47.54
342.927	-90.93
343.31	-74.66
343.693	-86.41
344.077	-61.33
344.46	-56.81
344.843	-49.57
345.226	-47.32
345.61	-25.39
345.993	-3.93
346.376	-6.19
346.759	1.5
347.142	14.6
347.525	59.8
347.908	56.18
348.291	73.13
348.674	98.22
349.057	108.16
349.44	128.73
349.823	168.72
350.206	183.41
350.588	200.36
350.971	215.28
351.354	238.78
351.737	239.23
352.119	254.37
352.502	266.35
352.884	269.51
353.267	276.29
353.65	310.87
354.032	312.45
354.414	330.3
354.797	305.9
355.179	340.92
355.562	336.18
355.944	332.11
356.326	336.63
356.709	340.02
357.091	331.21
357.473	362.39
357.855	333.01
358.238	356.52
358.62	337.31
359.002	326.46
359.384	361.04
359.766	349.51
360.148	365.1
360.53	349.06
360.912	363.75
361.294	352
361.676	328.27
362.057	344.09
362.439	340.7
362.821	333.24
363.203	334.37
363.584	339.79
363.966	342.96
364.348	357.42
364.729	334.6
365.111	321.94
365.493	314.48
365.874	323.52
366.256	330.08
366.637	325.33
367.019	324.2
367.4	325.1
367.781	328.95
368.163	325.78
368.544	323.3
368.925	331.43
369.306	315.16
369.688	344.76
370.069	314.48
370.45	310.64
370.831	308.61
371.212	339.34
371.593	309.74
371.974	322.62
372.355	315.16
372.736	323.97
373.117	316.07
373.498	331.43
373.879	332.11
374.26	310.64
374.641	322.62
375.021	328.04
375.402	316.07
375.783	320.36
376.163	315.39
376.544	336.86
376.925	321.26
377.305	319.68
377.686	333.24
378.066	340.02
378.447	311.55
378.827	337.53
379.208	348.83
379.588	352.45
379.968	333.01
380.349	341.6
380.729	338.66
381.109	340.47
381.489	351.32
381.87	339.34
382.25	342.96
382.63	342.96
383.01	362.62
383.39	347.48
383.77	357.87
384.15	342.96
384.53	319.91
384.91	374.14
385.29	347.48
385.67	328.72
386.049	358.78
386.429	360.36
386.809	383.18
387.189	351.77
387.568	359
387.948	355.39
388.328	383.18
388.707	384.09
389.087	356.74
389.466	351.77
389.846	391.09
390.225	373.92
390.605	377.98
390.984	393.8
391.363	378.44
391.743	381.83
392.122	363.3
392.501	390.19
392.881	376.4
393.26	383.63
393.639	375.95
394.018	382.96
394.397	370.53
394.776	391.54
395.155	380.7
395.534	373.01
395.913	392.22
396.292	384.31
396.671	406.01
397.05	389.74
397.429	420.7
397.808	395.16
398.186	428.15
398.565	405.78
398.944	405.33
399.323	393.58
399.701	422.05
400.08	389.28
400.458	403.75
400.837	408.49
401.215	412.11
401.594	417.08
401.972	404.2
402.351	400.58
402.729	422.5
403.107	424.99
403.486	414.37
403.864	436.29
404.242	419.57
404.62	438.77
404.999	422.05
405.377	429.96
405.755	436.74
406.133	417.08
406.511	440.13
406.889	455.04
407.267	420.47
407.645	446.68
408.023	460.47
408.401	441.71
408.779	445.33
409.156	468.6
409.534	450.75
409.912	480.58
410.29	442.62
410.667	497.76
411.045	460.02
411.422	468.6
411.8	468.38
412.178	481.48
412.555	479.9
412.933	480.81
413.31	478.77
413.687	500.24
414.065	506.34
414.442	515.16
414.819	509.96
415.197	486
415.574	504.53
415.951	504.08
416.328	527.36
416.705	502.5
417.082	528.71
417.46	531.43
417.837	545.44
418.214	544.08
418.591	524.42
418.967	530.07
419.344	558.77
419.721	555.15
420.098	535.95
420.475	538.88
420.852	562.16
421.228	562.84
421.605	542.27
421.982	563.06
422.358	575.04
422.735	546.57
423.111	584.53
423.488	596.06
423.864	608.03
424.241	601.48
424.617	599
424.994	569.62
425.37	601.26
425.746	602.84
426.123	620.01
426.499	624.08
426.875	625.21
427.251	629.5
427.627	676.73
428.003	636.73
428.379	631.76
428.756	647.13
429.132	654.59
429.507	646.45
429.883	669.5
430.259	645.77
430.635	654.81
431.011	699.33
431.387	663.17
431.763	692.1
432.138	711.76
432.514	698.43
432.89	691.2
433.265	712.66
433.641	676.28
434.016	718.77
434.392	755.38
434.767	735.94
435.143	713.79
435.518	764.64
435.894	763.51
436.269	722.38
436.644	748.37
437.02	762.61
437.395	754.47
437.77	795.15
438.145	774.36
438.52	773.91
438.895	784.75
439.271	794.47
439.646	820.91
440.021	800.57
440.395	811.42
440.77	805.77
441.145	809.84
441.52	817.97
441.895	831.98
442.27	841.48
442.645	835.37
443.019	838.76
443.394	839.67
443.769	866.56
444.143	853.68
444.518	867.69
444.892	858.2
445.267	848.25
445.641	850.06
446.016	848.48
446.39	874.47
446.764	879.44
447.139	861.36
447.513	894.13
447.887	879.89
448.262	869.5
448.636	914.47
449.01	914.92
449.384	927.57
449.758	899.55
450.132	909.72
450.506	925.09
450.88	942.49
451.254	911.98
451.628	940.91
452.002	954.47
452.376	930.51
452.75	942.26
453.123	969.16
453.497	949.95
453.871	965.31
454.244	963.73
454.618	982.49
454.992	970.29
455.365	964.64
455.739	975.93
456.112	1011.87
456.486	1027.23
456.859	1051.64
457.232	1036.5
457.606	1030.62
457.979	1038.08
458.352	1059.1
458.725	1079.43
459.099	1070.17
459.472	1086.89
459.845	1088.25
460.218	1096.61
460.591	1117.17
460.964	1094.12
461.337	1122.37
461.71	1134.35
462.083	1132.99
462.456	1132.99
462.829	1124.41
463.201	1131.64
463.574	1161.47
463.947	1191.07
464.32	1183.16
464.692	1168.92
465.065	1184.74
465.438	1189.26
465.81	1209.15
466.183	1241.92
466.555	1252.76
466.928	1249.6
467.3	1255.48
467.672	1256.15
468.045	1280.11
468.417	1288.24
468.789	1309.26
469.161	1332.76
469.534	1323.72
469.906	1320.56
470.278	1338.64
470.65	1354.68
471.022	1371.63
471.394	1414.12
471.766	1428.13
472.138	1400.33
472.51	1415.47
472.882	1425.64
473.253	1436.71
473.625	1477.16
473.997	1492.31
474.369	1502.02
474.74	1492.53
475.112	1537.73
475.484	1545.19
475.855	1568.01
476.227	1581.57
476.598	1591.51
476.97	1597.84
477.341	1646.2
477.713	1670.15
478.084	1700.21
478.455	1725.97
478.827	1749.25
479.198	1771.17
479.569	1793.77
479.94	1836.03
480.311	1841
480.682	1843.03
481.053	1903.37
481.424	1964.84
481.795	1919.19
482.166	1971.16
482.537	2002.8
482.908	2017.49
483.279	2051.61
483.65	2067.88
484.021	2087.54
484.391	2154.89
484.762	2158.28
485.133	2168.9
485.503	2234.43
485.874	2226.3
486.244	2287.99
486.615	2326.86
486.985	2335.22
487.356	2388.55
487.726	2413.41
488.097	2498.83
488.467	2486.86
488.837	2535.44
489.207	2575.21
489.578	2579.73
489.948	2580.41
490.318	2657.02
490.688	2706.74
491.058	2749.45
491.428	2796.23
491.798	2793.06
492.168	2819.28
492.538	2899.05
492.908	2883.46
493.278	2955.32
493.648	3004.58
494.017	3000.29
494.387	3033.28
494.757	3085.71
495.126	3140.17
495.496	3129.55
495.866	3182.43
496.235	3244.58
496.605	3268.76
496.974	3243.67
497.344	3310.56
497.713	3324.8
498.082	3367.74
498.452	3386.04
498.821	3418.13
499.19	3447.96
499.559	3512.59
499.928	3584.45
500.298	3540.84
500.667	3596.43
501.036	3632.36
501.405	3669.42
501.774	3685.47
502.143	3721.17
502.512	3743.77
502.88	3766.82
503.249	3837.78
503.618	3814.96
503.987	3838.46
504.356	3903.54
504.724	3918.46
505.093	3932.69
505.462	3941.51
505.83	3988.06
506.199	4047.94
506.567	4064.44
506.936	4080.49
507.304	4160.03
507.672	4158.45
508.041	4158
508.409	4236.87
508.777	4243.19
509.145	4282.74
509.514	4317.32
509.882	4342.85
510.25	4402.29
510.618	4364.32
510.986	4384.43
511.354	4452.68
511.722	4501.27
512.09	4531.1
512.458	4566.35
512.826	4625.33
513.193	4579.91
513.561	4636.18
513.929	4708.49
514.297	4758.21
514.664	4750.98
515.032	4753.91
515.4	4828.26
515.767	4875.27
516.135	4870.97
516.502	4914.59
516.869	4943.74
517.237	4982.84
517.604	4961.59
517.972	5015.6
518.339	5050.4
518.706	5114.81
519.073	5133.79
519.44	5178.31
519.808	5234.13
520.175	5239.33
520.542	5306.67
520.909	5271.42
521.276	5323.17
521.643	5398.42
522.009	5451.52
522.376	5466.66
522.743	5440.22
523.11	5561.58
523.477	5621.91
523.843	5624.17
524.21	5675.25
524.577	5670.73
524.943	5733.32
525.31	5755.47
525.676	5841.12
526.043	5843.38
526.409	5854.9
526.776	5925.64
527.142	5963.37
527.508	5942.36
527.874	6081.11
528.241	6051.96
528.607	6025.52
528.973	6181.22
529.339	6125.18
529.705	6242.91
530.071	6251.28
530.437	6299.18
530.803	6294.66
531.169	6322.69
531.535	6333.08
531.901	6394.78
532.267	6347.09
532.632	6440.88
532.998	6479.07
533.364	6493.08
533.73	6503.25
534.095	6522.46
534.461	6579.63
534.826	6625.73
535.192	6613.3
535.557	6721.32
535.923	6643.81
536.288	6716.12
536.653	6768.55
537.019	6734.88
537.384	6790.25
537.749	6816.91
538.114	6810.13
538.479	6886.06
538.845	6897.14
539.21	6925.83
539.575	6917.25
539.94	6984.36
540.305	6987.3
540.67	7129.9
541.034	7067.53
541.399	7083.57
541.764	7143.68
542.129	7165.38
542.494	7168.31
542.858	7226.39
543.223	7221.87
543.587	7307.52
543.952	7319.5
544.316	7368.54
544.681	7347.29
545.045	7371.25
545.41	7432.04
545.774	7479.04
546.138	7430.45
546.503	7560.85
546.867	7534.41
547.231	7606.04
547.595	7606.49
547.959	7651.24
548.324	7691.92
548.688	7757.68
549.052	7767.39
549.416	7774.63
549.779	7799.71
550.143	7928.97
550.507	7930.78
550.871	8017.78
551.235	7985.69
551.599	8052.13
551.962	8060.27
552.326	8149.08
552.689	8220.26
553.053	8180.27
553.417	8234.95
553.78	8339.81
554.143	8329.64
554.507	8413.71
554.87	8453.25
555.234	8507.94
555.597	8495.51
555.96	8554.49
556.323	8681.72
556.686	8733.02
557.05	8756.75
557.413	8801.04
557.776	8880.59
558.139	8918.78
558.502	8960.36
558.865	9054.82
559.228	9123.97
559.59	9185.89
559.953	9206
560.316	9327.35
560.679	9344.75
561.041	9444.86
561.404	9542.26
561.767	9637.4
562.129	9544.75
562.492	9763.5
562.854	9861.35
563.217	9876.94
563.579	9911.97
563.941	9977.51
564.304	10166.65
564.666	10253.43
565.028	10336.14
565.39	10351.28
565.753	10560.77
566.115	10575.68
566.477	10705.85
566.839	10809.8
567.201	10942.9
567.563	10953.3
567.925	11141.54
568.287	11271.03
568.648	11381.54
569.01	11542.44
569.372	11626.5
569.734	11766.16
570.095	11873.95
570.457	11984.01
570.819	12113.27
571.18	12245.02
571.542	12415.63
571.903	12641.84
572.265	12698.79
572.626	12982.4
572.987	13035.28
573.349	13240.47
573.71	13373.57
574.071	13567.02
574.432	13818.99
574.794	14023.05
575.155	14206.32
575.516	14370.38
575.877	14624.62
576.238	14862.35
576.599	15081.33
576.96	15187.31
577.32	15480.41
577.681	15774.42
578.042	16072.94
578.403	16197
578.763	16527.84
579.124	16788.17
579.485	17218.45
579.845	17425.22
580.206	17620.69
580.566	18047.8
580.927	18203.05
581.287	18662.25
581.648	18860.21
582.008	19290.03
582.368	19507.2
582.728	19867.87
583.089	20231.02
583.449	20575.65
583.809	20906.94
584.169	21300.82
584.529	21563.64
584.889	22124.08
585.249	22387.35
585.609	22721.35
585.969	23204.95
586.329	23533.53
586.688	24072.5
587.048	24385.04
587.408	24744.12
587.768	25242.42
588.127	25600.15
588.487	26008.27
588.846	26659.55
589.206	26853.67
589.565	27392.87
589.925	27903.36
590.284	28257.93
590.643	28784.02
591.003	29164.35
591.362	29744.22
591.721	30200.25
592.08	30614.25
592.44	31062.6
592.799	31612.19
593.158	31961.11
593.517	32428.22
593.876	32920.86
594.235	33390.68
594.593	33837.44
594.952	34430.2
595.311	34692.56
595.67	35261.59
596.029	35931.85
596.387	36388.56
596.746	36887.31
597.104	37206.39
597.463	37577.46
597.822	38095.64
598.18	38471.67
598.538	38890.19
598.897	39467.8
599.255	39573.79
599.613	40577.15
599.972	40760.43
600.33	41282.45
600.688	41452.84
601.046	42025.48
601.404	42486.71
601.762	42701.39
602.12	43315.39
602.478	43714.47
602.836	44046.44
603.194	44327.56
603.552	44699.3
603.91	44873.54
604.268	45515.33
604.625	45664.7
604.983	46098.14
605.341	46304.46
605.698	46739.25
606.056	47089.52
606.413	47262.18
606.771	47722.5
607.128	47946.9
607.485	47970.41
607.843	48291.07
608.2	48742.81
608.557	48972.41
608.914	49086.99
609.272	49460.08
609.629	49739.4
609.986	49905.5
610.343	49909.34
610.7	50338.48
611.057	50487.85
611.414	50665.25
611.771	50860.5
612.127	51029.08
612.484	51207.61
612.841	51434.27
613.198	51393.82
613.554	51541.38
613.911	51829.74
614.267	51891.88
614.624	52005.1
614.98	52196.51
615.337	52389.5
615.693	52394.92
616.05	52602.83
616.406	52797.62
616.762	52705.42
617.118	52715.82
617.475	52941.35
617.831	53145.18
618.187	53163.72
618.543	53270.15
618.899	53418.85
619.255	53509.69
619.611	53586.75
619.967	53709.92
620.323	53742.23
620.678	53651.61
621.034	53701.1
621.39	53855.45
621.746	53761.21
622.101	54093.41
622.457	53933.86
622.812	54041.66
623.168	54212.73
623.523	54201.65
623.879	54295.89
624.234	54191.03
624.589	54309.9
624.945	54378.6
625.3	54406.17
625.655	54398.94
626.01	54448.65
626.365	54527.97
626.72	54454.75
627.075	54467.86
627.43	54639.16
627.785	54507.41
628.14	54591.7
628.495	54708.31
628.85	54670.79
629.205	54616.11
629.559	54798.25
629.914	54687.29
630.269	54642.32
630.623	54595.77
630.978	54584.24
631.332	54792.82
631.687	54831.24
632.041	54668.31
632.396	54805.48
632.75	54586.05
633.104	54739.72
633.459	54634.86
633.813	54563.9
634.167	54669.89
634.521	54638.25
634.875	54799.15
635.229	54625.82
635.583	54594.86
635.937	54605.49
636.291	54556.22
636.645	54531.59
636.999	54517.35
637.352	54608.65
637.706	54403.23
638.06	54522.32
638.413	54490.69
638.767	54359.62
639.121	54528.2
639.474	54276.45
639.828	54393.97
640.181	54445.49
640.534	54382.44
640.888	54348.77
641.241	54261.31
641.594	54326.62
641.947	54391.48
642.301	54322.33
642.654	54396.45
643.007	54325.49
643.36	54351.48
643.713	54320.97
644.066	54439.61
644.419	54171.6
644.771	54015.67
645.124	53807.77
645.477	53745.39
645.83	53474.67
646.182	53453.88
646.535	53457.72
646.888	53514.89
647.24	53408.68
647.593	53598.51
647.945	53430.83
648.298	53225.41
648.65	53313.77
649.002	53178.86
649.355	53399.42
649.707	53350.6
650.059	53393.77
650.411	53791.72
650.763	53841.21
651.115	54091.83
651.467	53963.24
651.819	53931.38
652.171	53992.17
652.523	53951.72
652.875	53925.73
653.227	53703.81
653.578	53966.86
653.93	53961.43
654.282	53786.75
654.633	53709.69
654.985	53806.86
655.337	53776.35
655.688	53837.6
656.039	53880.76
656.391	53720.99
656.742	53760.08
657.094	53793.76
657.445	53921.44
657.796	53840.99
658.147	53725.06
658.498	53765.06
658.849	53774.55
659.2	53765.06
659.551	53654.32
659.902	53776.35
660.253	53688.22
660.604	53775
660.955	53629.69
661.306	53766.86
661.656	53687.09
662.007	53711.27
662.358	53647.32
662.708	53634.66
663.059	53647.32
663.409	53476.93
663.76	53703.59
664.11	53646.19
664.461	53747.88
664.811	53705.4
665.161	53652.97
665.511	53553.76
665.862	53622.46
666.212	53753.53
666.562	53737.71
666.912	53651.16
667.262	53598.05
667.612	53560.99
667.962	53570.94
668.312	53515.34
668.662	53656.58
669.011	53514.89
669.361	53520.09
669.711	53451.84
670.06	53422.47
670.41	53350.38
670.76	53355.12
671.109	53434.44
671.459	53394.44
671.808	53330.26
672.157	53396.7
672.507	53232.41
672.856	53187.67
673.205	53302.69
673.554	53296.37
673.904	53104.73
674.253	53309.7
674.602	53178.86
674.951	52810.73
675.3	52618.64
675.649	53082.59
675.998	53085.98
676.346	53054.57
676.695	53205.3
677.044	52956.04
677.393	53042.14
677.741	53023.38
678.09	52970.05
678.438	52878.52
678.787	52883.72
679.135	52976.38
679.484	52760.56
679.832	52870.62
680.181	52652.32
680.529	52796.95
680.877	52723.5
681.225	52631.53
681.573	52819.54
681.922	52632.88
682.27	52553.56
682.618	52604.41
682.966	52509.27
683.314	52573.45
683.661	52446.9
684.009	52213.46
684.357	52198.54
684.705	52218.88
685.053	52221.59
685.4	52146.57
685.748	52031.54
686.095	51970.53
686.443	51892.79
686.79	51820.93
687.138	51935.27
687.485	51899.12
687.832	51695.28
688.18	51751.55
688.527	51505.68
688.874	51500.48
689.221	51558.33
689.568	51379.13
689.915	51266.14
690.262	51263.2
690.609	51191.11
690.956	51098.23
691.303	51117.89
691.65	50952.93
691.997	50961.51
692.344	50775.3
692.69	50735.76
693.037	50722.65
693.383	50419.61
693.73	50588.64
694.077	50286.73
694.423	50337.12
694.769	50201.08
695.116	50215.09
695.462	50109.33
695.808	49945.95
696.155	50063.01
696.501	49780.3
696.847	49804.48
697.193	49392.51
697.539	49623.7
697.885	49288.11
698.231	49147.1
698.577	49221.9
698.923	49098.06
699.269	48935.58
699.614	48714.79
699.96	48875.01
700.306	48695.81
700.651	48583.27
700.997	48475.93
701.342	48308.02
701.688	48283.17
702.033	48125.88
702.379	48172.43
702.724	47964.98
703.069	48072.32
703.415	47673.46
703.76	47689.73
704.105	47645.22
704.45	47548.04
704.795	47244.55
705.14	47221.95
705.485	47158.68
705.83	47059.92
706.175	47141.27
706.52	46965.69
706.865	46781.51
707.209	46702.87
707.554	46508.3
707.899	46714.39
708.243	46396.44
708.588	46496.32
708.932	46122.54
709.277	46262.65
709.621	46249.32
709.966	45905.6
710.31	45961.19
710.654	45641.88
710.998	45694.53
711.342	45796.23
711.687	45545.84
712.031	45297.03
712.375	45319.85
712.719	45250.48
713.063	45133.87
713.407	45388.78
713.75	45166.41
714.094	45042.35
714.438	44854.78
714.782	44934.78
715.125	44572.75
715.469	44799.42
715.812	44667.67
716.156	44411.63
716.499	44338.86
716.843	44531.17
717.186	44157.62
717.53	44364.4
717.873	44373.89
718.216	44327.79
718.559	44042.15
718.902	43841.93
719.246	43995.82
719.589	43816.84
719.932	43681.93
720.275	43652.78
720.617	43719.9
720.96	43550.18
721.303	43629.5
721.646	43502.27
721.989	43135.28
722.331	43428.6
722.674	43314.48
723.016	43306.12
723.359	43210.53
723.701	43197.2
724.044	42898.67
724.386	42871.56
724.729	43108.84
725.071	42994.26
725.413	42903.65
725.755	42913.36
726.097	42696.19
726.439	42510.44
726.782	42492.13
727.124	42664.78
727.465	42470.21
727.807	42436.31
728.149	42362.87
728.491	42402.64
728.833	42422.53
729.175	42121.07
729.516	42107.73
729.858	42055.98
730.199	42119.71
730.541	42050.34
730.882	42040.62
731.224	42178.47
731.565	41818.25
731.906	41907.97
732.248	41835.88
732.589	41710.68
732.93	41508.88
733.271	41653.28
733.612	41544.36
733.953	41639.5
734.294	41517.92
734.635	41507.75
734.976	41532.83
735.317	41355.89
735.658	41209.68
735.999	41298.49
736.339	41241.09
736.68	41296.91
737.021	41185.05
737.361	41180.75
737.702	41196.57
738.042	41151.38
738.383	40996.35
738.723	41068.21
739.063	40924.71
739.404	40887.2
739.744	40775.34
740.084	40742.8
740.424	40788.9
740.764	40679.07
741.104	40853.98
741.444	40533.99
741.784	40557.72
742.124	40533.54
742.464	40510.04
742.804	40472.3
743.143	40376.03
743.483	40297.39
743.823	40163.38
744.162	40060.33
744.502	40291.29
744.841	40045.19
745.181	40202.7
745.52	39983.27
745.86	40156.15
746.199	39955.47
746.538	39924.97
746.877	40036.6
747.216	40087.9
747.556	39924.97
747.895	39896.95
748.234	39743.05
748.573	39572.21
748.911	39594.81
749.25	39667.8
749.589	39564.98
749.928	39661.25
750.267	39449.73
750.605	39511.87
750.944	39404.75
751.283	39324.3
751.621	39294.02
751.96	38979.46
752.298	39076.18
752.636	39099
752.975	38909.4
753.313	38761.61
753.651	38903.75
753.989	38711.21
754.327	38588.05
754.666	38436.42
755.004	38727.03
755.342	38588.28
755.679	38407.49
756.017	38422.18
756.355	38309.64
756.693	38196.2
757.031	38276.42
757.368	37940.16
757.706	37912.82
758.044	37843.67
758.381	37857.68
758.719	37746.95
759.056	37755.31
759.394	37634.63
