Data from orange_diffuse_book_FLMS001491_00083.txt Node
Date: Wed Feb 08 15:30:09 GMT 2017
User: dcchb
Spectrometer: FLMS00149
Trigger mode: 0
Integration Time (sec): 2.000000E-2
Scans to average: 10
Electric dark correction enabled: true
Nonlinearity correction enabled: false
Boxcar width: 0
XAxis mode: Wavelengths
Number of Pixels in Spectrum: 2048
>>>>>Begin Spectral Data<<<<<
341.393	2.46
341.776	2.46
342.16	2.46
342.543	-59.46
342.927	-65.56
343.31	-67.6
343.693	-71.66
344.077	-75.73
344.46	-60.14
344.843	-52
345.226	-53.59
345.61	-51.55
345.993	-22.4
346.376	2.46
346.759	5.17
347.142	21.44
347.525	52.17
347.908	65.96
348.291	67.31
348.674	107.99
349.057	132.17
349.44	123.36
349.823	147.76
350.206	183.47
350.588	199.06
350.971	230.02
351.354	227.31
351.737	251.04
352.119	291.49
352.502	273.18
352.884	277.25
353.267	285.39
353.65	298.27
354.032	319.06
354.414	316.12
354.797	317.25
355.179	340.98
355.562	331.26
355.944	339.4
356.326	340.08
356.709	341.43
357.091	345.95
357.473	345.95
357.855	347.08
358.238	370.13
358.62	351.37
359.002	350.92
359.384	366.06
359.766	358.38
360.148	340.75
360.53	341.66
360.912	360.87
361.294	334.43
361.676	347.76
362.057	331.04
362.439	347.76
362.821	344.37
363.203	343.92
363.584	336.46
363.966	315.22
364.348	322.68
364.729	321.32
365.111	341.43
365.493	331.49
365.874	329
366.256	323.35
366.637	328.32
367.019	314.09
367.4	325.61
367.781	320.87
368.163	326.97
368.544	303.47
368.925	335.78
369.306	348.21
369.688	314.99
370.069	324.26
370.45	349.34
370.831	306.63
371.212	326.97
371.593	317.93
371.974	342.11
372.355	324.26
372.736	326.29
373.117	344.14
373.498	341.21
373.879	309.79
374.26	329.91
374.641	345.27
375.021	325.84
375.402	343.01
375.783	345.73
376.163	350.92
376.544	342.79
376.925	342.56
377.305	327.65
377.686	335.78
378.066	328.32
378.447	348.21
378.827	327.42
379.208	350.92
379.588	350.7
379.968	357.25
380.349	336.46
380.729	341.66
381.109	333.3
381.489	348.66
381.87	337.82
382.25	358.15
382.63	343.24
383.01	350.7
383.39	369
383.77	363.8
384.15	350.25
384.53	340.08
384.91	359.51
385.29	381.43
385.67	368.1
386.049	356.35
386.429	357.25
386.809	373.07
387.189	367.19
387.568	347.99
387.948	352.73
388.328	376.01
388.707	355.22
389.087	381.43
389.466	379.62
389.846	364.71
390.225	367.65
390.605	379.17
390.984	366.97
391.363	373.97
391.743	386.85
392.122	382.56
392.501	373.3
392.881	392.28
393.26	366.74
393.639	377.36
394.018	379.62
394.397	371.94
394.776	408.32
395.155	406.29
395.534	410.81
395.913	395.22
396.292	388.21
396.671	400.19
397.05	397.25
397.429	408.32
397.808	397.7
398.186	398.61
398.565	379.4
398.944	394.54
399.323	412.62
399.701	409.45
400.08	397.7
400.458	420.53
400.837	396.57
401.215	394.99
401.594	406.29
401.972	430.24
402.351	396.35
402.729	427.31
403.107	420.53
403.486	417.14
403.864	435.67
404.242	439.73
404.62	444.25
404.999	429.56
405.377	444.93
405.755	447.64
406.133	431.37
406.511	429.79
406.889	440.64
407.267	461.43
407.645	437.93
408.023	427.76
408.401	451.49
408.779	445.38
409.156	459.85
409.534	480.41
409.912	465.27
410.29	463.91
410.667	465.5
411.045	459.85
411.422	477.02
411.8	480.41
412.178	481.99
412.555	496
412.933	504.82
413.31	510.92
413.687	506.4
414.065	501.88
414.442	534.65
414.819	507.3
415.197	503.69
415.574	488.77
415.951	528.32
416.328	512.73
416.705	506.17
417.082	542.56
417.46	534.65
417.837	537.81
418.214	519.73
418.591	531.48
418.967	545.04
419.344	542.33
419.721	543.69
420.098	549.11
420.475	545.04
420.852	551.37
421.228	546.4
421.605	582.1
421.982	600.63
422.358	584.14
422.735	581.88
423.111	570.8
423.488	574.87
423.864	590.46
424.241	582.78
424.617	582.1
424.994	588.66
425.37	594.53
425.746	599.96
426.123	594.76
426.499	614.87
426.875	597.47
427.251	627.3
427.627	607.87
428.003	615.55
428.379	649.45
428.756	646.28
429.132	653.51
429.507	638.6
429.883	640.86
430.259	659.84
430.635	671.82
431.011	665.94
431.387	672.04
431.763	679.5
432.138	693.74
432.514	688.54
432.89	700.52
433.265	718.6
433.641	689.22
434.016	704.36
434.392	736.9
434.767	730.35
435.143	725.6
435.518	734.87
435.894	750.46
436.269	750.69
436.644	765.6
437.02	762.89
437.395	755.21
437.77	774.64
438.145	782.32
438.52	778.26
438.895	780.74
439.271	777.13
439.646	797.24
440.021	798.59
440.395	806.05
440.77	796.56
441.145	806.05
441.52	827.97
441.895	825.94
442.27	816
442.645	817.35
443.019	818.03
443.394	832.04
443.769	834.98
444.143	839.95
444.518	835.43
444.892	839.27
445.267	857.58
445.641	856.9
446.016	865.03
446.39	868.65
446.764	857.35
447.139	840.85
447.513	841.76
447.887	888.08
448.262	867.52
448.636	886.28
449.01	904.58
449.384	909.1
449.758	874.3
450.132	916.56
450.506	916.56
450.88	903.68
451.254	911.36
451.628	922.66
452.002	917.91
452.376	937.57
452.75	955.65
453.123	968.76
453.497	961.75
453.871	954.3
454.244	956.78
454.618	968.76
454.992	997.46
455.365	983.22
455.739	1000.85
456.112	1013.28
456.486	1006.95
456.859	1013.05
457.232	1017.12
457.606	1011.47
457.979	1035.65
458.352	1065.48
458.725	1082.66
459.099	1073.39
459.472	1084.01
459.845	1079.04
460.218	1071.36
460.591	1101.41
460.964	1100.06
461.337	1109.32
461.71	1116.1
462.083	1138.92
462.456	1126.95
462.829	1142.31
463.201	1152.26
463.574	1160.39
463.947	1164.69
464.32	1191.8
464.692	1197.45
465.065	1184.57
465.438	1213.73
465.81	1220.73
466.183	1227.51
466.555	1247.4
466.928	1245.36
467.3	1241.3
467.672	1254.63
468.045	1291.24
468.417	1275.64
468.789	1282.42
469.161	1307.73
469.534	1324.23
469.906	1353.38
470.278	1345.47
470.65	1370.33
471.022	1358.13
471.394	1437.45
471.766	1412.82
472.138	1422.99
472.51	1428.41
472.882	1449.88
473.253	1481.97
473.625	1474.51
473.997	1509.31
474.369	1519.03
474.74	1524.68
475.112	1557.67
475.484	1585.24
475.855	1593.6
476.227	1591.57
476.598	1618.01
476.97	1646.71
477.341	1682.87
477.713	1675.18
478.084	1728.29
478.455	1739.81
478.827	1755.86
479.198	1769.19
479.569	1797.66
479.94	1821.84
480.311	1822.07
480.682	1879.24
481.053	1900.49
481.424	1940.49
481.795	1946.14
482.166	1997.89
482.537	2039.24
482.908	2049.18
483.279	2074.04
483.65	2123.08
484.021	2117.2
484.391	2163.53
484.762	2183.19
485.133	2183.19
485.503	2237.2
485.874	2233.81
486.244	2270.42
486.615	2340.7
486.985	2362.17
487.356	2396.52
487.726	2418.44
488.097	2487.59
488.467	2512.45
488.837	2533.92
489.207	2553.12
489.578	2574.37
489.948	2602.39
490.318	2653.24
490.688	2679.9
491.058	2723.52
491.428	2769.39
491.798	2797.41
492.168	2828.6
492.538	2844.19
492.908	2915.6
493.278	2937.3
493.648	2960.8
494.017	2992.44
494.387	3057.97
494.757	3062.94
495.126	3138.42
495.496	3103.62
495.866	3144.75
496.235	3195.59
496.605	3210.51
496.974	3250.73
497.344	3312.88
497.713	3300.22
498.082	3322.14
498.452	3396.72
498.821	3422.48
499.19	3413.67
499.559	3448.47
499.928	3474.68
500.298	3556.26
500.667	3553.55
501.036	3591.97
501.405	3615.92
501.774	3602.14
502.143	3644.17
502.512	3721
502.88	3699.31
503.249	3734.11
503.618	3758.07
503.987	3767.56
504.356	3784.05
504.724	3845.07
505.093	3872.64
505.462	3863.6
505.83	3935.91
506.199	3972.75
506.567	4003.71
506.936	4003.26
507.304	4071.96
507.672	4058.4
508.041	4124.38
508.409	4148.79
508.777	4186.75
509.145	4201.67
509.514	4201.44
509.882	4266.3
510.25	4299.29
510.618	4342.68
510.986	4338.39
511.354	4387.2
511.722	4416.13
512.09	4440.08
512.458	4433.53
512.826	4483.24
513.193	4495.9
513.561	4524.15
513.929	4550.36
514.297	4622.9
514.664	4652.05
515.032	4686.85
515.4	4731.82
515.767	4761.88
516.135	4751.49
516.502	4748.32
516.869	4856.79
517.237	4891.59
517.604	4830.81
517.972	4872.16
518.339	4987.86
518.706	4956.9
519.073	4974.08
519.44	5026.96
519.808	5081.19
520.175	5110.8
520.542	5165.71
520.909	5195.99
521.276	5200.96
521.643	5235.31
522.009	5194.19
522.376	5275.77
522.743	5311.02
523.11	5418.13
523.477	5494.06
523.843	5479.6
524.21	5522.99
524.577	5531.35
524.943	5590.79
525.31	5566.83
525.676	5662.42
526.043	5695.19
526.409	5714.17
526.776	5822.64
527.142	5771.8
527.508	5827.84
527.874	5867.39
528.241	5880.27
528.607	5908.52
528.973	5978.12
529.339	5976.09
529.705	6034.62
530.071	6131.79
530.437	6094.95
530.803	6172.69
531.169	6170.88
531.535	6164.33
531.901	6217.21
532.267	6178.79
532.632	6258.56
532.998	6281.39
533.364	6305.34
533.73	6358.67
534.095	6450.88
534.461	6417.88
534.826	6436.64
535.192	6455.17
535.557	6495.39
535.923	6425.11
536.288	6509.18
536.653	6578.1
537.019	6587.37
537.384	6610.42
537.749	6653.36
538.114	6679.12
538.479	6685.45
538.845	6739.91
539.21	6743.52
539.575	6768.38
539.94	6785.56
540.305	6804.99
540.67	6821.26
541.034	6819.68
541.399	6943.97
541.764	6864.2
542.129	6956.17
542.494	6954.37
542.858	7031.88
543.223	7021.93
543.587	7083.4
543.952	7135.38
544.316	7148.48
544.681	7105.32
545.045	7243.62
545.41	7214.7
545.774	7266
546.138	7240.91
546.503	7334.47
546.867	7325.65
547.231	7442.71
547.595	7390.29
547.959	7447.91
548.324	7461.92
548.688	7519.32
549.052	7597.74
549.416	7585.99
549.779	7610.62
550.143	7666.21
550.507	7739.43
550.871	7792.76
551.235	7759.54
551.599	7851.74
551.962	7877.28
552.326	7926.09
552.689	8017.16
553.053	7978.75
553.417	8020.33
553.78	8112.98
554.143	8102.81
554.507	8158.85
554.87	8215.8
555.234	8338.06
555.597	8286.99
555.96	8373.76
556.323	8485.85
556.686	8516.13
557.05	8537.37
557.413	8649.91
557.776	8648.78
558.139	8655.34
558.502	8743.02
558.865	8847.2
559.228	8851.04
559.59	8961.32
559.953	8960.64
560.316	9193.18
560.679	9112.5
561.041	9239.73
561.404	9257.81
561.767	9432.04
562.129	9396.11
562.492	9547.07
562.854	9604.46
563.217	9661.41
563.579	9731.02
563.941	9797.91
564.304	9923.33
564.666	10038.58
565.028	10073.38
565.39	10192.25
565.753	10299.59
566.115	10421.84
566.477	10546.14
566.839	10568.73
567.201	10680.82
567.563	10800.59
567.925	10994.94
568.287	11058.66
568.648	11099.57
569.01	11323.29
569.372	11458.2
569.734	11494.81
570.095	11641.7
570.457	11835.14
570.819	11966.44
571.18	12058.41
571.542	12280.33
571.903	12360.78
572.265	12544.05
572.626	12766.87
572.987	12903.81
573.349	13091.6
573.71	13245.95
574.071	13329.34
574.432	13607.3
574.794	13912.6
575.155	14059.72
575.516	14182.2
575.877	14428.52
576.238	14639.13
576.599	14873.48
576.96	15085.45
577.32	15323.86
577.681	15594.36
578.042	15826.67
578.403	16136.04
578.763	16317.96
579.124	16675.24
579.485	16939.64
579.845	17282.91
580.206	17528.78
580.566	17909.78
580.927	18181.41
581.287	18556.55
581.648	18780.49
582.008	19204.21
582.368	19487.82
582.728	19840.35
583.089	20154.02
583.449	20474.01
583.809	20903.15
584.169	21251.39
584.529	21597.37
584.889	22138.82
585.249	22276
585.609	22699.04
585.969	23207.05
586.329	23522.07
586.688	23959.12
587.048	24431.65
587.408	24764.52
587.768	25209.25
588.127	25656.92
588.487	26066.86
588.846	26752.71
589.206	26925.82
589.565	27485.58
589.925	27965.79
590.284	28327.14
590.643	28740.01
591.003	29358.97
591.362	29887.55
591.721	30289.57
592.08	30646.85
592.44	31270.34
592.799	31658.35
593.158	32086.36
593.517	32577.42
593.876	33136.5
594.235	33490.62
594.593	33961.56
594.952	34663.69
595.311	34979.84
595.67	35546.61
596.029	36008.06
596.387	36645.56
596.746	37098.21
597.104	37358.76
597.463	37859.77
597.822	38467.21
598.18	38698.39
598.538	39077.59
598.897	39755.08
599.255	39977.45
599.613	40957.76
599.972	41022.4
600.33	41504.64
600.688	41708.93
601.046	42380.33
601.404	42863.03
601.762	43128.56
602.12	43610.12
602.478	44108.87
602.836	44385.25
603.194	44616.65
603.552	45000.82
603.91	45269.52
604.268	45870.63
604.625	45964.41
604.983	46440.11
605.341	46435.59
605.698	47052.75
606.056	47547.2
606.413	47586.29
606.771	47944.25
607.128	48333.16
607.485	48297.46
607.843	48580.84
608.2	49123.65
608.557	49384.44
608.914	49502.62
609.272	49908.94
609.629	50033.01
609.986	50424.86
610.343	50363.62
610.7	50745.53
611.057	50858.3
611.414	51000.89
611.771	51139.19
612.127	51382.35
612.484	51557.03
612.841	51770.81
613.198	51736.92
613.554	51845.84
613.911	52222.55
614.267	52281.99
614.624	52308.43
614.98	52567.63
615.337	52785.25
615.693	52815.53
616.05	52895.3
616.406	53125.35
616.762	53126.94
617.118	53229.53
617.475	53335.52
617.831	53477.21
618.187	53461.62
618.543	53659.35
618.899	53809.63
619.255	53871.55
619.611	53898.67
619.967	54006.46
620.323	54074.71
620.678	54091.43
621.034	53974.37
621.39	54025.67
621.746	54121.26
622.101	54527.8
622.457	54312.89
622.812	54410.52
623.168	54551.53
623.523	54535.94
623.879	54644.41
624.234	54532.55
624.589	54690.06
624.945	54669.04
625.3	54723.05
625.655	54706.78
626.01	54809.6
626.365	54777.06
626.72	54851.18
627.075	54867.23
627.43	54858.87
627.785	54817.74
628.14	54910.39
628.495	54978.64
628.85	54966.66
629.205	54935.25
629.559	55144.28
629.914	55014.34
630.269	55007.56
630.623	54947.68
630.978	54951.07
631.332	55138.18
631.687	55145.41
632.041	55120.78
632.396	55152.87
632.75	55096.6
633.104	55125.53
633.459	54937.74
633.813	54923.27
634.167	54974.12
634.521	55000.79
634.875	54991.75
635.229	55017.28
635.583	54960.33
635.937	54897.29
636.291	54882.14
636.645	54846.21
636.999	54874.01
637.352	54990.84
637.706	54827.23
638.06	54963.5
638.413	54853.67
638.767	54776.84
639.121	54819.32
639.474	54622.04
639.828	54758.53
640.181	54698.42
640.534	54795.82
640.888	54683.05
641.241	54657.07
641.594	54726.44
641.947	54777.74
642.301	54710.17
642.654	54696.61
643.007	54682.6
643.36	54677.18
643.713	54662.49
644.066	54713.11
644.419	54647.8
644.771	54336.85
645.124	54091.43
645.477	54016.18
645.83	53862.51
646.182	53860.48
646.535	53827.48
646.888	53921.72
647.24	53728.95
647.593	53937.76
647.945	53887.59
648.298	53697.32
648.65	53667.71
649.002	53532.8
649.355	53751.55
649.707	53659.35
650.059	53815.28
650.411	54132.33
650.763	54166.46
651.115	54483.96
651.467	54380.24
651.819	54326
652.171	54204.2
652.523	54251.43
652.875	54259.56
653.227	54174.59
653.578	54359.9
653.93	54329.84
654.282	54138.44
654.633	54132.79
654.985	54150.86
655.337	54224.99
655.688	54227.47
656.039	54229.05
656.391	54086.01
656.742	54103.86
657.094	54174.82
657.445	54294.36
657.796	54149.96
658.147	54128.49
658.498	54102.05
658.849	54222.5
659.2	54078.78
659.551	54066.8
659.902	54116.06
660.253	54083.97
660.604	54130.53
660.955	54012.34
661.306	54091.66
661.656	54036.74
662.007	54059.57
662.358	54076.52
662.708	54034.71
663.059	54035.39
663.409	53897.09
663.76	54157.19
664.11	54072.9
664.461	54185.89
664.811	54028.83
665.161	54049.62
665.511	53972.79
665.862	53916.52
666.212	54123.07
666.562	54057.08
666.912	53986.35
667.262	53954.26
667.612	53975.73
667.962	53954.49
668.312	53871.1
668.662	54046.69
669.011	53943.41
669.361	53890.31
669.711	53872.23
670.06	53862.74
670.41	53795.85
670.76	53772.8
671.109	53857.54
671.459	53751.78
671.808	53790.65
672.157	53771.21
672.507	53634.72
672.856	53552.69
673.205	53700.48
673.554	53748.84
673.904	53596.08
674.253	53740.71
674.602	53712.23
674.951	53153.6
675.3	52995.19
675.649	53494.84
675.998	53509.98
676.346	53460.71
676.695	53505.23
677.044	53318.57
677.393	53454.39
677.741	53463.65
678.09	53389.3
678.438	53386.59
678.787	53361.96
679.135	53399.92
679.484	53200.61
679.832	53293.94
680.181	53103.21
680.529	53198.8
680.877	53135.07
681.225	53091.23
681.573	53273.15
681.922	53015.07
682.27	52969.88
682.618	52985.7
682.966	52868.41
683.314	52940.5
683.661	52921.29
684.009	52723.56
684.357	52629.55
684.705	52667.29
685.053	52718.59
685.4	52591.58
685.748	52437.24
686.095	52406.73
686.443	52303.23
686.79	52287.18
687.138	52464.81
687.485	52326.51
687.832	52155.21
688.18	52159.5
688.527	51965.84
688.874	52046.74
689.221	51974.42
689.568	51830.25
689.915	51748.89
690.262	51737.37
690.609	51643.13
690.956	51515.45
691.303	51637.71
691.65	51348.9
691.997	51327.44
692.344	51094.22
692.69	51068.91
693.037	51208.12
693.383	50835.25
693.73	50997.05
694.077	50818.07
694.423	50853.78
694.769	50741.01
695.116	50690.39
695.462	50586.21
695.808	50340.57
696.155	50457.85
696.501	50181.7
696.847	50207.24
697.193	49906
697.539	50048.37
697.885	49813.13
698.231	49671.89
698.577	49715.5
698.923	49597.09
699.269	49420.14
699.614	49285
699.96	49313.25
700.306	49192.12
700.651	48958.23
700.997	48816.77
701.342	48860.16
701.688	48864.22
702.033	48588.98
702.379	48687.28
702.724	48565.25
703.069	48657.68
703.415	48259.49
703.76	48218.59
704.105	48231.47
704.45	48007.3
704.795	47929.56
705.14	47739.73
705.485	47704.03
705.83	47474.88
706.175	47684.82
706.52	47387.2
706.865	47411.61
707.209	47325.51
707.554	47105.17
707.899	47178.17
708.243	47017.04
708.588	46885.29
708.932	46628.12
709.277	46629.71
709.621	46538.86
709.966	46301.81
710.31	46511.52
710.654	46007.35
710.998	46190.62
711.342	46136.16
711.687	46092.77
712.031	45951.76
712.375	45788.37
712.719	45963.06
713.063	45813.91
713.407	45839.22
713.75	45646.91
714.094	45652.56
714.438	45423.86
714.782	45460.92
715.125	45290.08
715.469	45471.54
715.812	45107.26
716.156	44980.71
716.499	45081.72
716.843	45000.82
717.186	44623.21
717.53	45070.43
717.873	45011.44
718.216	44767.61
718.559	44584.11
718.902	44293.72
719.246	44443.1
719.589	44405.81
719.932	44263.44
720.275	44257.34
720.617	44215.76
720.96	44065.48
721.303	44113.39
721.646	44039.04
721.989	43823.45
722.331	43943.9
722.674	43826.16
723.016	43757.69
723.359	43677.24
723.701	43681.76
724.044	43515.44
724.386	43396.12
724.729	43658.03
725.071	43291.04
725.413	43405.16
725.755	43306.18
726.097	43124.71
726.439	43047.88
726.782	42907.32
727.124	43235.22
727.465	42915.91
727.807	42999.07
728.149	43002.91
728.491	42860.77
728.833	42818.96
729.175	42728.34
729.516	42824.38
729.858	42607.66
730.199	42695.8
730.541	42583.03
730.882	42493.77
731.224	42630.49
731.565	42353.21
731.906	42458.97
732.248	42356.6
732.589	42375.13
732.93	42280.44
733.271	42124.74
733.612	42248.8
733.953	42157.28
734.294	42053.78
734.635	41996.38
734.976	42165.19
735.317	41844.3
735.658	41822.15
735.999	41707.35
736.339	41815.6
736.68	41811.98
737.021	41661.93
737.361	41536.28
737.702	41760.68
738.042	41687.46
738.383	41444.31
738.723	41577.86
739.063	41505.1
739.404	41504.42
739.744	41447.47
740.084	41208.15
740.424	41301.48
740.764	41223.75
741.104	41445.44
741.444	41262.39
741.784	41008.16
742.124	41030.98
742.464	41092.9
742.804	40965.9
743.143	40865.11
743.483	40899.69
743.823	40633.25
744.162	40784.66
744.502	40900.37
744.841	40681.39
745.181	40841.61
745.52	40531.56
745.86	40672.57
746.199	40664.89
746.538	40509.87
746.877	40666.02
747.216	40572.69
747.556	40407.04
747.895	40471.68
748.234	40143.55
748.573	40250.21
748.911	40171.34
749.25	40261.96
749.589	39958.7
749.928	39956.89
750.267	40157.79
750.605	39956.44
750.944	39874.86
751.283	39765.71
751.621	39956.44
751.96	39552.6
752.298	39554.86
752.636	39647.74
752.975	39246.4
753.313	39269.67
753.651	39481.42
753.989	39220.18
754.327	39145.38
754.666	39003.24
755.004	38996.23
755.342	39103.58
755.679	38861.55
756.017	38786.75
756.355	38932.06
756.693	38751.95
757.031	38777.71
757.368	38505.85
757.706	38406.87
758.044	38246.65
758.381	38222.47
758.719	38197.61
759.056	38275.12
759.394	38007.11
759.731	37952.65
