Data from orange_diffuse_book_FLMS001491_00019.txt Node
Date: Wed Feb 08 15:29:12 GMT 2017
User: dcchb
Spectrometer: FLMS00149
Trigger mode: 0
Integration Time (sec): 2.000000E-2
Scans to average: 10
Electric dark correction enabled: true
Nonlinearity correction enabled: false
Boxcar width: 0
XAxis mode: Wavelengths
Number of Pixels in Spectrum: 2048
>>>>>Begin Spectral Data<<<<<
341.393	-6.03
341.776	-6.03
342.16	-6.03
342.543	-61.4
342.927	-65.01
343.31	-65.92
343.693	-62.53
344.077	-55.3
344.46	-78.8
344.843	-39.7
345.226	-38.12
345.61	-56.65
345.993	-33.83
346.376	1.88
346.759	1.43
347.142	34.65
347.525	38.26
347.908	61.76
348.291	71.48
348.674	103.12
349.057	118.26
349.44	105.38
349.823	146.06
350.206	164.13
350.588	208.43
350.971	218.14
351.354	238.71
351.737	236.22
352.119	253.85
352.502	254.3
352.884	285.03
353.267	328.88
353.65	292.94
354.032	313.73
354.414	312.38
354.797	319.84
355.179	325.26
355.562	335.2
355.944	320.74
356.326	358.25
356.709	335.2
357.091	338.82
357.473	349.44
357.855	339.04
358.238	362.09
358.62	335.66
359.002	348.54
359.384	335.2
359.766	355.32
360.148	344.24
360.53	357.58
360.912	348.31
361.294	340.85
361.676	353.06
362.057	346.95
362.439	343.79
362.821	357.8
363.203	340.17
363.584	318.03
363.966	340.17
364.348	335.43
364.729	320.06
365.111	315.09
365.493	335.88
365.874	340.17
366.256	321.64
366.637	332.94
367.019	319.84
367.4	325.03
367.781	330.23
368.163	337.01
368.544	304.47
368.925	331.14
369.306	333.85
369.688	337.01
370.069	315.09
370.45	320.97
370.831	327.97
371.212	329.78
371.593	315.99
371.974	328.2
372.355	339.95
372.736	320.74
373.117	339.72
373.498	349.67
373.879	341.76
374.26	334.3
374.641	309.89
375.021	333.4
375.402	331.81
375.783	338.82
376.163	351.25
376.544	320.97
376.925	352.38
377.305	336.33
377.686	329.55
378.066	336.33
378.447	340.63
378.827	346.5
379.208	315.99
379.588	337.46
379.968	344.02
380.349	344.24
380.729	337.01
381.109	348.31
381.489	349.67
381.87	346.95
382.25	335.2
382.63	330.46
383.01	335.43
383.39	369.1
383.77	354.64
384.15	349.44
384.53	338.82
384.91	359.38
385.29	361.19
385.67	360.29
386.049	359.38
386.429	367.29
386.809	348.31
387.189	350.57
387.568	356.67
387.948	348.54
388.328	367.74
388.707	370.91
389.087	373.85
389.466	381.3
389.846	351.25
390.225	362.09
390.605	354.86
390.984	400.74
391.363	371.81
391.743	357.12
392.122	376.78
392.501	370.23
392.881	391.02
393.26	366.39
393.639	383.34
394.018	377.24
394.397	386.5
394.776	391.7
395.155	395.77
395.534	382.66
395.913	382.21
396.292	375.88
396.671	406.39
397.05	393.96
397.429	380.63
397.808	414.07
398.186	389.44
398.565	413.62
398.944	406.16
399.323	395.77
399.701	404.81
400.08	385.6
400.458	401.87
400.837	412.04
401.215	418.14
401.594	409.1
401.972	427.18
402.351	393.51
402.729	427.86
403.107	415.2
403.486	403.22
403.864	424.24
404.242	409.55
404.62	426.73
404.999	440.96
405.377	439.83
405.755	426.5
406.133	435.77
406.511	440.74
406.889	457.01
407.267	446.84
407.645	445.26
408.023	456.78
408.401	466.27
408.779	452.71
409.156	449.78
409.534	459.27
409.912	475.54
410.29	467.63
410.667	493.84
411.045	483
411.422	468.98
411.8	479.83
412.178	489.55
412.555	487.97
412.933	486.84
413.31	494.07
413.687	509.44
414.065	509.66
414.442	498.36
414.819	487.74
415.197	507.85
415.574	492.04
415.951	497.68
416.328	522.77
416.705	526.61
417.082	501.98
417.46	522.32
417.837	524.12
418.214	515.54
418.591	532.71
418.967	534.07
419.344	545.37
419.721	538.36
420.098	551.92
420.475	545.82
420.852	585.37
421.228	527.74
421.605	555.54
421.982	565.71
422.358	568.42
422.735	564.35
423.111	563.22
423.488	571.81
423.864	586.27
424.241	587.63
424.617	591.69
424.994	570.23
425.37	585.59
425.746	584.91
426.123	605.93
426.499	596.67
426.875	619.72
427.251	607.06
427.627	641.86
428.003	614.97
428.379	634.4
428.756	636.89
429.132	646.38
429.507	636.66
429.883	624.46
430.259	622.2
430.635	661.3
431.011	649.77
431.387	656.55
431.763	664.23
432.138	668.3
432.514	653.61
432.89	702.43
433.265	694.97
433.641	695.42
434.016	683.89
434.392	728.64
434.767	712.59
435.143	717.34
435.518	738.36
435.894	746.27
436.269	740.62
436.644	734.29
437.02	754.4
437.395	749.2
437.77	749.88
438.145	760.05
438.52	790.33
438.895	779.49
439.271	785.13
439.646	789.65
440.021	811.12
440.395	804.12
440.77	791.69
441.145	824.68
441.52	796.43
441.895	813.83
442.27	824
442.645	817.9
443.019	841.18
443.394	811.8
443.769	856.32
444.143	831.01
444.518	853.16
444.892	833.04
445.267	865.58
445.641	850.22
446.016	862.19
446.39	843.21
446.764	853.38
447.139	870.78
447.513	899.71
447.887	868.07
448.262	885.47
448.636	875.08
449.01	880.27
449.384	885.47
449.758	910.33
450.132	906.26
450.506	891.57
450.88	906.49
451.254	913.72
451.628	915.3
452.002	942.42
452.376	913.27
452.75	935.87
453.123	950.78
453.497	967.5
453.871	981.97
454.244	971.57
454.618	978.8
454.992	998.91
455.365	968.63
455.739	1020.61
456.112	1005.02
456.486	1020.83
456.859	1022.64
457.232	1027.84
457.606	1036.88
457.979	1035.52
458.352	1069.65
458.725	1065.13
459.099	1053.38
459.472	1066.03
459.845	1083.66
460.218	1060.16
460.591	1088.4
460.964	1075.07
461.337	1157.33
461.71	1118.69
462.083	1142.64
462.456	1148.97
462.829	1136.76
463.201	1152.81
463.574	1161.85
463.947	1173.6
464.32	1210.21
464.692	1196.2
465.065	1175.41
465.438	1202.98
465.81	1198.91
466.183	1221.96
466.555	1238.23
466.928	1219.7
467.3	1258.12
467.672	1265.12
468.045	1270.55
468.417	1288.17
468.789	1296.53
469.161	1299.92
469.534	1335.18
469.906	1327.49
470.278	1370.2
470.65	1339.47
471.022	1357.78
471.394	1398.23
471.766	1410.43
472.138	1443.42
472.51	1453.14
472.882	1474.38
473.253	1460.37
473.625	1523.65
473.997	1537.66
474.369	1507.38
474.74	1532.23
475.112	1548.5
475.484	1562.06
475.855	1612.01
476.227	1626.02
476.598	1606.58
476.97	1638.22
477.341	1692.68
477.713	1709.4
478.084	1735.39
478.455	1739.91
478.827	1765.22
479.198	1807.93
479.569	1804.32
479.94	1845.45
480.311	1856.52
480.682	1900.36
481.053	1927.93
481.424	1953.69
481.795	1993.24
482.166	1981.04
482.537	2051.99
482.908	2081.37
483.279	2070.52
483.65	2159.11
484.021	2151.65
484.391	2159.34
484.762	2189.62
485.133	2227.36
485.503	2261.48
485.874	2287.24
486.244	2327.69
486.615	2393.91
486.985	2416.5
487.356	2418.76
487.726	2445.88
488.097	2454.02
488.467	2530.4
488.837	2567.01
489.207	2617.18
489.578	2634.58
489.948	2636.61
490.318	2675.03
490.688	2705.31
491.058	2800.45
491.428	2811.75
491.798	2787.34
492.168	2859.88
492.538	2891.97
492.908	2934.46
493.278	2995.47
493.648	3003.83
494.017	3044.06
494.387	3054.45
494.757	3095.13
495.126	3130.84
495.496	3164.06
495.866	3209.03
496.235	3229.36
496.605	3275.01
496.974	3295.8
497.344	3310.27
497.713	3347.55
498.082	3392.98
498.452	3475.23
498.821	3434.78
499.19	3480.88
499.559	3515.68
499.928	3546.87
500.298	3557.27
500.667	3574.89
501.036	3556.36
501.405	3692.18
501.774	3661.22
502.143	3697.83
502.512	3728.56
502.88	3774.89
503.249	3771.72
503.618	3820.31
503.987	3877.48
504.356	3856.69
504.724	3896.24
505.093	3918.16
505.462	3972.4
505.83	3969.91
506.199	4044.26
506.567	4098.49
506.936	4051.94
507.304	4131.71
507.672	4196.34
508.041	4165.38
508.409	4207.87
508.777	4218.26
509.145	4259.85
509.514	4250.13
509.882	4327.19
510.25	4355.21
510.618	4409.67
510.986	4388.43
511.354	4450.8
511.722	4466.85
512.09	4508.88
512.458	4514.3
512.826	4547.75
513.193	4586.16
513.561	4606.05
513.929	4605.6
514.297	4682.43
514.664	4680.63
515.032	4721.53
515.4	4773.5
515.767	4804.24
516.135	4797.68
516.502	4788.87
516.869	4893.28
517.237	4946.38
517.604	4943.44
517.972	4986.61
518.339	4993.84
518.706	4992.48
519.073	5052.82
519.44	5094.85
519.808	5166.26
520.175	5147.73
520.542	5211.46
520.909	5242.42
521.276	5269.99
521.643	5272.7
522.009	5387.95
522.376	5384.79
522.743	5430.44
523.11	5461.85
523.477	5505.69
523.843	5547.27
524.21	5596.53
524.577	5641.5
524.943	5629.75
525.31	5618.45
525.676	5761.73
526.043	5776.42
526.409	5813.25
526.776	5832.46
527.142	5855.06
527.508	5888.96
527.874	5921.5
528.241	5941.61
528.607	6011.21
528.973	6055.28
529.339	6054.83
529.705	6151.55
530.071	6144.09
530.437	6213.24
530.803	6163.52
531.169	6196.74
531.535	6246.91
531.901	6258.66
532.267	6286.46
532.632	6326.91
532.998	6372.11
533.364	6374.82
533.73	6431.54
534.095	6500.92
534.461	6444.19
534.826	6510.86
535.192	6524.64
535.557	6557.86
535.923	6578.88
536.288	6638.31
536.653	6673.57
537.019	6637.64
537.384	6735.03
537.749	6712.44
538.114	6762.6
538.479	6787.01
538.845	6795.15
539.21	6808.71
539.575	6840.79
539.94	6857.97
540.305	6959.66
540.67	6936.84
541.034	6975.25
541.399	6994.46
541.764	6994.46
542.129	6992.88
542.494	7005.76
542.858	7145.42
543.223	7093.44
543.587	7172.09
543.952	7173.89
544.316	7213.67
544.681	7203.5
545.045	7293.89
545.41	7334.12
545.774	7299.31
546.138	7304.51
546.503	7421.8
546.867	7441.23
547.231	7549.25
547.595	7579.98
547.959	7566.88
548.324	7630.15
548.688	7580.66
549.052	7670.6
549.416	7636.93
549.779	7684.16
550.143	7730.94
550.507	7871.05
550.871	7843.48
551.235	7852.29
551.599	7907.21
551.962	7937.49
552.326	8011.61
552.689	8121.21
553.053	8053.42
553.417	8114.89
553.78	8216.8
554.143	8211.15
554.507	8302.23
554.87	8316.69
555.234	8393.3
555.597	8383.58
555.96	8435.56
556.323	8516
556.686	8623.8
557.05	8699.73
557.413	8704.02
557.776	8734.3
558.139	8810.91
558.502	8833.28
558.865	8911.7
559.228	9003.45
559.59	9080.96
559.953	9090.45
560.316	9276.44
560.679	9200.05
561.041	9381.74
561.404	9425.59
561.767	9523.66
562.129	9546.49
562.492	9666.03
562.854	9706.03
563.217	9763.43
563.579	9843.43
563.941	9914.39
564.304	10054.72
564.666	10088.62
565.028	10147.37
565.39	10274.15
565.753	10434.37
566.115	10454.48
566.477	10565.22
566.839	10754.36
567.201	10840.92
567.563	10899.22
567.925	11077.07
568.287	11131.53
568.648	11256.5
569.01	11397.51
569.372	11607.9
569.734	11615.13
570.095	11773.55
570.457	11927.89
570.819	12048.79
571.18	12199.98
571.542	12339.86
571.903	12405.62
572.265	12620.53
572.626	12829.79
572.987	12954.98
573.349	13210.34
573.71	13347.97
574.071	13473.39
574.432	13696.89
574.794	13966.26
575.155	14150.66
575.516	14260.94
575.877	14421.39
576.238	14707.48
576.599	14965.33
576.96	15151.31
577.32	15421.59
577.681	15566.44
578.042	15821.58
578.403	16085.07
578.763	16227.21
579.124	16651.16
579.485	16995.1
579.845	17365.72
580.206	17396
580.566	17773.16
580.927	18082.08
581.287	18350.32
581.648	18608.17
582.008	19004.77
582.368	19340.81
582.728	19673.68
583.089	19865.09
583.449	20309.14
583.809	20585.29
584.169	21029.57
584.529	21410.81
584.889	21911.36
585.249	22061.41
585.609	22438.8
585.969	22929.19
586.329	23314.71
586.688	23793.34
587.048	24148.81
587.408	24448.02
587.768	24987.44
588.127	25278.95
588.487	25727.53
588.846	26192.83
589.206	26499.49
589.565	27000.26
589.925	27489.29
590.284	27841.37
590.643	28370.62
591.003	28837.5
591.362	29351.39
591.721	29678.39
592.08	30121.99
592.44	30683.78
592.799	31292.81
593.158	31554.04
593.517	32092.56
593.876	32575.94
594.235	32921.24
594.593	33365.97
594.952	34019.74
595.311	34233.07
595.67	34864.69
596.029	35417.22
596.387	35913.7
596.746	36415.38
597.104	36744.19
597.463	37167.91
597.822	37820.77
598.18	38004.95
598.538	38445.16
598.897	39160.62
599.255	39268.19
599.613	40234.27
599.972	40305
600.33	40822.5
600.688	41040.35
601.046	41578.41
601.404	41957.39
601.762	42407.09
602.12	43005.04
602.478	43309.89
602.836	43660.62
603.194	43787.17
603.552	44350.99
603.91	44598.67
604.268	45091.99
604.625	45236.85
604.983	45810.39
605.341	45848.36
605.698	46309.59
606.056	46685.62
606.413	46961.1
606.771	47320.18
607.128	47614.19
607.485	47654.18
607.843	47952.71
608.2	48358.57
608.557	48624.1
608.914	48759.24
609.272	49141.83
609.629	49396.74
609.986	49641.48
610.343	49655.04
610.7	50215.47
611.057	50268.81
611.414	50313.55
611.771	50502.92
612.127	50770.26
612.484	50939.75
612.841	51162.57
613.198	51165.96
613.554	51199.85
613.911	51623.35
614.267	51576.57
614.624	51792.61
614.98	51887.75
615.337	52133.16
615.693	52191.92
616.05	52308.3
616.406	52538.35
616.762	52530.44
617.118	52588.52
617.475	52678.23
617.831	52856.53
618.187	52968.4
618.543	53089.07
618.899	53298.1
619.255	53355.05
619.611	53289.97
619.967	53475.95
620.323	53529.28
620.678	53550.98
621.034	53537.87
621.39	53573.13
621.746	53626.91
622.101	53946
622.457	53752.56
622.812	53831.42
623.168	53955.49
623.523	53936.51
623.879	54138.08
624.234	53976.28
624.589	54111.64
624.945	54136.95
625.3	54268.7
625.655	54221.7
626.01	54344.63
626.365	54272.09
626.72	54305.99
627.075	54353.22
627.43	54376.72
627.785	54271.86
628.14	54383.05
628.495	54420.56
628.85	54487.23
629.205	54384.63
629.559	54644.06
629.914	54466.89
630.269	54517.06
630.623	54462.59
630.978	54441.58
631.332	54607.9
631.687	54513.67
632.041	54517.96
632.396	54532.2
632.75	54482.03
633.104	54608.35
633.459	54429.15
633.813	54396.61
634.167	54499.65
634.521	54483.84
634.875	54481.8
635.229	54380.79
635.583	54413.33
635.937	54414.46
636.291	54256.27
636.645	54347.34
636.999	54301.24
637.352	54445.42
637.706	54305.99
638.06	54359.77
638.413	54350.05
638.767	54261.69
639.121	54283.39
639.474	54178.53
639.828	54271.19
640.181	54225.76
640.534	54303.73
640.888	54093.11
641.241	54092.21
641.594	54108.93
641.947	54262.37
642.301	54130.17
642.654	54157.52
643.007	54281.13
643.36	54158.65
643.713	54127.01
644.066	54197.74
644.419	53962.49
644.771	53852.89
645.124	53599.79
645.477	53559.57
645.83	53398.67
646.182	53247.94
646.535	53194.15
646.888	53286.35
647.24	53118.45
647.593	53364.09
647.945	53298.33
648.298	53151.22
648.65	53127.71
649.002	53064.21
649.355	53242.51
649.707	53085
650.059	53211.78
650.411	53526.57
650.763	53632.33
651.115	54047.46
651.467	53786.9
651.819	53772.89
652.171	53797.53
652.523	53716.4
652.875	53722.95
653.227	53583.52
653.578	53789.84
653.93	53763.4
654.282	53670.3
654.633	53499
654.985	53623.75
655.337	53708.04
655.688	53633.24
656.039	53727.25
656.391	53523.64
656.742	53529.96
657.094	53535.84
657.445	53725.44
657.796	53619.23
658.147	53608.83
658.498	53544.88
658.849	53675.04
659.2	53545.78
659.551	53580.58
659.902	53631.2
660.253	53586.01
660.604	53660.35
660.955	53539.23
661.306	53524.31
661.656	53540.13
662.007	53538.55
662.358	53469.63
662.708	53578.32
663.059	53524.31
663.409	53421.94
663.76	53560.24
664.11	53493.81
664.461	53536.97
664.811	53517.99
665.161	53507.14
665.511	53404.54
665.862	53446.57
666.212	53501.26
666.562	53625.1
666.912	53431.66
667.262	53407.03
667.612	53437.76
667.962	53466.69
668.312	53365.22
668.662	53595.27
669.011	53412.23
669.361	53322.06
669.711	53389.63
670.06	53340.14
670.41	53314.15
670.76	53288.39
671.109	53361.61
671.459	53261.5
671.808	53173.59
672.157	53263.08
672.507	53077.32
672.856	53065.12
673.205	53175.17
673.554	53223.08
673.904	53046.36
674.253	53198.67
674.602	53121.84
674.951	52620.38
675.3	52446.83
675.649	52988.73
675.998	52935.4
676.346	52968.4
676.695	53046.13
677.044	52809.76
677.393	52840.72
677.741	52891.11
678.09	52873.93
678.438	52825.8
678.787	52863.09
679.135	52794.84
679.484	52565.92
679.832	52794.61
680.181	52533.15
680.529	52683.43
680.877	52624
681.225	52471.69
681.573	52679.59
681.922	52536.54
682.27	52467.39
682.618	52375.42
682.966	52341.07
683.314	52388.98
683.661	52276.66
684.009	52167.29
684.357	52163.22
684.705	52030.34
685.053	52107.85
685.4	51959.38
685.748	51892.49
686.095	51883.45
686.443	51781.76
686.79	51722.1
687.138	51795.77
687.485	51736.79
687.832	51598.26
688.18	51672.38
688.527	51443.01
688.874	51445.05
689.221	51375.67
689.568	51224.71
689.915	51218.84
690.262	51103.81
690.609	51122.12
690.956	50996.47
691.303	50974.78
691.65	50811.62
691.997	50786.31
692.344	50466.09
692.69	50562.13
693.037	50546.54
693.383	50318.3
693.73	50382.25
694.077	50235.59
694.423	50246.43
694.769	50083.27
695.116	49976.84
695.462	49935.03
695.808	49829.72
696.155	49879.44
696.501	49452.33
696.847	49620.23
697.193	49310.86
697.539	49521.25
697.885	49192.68
698.231	49107.03
698.577	49050.08
698.923	48929.18
699.269	48767.15
699.614	48578.23
699.96	48629.98
700.306	48464.33
700.651	48349.76
700.997	48234.28
701.342	48159.71
701.688	48022.76
702.033	48097.79
702.379	47867.51
702.724	47728.31
703.069	47891.24
703.415	47470.91
703.76	47528.09
704.105	47529.67
704.45	47360.86
704.795	47177.14
705.14	47014.2
705.485	47016.69
705.83	46952.96
706.175	46931.94
706.52	46775.79
706.865	46753.19
707.209	46665.96
707.554	46471.62
707.899	46511.84
708.243	46297.84
708.588	46256.26
708.932	46101.01
709.277	46042.48
709.621	45932.42
709.966	45693.11
710.31	45798.41
710.654	45539.21
710.998	45536.27
711.342	45488.59
711.687	45327.24
712.031	45212.22
712.375	45061.26
712.719	45195.49
713.063	45079.34
713.407	45109.84
713.75	44974.71
714.094	44861.26
714.438	44701.27
714.782	44702.4
715.125	44464.44
715.469	44750.08
715.812	44533.81
716.156	44259.02
716.499	44302.63
716.843	44287.72
717.186	44032.59
717.53	44279.36
717.873	44202.75
718.216	44034.62
718.559	43814.96
718.902	43741.52
719.246	43880.5
719.589	43559.6
719.932	43540.85
720.275	43651.13
720.617	43506.27
720.96	43419.27
721.303	43446.39
721.646	43377.69
721.989	43227.41
722.331	43410.68
722.674	43212.95
723.016	43238.26
723.359	42986.51
723.701	43101.54
724.044	42649.34
724.386	42629.23
724.729	42880.75
725.071	42733.64
725.413	42686.41
725.755	42667.2
726.097	42504.94
726.439	42401.44
726.782	42420.2
727.124	42624.49
727.465	42275.12
727.807	42287.55
728.149	42359.18
728.491	42213.2
728.833	42234.44
729.175	42085.52
729.516	42067.89
729.858	42122.8
730.199	41955.35
730.541	41910.38
730.882	41841
731.224	41893.43
731.565	41744.96
731.906	41690.05
732.248	41861.79
732.589	41683.72
732.93	41588.36
733.271	41523.27
733.612	41445.31
733.953	41583.84
734.294	41387.68
734.635	41384.97
734.976	41412.09
735.317	41265.65
735.658	41166.9
735.999	41049.39
736.339	41147.24
736.68	41197.41
737.021	41001.25
737.361	41010.97
737.702	41174.13
738.042	40955.15
738.383	40845.78
738.723	40929.62
739.063	40777.3
739.404	40836.96
739.744	40845.55
740.084	40571.43
740.424	40668.38
740.764	40551.32
741.104	40601.71
741.444	40418.89
741.784	40406.69
742.124	40457.99
742.464	40442.4
742.804	40340.25
743.143	40285.34
743.483	40290.76
743.823	40075.85
744.162	40023.65
744.502	40102.74
744.841	40160.6
745.181	40200.82
745.52	39984.1
745.86	39969.87
746.199	39873.82
746.538	39931.45
746.877	39998.34
747.216	39857.1
747.556	39825.24
747.895	39813.71
748.234	39585.92
748.573	39561.06
748.911	39589.09
749.25	39691.23
749.589	39438.58
749.928	39508.18
750.267	39453.04
750.605	39278.13
750.944	39348.41
751.283	39151.58
751.621	39254.18
751.96	38948.2
752.298	38928.09
752.636	39016.45
752.975	38772.61
753.313	38718.6
753.651	38899.61
753.989	38656.91
754.327	38616
754.666	38308.22
755.004	38504.37
755.342	38385.28
755.679	38393.19
756.017	38171.04
756.355	38376.46
756.693	38036.13
757.031	38097.15
757.368	37901.9
757.706	37844.95
758.044	37801.11
758.381	37752.07
758.719	37782.13
759.056	37637.5
759.394	37598.4
759.731	37210.17
