Data from orange_diffuse_book_FLMS001491_00033.txt Node
Date: Wed Feb 08 15:29:27 GMT 2017
User: dcchb
Spectrometer: FLMS00149
Trigger mode: 0
Integration Time (sec): 2.000000E-2
Scans to average: 10
Electric dark correction enabled: true
Nonlinearity correction enabled: false
Boxcar width: 0
XAxis mode: Wavelengths
Number of Pixels in Spectrum: 2048
>>>>>Begin Spectral Data<<<<<
341.393	-16.17
341.776	-16.17
342.16	-16.17
342.543	-58.2
342.927	-75.38
343.31	-63.63
343.693	-66.57
344.077	-56.4
344.46	-60.01
344.843	-52.33
345.226	-55.94
345.61	-21.37
345.993	-20.69
346.376	-25.89
346.759	7.78
347.142	32.19
347.525	38.74
347.908	55.92
348.291	79.64
348.674	85.97
349.057	122.58
349.44	123.71
349.823	146.08
350.206	170.94
350.588	201
350.971	234.89
351.354	212.3
351.737	239.41
352.119	253.2
352.502	280.09
352.884	308.11
353.267	292.52
353.65	307.66
354.032	318.73
354.414	318.96
354.797	335.01
355.179	346.76
355.562	330.26
355.944	325.29
356.326	353.08
356.709	342.46
357.091	361.22
357.473	380.2
357.855	353.54
358.238	378.17
358.62	350.6
359.002	375
359.384	368
359.766	365.29
360.148	365.51
360.53	359.41
360.912	346.08
361.294	352.41
361.676	372.74
362.057	339.3
362.439	342.24
362.821	339.52
363.203	340.43
363.584	340.65
363.966	339.75
364.348	335.91
364.729	349.69
365.111	341.11
365.493	349.92
365.874	347.43
366.256	345.85
366.637	320.09
367.019	338.17
367.4	337.72
367.781	342.24
368.163	336.81
368.544	312.18
368.925	331.16
369.306	358.51
369.688	313.08
370.069	318.73
370.45	341.11
370.831	319.64
371.212	330.49
371.593	343.59
371.974	353.54
372.355	310.15
372.736	337.49
373.117	350.6
373.498	342.91
373.879	355.57
374.26	340.2
374.641	338.62
375.021	323.48
375.402	348.56
375.783	345.63
376.163	348.34
376.544	357.38
376.925	329.58
377.305	351.73
377.686	324.84
378.066	338.85
378.447	342.69
378.827	326.42
379.208	345.85
379.588	362.8
379.968	345.4
380.349	344.27
380.729	366.42
381.109	364.38
381.489	358.06
381.87	364.84
382.25	368.68
382.63	352.86
383.01	372.97
383.39	353.76
383.77	357.15
384.15	374.33
384.53	376.81
384.91	370.71
385.29	392.86
385.67	361.67
386.049	370.94
386.429	386.98
386.809	349.69
387.189	382.46
387.568	399.64
387.948	381.56
388.328	384.5
388.707	382.46
389.087	386.3
389.466	386.3
389.846	375.68
390.225	389.69
390.605	388.34
390.984	404.16
391.363	400.77
391.743	407.09
392.122	412.74
392.501	396.25
392.881	408
393.26	402.57
393.639	404.38
394.018	404.16
394.397	404.16
394.776	419.75
395.155	411.39
395.534	401.44
395.913	444.61
396.292	444.83
396.671	422.69
397.05	420.2
397.429	427.21
397.808	432.4
398.186	432.86
398.565	433.99
398.944	423.59
399.323	435.12
399.701	426.75
400.08	438.96
400.458	440.99
400.837	441.44
401.215	446.87
401.594	425.85
401.972	439.64
402.351	456.58
402.729	444.38
403.107	428.79
403.486	440.99
403.864	423.82
404.242	463.14
404.62	462.69
404.999	464.95
405.377	442.8
405.755	449.13
406.133	457.49
406.511	462.23
406.889	491.16
407.267	486.87
407.645	475.34
408.023	474.44
408.401	482.57
408.779	476.24
409.156	522.12
409.534	504.94
409.912	511.27
410.29	535
410.667	505.4
411.045	520.54
411.422	529.12
411.8	532.06
412.178	518.96
412.555	526.41
412.933	527.32
413.31	552.17
413.687	556.24
414.065	552.63
414.442	544.72
414.819	529.12
415.197	582
415.574	543.14
415.951	562.12
416.328	565.28
416.705	565.51
417.082	574.32
417.46	579.07
417.837	603.02
418.214	591.27
418.591	607.09
418.967	600.08
419.344	604.38
419.721	596.02
420.098	616.35
420.475	593.08
420.852	605.05
421.228	590.82
421.605	638.27
421.982	623.59
422.358	626.3
422.735	632.85
423.111	622.68
423.488	655.22
423.864	655
424.241	655.22
424.617	658.84
424.994	660.42
425.37	675.56
425.746	656.35
426.123	661.1
426.499	680.76
426.875	670.14
427.251	680.31
427.627	696.35
428.003	698.39
428.379	710.36
428.756	727.54
429.132	721.66
429.507	727.31
429.883	745.16
430.259	721.66
430.635	748.1
431.011	757.82
431.387	768.67
431.763	757.82
432.138	764.6
432.514	757.82
432.89	769.57
433.265	770.93
433.641	795.33
434.016	816.8
434.392	811.83
434.767	809.12
435.143	823.13
435.518	866.97
435.894	853.86
436.269	851.6
436.644	890.47
437.02	858.61
437.395	858.83
437.77	877.36
438.145	876.69
438.52	911.04
438.895	895.67
439.271	898.38
439.646	915.1
440.021	927.98
440.395	932.28
440.77	926.4
441.145	930.92
441.52	956.68
441.895	952.62
442.27	936.57
442.645	956.01
443.019	961.88
443.394	985.16
443.769	972.05
444.143	935.89
444.518	968.89
444.892	986.97
445.267	992.62
445.641	985.16
446.016	979.73
446.39	987.42
446.764	985.84
447.139	995.33
447.513	1015.44
447.887	1006.4
448.262	1016.57
448.636	1033.97
449.01	1033.97
449.384	1026.51
449.758	1009.11
450.132	1057.02
450.506	1073.52
450.88	1081.2
451.254	1064.93
451.628	1085.72
452.002	1072.16
452.376	1083.01
452.75	1110.8
453.123	1094.08
453.497	1131.37
453.871	1135.21
454.244	1147.87
454.618	1098.38
454.992	1144.93
455.365	1169.33
455.739	1196.23
456.112	1205.49
456.486	1194.87
456.859	1207.07
457.232	1235.09
457.606	1208.88
457.979	1225.15
458.352	1237.81
458.725	1258.6
459.099	1292.72
459.472	1269.22
459.845	1305.15
460.218	1283.91
460.591	1331.82
460.964	1309.89
461.337	1321.65
461.71	1333.62
462.083	1366.16
462.456	1370.23
462.829	1380.63
463.201	1417.01
463.574	1389.44
463.947	1418.82
464.32	1426.73
464.692	1453.62
465.065	1433.51
465.438	1454.98
465.81	1467.4
466.183	1528.87
466.555	1536.56
466.928	1556.44
467.3	1556.22
467.672	1534.52
468.045	1577.68
468.417	1576.55
468.789	1595.99
469.161	1588.31
469.534	1593.28
469.906	1675.76
470.278	1647.06
470.65	1650.22
471.022	1706.49
471.394	1727.51
471.766	1740.62
472.138	1754.18
472.51	1798.92
472.882	1812.71
473.253	1826.49
473.625	1855.87
473.997	1899.71
474.369	1864.23
474.74	1891.12
475.112	1921.18
475.484	1960.27
475.855	2014.51
476.227	1966.37
476.598	2047.28
476.97	2067.16
477.341	2090.89
477.713	2117.78
478.084	2155.07
478.455	2177.89
478.827	2229.42
479.198	2266.03
479.569	2250.21
479.94	2296.31
480.311	2337.66
480.682	2346.48
481.053	2430.77
481.424	2455.85
481.795	2491.11
482.166	2521.16
482.537	2537.43
482.908	2615.4
483.279	2593.48
483.65	2639.58
484.021	2734.26
484.391	2746.02
484.762	2776.07
485.133	2776.07
485.503	2853.36
485.874	2903.3
486.244	2936.52
486.615	2964.99
486.985	3034.82
487.356	3043.18
487.726	3093.12
488.097	3155.5
488.467	3167.47
488.837	3260.35
489.207	3265.1
489.578	3296.28
489.948	3352.1
490.318	3422.16
490.688	3386.22
491.058	3445.66
491.428	3492.66
491.798	3561.81
492.168	3656.73
492.538	3636.61
492.908	3673.9
493.278	3738.76
493.648	3750.96
494.017	3858.08
494.387	3852.43
494.757	3928.36
495.126	3938.3
495.496	3975.81
495.866	4018.07
496.235	4056.72
496.605	4131.29
496.974	4169.25
497.344	4186.66
497.713	4243.38
498.082	4302.13
498.452	4257.61
498.821	4368.57
499.19	4343.71
499.559	4371.74
499.928	4421.23
500.298	4490.15
500.667	4534.22
501.036	4526.76
501.405	4584.84
501.774	4638.85
502.143	4680.2
502.512	4689.24
502.88	4717.71
503.249	4733.53
503.618	4808.33
503.987	4833.87
504.356	4874.77
504.724	4867.54
505.093	4912.06
505.462	4961.78
505.83	5023.47
506.199	5035.22
506.567	5132.39
506.936	5078.16
507.304	5155.44
507.672	5189.57
508.041	5225.27
508.409	5276.57
508.777	5326.51
509.145	5361.31
509.514	5378.49
509.882	5397.92
510.25	5472.5
510.618	5453.29
510.986	5561.99
511.354	5568.54
511.722	5579.61
512.09	5595.21
512.458	5684.92
512.826	5705.94
513.193	5738.48
513.561	5810.57
513.929	5870.45
514.297	5900.96
514.664	5938.93
515.032	5972.6
515.4	6067.51
515.767	6059.15
516.135	6086.72
516.502	6082.42
516.869	6190.44
517.237	6162.42
517.604	6191.57
517.972	6241.06
518.339	6311.12
518.706	6329.88
519.073	6416.43
519.44	6463.21
519.808	6497.56
520.175	6566.71
520.542	6562.19
520.909	6636.76
521.276	6603.54
521.643	6709.3
522.009	6773.93
522.376	6812.58
522.743	6863.42
523.11	6965.11
523.477	6923.76
523.843	6985.45
524.21	7059.35
524.577	7128.72
524.943	7137.54
525.31	7160.14
525.676	7276.74
526.043	7295.95
526.409	7334.37
526.776	7417.08
527.142	7393.58
527.508	7464.31
527.874	7573.46
528.241	7555.15
528.607	7618.66
528.973	7723.06
529.339	7660.46
529.705	7761.25
530.071	7858.88
530.437	7855.71
530.803	7883.06
531.169	7967.57
531.535	7920.57
531.901	7986.56
532.267	8006.67
532.632	8152.2
532.998	8106.55
533.364	8212.54
533.73	8177.06
534.095	8278.3
534.461	8327.11
534.826	8335.25
535.192	8322.37
535.557	8440.1
535.923	8446.66
536.288	8506.54
536.653	8505.19
537.019	8533.43
537.384	8540.67
537.749	8639.42
538.114	8669.7
538.479	8664.05
538.845	8676.48
539.21	8705.86
539.575	8784.95
539.94	8786.99
540.305	8847.32
540.67	8830.15
541.034	8935.46
541.399	9010.48
541.764	8926.64
542.129	9028.34
542.494	9069.24
542.858	9053.65
543.223	9138.39
543.587	9193.76
543.952	9201.66
544.316	9165.96
544.681	9262.91
545.045	9318.05
545.41	9407.76
545.774	9406.63
546.138	9423.13
546.503	9503.8
546.867	9487.08
547.231	9559.85
547.595	9623.8
547.959	9621.09
548.324	9671.93
548.688	9661.54
549.052	9791.93
549.416	9735.66
549.779	9834.42
550.143	9865.15
550.507	9975.66
550.871	10025.37
551.235	10022.89
551.599	10180.62
551.962	10147.63
552.326	10172.71
552.689	10271.69
553.053	10174.29
553.417	10273.5
553.78	10397.79
554.143	10455.42
554.507	10494.74
554.87	10496.32
555.234	10646.6
555.597	10651.57
555.96	10650.67
556.323	10861.51
556.686	10865.8
557.05	10950.55
557.413	10993.93
557.776	11040.26
558.139	11134.5
558.502	11121.39
558.865	11279.8
559.228	11353.25
559.59	11360.25
559.953	11484.99
560.316	11532
560.679	11637.31
561.041	11728.83
561.404	11792.11
561.767	11842.27
562.129	11916.85
562.492	12040.46
562.854	12124.3
563.217	12242.26
563.579	12236.84
563.941	12408.36
564.304	12556.15
564.666	12603.38
565.028	12755.02
565.39	12786.43
565.753	12936.93
566.115	13008.34
566.477	13136.25
566.839	13200.88
567.201	13450.82
567.563	13417.15
567.925	13699.4
568.287	13624.6
568.648	13835.89
569.01	13974.42
569.372	14159.73
569.734	14206.28
570.095	14405.37
570.457	14546.16
570.819	14659.37
571.18	14762.42
571.542	14981.4
571.903	15077.22
572.265	15281.5
572.626	15455.29
572.987	15589.07
573.349	15817.54
573.71	15961.04
574.071	16231.08
574.432	16348.82
574.794	16617.74
575.155	16824.74
575.516	16917.62
575.877	17181.79
576.238	17422.01
576.599	17709.46
576.96	17768.22
577.32	18064.48
577.681	18366.17
578.042	18673.96
578.403	18931.8
578.763	19077.56
579.124	19386.48
579.485	19741.27
579.845	20071.89
580.206	20152.34
580.566	20513.01
580.927	20781.93
581.287	21133.33
581.648	21363.83
582.008	21753.2
582.368	21982.35
582.728	22387.98
583.089	22617.81
583.449	23024.13
583.809	23372.82
584.169	23661.4
584.529	23965.34
584.889	24552.67
585.249	24726.68
585.609	25141.81
585.969	25585.64
586.329	26023.6
586.688	26355.79
587.048	26682.79
587.408	27181.98
587.768	27513.27
588.127	28034.62
588.487	28280.49
588.846	28870.07
589.206	29027.58
589.565	29696.04
589.925	30197.04
590.284	30521.78
590.643	30982.56
591.003	31555.65
591.362	31913.61
591.721	32154.06
592.08	32747.03
592.44	33313.12
592.799	33659.78
593.158	34082.14
593.517	34519.64
593.876	35009.35
594.235	35399.85
594.593	35913.05
594.952	36516.65
595.311	36728.85
595.67	37204.77
596.029	37958.2
596.387	38326.32
596.746	38793.88
597.104	39178.5
597.463	39564.03
597.822	40093.28
598.18	40351.81
598.538	40890.78
598.897	41377.77
599.255	41479.69
599.613	42485.99
599.972	42543.39
600.33	43079.19
600.688	43229.24
601.046	43799.85
601.404	44174.76
601.762	44512.6
602.12	45072.81
602.478	45313.94
602.836	45594.15
603.194	45917.08
603.552	46419.44
603.91	46402.49
604.268	46957.06
604.625	47159.76
604.983	47676.81
605.341	47718.62
605.698	48256.23
606.056	48582.1
606.413	48557.47
606.771	49055.76
607.128	49328.97
607.485	49374.62
607.843	49583.65
608.2	49903.65
608.557	50279.45
608.914	50356.51
609.272	50593.8
609.629	50929.38
609.986	51163.05
610.343	51127.79
610.7	51521.68
611.057	51674.9
611.414	51751.28
611.771	51911.5
612.127	52027.88
612.484	52242.57
612.841	52479.62
613.198	52477.59
613.554	52520.53
613.911	52887.07
614.267	52916.9
614.624	53019.04
614.98	53103.34
615.337	53342.65
615.693	53419.49
616.05	53432.82
616.406	53823.54
616.762	53645.02
617.118	53763.43
617.475	53797.78
617.831	54011.79
618.187	54053.37
618.543	54191.67
618.899	54418.56
619.255	54384.21
619.611	54339.01
619.967	54652
620.323	54591.43
620.678	54618.55
621.034	54552.56
621.39	54663.75
621.746	54667.14
622.101	54994.13
622.457	54715.27
622.812	54902.61
623.168	54990.07
623.523	55125.66
623.879	55174.02
624.234	54999.1
624.589	55136.5
624.945	55214.92
625.3	55269.83
625.655	55222.6
626.01	55344.18
626.365	55343.73
626.72	55281.13
627.075	55290.17
627.43	55345.76
627.785	55307.12
628.14	55487
628.495	55498.75
628.85	55406.33
629.205	55374.24
629.559	55609.48
629.914	55402.71
630.269	55535.14
630.623	55476.38
630.978	55431.64
631.332	55542.82
631.687	55525.87
632.041	55538.3
632.396	55553.21
632.75	55421.01
633.104	55521.58
633.459	55368.59
633.813	55404.07
634.167	55448.13
634.521	55416.49
634.875	55468.92
635.229	55428.25
635.583	55294.46
635.937	55244.75
636.291	55332.43
636.645	55319.77
636.999	55258.31
637.352	55378.76
637.706	55169.95
638.06	55371.98
638.413	55262.83
638.767	55208.82
639.121	55348.47
639.474	55138.99
639.828	55218.31
640.181	55215.6
640.534	55232.77
640.888	55117.07
641.241	55129.5
641.594	55188.7
641.947	55212.66
642.301	55138.31
642.654	55211.3
643.007	55203.39
643.36	55101.7
643.713	55060.57
644.066	55190.74
644.419	55026.67
644.771	54876.62
645.124	54628.27
645.477	54535.16
645.83	54405.45
646.182	54259.01
646.535	54281.38
646.888	54309.86
647.24	54229.86
647.593	54295.39
647.945	54262.85
648.298	54136.98
648.65	54142.18
649.002	54031.67
649.355	54197.54
649.707	54153.25
650.059	54284.77
650.411	54577.42
650.763	54571.77
651.115	54971.08
651.467	54823.06
651.819	54783.07
652.171	54682.73
652.523	54766.34
652.875	54721.37
653.227	54592.11
653.578	54735.83
653.93	54804.31
654.282	54560.92
654.633	54591.66
654.985	54630.53
655.337	54670.07
655.688	54697.64
656.039	54733.57
656.391	54421.49
656.742	54543.75
657.094	54559.79
657.445	54612.9
657.796	54628.94
658.147	54567.25
658.498	54583.75
658.849	54554.14
659.2	54592.56
659.551	54532
659.902	54612.22
660.253	54542.39
660.604	54618.32
660.955	54466.01
661.306	54539.23
661.656	54485.9
662.007	54546.69
662.358	54518.21
662.708	54548.72
663.059	54555.05
663.409	54280.25
663.76	54505.56
664.11	54517.76
664.461	54482.73
664.811	54517.08
665.161	54582.62
665.511	54377.88
665.862	54409.52
666.212	54479.12
666.562	54530.19
666.912	54550.3
667.262	54345.34
667.612	54453.36
667.962	54409.29
668.312	54383.98
668.662	54456.97
669.011	54356.86
669.361	54367.71
669.711	54300.14
670.06	54265.79
670.41	54224.44
670.76	54180.82
671.109	54240.03
671.459	54197.54
671.808	54159.13
672.157	54287.26
672.507	54026.7
672.856	53970.21
673.205	54132.23
673.554	54195.51
673.904	54007.49
674.253	54122.74
674.602	54093.59
674.951	53688.4
675.3	53557.79
675.649	54035.51
675.998	53998.68
676.346	53937.44
676.695	54073.93
677.044	53779.7
677.393	53791.45
677.741	53975.18
678.09	53802.75
678.438	53721.4
678.787	53838.91
679.135	53828.29
679.484	53664.9
679.832	53756.43
680.181	53565.02
680.529	53678.46
680.877	53549.2
681.225	53567.96
681.573	53686.82
681.922	53490.9
682.27	53387.17
682.618	53457
682.966	53362.99
683.314	53428.75
683.661	53353.72
684.009	53219.26
684.357	53141.07
684.705	53081.19
685.053	53136.55
685.4	53101.53
685.748	52862.21
686.095	52916
686.443	52773.85
686.79	52755.32
687.138	52861.31
687.485	52785.6
687.832	52653.18
688.18	52703.57
688.527	52484.59
688.874	52426.29
689.221	52460.64
689.568	52269.68
689.915	52233.53
690.262	52191.27
690.609	52201.44
690.956	51976.81
691.303	51981.56
691.65	51885.51
691.997	51796.25
692.344	51668.12
692.69	51659.08
693.037	51672.86
693.383	51392.65
693.73	51415.47
694.077	51317.39
694.423	51224.97
694.769	51218.87
695.116	51182.71
695.462	51130.73
695.808	50905.65
696.155	51063.84
696.501	50724.87
696.847	50678.09
697.193	50581.37
697.539	50617.53
697.885	50359.68
698.231	50351.54
698.577	50308.61
698.923	50115.17
699.269	50004.43
699.614	49819.35
699.96	49782.29
700.306	49800.6
700.651	49637.44
700.997	49436.09
701.342	49528.51
701.688	49499.36
702.033	49345.92
702.379	49272.25
702.724	49166.49
703.069	49056.44
703.415	48782.77
703.76	48794.52
704.105	48809.89
704.45	48623.91
704.795	48463.01
705.14	48440.86
705.485	48423.23
705.83	48182.33
706.175	48229.34
706.52	48084.94
706.865	47830.93
707.209	47791.38
707.554	47693.31
707.899	47736.92
708.243	47550.04
708.588	47343.71
708.932	47298.52
709.277	47231.85
709.621	47164.96
709.966	47054
710.31	47147.79
710.654	46643.39
710.998	46870.96
711.342	46878.19
711.687	46727.91
712.031	46582.83
712.375	46398.43
712.719	46426.9
713.063	46466
713.407	46535.15
713.75	46372.89
714.094	46200.47
714.438	46087.02
714.782	46229.17
715.125	45937.87
715.469	46089.51
715.812	45931.77
716.156	45647.71
716.499	45655.17
716.843	45648.84
717.186	45400.49
717.53	45632.12
717.873	45542.63
718.216	45565.68
718.559	45166.14
718.902	45067.39
719.246	45117.33
719.589	45155.52
719.932	44753.72
720.275	44879.6
720.617	44876.21
720.96	44676.44
721.303	44816.1
721.646	44613.62
721.989	44518.7
722.331	44759.37
722.674	44483.67
723.016	44419.27
723.359	44395.54
723.701	44380.63
724.044	44134.31
724.386	43940.41
724.729	44255.43
725.071	44161.42
725.413	44145.6
725.755	44110.58
726.097	43915.1
726.439	43687.54
726.782	43702.68
727.124	43942.9
727.465	43734.32
727.807	43783.13
728.149	43664.71
728.491	43559.86
728.833	43652.28
729.175	43547.2
729.516	43450.03
729.858	43306.08
730.199	43428.56
730.541	43257.49
730.882	43229.47
731.224	43195.57
731.565	42986.54
731.906	43017.5
732.248	43104.73
732.589	42871.97
732.93	42831.74
733.271	42756.49
733.612	42885.98
733.953	42779.99
734.294	42680.11
734.635	42559.43
734.976	42669.26
735.317	42451.19
735.658	42518.3
735.999	42452.09
736.339	42452.77
736.68	42598.53
737.021	42458.87
737.361	42245.54
737.702	42315.82
738.042	42168.26
738.383	42148.14
738.723	42238.54
739.063	42144.98
739.404	42251.42
739.744	42000.12
740.084	41977.3
740.424	41999.67
740.764	41876.51
741.104	41939.11
741.444	41795.16
741.784	41891.65
742.124	41832.67
742.464	41701.83
742.804	41702.96
743.143	41480.82
743.483	41610.76
743.823	41415.96
744.162	41371.67
744.502	41446.92
744.841	41339.58
745.181	41422.74
745.52	41257.55
745.86	41305.23
746.199	41140.49
746.538	41166.47
746.877	41114.95
747.216	41127.15
747.556	41083.99
747.895	40958.8
748.234	40902.98
748.573	40778.69
748.911	40921.06
749.25	40828.86
749.589	40497.57
749.928	40534.63
750.267	40602.42
750.605	40603.78
750.944	40495.76
751.283	40345.03
751.621	40495.76
751.96	40180.29
752.298	40134.41
752.636	40156.11
752.975	40020.52
753.313	39837.02
753.651	40115.65
753.989	39891.03
754.327	39748.88
754.666	39593.18
755.004	39590.02
755.342	39650.58
755.679	39475.45
756.017	39508.21
756.355	39557.93
756.693	39315.45
757.031	39314.09
757.368	39217.82
757.706	39136.47
758.044	38961.56
758.381	39020.77
758.719	38797.72
