Data from orange_diffuse_book_FLMS001491_00038.txt Node
Date: Wed Feb 08 15:29:28 GMT 2017
User: dcchb
Spectrometer: FLMS00149
Trigger mode: 0
Integration Time (sec): 2.000000E-2
Scans to average: 10
Electric dark correction enabled: true
Nonlinearity correction enabled: false
Boxcar width: 0
XAxis mode: Wavelengths
Number of Pixels in Spectrum: 2048
>>>>>Begin Spectral Data<<<<<
341.393	-17.4
341.776	-17.4
342.16	-17.4
342.543	-57.17
342.927	-67.79
343.31	-57.63
343.693	-69.83
344.077	-56.5
344.46	-68.25
344.843	-69.38
345.226	-54.91
345.61	-1.36
345.993	-12.66
346.376	-3.16
346.759	-7.46
347.142	38.87
347.525	35.25
347.908	68.25
348.291	76.61
348.674	82.94
349.057	99.21
349.44	119.77
349.823	142.37
350.206	176.49
350.588	193.89
350.971	225.53
351.354	258.52
351.737	246.1
352.119	248.58
352.502	267.56
352.884	281.8
353.267	305.53
353.65	298.98
354.032	331.74
354.414	339.2
354.797	320.22
355.179	329.71
355.562	328.58
355.944	353.44
356.326	346.43
356.709	357.73
357.091	345.08
357.473	349.6
357.855	359.09
358.238	367.22
358.62	346.66
359.002	383.27
359.384	363.38
359.766	359.99
360.148	348.24
360.53	366.54
360.912	366.09
361.294	346.66
361.676	381.46
362.057	351.4
362.439	342.82
362.821	356.83
363.203	345.3
363.584	351.86
363.966	327.9
364.348	341.91
364.729	362.02
365.111	340.56
365.493	343.72
365.874	341.23
366.256	356.15
366.637	337.62
367.019	338.3
367.4	351.86
367.781	351.4
368.163	318.41
368.544	344.62
368.925	355.24
369.306	331.06
369.688	323.83
370.069	353.89
370.45	337.39
370.831	329.26
371.212	334.23
371.593	344.62
371.974	324.96
372.355	345.3
372.736	323.38
373.117	319.77
373.498	350.27
373.879	343.49
374.26	343.04
374.641	334.68
375.021	338.75
375.402	332.87
375.783	347.79
376.163	343.27
376.544	374.23
376.925	362.48
377.305	362.25
377.686	323.61
378.066	334.91
378.447	360.22
378.827	380.55
379.208	356.15
379.588	356.83
379.968	345.75
380.349	379.88
380.729	381.68
381.109	360.22
381.489	352.31
381.87	367.9
382.25	344.62
382.63	363.15
383.01	371.29
383.39	372.65
383.77	366.77
384.15	355.24
384.53	349.82
384.91	361.8
385.29	352.76
385.67	362.93
386.049	404.51
386.429	395.02
386.809	396.15
387.189	407.67
387.568	389.14
387.948	392.98
388.328	386.88
388.707	393.44
389.087	389.14
389.466	391.85
389.846	365.19
390.225	388.92
390.605	409.25
390.984	413.1
391.363	404.28
391.743	402.25
392.122	402.7
392.501	385.75
392.881	397.5
393.26	414.45
393.639	409.25
394.018	407.67
394.397	416.49
394.776	401.57
395.155	410.16
395.534	408.12
395.913	401.8
396.292	428.01
396.671	434.79
397.05	431.4
397.429	426.43
397.808	434.79
398.186	421.46
398.565	427.79
398.944	434.56
399.323	447.45
399.701	453.77
400.08	441.8
400.458	442.47
400.837	452.87
401.215	424.62
401.594	457.84
401.972	450.61
402.351	442.25
402.729	455.81
403.107	443.38
403.486	463.04
403.864	456.71
404.242	438.18
404.62	458.97
404.999	457.84
405.377	480.67
405.755	472.08
406.133	463.72
406.511	451.97
406.889	463.72
407.267	484.73
407.645	484.28
408.023	482.47
408.401	493.55
408.779	486.31
409.156	505.75
409.534	490.38
409.912	495.81
410.29	504.39
410.667	514.79
411.045	513.21
411.422	522.92
411.8	489.48
412.178	533.32
412.555	534.9
412.933	536.03
413.31	538.06
413.687	532.42
414.065	555.47
414.442	557.27
414.819	556.6
415.197	572.41
415.574	561.12
415.951	581.91
416.328	585.52
416.705	576.03
417.082	563.38
417.46	560.21
417.837	565.86
418.214	575.8
418.591	577.16
418.967	615.13
419.344	601.34
419.721	606.54
420.098	613.77
420.475	618.51
420.852	589.59
421.228	619.64
421.605	635.69
421.982	616.71
422.358	639.53
422.735	629.36
423.111	635.69
423.488	646.54
423.864	639.76
424.241	667.1
424.617	671.62
424.994	639.08
425.37	682.47
425.746	666.65
426.123	661
426.499	696.25
426.875	703.03
427.251	688.8
427.627	694.45
428.003	715.01
428.379	710.94
428.756	725.4
429.132	730.15
429.507	730.38
429.883	731.28
430.259	747.1
430.635	744.84
431.011	741.22
431.387	734.9
431.763	771.28
432.138	773.76
432.514	800.66
432.89	791.62
433.265	797.04
433.641	790.94
434.016	809.47
434.392	811.96
434.767	841.79
435.143	832.29
435.518	828.68
435.894	853.76
436.269	847.21
436.644	867.77
437.02	876.59
437.395	877.94
437.77	884.95
438.145	879.07
438.52	890.6
438.895	910.71
439.271	895.34
439.646	936.02
440.021	917.72
440.395	945.06
440.77	939.86
441.145	891.73
441.52	924.5
441.895	957.04
442.27	956.59
442.645	989.35
443.019	966.08
443.394	954.33
443.769	950.03
444.143	964.27
444.518	973.99
444.892	991.84
445.267	1002.23
445.641	985.74
446.016	1013.31
446.39	989.13
446.764	1029.13
447.139	989.8
447.513	1010.59
447.887	1013.53
448.262	1004.95
448.636	1026.87
449.01	1032.97
449.384	1034.32
449.758	1043.81
450.132	1060.31
450.506	1056.92
450.88	1062.8
451.254	1081.1
451.628	1059.86
452.002	1080.2
452.376	1093.3
452.75	1106.64
453.123	1127.43
453.497	1123.13
453.871	1078.84
454.244	1126.07
454.618	1164.26
454.992	1148.44
455.365	1148.9
455.739	1177.14
456.112	1223.7
456.486	1184.83
456.859	1210.82
457.232	1206.3
457.606	1207.65
457.979	1250.81
458.352	1247.2
458.725	1270.48
459.099	1240.65
459.472	1293.53
459.845	1286.97
460.218	1310.02
460.591	1314.32
460.964	1324.03
461.337	1348.89
461.71	1344.15
462.083	1391.83
462.456	1398.38
462.829	1389.79
463.201	1412.39
463.574	1407.65
463.947	1427.53
464.32	1436.57
464.692	1430.7
465.065	1478.15
465.438	1474.54
465.81	1502.11
466.183	1487.64
466.555	1531.03
466.928	1538.04
467.3	1526.51
467.672	1547.3
468.045	1581.65
468.417	1578.94
468.789	1602.67
469.161	1620.75
469.534	1629.34
469.906	1629.34
470.278	1647.87
470.65	1677.02
471.022	1715.66
471.394	1733.51
471.766	1751.59
472.138	1744.81
472.51	1755.66
472.882	1804.25
473.253	1849.44
473.625	1853.51
473.997	1877.46
474.369	1889.22
474.74	1908.65
475.112	1943.23
475.484	1952.04
475.855	2006.27
476.227	2012.83
476.598	2022.55
476.97	2073.84
477.341	2091.92
477.713	2114.97
478.084	2144.12
478.455	2194.29
478.827	2222.54
479.198	2273.39
479.569	2245.14
479.94	2339.83
480.311	2312.93
480.682	2372.82
481.053	2419.15
481.424	2451.69
481.795	2455.75
482.166	2505.7
482.537	2540.5
482.908	2597.45
483.279	2615.3
483.65	2635.41
484.021	2706.82
484.391	2733.04
484.762	2772.81
485.133	2840.38
485.503	2818.91
485.874	2905.46
486.244	2929.41
486.615	2973.71
486.985	3022.75
487.356	3029.52
487.726	3044.21
488.097	3140.93
488.467	3176.64
488.837	3194.72
489.207	3290.99
489.578	3250.08
489.948	3366.47
490.318	3442.85
490.688	3382.28
491.058	3487.59
491.428	3549.51
491.798	3546.12
492.168	3636.97
492.538	3640.36
492.908	3716.51
493.278	3747.47
493.648	3717.87
494.017	3798.54
494.387	3873.8
494.757	3916.51
495.126	3970.29
495.496	4024.98
495.866	4009.84
496.235	4084.64
496.605	4080.12
496.974	4147.24
497.344	4178.87
497.713	4257.29
498.082	4280.57
498.452	4251.64
498.821	4368.02
499.19	4355.59
499.559	4389.04
499.928	4419.09
500.298	4503.61
500.667	4524.63
501.036	4517.4
501.405	4570.5
501.774	4579.99
502.143	4676.26
502.512	4642.36
502.88	4778.86
503.249	4782.7
503.618	4829.48
503.987	4803.72
504.356	4893.43
504.724	4924.16
505.093	4930.04
505.462	4962.36
505.83	4981.11
506.199	5053.88
506.567	5111.28
506.936	5087.32
507.304	5156.47
507.672	5188.11
508.041	5277.15
508.409	5311.72
508.777	5339.52
509.145	5354.66
509.514	5411.84
509.882	5409.35
510.25	5463.59
510.618	5495.45
510.986	5536.58
511.354	5624.94
511.722	5614.32
512.09	5647.76
512.458	5721.43
512.826	5719.85
513.193	5754.2
513.561	5820.64
513.929	5862.9
514.297	5887.75
514.664	5933.63
515.032	5969.11
515.4	6033.29
515.767	6028.77
516.135	6046.85
516.502	6095.43
516.869	6204.58
517.237	6217.92
517.604	6203.45
517.972	6246.84
518.339	6318.93
518.706	6360.06
519.073	6368.87
519.44	6402.54
519.808	6442.32
520.175	6517.34
520.542	6577.23
520.909	6662.2
521.276	6673.5
521.643	6680.73
522.009	6729.99
522.376	6804.57
522.743	6814.28
523.11	6934.05
523.477	6925.02
523.843	7015.63
524.21	7039.36
524.577	7169.75
524.943	7145.57
525.31	7149.87
525.676	7275.29
526.043	7291.33
526.409	7309.86
526.776	7424.21
527.142	7440.26
527.508	7466.02
527.874	7525.68
528.241	7606.35
528.607	7616.3
528.973	7691.78
529.339	7736.97
529.705	7752.11
530.071	7814.03
530.437	7855.61
530.803	7934.48
531.169	7919.57
531.535	7973.8
531.901	7987.81
532.267	8043.18
532.632	8122.5
532.998	8193.46
533.364	8232.33
533.73	8235.49
534.095	8240.01
534.461	8350.06
534.826	8261.25
535.192	8398.65
535.557	8381.47
535.923	8403.17
536.288	8435.71
536.653	8479.1
537.019	8485.43
537.384	8543.96
537.749	8602.49
538.114	8634.58
538.479	8645.87
538.845	8720
539.21	8759.32
539.575	8782.37
539.94	8785.76
540.305	8884.06
540.67	8813.33
541.034	8965.19
541.399	9011.06
541.764	9005.41
542.129	8984.17
542.494	9125.41
542.858	9095.35
543.223	9107.11
543.587	9136.71
543.952	9157.73
544.316	9227.78
544.681	9245.41
545.045	9285.63
545.41	9375.8
545.774	9453.76
546.138	9420.32
546.503	9495.12
546.867	9472.75
547.231	9529.69
547.595	9586.64
547.959	9659.63
548.324	9635.45
548.688	9739.63
549.052	9706.86
549.416	9813.98
549.779	9770.59
550.143	9908.44
550.507	9923.35
550.871	9993.41
551.235	9989.34
551.599	10071.15
551.962	10102.79
552.326	10175.1
552.689	10262.56
553.053	10243.35
553.417	10263.46
553.78	10467.97
554.143	10430.01
554.507	10460.29
554.87	10563.79
555.234	10677.23
555.597	10639.04
555.96	10709.1
556.323	10787.06
556.686	10803.11
557.05	10916.1
557.413	10910.45
557.776	11053.95
558.139	11137.33
558.502	11145.92
558.865	11130.1
559.228	11297.78
559.59	11342.98
559.953	11436.99
560.316	11545.46
560.679	11606.25
561.041	11750.2
561.404	11813.25
561.767	11875.62
562.129	11892.12
562.492	12093.02
562.854	12106.35
563.217	12191.32
563.579	12257.98
563.941	12392.22
564.304	12502.27
564.666	12646
565.028	12740
565.39	12830.4
565.753	12957.85
566.115	13038.53
566.477	13081.69
566.839	13250.05
567.201	13437.84
567.563	13419.31
567.925	13563.49
568.287	13763.25
568.648	13761.22
569.01	14066.07
569.372	14144.03
569.734	14298.38
570.095	14413.18
570.457	14515.78
570.819	14730.23
571.18	14784.24
571.542	15006.16
571.903	15154.63
572.265	15354.62
572.626	15438.46
572.987	15654.5
573.349	15880.71
573.71	15942.18
574.071	16261.95
574.432	16370.19
574.794	16639.79
575.155	16798.88
575.516	16903.96
575.877	17225.08
576.238	17520.44
576.599	17705.52
576.96	17837.27
577.32	18041.33
577.681	18298.95
578.042	18580.75
578.403	18872.05
578.763	19107.52
579.124	19372.6
579.485	19682.65
579.845	19978.68
580.206	20253.93
580.566	20501.38
580.927	20793.58
581.287	21167.81
581.648	21318.08
582.008	21800.1
582.368	22094.79
582.728	22319.64
583.089	22658.39
583.449	22969.34
583.809	23358.03
584.169	23687.29
584.529	23965.25
584.889	24649.07
585.249	24662.18
585.609	25112.11
585.969	25684.3
586.329	25901.69
586.688	26300.78
587.048	26800.2
587.408	27088.78
587.768	27511.82
588.127	28013.73
588.487	28297.79
588.846	28888.28
589.206	29113.36
589.565	29460.92
589.925	30112.65
590.284	30362.59
590.643	30830.38
591.003	31376.35
591.362	31840.97
591.721	32211.81
592.08	32735.18
592.44	33320.48
592.799	33713.24
593.158	33957.98
593.517	34664.63
593.876	35013.09
594.235	35414.44
594.593	35894.65
594.952	36474.07
595.311	36863.44
595.67	37258
596.029	37889.63
596.387	38340.69
596.746	38798.75
597.104	39142.93
597.463	39565.29
597.822	40136.35
598.18	40410.69
598.538	40733.84
598.897	41390.1
599.255	41391.91
599.613	42409.96
599.972	42455.61
600.33	42975.82
600.688	43158.64
601.046	43793.88
601.404	44263.24
601.762	44455.78
602.12	45118.14
602.478	45337.34
602.836	45730.1
603.194	45887.16
603.552	46323.08
603.91	46320.14
604.268	46870.41
604.625	47201.92
604.983	47588.35
605.341	47717.84
605.698	48175.23
606.056	48464.26
606.413	48639.4
606.771	48937.47
607.128	49233.96
607.485	49401.41
607.843	49485.48
608.2	49816.77
608.557	50320.71
608.914	50297.43
609.272	50693.13
609.629	50934.71
609.986	51226.22
610.343	51131.54
610.7	51493.11
611.057	51629.15
611.414	51751.86
611.771	51925.64
612.127	52122.25
612.484	52167.44
612.841	52569.47
613.198	52388.68
613.554	52515
613.911	52871.38
614.267	52867.76
614.624	52942.11
614.98	53057.59
615.337	53334.64
615.693	53423.91
616.05	53495.77
616.406	53761.75
616.762	53679.27
617.118	53721.53
617.475	53798.59
617.831	54008.98
618.187	54113.38
618.543	54171.01
618.899	54391.56
619.255	54365.35
619.611	54431.56
619.967	54571.22
620.323	54681.73
620.678	54660.03
621.034	54555.63
621.39	54696.41
621.746	54704.1
622.101	54934.6
622.457	54799.92
622.812	54881.27
623.168	54995.62
623.523	55019.57
623.879	55178.89
624.234	54997.42
624.589	55114.93
624.945	55203.75
625.3	55240.36
625.655	55244.88
626.01	55236.97
626.365	55346.79
626.72	55270.19
627.075	55299.11
627.43	55366.91
627.785	55309.05
628.14	55437.19
628.495	55500.24
628.85	55421.59
629.205	55380.92
629.559	55608.71
629.914	55433.34
630.269	55459.33
630.623	55476.06
630.978	55445.77
631.332	55580.91
631.687	55521.93
632.041	55540.69
632.396	55501.37
632.75	55442.16
633.104	55532.33
633.459	55349.28
633.813	55461.37
634.167	55429.73
634.521	55421.37
634.875	55521.03
635.229	55427.92
635.583	55351.31
635.937	55357.87
636.291	55359.45
636.645	55353.57
636.999	55271.54
637.352	55397.87
637.706	55325.55
638.06	55345.21
638.413	55343.86
638.767	55270.19
639.121	55382.05
639.474	55148.15
639.828	55126.69
640.181	55231.99
640.534	55280.13
640.888	55203.29
641.241	55085.33
641.594	55058.21
641.947	55287.13
642.301	55154.03
642.654	55172.33
643.007	55124.88
643.36	55174.59
643.713	55147.48
644.066	55289.62
644.419	54969.4
644.771	54813.02
645.124	54504.78
645.477	54573.93
645.83	54345.69
646.182	54375.29
646.535	54256.88
646.888	54280.83
647.24	54128.29
647.593	54375.29
647.945	54305.92
648.298	54184.34
648.65	54120.84
649.002	54052.14
649.355	54229.53
649.707	54074.74
650.059	54171.23
650.411	54617.09
650.763	54654.83
651.115	54883.3
651.467	54844.66
651.819	54775.73
652.171	54700.93
652.523	54784.55
652.875	54727.37
653.227	54615.06
653.578	54807.15
653.93	54763.53
654.282	54601.28
654.633	54619.35
654.985	54645.12
655.337	54615.51
655.688	54587.72
656.039	54725.34
656.391	54522.86
656.742	54555.63
657.094	54583.88
657.445	54679.69
657.796	54640.15
658.147	54546.59
658.498	54579.58
658.849	54652.35
659.2	54606.25
659.551	54568.28
659.902	54591.33
660.253	54567.6
660.604	54655.29
660.955	54531.45
661.306	54545.46
661.656	54469.98
662.007	54505.46
662.358	54497.32
662.708	54528.74
663.059	54438.57
663.409	54268.4
663.76	54558.34
664.11	54541.39
664.461	54547.27
664.811	54510.21
665.161	54435.18
665.511	54325.8
665.862	54477.44
666.212	54505.91
666.562	54465.91
666.912	54446.03
667.262	54361.51
667.612	54310.44
667.962	54357.21
668.312	54349.53
668.662	54485.57
669.011	54333.49
669.361	54271.57
669.711	54344.11
670.06	54262.75
670.41	54133.27
670.76	54160.38
671.109	54298.91
671.459	54192.25
671.808	54168.75
672.157	54254.39
672.507	54058.01
672.856	54094.85
673.205	54099.82
673.554	54144.34
673.904	54058.01
674.253	54246.71
674.602	54031.35
674.951	53705.93
675.3	53482.44
675.649	53955.87
675.998	53941.41
676.346	53966.26
676.695	53979.37
677.044	53797.68
677.393	53851.69
677.741	53866.83
678.09	53823.67
678.438	53790.45
678.787	53830.45
679.135	53805.82
679.484	53580.74
679.832	53749.32
680.181	53532.15
680.529	53645.82
680.877	53594.52
681.225	53579.61
681.573	53695.09
681.922	53509.1
682.27	53401.08
682.618	53388.88
682.966	53400.63
683.314	53411.02
683.661	53321.54
684.009	53164.48
684.357	53105.5
684.705	53001.54
685.053	53082.22
685.4	53034.99
685.748	52925.39
686.095	52874.32
686.443	52838.16
686.79	52755
687.138	52780.53
687.485	52822.79
687.832	52722.46
688.18	52650.82
688.527	52554.32
688.874	52537.38
689.221	52342.58
689.568	52371.96
689.915	52257.16
690.262	52253.32
690.609	52107.56
690.956	52028.01
691.303	52035.69
691.65	51837.06
691.997	51841.35
692.344	51658.75
692.69	51612.65
693.037	51603.16
693.383	51390.06
693.73	51552.99
694.077	51344.86
694.423	51356.39
694.769	51077.75
695.116	51164.3
695.462	51030.97
695.808	50942.39
696.155	51099.22
696.501	50702.62
696.847	50801.83
697.193	50462.18
697.539	50729.97
697.885	50383.53
698.231	50264.89
698.577	50169.08
698.923	50169.75
699.269	50024.67
699.614	49898.35
699.96	49802.98
700.306	49753.04
700.651	49630.33
700.997	49521.18
701.342	49560.28
701.688	49442.54
702.033	49231.47
702.379	49234.19
702.724	49125.71
703.069	49101.53
703.415	48787.19
703.76	48906.28
704.105	48751.94
704.45	48655.9
704.795	48464.94
705.14	48299.52
705.485	48375.45
705.83	48218.62
706.175	48225.62
706.52	48089.13
706.865	47864.73
707.209	47939.08
707.554	47671.74
707.899	47729.82
708.243	47634.91
708.588	47436.72
708.932	47315.14
709.277	47285.76
709.621	47238.53
709.966	46978.43
710.31	47119.67
710.654	46796.28
710.998	46796.96
711.342	46961.25
711.687	46775.04
712.031	46573.01
712.375	46421.6
712.719	46489.17
713.063	46477.2
713.407	46497.31
713.75	46235.85
714.094	46180.25
714.438	46135.28
714.782	46153.81
715.125	45827.27
715.469	45932.58
715.812	45617.78
716.156	45658.91
716.499	45617.11
716.843	45718.8
717.186	45350.9
717.53	45629.99
717.873	45457.56
718.216	45440.84
718.559	45260.5
718.902	45037.69
719.246	45192.48
719.589	45031.36
719.932	44878.37
720.275	44822.55
720.617	44907.29
720.96	44748.43
721.303	44736.68
721.646	44778.94
721.989	44420.07
722.331	44705.94
722.674	44543.46
723.016	44531.03
723.359	44545.72
723.701	44489.9
724.044	44183.7
724.386	44032.97
724.729	44309.57
725.071	44143.7
725.413	44141.21
725.755	43963.14
726.097	43731.05
726.439	43703.71
726.782	43695.35
727.124	43873.2
727.465	43653.32
727.807	43763.14
728.149	43587.33
728.491	43590.94
728.833	43593.43
729.175	43457.39
729.516	43393.44
729.858	43400.89
730.199	43405.41
730.541	43188.69
730.882	43105.99
731.224	43333.78
731.565	43017.4
731.906	43115.93
732.248	43201.12
732.589	42854.69
732.93	42729.5
733.271	42830.74
733.612	42916.39
733.953	42929.94
734.294	42644.53
734.635	42556.85
734.976	42655.83
735.317	42394.82
735.658	42548.26
735.999	42466.68
736.339	42405.44
736.68	42550.07
737.021	42322.05
737.361	42148.95
737.702	42461.26
738.042	42276.85
738.383	42231.88
738.723	42261.71
739.063	42069.85
739.404	42206.8
739.744	41967.48
740.084	41931.55
740.424	42003.42
740.764	41943.53
741.104	41950.76
741.444	41826.02
741.784	41685.68
742.124	41734.72
742.464	41735.17
742.804	41608.62
743.143	41497.67
743.483	41454.5
743.823	41376.31
744.162	41300.16
744.502	41502.19
744.841	41188.3
745.181	41357.33
745.52	41194.4
745.86	41321.17
746.199	41137.68
746.538	41099.03
746.877	41183.32
747.216	41073.27
747.556	41024.46
747.895	41008.64
748.234	40692.26
748.573	40771.58
748.911	40811.36
749.25	40714.64
749.589	40541.31
749.928	40634.86
750.267	40648.65
750.605	40576.33
750.944	40471.7
751.283	40346.51
751.621	40361.42
751.96	40171.37
752.298	40257.92
752.636	40094.99
752.975	40045.5
753.313	39885.96
753.651	40134.54
753.989	39812.29
754.327	39670.82
754.666	39616.81
755.004	39748.11
755.342	39714.44
755.679	39493.2
756.017	39333.43
756.355	39541.79
756.693	39256.59
757.031	39250.72
757.368	39091.18
757.706	39172.3
758.044	38905.42
