Data from orange_diffuse_book_FLMS001491_00078.txt Node
Date: Wed Feb 08 15:30:02 GMT 2017
User: dcchb
Spectrometer: FLMS00149
Trigger mode: 0
Integration Time (sec): 2.000000E-2
Scans to average: 10
Electric dark correction enabled: true
Nonlinearity correction enabled: false
Boxcar width: 0
XAxis mode: Wavelengths
Number of Pixels in Spectrum: 2048
>>>>>Begin Spectral Data<<<<<
341.393	-19.8
341.776	-19.8
342.16	-19.8
342.543	-67.48
342.927	-81.5
343.31	-67.48
343.693	-71.55
344.077	-65.9
344.46	-73.36
344.843	-45.56
345.226	-32.23
345.61	-23.87
345.993	-22.29
346.376	-15.51
346.759	13.19
347.142	36.02
347.525	60.87
347.908	65.85
348.291	66.07
348.674	71.04
349.057	104.71
349.44	117.14
349.823	152.62
350.206	149.46
350.588	194.66
350.971	203.92
351.354	249.57
351.737	243.02
352.119	269.23
352.502	283.92
352.884	290.92
353.267	289.79
353.65	304.71
354.032	315.1
354.414	321.43
354.797	330.7
355.179	356.01
355.562	327.53
355.944	318.95
356.326	358.04
356.709	347.65
357.091	338.15
357.473	372.28
357.855	360.08
358.238	341.77
358.62	333.41
359.002	369.79
359.384	363.92
359.766	331.38
360.148	362.79
360.53	357.59
360.912	358.72
361.294	352.84
361.676	336.35
362.057	345.16
362.439	356.69
362.821	332.05
363.203	339.51
363.584	351.26
363.966	331.83
364.348	341.54
364.729	341.77
365.111	345.84
365.493	321.88
365.874	330.47
366.256	332.73
366.637	318.04
367.019	332.51
367.4	321.88
367.781	336.57
368.163	330.92
368.544	318.27
368.925	316.23
369.306	343.13
369.688	330.7
370.069	327.99
370.45	338.38
370.831	319.62
371.212	317.36
371.593	327.76
371.974	311.26
372.355	317.36
372.736	332.28
373.117	306.29
373.498	338.83
373.879	314.2
374.26	336.57
374.641	337.48
375.021	338.15
375.402	334.99
375.783	337.48
376.163	332.96
376.544	344.93
376.925	346.52
377.305	339.74
377.686	341.54
378.066	355.33
378.447	336.12
378.827	351.26
379.208	343.13
379.588	335.9
379.968	322.79
380.349	336.8
380.729	342
381.109	358.27
381.489	356.46
381.87	353.52
382.25	333.41
382.63	358.72
383.01	346.06
383.39	348.32
383.77	361.21
384.15	352.39
384.53	369.34
384.91	365.95
385.29	365.95
385.67	337.48
386.049	363.92
386.429	354.88
386.809	347.42
387.189	374.31
387.568	356.01
387.948	367.08
388.328	369.57
388.707	374.54
389.087	358.04
389.466	398.27
389.846	390.58
390.225	386.06
390.605	364.59
390.984	384.48
391.363	393.75
391.743	388.1
392.122	373.86
392.501	392.16
392.881	385.61
393.26	376.12
393.639	392.62
394.018	388.78
394.397	388.32
394.776	382.9
395.155	394.88
395.534	385.84
395.913	406.4
396.292	408.21
396.671	399.62
397.05	402.11
397.429	431.94
397.808	396.46
398.186	387.42
398.565	402.11
398.944	406.4
399.323	409.11
399.701	420.19
400.08	410.7
400.458	407.76
400.837	401.43
401.215	421.77
401.594	420.64
401.972	426.97
402.351	421.09
402.729	428.32
403.107	433.07
403.486	424.03
403.864	444.82
404.242	421.09
404.62	454.31
404.999	417.25
405.377	442.11
405.755	436.68
406.133	444.59
406.511	453.86
406.889	466.29
407.267	455.89
407.645	466.29
408.023	454.99
408.401	457.02
408.779	476.68
409.156	457.93
409.534	451.6
409.912	482.78
410.29	456.12
410.667	476
411.045	484.37
411.422	480.07
411.8	499.05
412.178	494.54
412.555	494.54
412.933	498.83
413.31	484.37
413.687	494.54
414.065	505.61
414.442	514.87
414.819	528.21
415.197	518.49
415.574	512.84
415.951	534.31
416.328	497.92
416.705	504.93
417.082	510.58
417.46	515.78
417.837	553.52
418.214	521.2
418.591	537.7
418.967	559.84
419.344	543.35
419.721	570.69
420.098	544.48
420.475	565.49
420.852	557.58
421.228	580.86
421.605	561.43
421.982	592.84
422.358	568.88
422.735	563.23
423.111	578.15
423.488	588.09
423.864	596.23
424.241	584.48
424.617	601.65
424.994	611.14
425.37	626.96
425.746	627.41
426.123	617.47
426.499	608.88
426.875	613.85
427.251	596.91
427.627	611.37
428.003	640.29
428.379	653.4
428.756	608.2
429.132	666.96
429.507	662.67
429.883	676
430.259	663.8
430.635	677.58
431.011	676.45
431.387	675.77
431.763	706.05
432.138	693.63
432.514	723.91
432.89	714.42
433.265	721.2
433.641	745.15
434.016	712.16
434.392	743.34
434.767	751.93
435.143	746.05
435.518	749.44
435.894	746.28
436.269	741.76
436.644	752.38
437.02	776.34
437.395	778.14
437.77	767.52
438.145	804.81
438.52	764.58
438.895	788.99
439.271	789.89
439.646	822.21
440.021	813.85
440.395	793.96
440.77	781.99
441.145	798.26
441.52	807.52
441.895	828.31
442.27	806.62
442.645	809.78
443.019	844.13
443.394	851.81
443.769	852.04
444.143	816.33
444.518	877.8
444.892	852.04
445.267	859.27
445.641	868.31
446.016	866.5
446.39	862.21
446.764	884.81
447.139	884.13
447.513	895.2
447.887	888.65
448.262	881.19
448.636	899.27
449.01	906.05
449.384	892.72
449.758	902.89
450.132	924.35
450.506	913.96
450.88	924.58
451.254	925.94
451.628	926.84
452.002	946.05
452.376	962.32
452.75	955.09
453.123	967.97
453.497	969.32
453.871	946.73
454.244	962.55
454.618	972.26
454.992	1009.78
455.365	1018.14
455.739	1020.85
456.112	1007.52
456.486	993.5
456.859	1036.22
457.232	1020.62
457.606	1033.73
457.979	1034.41
458.352	1074.41
458.725	1053.84
459.099	1072.82
459.472	1071.24
459.845	1095.65
460.218	1094.29
460.591	1126.83
460.964	1108.3
461.337	1148.98
461.71	1148.98
462.083	1141.3
462.456	1155.08
462.829	1141.3
463.201	1167.51
463.574	1162.31
463.947	1145.82
464.32	1196.66
464.692	1201.86
465.065	1217.45
465.438	1186.72
465.81	1212.03
466.183	1227.4
466.555	1270.33
466.928	1268.75
467.3	1249.54
467.672	1298.36
468.045	1316.66
468.417	1258.36
468.789	1273.5
469.161	1320.5
469.534	1329.09
469.906	1340.84
470.278	1356.66
470.65	1351.46
471.022	1406.83
471.394	1386.94
471.766	1414.06
472.138	1427.62
472.51	1468.52
472.882	1472.59
473.253	1480.72
473.625	1504.45
473.997	1477.56
474.369	1500.38
474.74	1527.5
475.112	1529.08
475.484	1574.96
475.855	1600.72
476.227	1604.34
476.598	1648.4
476.97	1648.18
477.341	1679.59
477.713	1660.61
478.084	1693.37
478.455	1720.04
478.827	1769.98
479.198	1791
479.569	1765.24
479.94	1853.14
480.311	1868.28
480.682	1882.07
481.053	1905.12
481.424	1969.75
481.795	1932.69
482.166	1993.03
482.537	2001.84
482.908	2053.59
483.279	2065.79
483.65	2104.21
484.021	2104.21
484.391	2140.59
484.762	2167.71
485.133	2201.38
485.503	2201.61
485.874	2258.33
486.244	2285.9
486.615	2324.54
486.985	2352.34
487.356	2388.95
487.726	2415.61
488.097	2477.99
488.467	2499.68
488.837	2525.67
489.207	2552.56
489.578	2604.31
489.948	2633.91
490.318	2672.56
490.688	2704.87
491.058	2707.81
491.428	2755.49
491.798	2798.2
492.168	2865.32
492.538	2834.36
492.908	2920.23
493.278	2945.77
493.648	2960.68
494.017	2999.78
494.387	3038.87
494.757	3063.73
495.126	3097.63
495.496	3140.12
495.866	3205.88
496.235	3218.31
496.605	3259.89
496.974	3298.98
497.344	3298.3
497.713	3370.39
498.082	3366.32
498.452	3463.95
498.821	3408.81
499.19	3467.56
499.559	3490.16
499.928	3575.13
500.298	3550.73
500.667	3616.71
501.036	3622.36
501.405	3670.27
501.774	3661.91
502.143	3716.82
502.512	3733.55
502.88	3809.48
503.249	3812.87
503.618	3831.17
503.987	3827.33
504.356	3910.72
504.724	3963.14
505.093	3926.08
505.462	3988.91
505.83	3977.38
506.199	4029.58
506.567	4106.19
506.936	4106.87
507.304	4114.55
507.672	4175.57
508.041	4200.88
508.409	4244.72
508.777	4266.41
509.145	4265.28
509.514	4319.97
509.882	4348.67
510.25	4412.85
510.618	4395.68
510.986	4439.29
511.354	4453.3
511.722	4534.43
512.09	4573.07
512.458	4546.41
512.826	4576.91
513.193	4591.15
513.561	4634.77
513.929	4703.24
514.297	4709.34
514.664	4756.12
515.032	4806.74
515.4	4842.22
515.767	4826.17
516.135	4898.26
516.502	4879.28
516.869	4952.95
517.237	4921.09
517.604	4991.59
517.972	5054.19
518.339	5041.76
518.706	5048.99
519.073	5131.7
519.44	5135.77
519.808	5214.18
520.175	5256.67
520.542	5293.28
520.909	5285.14
521.276	5309.55
521.643	5381.64
522.009	5418.7
522.376	5402.43
522.743	5524.46
523.11	5522.88
523.477	5588.41
523.843	5606.04
524.21	5686.71
524.577	5748.41
524.943	5771.23
525.31	5741.4
525.676	5814.62
526.043	5887.16
526.409	5877.67
526.776	5911.57
527.142	5958.35
527.508	5985.24
527.874	6022.98
528.241	6065.46
528.607	6108.85
528.973	6140.71
529.339	6191.33
529.705	6210.54
530.071	6265.68
530.437	6303.2
530.803	6274.04
531.169	6308.62
531.535	6372.35
531.901	6352.46
532.267	6417.09
532.632	6468.39
532.998	6469.97
533.364	6463.87
533.73	6518.33
534.095	6594.26
534.461	6606.46
534.826	6643.07
535.192	6614.6
535.557	6663.64
535.923	6684.2
536.288	6698.89
536.653	6820.24
537.019	6742.05
537.384	6789.96
537.749	6821.83
538.114	6841.94
538.479	6890.3
538.845	6939.11
539.21	6886.01
539.575	6944.31
539.94	6998.32
540.305	7058.66
540.67	7058.43
541.034	7042.39
541.399	7079.67
541.764	7156.51
542.129	7159.44
542.494	7148.37
542.858	7175.26
543.223	7240.35
543.587	7335.94
543.952	7281.48
544.316	7335.94
544.681	7383.39
545.045	7401.7
545.41	7419.55
545.774	7503.16
546.138	7496.61
546.503	7543.62
546.867	7536.61
547.231	7635.14
547.595	7587.23
547.959	7643.5
548.324	7695.02
548.688	7675.36
549.052	7817.28
549.416	7784.29
549.779	7857.73
550.143	7901.57
550.507	7949.48
550.871	7993.09
551.235	8027.22
551.599	8085.07
551.962	8110.83
552.326	8131.4
552.689	8134.33
553.053	8212.52
553.417	8260.88
553.78	8306.08
554.143	8274.9
554.507	8476.25
554.87	8420.43
555.234	8546.75
555.597	8507.88
555.96	8596.02
556.323	8609.12
556.686	8725.05
557.05	8790.36
557.413	8791.27
557.776	8923.69
558.139	8970.7
558.502	9013.63
558.865	8948.55
559.228	9087.98
559.59	9151.26
559.953	9208.88
560.316	9351.7
560.679	9362.32
561.041	9444.13
561.404	9503.11
561.767	9605.03
562.129	9656.55
562.492	9758.92
562.854	9848.19
563.217	9920.73
563.579	10013.15
563.941	9999.82
564.304	10122.98
564.666	10204.56
565.028	10281.17
565.39	10443.43
565.753	10532.69
566.115	10626.92
566.477	10715.96
566.839	10776.07
567.201	10965.67
567.563	11011.77
567.925	11083.41
568.287	11272.56
568.648	11330.63
569.01	11441.14
569.372	11581.02
569.734	11648.37
570.095	11910.05
570.457	12061.46
570.819	12178.97
571.18	12323.38
571.542	12412.87
571.903	12560.21
572.265	12769.47
572.626	12874.77
572.987	12991.38
573.349	13262.79
573.71	13440.86
574.071	13640.18
574.432	13808.31
574.794	14091.92
575.155	14189.54
575.516	14333.27
575.877	14680.15
576.238	14859.13
576.599	15081.72
576.96	15332.11
577.32	15482.62
577.681	15738.65
578.042	16052.54
578.403	16268.81
578.763	16552.19
579.124	16701.11
579.485	17137.71
579.845	17498.38
580.206	17671.26
580.566	18044.13
580.927	18203.67
581.287	18597.11
581.648	18961.39
582.008	19280.03
582.368	19580.36
582.728	19895.61
583.089	20150.52
583.449	20434.35
583.809	20880.89
584.169	21334.21
584.529	21605.17
584.889	22137.36
585.249	22454.64
585.609	22744.8
585.969	23307.27
586.329	23556.53
586.688	24036.29
587.048	24474.7
587.408	24686.44
587.768	25253.21
588.127	25628.79
588.487	25990.81
588.846	26577.47
589.206	26747.86
589.565	27278.01
589.925	27949.18
590.284	28197.76
590.643	28810.85
591.003	29272.76
591.362	29768.79
591.721	30079.07
592.08	30551.37
592.44	31122.43
592.799	31602.19
593.158	31979.13
593.517	32506.8
593.876	32922.16
594.235	33380.22
594.593	33869.02
594.952	34462.23
595.311	34675.11
595.67	35402.54
596.029	35878.46
596.387	36439.58
596.746	36812
597.104	37056.96
597.463	37527.91
597.822	38161.12
598.18	38331.51
598.538	38820.76
598.897	39548.42
599.255	39689.21
599.613	40548.4
599.972	40717.88
600.33	41293.24
600.688	41421.14
601.046	41948.13
601.404	42570.94
601.762	42883.93
602.12	43300.42
602.478	43707.64
602.836	44004.8
603.194	44218.36
603.552	44667.61
603.91	44704.45
604.268	45423.75
604.625	45678.88
604.983	46091.08
605.341	46164.07
605.698	46774.22
606.056	47043.14
606.413	47291.5
606.771	47607.42
607.128	47913.18
607.485	47986.62
607.843	48295.31
608.2	48692.82
608.557	49031.34
608.914	49176.42
609.272	49451.21
609.629	49676.52
609.986	49978.21
610.343	49982.27
610.7	50399.89
611.057	50428.82
611.414	50616.38
611.771	50826.09
612.127	51053.88
612.484	51107.44
612.841	51428.56
613.198	51286.65
613.554	51543.59
613.911	51793.07
614.267	51907.42
614.624	51997.36
614.98	52142.22
615.337	52325.26
615.693	52464.92
616.05	52452.72
616.406	52714.18
616.762	52793.72
617.118	52864.91
617.475	52882.31
617.831	53122.53
618.187	53127.5
618.543	53304.9
618.899	53434.84
619.255	53528.39
619.611	53506.7
619.967	53721.84
620.323	53842.28
620.678	53779.69
621.034	53730.88
621.39	53783.3
621.746	53826.01
622.101	54148.72
622.457	53931.55
622.812	54033.92
623.168	54164.08
623.523	54136.06
623.879	54350.07
624.234	54132.45
624.589	54332.22
624.945	54362.27
625.3	54403.4
625.655	54383.29
626.01	54455.83
626.365	54578.31
626.72	54566.11
627.075	54542.61
627.43	54582.15
627.785	54572.44
628.14	54569.05
628.495	54728.36
628.85	54656.05
629.205	54584.86
629.559	54790.51
629.914	54646.78
630.269	54700.34
630.623	54680.91
630.978	54553
631.332	54773.79
631.687	54823.5
632.041	54665.54
632.396	54750.06
632.75	54647.01
633.104	54718.65
633.459	54643.39
633.813	54642.94
634.167	54601.36
634.521	54683.39
634.875	54703.96
635.229	54654.01
635.583	54647.01
635.937	54593.9
636.291	54567.24
636.645	54601.81
636.999	54476.17
637.352	54533.34
637.706	54475.94
638.06	54590.74
638.413	54505.32
638.767	54480.91
639.121	54478.2
639.474	54329.05
639.828	54367.69
640.181	54413.57
640.534	54442.5
640.888	54378.32
641.241	54259.68
641.594	54285.44
641.947	54408.6
642.301	54357.98
642.654	54426.9
643.007	54387.81
643.36	54362.5
643.713	54317.3
644.066	54448.14
644.419	54160.69
644.771	54023.97
645.124	53810.87
645.477	53811.55
645.83	53566.13
646.182	53486.36
646.535	53439.81
646.888	53566.36
647.24	53345.35
647.593	53546.25
647.945	53452.46
648.298	53469.19
648.65	53306.25
649.002	53135.41
649.355	53354.16
649.707	53365.69
650.059	53455.85
650.411	53695.17
650.763	53819.01
651.115	54198.66
651.467	54035.73
651.819	53993.69
652.171	53997.31
652.523	53944.66
652.875	53980.36
653.227	53727.49
653.578	53988.5
653.93	53936.07
654.282	53779.46
654.633	53732.91
654.985	53775.62
655.337	53854.04
655.688	53776.07
656.039	53995.28
656.391	53645.91
656.742	53782.63
657.094	53728.39
657.445	53808.84
657.796	53795.05
658.147	53799.35
658.498	53757.99
658.849	53764.55
659.2	53752.34
659.551	53704.89
659.902	53780.82
660.253	53769.52
660.604	53768.16
660.955	53716.41
661.306	53797.77
661.656	53735.4
662.007	53738.56
662.358	53681.84
662.708	53678.45
663.059	53623.31
663.409	53602.74
663.76	53725
664.11	53706.24
664.461	53750.54
664.811	53637.54
665.161	53670.09
665.511	53497.89
665.862	53631.44
666.212	53738.33
666.562	53680.48
666.912	53618.34
667.262	53522.29
667.612	53472.8
667.962	53508.51
668.312	53434.39
668.662	53645.68
669.011	53537.66
669.361	53508.28
669.711	53499.47
670.06	53473.93
670.41	53332.24
670.76	53368.4
671.109	53523.88
671.459	53336.76
671.808	53308.51
672.157	53417.21
672.507	53181.51
672.856	53156.43
673.205	53240.94
673.554	53332.02
673.904	53227.84
674.253	53289.76
674.602	53199.36
674.951	52744.69
675.3	52616.55
675.649	53113.49
675.998	53066.26
676.346	53161.62
676.695	53131.8
677.044	52971.35
677.393	53001.63
677.741	53103.1
678.09	52957.34
678.438	52919.15
678.787	52986.71
679.135	52887.06
679.484	52781.07
679.832	52948.52
680.181	52658.59
680.529	52828.07
680.877	52679.6
681.225	52641.64
681.573	52817.91
681.922	52710.34
682.27	52471.02
682.618	52563.9
682.966	52471.02
683.314	52599.61
683.661	52423.57
684.009	52268.31
684.357	52245.49
684.705	52145.38
685.053	52252.04
685.4	52162.78
685.748	52015.67
686.095	52000.98
686.443	51980.64
686.79	51833.75
687.138	51948.1
687.485	51866.74
687.832	51762.79
688.18	51698.39
688.527	51524.38
688.874	51555.79
689.221	51467.66
689.568	51413.2
689.915	51244.84
690.262	51226.53
690.609	51153.99
690.956	51116.48
691.303	51074
691.65	51034.22
691.997	50948.35
692.344	50620.22
692.69	50728.92
693.037	50708.58
693.383	50532.32
693.73	50559.66
694.077	50377.74
694.423	50471.98
694.769	50282.83
695.116	50212.78
695.462	50075.83
695.808	49973.46
696.155	50019.11
696.501	49717.42
696.847	49627.71
697.193	49469.74
697.539	49593.13
697.885	49454.15
698.231	49241.28
698.577	49192.24
698.923	49166.25
699.269	48938.68
699.614	48870.44
699.96	48726.26
700.306	48787.05
700.651	48571.46
700.997	48450.34
701.342	48346.84
701.688	48293.73
702.033	48189.55
702.379	48132.15
702.724	47986.39
703.069	48175.99
703.415	47603.8
703.76	47683.8
704.105	47648.78
704.45	47560.19
704.795	47330.37
705.14	47241.55
705.485	47262.34
705.83	47098.06
706.175	47127.66
706.52	46978.51
706.865	46921.79
707.209	46753.43
707.554	46614.9
707.899	46797.05
708.243	46463.5
708.588	46486.09
708.932	46133.34
709.277	46162.49
709.621	46143.28
709.966	45866.22
710.31	45996.84
710.654	45683.63
710.998	45794.81
711.342	45675.72
711.687	45656.29
712.031	45345.79
712.375	45138.11
712.719	45401.6
713.063	45236.18
713.407	45334.71
713.75	45119.58
714.094	45033.7
714.438	44902.63
714.782	44809.08
715.125	44635.3
715.469	44766.59
715.812	44753.26
716.156	44433.04
716.499	44383.55
716.843	44478.24
717.186	44089.77
717.53	44505.36
717.873	44354.62
718.216	44190.34
718.559	44057.46
718.902	43786.5
719.246	43880.96
719.589	43805.94
719.932	43735.88
720.275	43676.22
720.617	43618.37
720.96	43611.37
721.303	43435.1
721.646	43496.57
721.989	43250.25
722.331	43516.91
722.674	43268.1
723.016	43227.2
723.359	43223.36
723.701	43221.55
724.044	43103.13
724.386	42806.19
724.729	43023.13
725.071	42937.71
725.413	42780.43
725.755	42723.48
726.097	42734.55
726.439	42397.39
726.782	42544.95
727.124	42755.57
727.465	42443.49
727.807	42457.95
728.149	42406.88
728.491	42250.27
728.833	42387.67
729.175	42168.92
729.516	42139.77
729.858	42099.54
730.199	42013.44
730.541	42021.8
730.882	42011.18
731.224	41981.13
731.565	41883.28
731.906	41913.33
732.248	41885.31
732.589	41740.68
732.93	41613.23
733.271	41677.86
733.612	41680.34
733.953	41698.42
734.294	41415.72
734.635	41572.32
734.976	41501.14
735.317	41383.4
735.658	41293.91
735.999	41241.94
736.339	41271.32
736.68	41356.74
737.021	41293.01
737.361	41110.42
737.702	41309.51
738.042	40978.67
738.383	40943.19
738.723	41137.08
739.063	40898.44
739.404	40851.44
739.744	40902.29
740.084	40864.55
740.424	40683.53
740.764	40686.25
741.104	40660.71
741.444	40582.07
741.784	40491.9
742.124	40685.34
742.464	40545.91
742.804	40544.56
743.143	40427.27
743.483	40392.24
743.823	40119.93
744.162	40197.22
744.502	40308.4
744.841	40114.06
745.181	40263.88
745.52	40021.63
745.86	40009.65
746.199	40032.93
746.538	40052.82
746.877	40106.37
747.216	39970.56
747.556	39859.6
747.895	39920.39
748.234	39722.2
748.573	39716.78
748.911	39719.72
749.25	39746.16
749.589	39548.88
749.928	39595.2
750.267	39452.15
750.605	39384.59
750.944	39330.8
751.283	39359.5
751.621	39314.98
751.96	39077.02
752.298	39077.7
752.636	39034.09
752.975	38889.01
753.313	38862.11
753.651	39098.94
753.989	38651.95
754.327	38638.39
754.666	38430.03
755.004	38653.53
755.342	38627.77
755.679	38557.71
756.017	38348.23
756.355	38466.64
756.693	38187.78
757.031	38122.02
757.368	38041.57
757.706	37901.91
758.044	37882.03
758.381	37845.64
758.719	37762.03
759.056	37700.56
