Data from orange_diffuse_book_FLMS001491_00037.txt Node
Date: Wed Feb 08 15:29:28 GMT 2017
User: dcchb
Spectrometer: FLMS00149
Trigger mode: 0
Integration Time (sec): 2.000000E-2
Scans to average: 10
Electric dark correction enabled: true
Nonlinearity correction enabled: false
Boxcar width: 0
XAxis mode: Wavelengths
Number of Pixels in Spectrum: 2048
>>>>>Begin Spectral Data<<<<<
341.393	-20.34
341.776	-20.34
342.16	-20.34
342.543	-54.69
342.927	-89.49
343.31	-69.83
343.693	-55.59
344.077	-87.23
344.46	-40.45
344.843	-47.46
345.226	-55.82
345.61	-41.13
345.993	-26.21
346.376	-3.84
346.759	7.23
347.142	27.12
347.525	51.98
347.908	51.98
348.291	59.43
348.674	101.01
349.057	128.81
349.44	120.67
349.823	145.08
350.206	183.05
350.588	196.38
350.971	232.31
351.354	237.28
351.737	248.81
352.119	264.4
352.502	282.93
352.884	288.35
353.267	300.11
353.65	302.14
354.032	300.78
354.414	325.42
354.797	328.58
355.179	334.91
355.562	344.4
355.944	335.13
356.326	335.36
356.709	338.3
357.091	336.94
357.473	340.33
357.855	354.11
358.238	333.32
358.62	357.96
359.002	371.29
359.384	369.26
359.766	355.7
360.148	339.43
360.53	352.53
360.912	349.37
361.294	338.3
361.676	345.3
362.057	354.57
362.439	346.43
362.821	364.74
363.203	345.98
363.584	352.31
363.966	367.9
364.348	359.54
364.729	328.58
365.111	331.97
365.493	343.04
365.874	349.37
366.256	329.48
366.637	330.39
367.019	309.6
367.4	342.59
367.781	319.31
368.163	339.88
368.544	334.23
368.925	330.84
369.306	347.56
369.688	321.57
370.069	346.21
370.45	351.4
370.831	344.4
371.212	344.85
371.593	319.54
371.974	342.59
372.355	348.47
372.736	332.65
373.117	314.34
373.498	330.61
373.879	318.41
374.26	328.13
374.641	333.78
375.021	347.56
375.402	338.97
375.783	355.24
376.163	343.27
376.544	348.01
376.925	322.93
377.305	340.1
377.686	325.42
378.066	339.88
378.447	369.71
378.827	348.69
379.208	340.56
379.588	347.11
379.968	331.06
380.349	362.02
380.729	366.09
381.109	357.96
381.489	358.18
381.87	369.48
382.25	353.21
382.63	350.5
383.01	394.57
383.39	370.84
383.77	372.87
384.15	360.89
384.53	354.11
384.91	395.02
385.29	378.07
385.67	379.2
386.049	369.26
386.429	380.78
386.809	384.85
387.189	360.89
387.568	335.58
387.948	357.05
388.328	371.97
388.707	398.86
389.087	395.92
389.466	409.71
389.846	400.67
390.225	393.89
390.605	403.83
390.984	392.76
391.363	392.98
391.743	390.05
392.122	375.36
392.501	393.44
392.881	399.54
393.26	416.71
393.639	409.03
394.018	383.94
394.397	409.48
394.776	406.32
395.155	395.7
395.534	409.25
395.913	412.19
396.292	418.75
396.671	415.13
397.05	413.55
397.429	403.61
397.808	447.22
398.186	435.24
398.565	438.18
398.944	455.13
399.323	435.02
399.701	446.54
400.08	421.46
400.458	451.29
400.837	439.76
401.215	444.73
401.594	431.85
401.972	449.93
402.351	466.2
402.729	446.54
403.107	458.29
403.486	438.86
403.864	463.04
404.242	452.87
404.62	474.56
404.999	472.76
405.377	475.47
405.755	454
406.133	471.4
406.511	484.06
406.889	485.18
407.267	452.64
407.645	478.86
408.023	501.46
408.401	492.87
408.779	499.87
409.156	478.63
409.534	491.96
409.912	515.69
410.29	516.82
410.667	495.58
411.045	502.36
411.422	519.08
411.8	534.45
412.178	530.83
412.555	525.18
412.933	532.42
413.31	528.57
413.687	553.66
414.065	551.62
414.442	539.65
414.819	568.12
415.197	547.78
415.574	554.34
415.951	577.39
416.328	545.07
416.705	594.79
417.082	574.67
417.46	572.41
417.837	601.11
418.214	570.83
418.591	595.46
418.967	585.75
419.344	587.78
419.721	608.35
420.098	595.24
420.475	609.7
420.852	606.76
421.228	632.98
421.605	607.44
421.982	613.32
422.358	639.76
422.735	636.14
423.111	616.48
423.488	629.81
423.864	646.08
424.241	638.4
424.617	642.69
424.994	649.7
425.37	669.81
425.746	664.16
426.123	653.99
426.499	665.52
426.875	686.99
427.251	697.38
427.627	703.48
428.003	689.02
428.379	705.52
428.756	725.63
429.132	728.79
429.507	704.39
429.883	710.04
430.259	739.64
430.635	745.29
431.011	747.78
431.387	771.96
431.763	767.89
432.138	781.9
432.514	773.09
432.89	773.99
433.265	796.36
433.641	786.19
434.016	794.78
434.392	804.72
434.767	841.79
435.143	812.41
435.518	847.44
435.894	856.93
436.269	863.48
436.644	877.27
437.02	888.56
437.395	865.51
437.77	878.85
438.145	882.91
438.52	884.5
438.895	906.87
439.271	901.9
439.646	907.77
440.021	922.91
440.395	935.79
440.77	919.52
441.145	926.76
441.52	925.17
441.895	932.4
442.27	940.09
442.645	949.35
443.019	966.75
443.394	955
443.769	977.38
444.143	983.7
444.518	994.78
444.892	986.64
445.267	1001.1
445.641	996.81
446.016	983.7
446.39	995
446.764	997.49
447.139	1011.95
447.513	1010.59
447.887	1037.03
448.262	1004.04
448.636	978.05
449.01	1047.2
449.384	1036.58
449.758	1031.61
450.132	1026.64
450.506	1046.07
450.88	1059.63
451.254	1039.07
451.628	1081.1
452.002	1065.73
452.376	1068.22
452.75	1069.8
453.123	1098.05
453.497	1124.26
453.871	1113.42
454.244	1150.48
454.618	1131.04
454.992	1126.98
455.365	1140.99
455.739	1174.88
456.112	1176.24
456.486	1192.51
456.859	1212.62
457.232	1189.8
457.606	1223.92
457.979	1229.12
458.352	1256.24
458.725	1287.65
459.099	1261.89
459.472	1282.45
459.845	1304.6
460.218	1303.24
460.591	1312.28
460.964	1303.47
461.337	1360.19
461.71	1369.46
462.083	1375.56
462.456	1359.06
462.829	1373.52
463.201	1390.7
463.574	1371.72
463.947	1408.78
464.32	1421.43
464.692	1449.91
465.065	1482.22
465.438	1481.09
465.81	1470.47
466.183	1486.29
466.555	1500.53
466.928	1545.72
467.3	1559.51
467.672	1515.89
468.045	1577.13
468.417	1571.71
468.789	1550.24
469.161	1589.34
469.534	1651.48
469.906	1646.28
470.278	1671.14
470.65	1670.24
471.022	1687.64
471.394	1738.49
471.766	1735.1
472.138	1739.16
472.51	1750.91
472.882	1806.05
473.253	1820.74
473.625	1844.47
473.997	1884.47
474.369	1855.77
474.74	1880.18
475.112	1921.98
475.484	1929.89
475.855	2004.92
476.227	2009.21
476.598	2018.48
476.97	2052.83
477.341	2093.05
477.713	2108.19
478.084	2184.12
478.455	2181.64
478.827	2200.39
479.198	2241.97
479.569	2233.61
479.94	2298.92
480.311	2328.53
480.682	2379.37
481.053	2413.04
481.424	2425.47
481.795	2471.35
482.166	2526.71
482.537	2542.08
482.908	2597.45
483.279	2605.58
483.65	2661.62
484.021	2702.75
484.391	2729.87
484.762	2763.32
485.133	2774.16
485.503	2832.69
485.874	2906.82
486.244	2911.34
486.615	2993.82
486.985	2984.78
487.356	3033.14
487.726	3068.85
488.097	3141.16
488.467	3129.18
488.837	3222.74
489.207	3226.81
489.578	3302.74
489.948	3330.31
490.318	3409.85
490.688	3427.25
491.058	3463.41
491.428	3499.79
491.798	3556.74
492.168	3600.81
492.538	3693.46
492.908	3705.67
493.278	3747.25
493.648	3767.81
494.017	3806.23
494.387	3869.95
494.757	3883.97
495.126	3977.07
495.496	3973.91
495.866	4016.17
496.235	4055.94
496.605	4110.4
496.974	4151.08
497.344	4178.65
497.713	4229.95
498.082	4244.86
498.452	4282.83
498.821	4295.71
499.19	4363.5
499.559	4399.43
499.928	4414.57
500.298	4489.83
500.667	4502.25
501.036	4526.66
501.405	4577.51
501.774	4626.09
502.143	4679.42
502.512	4674
502.88	4776.37
503.249	4784.06
503.618	4842.36
503.987	4835.81
504.356	4869.7
504.724	4906.09
505.093	4925.29
505.462	4953.32
505.83	5003.94
506.199	5012.52
506.567	5127.77
506.936	5143.59
507.304	5172.52
507.672	5210.71
508.041	5205.74
508.409	5253.87
508.777	5303.59
509.145	5397.37
509.514	5358.5
509.882	5409.12
510.25	5466.97
510.618	5457.26
510.986	5527.76
511.354	5571.15
511.722	5614.54
512.09	5651.6
512.458	5678.27
512.826	5709.68
513.193	5774.31
513.561	5756.23
513.929	5848.21
514.297	5855.67
514.664	5897.25
515.032	5921.65
515.4	5995.77
515.767	6032.16
516.135	6112.16
516.502	6068.09
516.869	6185.83
517.237	6198.71
517.604	6143.34
517.972	6244.13
518.339	6274.19
518.706	6348.99
519.073	6373.39
519.44	6398.25
519.808	6451.81
520.175	6465.37
520.542	6576.1
520.909	6650.9
521.276	6577.68
521.643	6732.25
522.009	6729.99
522.376	6771.35
522.743	6803.44
523.11	6947.84
523.477	6968.4
523.843	7042.3
524.21	7120.04
524.577	7110.32
524.943	7160.04
525.31	7158.91
525.676	7311.22
526.043	7355.74
526.409	7369.75
526.776	7388.73
527.142	7428.05
527.508	7487.49
527.874	7570.2
528.241	7565.22
528.607	7616.3
528.973	7713.02
529.339	7714.37
529.705	7760.93
530.071	7765.67
530.437	7870.75
530.803	7888.83
531.169	8001.6
531.535	7955.05
531.901	8026.68
532.267	7980.81
532.632	8111.43
532.998	8146
533.364	8163.85
533.73	8236.85
534.095	8263.74
534.461	8317.3
534.826	8318.2
535.192	8313.91
535.557	8365.2
535.923	8416.28
536.288	8442.04
536.653	8484.75
537.019	8549.83
537.384	8548.02
537.749	8627.57
538.114	8618.3
538.479	8690.39
538.845	8770.84
539.21	8783.05
539.575	8744.4
539.94	8743.72
540.305	8905.98
540.67	8801.12
541.034	8931.29
541.399	8922.25
541.764	8938.75
542.129	9027.33
542.494	9058.52
542.858	9061.46
543.223	9101.23
543.587	9169.48
543.952	9204.28
544.316	9206.31
544.681	9218.06
545.045	9263.26
545.41	9341
545.774	9460.99
546.138	9419.19
546.503	9449.24
546.867	9487.21
547.231	9515.46
547.595	9630.26
547.959	9623.7
548.324	9679.29
548.688	9715.22
549.052	9680.2
549.416	9804.49
549.779	9820.08
550.143	9894.66
550.507	10005.84
550.871	9937.14
551.235	9996.8
551.599	10106.63
551.962	10097.36
552.326	10175.33
552.689	10295.1
553.053	10199.28
553.417	10251.03
553.78	10399.5
554.143	10411.93
554.507	10467.75
554.87	10567.86
555.234	10696.22
555.597	10613.73
555.96	10687.18
556.323	10811.69
556.686	10834.52
557.05	10959.26
557.413	11001.29
557.776	10982.31
558.139	11130.78
558.502	11186.82
558.865	11229.99
559.228	11314.05
559.59	11392.24
559.953	11415.52
560.316	11563.99
560.679	11653.03
561.041	11691.22
561.404	11754.49
561.767	11898.9
562.129	11951.1
562.492	12085.33
562.854	12161.26
563.217	12167.82
563.579	12344.08
563.941	12372.1
564.304	12429.28
564.666	12673.79
565.028	12758.08
565.39	12760.12
565.753	12962.82
566.115	13010.51
566.477	13109.94
566.839	13240.78
567.201	13394.22
567.563	13469.25
567.925	13668.57
568.287	13726.19
568.648	13756.47
569.01	13948.11
569.372	14087.54
569.734	14220.19
570.095	14371.15
570.457	14537.92
570.819	14707.64
571.18	14748.31
571.542	14967.52
571.903	15124.35
572.265	15273.95
572.626	15461.06
572.987	15624.45
573.349	15719.81
573.71	16014.72
574.071	16190.08
574.432	16387.37
574.794	16559.11
575.155	16764.3
575.516	16889.95
575.877	17157.29
576.238	17432.54
576.599	17682.92
576.96	17933.31
577.32	18155.68
577.681	18300.08
578.042	18649.91
578.403	18767.19
578.763	19095.77
579.124	19320.4
579.485	19686.49
579.845	19940.72
580.206	20249.41
580.566	20552.23
580.927	20831.32
581.287	21078.09
581.648	21337.74
582.008	21758.3
582.368	22015.24
582.728	22355.8
583.089	22683.92
583.449	22998.72
583.809	23268.31
584.169	23760.05
584.529	23956.21
584.889	24461.28
585.249	24844.54
585.609	25044.09
585.969	25641.13
586.329	25902.6
586.688	26362.47
587.048	26766.53
587.408	27183.47
587.768	27435.44
588.127	27894.63
588.487	28413.49
588.846	28965.79
589.206	29167.37
589.565	29603.74
589.925	30108.59
590.284	30473.1
590.643	30959.86
591.003	31425.16
591.362	31870.35
591.721	32309.66
592.08	32815.41
592.44	33381.95
592.799	33655.39
593.158	34222.6
593.517	34447.91
593.876	35019.42
594.235	35284.5
594.593	35978.26
594.952	36479.49
595.311	36741.63
595.67	37282.18
596.029	37875.16
596.387	38443.96
596.746	38815.7
597.104	39144.28
597.463	39566.64
597.822	39995.56
598.18	40212.28
598.538	40813.62
598.897	41358.91
599.255	41426.93
599.613	42417.19
599.972	42604.53
600.33	43015.14
600.688	43259.65
601.046	43749.58
601.404	44257.14
601.762	44562.9
602.12	45110
602.478	45318.58
602.836	45815.97
603.194	45851.45
603.552	46357.65
603.91	46443.52
604.268	46900.24
604.625	47069.95
604.983	47687.79
605.341	47889.36
605.698	48108.79
606.056	48532.96
606.413	48647.76
606.771	49035.32
607.128	49231.02
607.485	49349.66
607.843	49561.63
608.2	50042.07
608.557	50207.95
608.914	50259.24
609.272	50667.14
609.629	50883.86
609.986	51107.36
610.343	51167.69
610.7	51536.5
611.057	51674.8
611.414	51655.59
611.771	51754.35
612.127	52012.87
612.484	52216.48
612.841	52388.23
613.198	52424.61
613.554	52569.69
613.911	52714.55
614.267	52906.63
614.624	52932.39
614.98	53174.42
615.337	53346.39
615.693	53432.95
616.05	53524.69
616.406	53721.98
616.762	53698.25
617.118	53778.02
617.475	53800.85
617.831	53968.07
618.187	54039.03
618.543	54205.13
618.899	54353.15
619.255	54386.14
619.611	54409.42
619.967	54614.16
620.323	54655.74
620.678	54569.64
621.034	54590.2
621.39	54640.6
621.746	54609.19
622.101	54981.83
622.457	54771.67
622.812	54903.19
623.168	55054.82
623.523	54982.28
623.879	55133.92
624.234	54992.9
624.589	55153.8
624.945	55131.43
625.3	55197.87
625.655	55242.39
626.01	55296.85
626.365	55295.95
626.72	55301.6
627.075	55327.81
627.43	55341.82
627.785	55249.39
628.14	55379.56
628.495	55396.74
628.85	55500.91
629.205	55436.51
629.559	55586.11
629.914	55496.62
630.269	55571.87
630.623	55438.77
630.978	55401.26
631.332	55553.79
631.687	55547.69
632.041	55433.57
632.396	55592.44
632.75	55435.15
633.104	55481.71
633.459	55344.99
633.813	55368.94
634.167	55383.4
634.521	55338.21
634.875	55448.71
635.229	55469.05
635.583	55400.8
635.937	55365.1
636.291	55312.67
636.645	55398.09
636.999	55317.87
637.352	55417.3
637.706	55238.1
638.06	55394.02
638.413	55261.82
638.767	55171.43
639.121	55272.67
639.474	55114.93
639.828	55051.89
640.181	55181.6
640.534	55229.73
640.888	55183.86
641.241	54999.91
641.594	55064.09
641.947	55229.96
642.301	55203.52
642.654	55206.91
643.007	55173.92
643.36	55138.21
643.713	55121.26
644.066	55233.8
644.419	54991.55
644.771	54858.9
645.124	54556.98
645.477	54517.44
645.83	54409.64
646.182	54291.91
646.535	54289.87
646.888	54261.85
647.24	54123.32
647.593	54360.38
647.945	54242.42
648.298	54222.3
648.65	54104.79
649.002	54074.06
649.355	54192.25
649.707	54154.96
650.059	54212.13
650.411	54554.95
650.763	54625.46
651.115	54923.98
651.467	54823.64
651.819	54850.76
652.171	54735.96
652.523	54741.39
652.875	54721.5
653.227	54565.34
653.578	54728.5
653.93	54802.4
654.282	54611.67
654.633	54590.66
654.985	54662.52
655.337	54705
655.688	54637.66
656.039	54767.37
656.391	54519.92
656.742	54521.28
657.094	54532.13
657.445	54662.07
657.796	54687.15
658.147	54574.61
658.498	54567.6
658.849	54615.51
659.2	54496.87
659.551	54434.95
659.902	54610.09
660.253	54521.96
660.604	54562.63
660.955	54456.2
661.306	54506.36
661.656	54450.09
662.007	54522.63
662.358	54547.27
662.708	54519.92
663.059	54435.86
663.409	54249.87
663.76	54541.39
664.11	54585.01
664.461	54563.76
664.811	54535.74
665.161	54423.2
665.511	54359.25
665.862	54436.53
666.212	54431.56
666.562	54482.41
666.912	54464.1
667.262	54331.9
667.612	54373.26
667.962	54323.77
668.312	54322.41
668.662	54446.25
669.011	54351.79
669.361	54328.06
669.711	54248.07
670.06	54252.81
670.41	54190.89
670.76	54162.19
671.109	54249.87
671.459	54154.73
671.808	54165.36
672.157	54204.45
672.507	54006.94
672.856	54038.35
673.205	54109.99
673.554	54180.04
673.904	54109.09
674.253	54200.83
674.602	54048.75
674.951	53620.51
675.3	53442.89
675.649	53932.37
675.998	53993.16
676.346	53935.53
676.695	53961.07
677.044	53761.52
677.393	53890.79
677.741	53868.41
678.09	53833.39
678.438	53780.28
678.787	53905.7
679.135	53865.7
679.484	53593.17
679.832	53729.89
680.181	53503.23
680.529	53639.72
680.877	53604.47
681.225	53480.63
681.573	53749.77
681.922	53487.86
682.27	53366.05
682.618	53416.9
682.966	53372.61
683.314	53454.19
683.661	53341.2
684.009	53201.76
684.357	53138.26
684.705	53052.84
685.053	53149.34
685.4	53070.69
685.748	52890.36
686.095	52970.13
686.443	52749.12
686.79	52704.38
687.138	52807.65
687.485	52890.36
687.832	52711.83
688.18	52629.58
688.527	52418.28
688.874	52498.05
689.221	52424.61
689.568	52359.3
689.915	52136.71
690.262	52204.5
690.609	52125.18
690.956	52021.68
691.303	51942.36
691.65	51797.51
691.997	51800.22
692.344	51535.82
692.69	51556.16
693.037	51658.98
693.383	51323.17
693.73	51446.56
694.077	51239.1
694.423	51301.93
694.769	51283.4
695.116	51167.69
695.462	51119.33
695.808	50968.6
696.155	50964.31
696.501	50781.94
696.847	50778.55
697.193	50553.02
697.539	50773.13
697.885	50315.51
698.231	50300.6
698.577	50184.67
698.923	50187.15
699.269	50003.21
699.614	49860.84
699.96	49847.95
700.306	49874.39
700.651	49665.36
700.997	49501.75
701.342	49490
701.688	49397.57
702.033	49323.9
702.379	49299.95
702.724	49122.32
703.069	49195.99
703.415	48792.16
703.76	48863.35
704.105	48822.45
704.45	48624.94
704.795	48340.88
705.14	48295
705.485	48405.73
705.83	48262.46
706.175	48249.58
706.52	48086.87
706.865	48080.09
707.209	47771.63
707.554	47648.24
707.899	47772.76
708.243	47554.23
708.588	47512.42
708.932	47265.88
709.277	47204.86
709.621	47290.28
709.966	46984.75
710.31	47089.38
710.654	46815.94
710.998	46869.95
711.342	46815.49
711.687	46782.72
712.031	46597.19
712.375	46311.55
712.719	46517.19
713.063	46495.05
713.407	46626.34
713.75	46210.99
714.094	46152.23
714.438	46003.54
714.782	46132.35
715.125	45892.8
715.469	45995.63
715.812	45792.24
716.156	45442.19
716.499	45540.27
716.843	45732.58
717.186	45486.94
717.53	45519.26
717.873	45562.87
718.216	45461.63
718.559	45254.4
718.902	44939.84
719.246	45205.82
719.589	45040.4
719.932	44827.75
720.275	44883.57
720.617	44935.77
720.96	44808.09
721.303	44731.25
721.646	44664.81
721.989	44381.21
722.331	44671.82
722.674	44411.94
723.016	44623.23
723.359	44371.04
723.701	44435.89
724.044	44154.55
724.386	44003.81
724.729	44306.18
725.071	44020.76
725.413	44065.51
725.755	44107.31
726.097	43867.77
726.439	43717.95
726.782	43809.02
727.124	44064.15
727.465	43861.45
727.807	43709.59
728.149	43547.56
728.491	43576.03
728.833	43592.53
729.175	43467.11
729.516	43382.59
729.858	43412.87
730.199	43261.46
730.541	43229.82
730.882	43204.06
731.224	43271.18
731.565	42982.37
731.906	43155.7
732.248	42977.4
732.589	42797.07
732.93	42720.01
733.271	42819.21
733.612	42815.37
733.953	42808.37
734.294	42541.71
734.635	42526.11
734.976	42763.85
735.317	42444.53
735.658	42429.17
735.999	42475.04
736.339	42426.46
736.68	42521.37
737.021	42435.95
737.361	42163.64
737.702	42454.48
738.042	42164.77
738.383	42048.16
738.723	42292
739.063	42078.67
739.404	42173.81
739.744	42086.58
740.084	41886.36
740.424	41972.23
740.764	41939.69
741.104	42039.8
741.444	41756.42
741.784	41741.28
742.124	41714.16
742.464	41675.51
742.804	41525.69
743.143	41557.1
743.483	41583.54
743.823	41221.51
744.162	41231.91
744.502	41456.76
744.841	41376.77
745.181	41367.05
745.52	41125.25
745.86	41246.15
746.199	41209.54
746.538	41070.78
746.877	41100.84
747.216	41152.59
747.556	41068.52
747.895	40968.41
748.234	40811.13
748.573	40807.74
748.911	40820.85
749.25	40751.47
749.589	40579.95
749.928	40630.8
750.267	40659.72
750.605	40503.57
750.944	40627.41
751.283	40430.12
751.621	40392.38
751.96	40239.17
752.298	40185.84
752.636	40125.05
752.975	40113.07
753.313	40033.3
753.651	40087.76
753.989	39890.7
754.327	39880.76
754.666	39571.84
755.004	39645.51
755.342	39701.55
755.679	39534.55
756.017	39331.4
756.355	39404.39
756.693	39320.1
757.031	39391.05
757.368	39106.09
757.706	39023.61
758.044	38822.48
758.381	39010.73
758.719	38727.12
