Data from orange_diffuse_book_FLMS001491_00005.txt Node
Date: Wed Feb 08 15:29:02 GMT 2017
User: dcchb
Spectrometer: FLMS00149
Trigger mode: 0
Integration Time (sec): 2.000000E-2
Scans to average: 10
Electric dark correction enabled: true
Nonlinearity correction enabled: false
Boxcar width: 0
XAxis mode: Wavelengths
Number of Pixels in Spectrum: 2048
>>>>>Begin Spectral Data<<<<<
341.393	6.74
341.776	6.74
342.16	6.74
342.543	-51.79
342.927	-87.5
343.31	-94.5
343.693	-83.88
344.077	-46.59
344.46	-50.66
344.843	-60.38
345.226	-56.09
345.61	-28.29
345.993	-18.35
346.376	2.67
346.759	11.93
347.142	32.73
347.525	56
347.908	57.81
348.291	62.33
348.674	105.72
349.057	109.56
349.44	125.83
349.823	147.07
350.206	161.99
350.588	195.66
350.971	197.47
351.354	234.53
351.737	250.35
352.119	264.58
352.502	293.28
352.884	282.66
353.267	285.37
353.65	299.38
354.032	296.45
354.414	327.41
354.797	330.57
355.179	325.6
355.562	326.5
355.944	356.33
356.326	359.72
356.709	336.22
357.091	331.93
357.473	339.84
357.855	361.08
358.238	354.75
358.62	357.24
359.002	360.17
359.384	339.84
359.766	350.23
360.148	345.49
360.53	351.59
360.912	339.61
361.294	346.16
361.676	361.76
362.057	319.05
362.439	356.11
362.821	342.32
363.203	345.94
363.584	345.26
363.966	335.09
364.348	326.05
364.729	333.06
365.111	339.38
365.493	342.77
365.874	330.57
366.256	338.71
366.637	348.42
367.019	337.58
367.4	323.34
367.781	326.5
368.163	346.62
368.544	334.86
368.925	335.54
369.306	324.92
369.688	311.36
370.069	322.21
370.45	330.8
370.831	335.09
371.212	306.16
371.593	328.99
371.974	339.61
372.355	335.99
372.736	317.46
373.117	326.05
373.498	319.95
373.879	319.72
374.26	318.14
374.641	318.59
375.021	330.8
375.402	362.89
375.783	311.59
376.163	334.86
376.544	333.73
376.925	323.11
377.305	355.88
377.686	318.37
378.066	325.15
378.447	343
378.827	354.07
379.208	338.03
379.588	338.48
379.968	323.34
380.349	330.57
380.729	346.84
381.109	349.78
381.489	357.69
381.87	332.6
382.25	328.31
382.63	367.86
383.01	350.46
383.39	361.98
383.77	362.21
384.15	355.2
384.53	339.16
384.91	357.46
385.29	371.93
385.67	366.05
386.049	359.95
386.429	359.27
386.809	371.47
387.189	373.06
387.568	367.86
387.948	385.26
388.328	379.83
388.707	376.9
389.087	383.22
389.466	384.13
389.846	379.83
390.225	369.67
390.605	367.86
390.984	381.42
391.363	362.43
391.743	362.89
392.122	378.7
392.501	394.07
392.881	404.92
393.26	389.1
393.639	384.81
394.018	413.51
394.397	390.46
394.776	406.05
395.155	417.8
395.534	410.12
395.913	391.59
396.292	422.55
396.671	398.37
397.05	397.01
397.429	401.75
397.808	415.31
398.186	402.66
398.565	397.91
398.944	412.38
399.323	408.53
399.701	430.91
400.08	423.68
400.458	420.96
400.837	424.13
401.215	423.22
401.594	433.62
401.972	418.03
402.351	419.61
402.729	423.68
403.107	438.59
403.486	430.23
403.864	441.98
404.242	420.06
404.62	437.01
404.999	452.15
405.377	443.11
405.755	454.86
406.133	447.86
406.511	443.34
406.889	447.4
407.267	452.38
407.645	466.16
408.023	456.22
408.401	467.06
408.779	461.41
409.156	467.06
409.534	492.37
409.912	459.38
410.29	483.56
410.667	487.4
411.045	476.56
411.422	493.05
411.8	499.83
412.178	503.45
412.555	520.4
412.933	528.08
413.31	515.65
413.687	504.58
414.065	521.07
414.442	551.36
414.819	513.39
415.197	541.41
415.574	544.8
415.951	535.54
416.328	556.33
416.705	538.7
417.082	551.36
417.46	543.45
417.837	558.36
418.214	554.07
418.591	561.75
418.967	548.87
419.344	576.44
419.721	579.6
420.098	540.96
420.475	576.21
420.852	564.91
421.228	585.7
421.605	587.29
421.982	585.48
422.358	578.02
422.735	593.61
423.111	601.98
423.488	595.87
423.864	575.31
424.241	615.76
424.617	618.92
424.994	608.76
425.37	645.59
425.746	628.64
426.123	624.57
426.499	633.39
426.875	648.53
427.251	654.63
427.627	653.05
428.003	653.5
428.379	682.88
428.756	661.18
429.132	681.52
429.507	676.32
429.883	677
430.259	705.48
430.635	686.27
431.011	694.85
431.387	699.6
431.763	735.31
432.138	734.4
432.514	735.31
432.89	713.84
433.265	754.51
433.641	744.57
434.016	768.75
434.392	785.25
434.767	773.04
435.143	778.47
435.518	784.57
435.894	793.16
436.269	785.25
436.644	793.16
437.02	816.89
437.395	814.63
437.77	825.25
438.145	812.82
438.52	821.4
438.895	835.87
439.271	833.83
439.646	843.55
440.021	871.8
440.395	854.62
440.77	864.79
441.145	869.99
441.52	868.64
441.895	872.7
442.27	873.61
442.645	884.23
443.019	891.46
443.394	894.4
443.769	898.47
444.143	884
444.518	892.82
444.892	896.43
445.267	889.88
445.641	927.16
446.016	916.77
446.39	919.48
446.764	914.96
447.139	939.59
447.513	953.15
447.887	938.92
448.262	945.47
448.636	942.08
449.01	952.93
449.384	960.61
449.758	965.13
450.132	978.91
450.506	976.88
450.88	989.76
451.254	960.38
451.628	977.79
452.002	1009.2
452.376	1016.88
452.75	1018.69
453.123	1020.5
453.497	1033.83
453.871	1009.87
454.244	1045.58
454.618	1044.45
454.992	1042.87
455.365	1068.86
455.739	1100.95
456.112	1084.9
456.486	1098.91
456.859	1127.16
457.232	1128.29
457.606	1076.09
457.979	1129.65
458.352	1147.05
458.725	1122.41
459.099	1124.9
459.472	1154.96
459.845	1192.92
460.218	1188.4
460.591	1193.37
460.964	1201.73
461.337	1218.23
461.71	1237.44
462.083	1259.59
462.456	1265.01
462.829	1266.82
463.201	1273.37
463.574	1252.81
463.947	1290.55
464.32	1305.46
464.692	1301.17
465.065	1302.75
465.438	1352.46
465.81	1331.9
466.183	1334.16
466.555	1372.58
466.928	1351.79
467.3	1398.34
467.672	1387.49
468.045	1424.78
468.417	1437.21
468.789	1417.55
469.161	1449.86
469.534	1463.2
469.906	1485.12
470.278	1498
470.65	1514.49
471.022	1528.73
471.394	1564.66
471.766	1570.31
472.138	1576.87
472.51	1586.58
472.882	1608.73
473.253	1620.03
473.625	1659.8
473.997	1682.4
474.369	1687.6
474.74	1660.48
475.112	1712.23
475.484	1747.48
475.855	1774.6
476.227	1779.35
476.598	1804.88
476.97	1818.67
477.341	1834.03
477.713	1885.11
478.084	1894.6
478.455	1952.9
478.827	1961.94
479.198	2021.15
479.569	1989.06
479.94	2080.81
480.311	2050.07
480.682	2100.69
481.053	2141.14
481.424	2161.71
481.795	2208.04
482.166	2240.58
482.537	2243.51
482.908	2299.56
483.279	2346.34
483.65	2347.92
484.021	2409.39
484.391	2427.01
484.762	2470.63
485.133	2492.55
485.503	2533.45
485.874	2556.73
486.244	2586.33
486.615	2629.27
486.985	2665.88
487.356	2696.16
487.726	2725.08
488.097	2808.7
488.467	2823.16
488.837	2842.59
489.207	2892.54
489.578	2910.84
489.948	2960.33
490.318	3018.86
490.688	3016.6
491.058	3078.75
491.428	3099.76
491.798	3138.63
492.168	3275.13
492.538	3226.99
492.908	3268.57
493.278	3316.71
493.648	3333.66
494.017	3399.64
494.387	3430.83
494.757	3476.25
495.126	3537.49
495.496	3506.98
495.866	3514.67
496.235	3605.51
496.605	3668.34
496.974	3653.42
497.344	3686.64
497.713	3728
498.082	3781.55
498.452	3806.86
498.821	3852.74
499.19	3838.73
499.559	3938.61
499.928	3926.41
500.298	3970.47
500.667	3993.07
501.036	3982.23
501.405	4053.86
501.774	4074.2
502.143	4182.67
502.512	4158.49
502.88	4177.93
503.249	4190.36
503.618	4225.38
503.987	4247.3
504.356	4325.72
504.724	4357.13
505.093	4356.23
505.462	4408.88
505.83	4393.74
506.199	4436.9
506.567	4498.6
506.936	4508.99
507.304	4557.58
507.672	4597.8
508.041	4649.55
508.409	4680.06
508.777	4693.17
509.145	4752.83
509.514	4735.65
509.882	4812.03
510.25	4846.84
510.618	4879.38
510.986	4850.45
511.354	4937.91
511.722	4951.01
512.09	4993.27
512.458	5014.06
512.826	5065.14
513.193	5047.28
513.561	5067.62
513.929	5125.02
514.297	5206.15
514.664	5251.34
515.032	5247.96
515.4	5327.5
515.767	5373.38
516.135	5348.29
516.502	5299.48
516.869	5425.13
517.237	5498.12
517.604	5484.79
517.972	5502.86
518.339	5548.51
518.706	5572.01
519.073	5609.08
519.44	5681.16
519.808	5696.98
520.175	5748.73
520.542	5742.63
520.909	5832.57
521.276	5840.26
521.643	5864.66
522.009	5932.91
522.376	5993.47
522.743	5981.27
523.11	6006.81
523.477	6103.3
523.843	6195.73
524.21	6238.21
524.577	6282.5
524.943	6299
525.31	6322.05
525.676	6409.51
526.043	6475.04
526.409	6470.3
526.776	6522.5
527.142	6522.95
527.508	6543.06
527.874	6592.33
528.241	6649.5
528.607	6654.47
528.973	6763.4
529.339	6782.6
529.705	6762.94
530.071	6851.53
530.437	6889.95
530.803	6920.68
531.169	7016.27
531.535	6991.19
531.901	6971.53
532.267	6992.54
532.632	7092.65
532.998	7152.76
533.364	7127.45
533.73	7160.67
534.095	7219.65
534.461	7223.04
534.826	7289.48
535.192	7334.68
535.557	7373.1
535.923	7406.32
536.288	7427.78
536.653	7390.95
537.019	7490.83
537.384	7511.62
537.749	7549.36
538.114	7585.97
538.479	7596.14
538.845	7623.49
539.21	7610.15
539.575	7689.92
539.94	7711.39
540.305	7768.34
540.67	7828.9
541.034	7845.85
541.399	7831.62
541.764	7858.73
542.129	7872.97
542.494	7962.69
542.858	7997.26
543.223	8019.18
543.587	8105.28
543.952	8082.01
544.316	8116.58
544.681	8130.82
545.045	8171.72
545.41	8188.67
545.774	8263.24
546.138	8291.27
546.503	8333.52
546.867	8307.76
547.231	8389.34
547.595	8407.42
547.959	8477.93
548.324	8456.91
548.688	8532.61
549.052	8569.22
549.416	8612.84
549.779	8634.53
550.143	8685.15
550.507	8749.33
550.871	8752.27
551.235	8815.09
551.599	8855.32
551.962	8865.26
552.326	8915.43
552.689	9006.73
553.053	8956.56
553.417	8994.98
553.78	9120.4
554.143	9147.29
554.507	9209.66
554.87	9282.88
555.234	9355.87
555.597	9320.39
555.96	9389.54
556.323	9413.95
556.686	9522.19
557.05	9629.31
557.413	9624.79
557.776	9647.16
558.139	9687.84
558.502	9813.71
558.865	9821.17
559.228	9896.65
559.59	9977.1
559.953	10038.79
560.316	10138.67
560.679	10177.54
561.041	10273.81
561.404	10346.13
561.767	10380.7
562.129	10428.84
562.492	10642.62
562.854	10663.63
563.217	10685.78
563.579	10762.84
563.941	10825.21
564.304	10962.83
564.666	11036.5
565.028	11146.33
565.39	11241.24
565.753	11335.25
566.115	11400.34
566.477	11506.32
566.839	11561.01
567.201	11793.32
567.563	11843.26
567.925	11983.37
568.287	12024.5
568.648	12156.02
569.01	12275.57
569.372	12489.35
569.734	12510.36
570.095	12633.07
570.457	12760.07
570.819	12932.27
571.18	13056.79
571.542	13254.98
571.903	13341.08
572.265	13503.56
572.626	13583.33
572.987	13811.57
573.349	13942.87
573.71	14134.95
574.071	14214.95
574.432	14539.69
574.794	14726.35
575.155	14877.31
575.516	14943.75
575.877	15188.71
576.238	15400.68
576.599	15616.04
576.96	15760
577.32	16059.2
577.681	16268.23
578.042	16499.18
578.403	16647.88
578.763	16973.97
579.124	17219.84
579.485	17481.76
579.845	17784.35
580.206	18032.93
580.566	18305.47
580.927	18640.15
581.287	18826.81
581.648	19114.48
582.008	19476.51
582.368	19660.01
582.728	20037.85
583.089	20257.05
583.449	20565.97
583.809	20957.37
584.169	21185.62
584.529	21497.7
584.889	22123.44
585.249	22223.33
585.609	22583.54
585.969	23033.02
586.329	23358.89
586.688	23783.29
587.048	24100.11
587.408	24497.62
587.768	24884.05
588.127	25174.21
588.487	25473.64
588.846	26155.2
589.206	26335.54
589.565	26823.43
589.925	27309.52
590.284	27681.04
590.643	27945.66
591.003	28544.97
591.362	29001.68
591.721	29345.17
592.08	29874.88
592.44	30191.25
592.799	30780.84
593.158	31092.7
593.517	31635.74
593.876	31983.3
594.235	32255.38
594.593	32686.1
594.952	33332.19
595.311	33734.21
595.67	34032.96
596.029	34647.18
596.387	35276.32
596.746	35648.74
597.104	35813.71
597.463	36297.76
597.822	36855.71
598.18	37063.62
598.538	37360.11
598.897	38158.05
599.255	38226.07
599.613	39161.41
599.972	39349.43
600.33	39660.61
600.688	39821.74
601.046	40517.76
601.404	41073.45
601.762	41303.73
602.12	41745.3
602.478	42120.21
602.836	42415.11
603.194	42621.44
603.552	43006.51
603.91	43325.37
604.268	43869.76
604.625	44084.9
604.983	44543.65
605.341	44624.1
605.698	45054.59
606.056	45386.33
606.413	45633.56
606.771	46034.91
607.128	46331.17
607.485	46339.08
607.843	46681.44
608.2	47028.55
608.557	47350.35
608.914	47472.38
609.272	47944.23
609.629	48139.93
609.986	48358.69
610.343	48463.54
610.7	48902.85
611.057	48933.36
611.414	49059.23
611.771	49228.27
612.127	49561.37
612.484	49564.08
612.841	49858.08
613.198	49909.83
613.554	50067.79
613.911	50437.05
614.267	50381.91
614.624	50618.06
614.98	50817.6
615.337	51044.27
615.693	51037.26
616.05	51072.74
616.406	51410.58
616.762	51388.66
617.118	51552.27
617.475	51588.88
617.831	51715.89
618.187	51818.48
618.543	51990.68
618.899	52101.64
619.255	52160.62
619.611	52198.13
619.967	52438.8
620.323	52586.82
620.678	52386.38
621.034	52330.11
621.39	52562.19
621.746	52488.75
622.101	52963.08
622.457	52630.44
622.812	52715.18
623.168	52854.16
623.523	52926.02
623.879	53039.47
624.234	52900.26
624.589	53062.07
624.945	53088.96
625.3	53130.76
625.655	53122.4
626.01	53241.72
626.365	53240.37
626.72	53269.52
627.075	53251.66
627.43	53268.84
627.785	53283.3
628.14	53351.1
628.495	53344.54
628.85	53443.52
629.205	53302.51
629.559	53601.26
629.914	53344.54
630.269	53369.18
630.623	53413.47
630.978	53394.49
631.332	53512
631.687	53629.28
632.041	53468.61
632.396	53479.46
632.75	53453.02
633.104	53472.22
633.459	53307.48
633.813	53343.87
634.167	53415.5
634.521	53365.33
634.875	53454.15
635.229	53361.04
635.583	53222.96
635.937	53300.03
636.291	53273.59
636.645	53294.83
636.999	53261.38
637.352	53281.95
637.706	53197.43
638.06	53228.84
638.413	53237.43
638.767	53161.05
639.121	53244.89
639.474	53044.44
639.828	53173.47
640.181	53135.51
640.534	53177.54
640.888	53061.84
641.241	53017.77
641.594	53015.96
641.947	53075.17
642.301	53016.64
642.654	53001.28
643.007	52987.94
643.36	53023.42
643.713	53051.44
644.066	53053.48
644.419	52886.93
644.771	52669.76
645.124	52423.89
645.477	52483.1
645.83	52275.87
646.182	52123.33
646.535	52067.74
646.888	52141.41
647.24	51902.55
647.593	52085.82
647.945	52092.83
648.298	51914.52
648.65	51969.89
649.002	51805.6
649.355	51923.11
649.707	51841.31
650.059	52027.06
650.411	52370.11
650.763	52468.86
651.115	52802.41
651.467	52661.4
651.819	52628.86
652.171	52615.75
652.523	52495.3
652.875	52579.59
653.227	52498.92
653.578	52716.31
653.93	52601.29
654.282	52404.23
654.633	52415.75
654.985	52515.19
655.337	52491.91
655.688	52374.63
656.039	52625.01
656.391	52357
656.742	52456.88
657.094	52490.55
657.445	52509.76
657.796	52545.69
658.147	52446.26
658.498	52379.6
658.849	52515.19
659.2	52402.65
659.551	52292.14
659.902	52407.85
660.253	52320.39
660.604	52484.68
660.955	52356.55
661.306	52294.4
661.656	52330.56
662.007	52310.9
662.358	52259.15
662.708	52315.42
663.059	52279.94
663.409	52222.09
663.76	52338.69
664.11	52277.91
664.461	52339.15
664.811	52350.67
665.161	52303.89
665.511	52186.16
665.862	52268.64
666.212	52399.71
666.562	52372.82
666.912	52206.95
667.262	52221.86
667.612	52149.09
667.962	52217.57
668.312	52160.62
668.662	52385.92
669.011	52117.91
669.361	52217.57
669.711	52117.68
670.06	52116.33
670.41	52053.28
670.76	52016.22
671.109	52038.14
671.459	52014.86
671.808	51952.94
672.157	52009.21
672.507	51848.09
672.856	51897.35
673.205	51853.51
673.554	52057.8
673.904	51809.44
674.253	52006.95
674.602	51872.94
674.951	51406.97
675.3	51227.76
675.649	51784.36
675.998	51766.28
676.346	51715.89
676.695	51763.57
677.044	51529.22
677.393	51672.27
677.741	51697.58
678.09	51578.26
678.438	51609.45
678.787	51571.26
679.135	51583.46
679.484	51356.12
679.832	51428.44
680.181	51306.41
680.529	51429.34
680.877	51332.39
681.225	51329.46
681.573	51447.19
681.922	51105.96
682.27	51117.48
682.618	51159.74
682.966	51107.09
683.314	51161.78
683.661	51030.71
684.009	50825.97
684.357	50790.71
684.705	50729.02
685.053	50816.25
685.4	50684.05
685.748	50623.71
686.095	50562.47
686.443	50461.91
686.79	50404.51
687.138	50339.42
687.485	50355.92
687.832	50298.52
688.18	50379.88
688.527	50076.38
688.874	50100.56
689.221	50023.95
689.568	49912.09
689.915	49864.64
690.262	49784.19
690.609	49658.76
690.956	49618.77
691.303	49562.5
691.65	49396.4
691.997	49379.22
692.344	49228.95
692.69	49233.01
693.037	49189.85
693.383	48862.18
693.73	48987.14
694.077	48721.84
694.423	48695.4
694.769	48488.17
695.116	48632.35
695.462	48391.91
695.808	48348.52
696.155	48512.58
696.501	48056.77
696.847	47978.36
697.193	47869.43
697.539	48014.74
697.885	47752.83
698.231	47466.28
698.577	47623.34
698.923	47459.5
699.269	47259.28
699.614	47178.15
699.96	47052.51
700.306	47066.29
700.651	46768.22
700.997	46686.64
701.342	46698.62
701.688	46619.3
702.033	46422.92
702.379	46584.27
702.724	46480.32
703.069	46438.96
703.415	45867.9
703.76	46014.34
704.105	45953.1
704.45	45875.59
704.795	45550.17
705.14	45372.1
705.485	45573.67
705.83	45349.95
706.175	45279.9
706.52	45240.58
706.865	45066.57
707.209	45105.89
707.554	44797.88
707.899	44886.24
708.243	44634.94
708.588	44636.52
708.932	44298.91
709.277	44386.14
709.621	44359.47
709.966	44105.69
710.31	44069.76
710.654	43858.69
710.998	43880.61
711.342	43960.16
711.687	43815.08
712.031	43668.64
712.375	43660.05
712.719	43582.99
713.063	43524.01
713.407	43693.5
713.75	43442.66
714.094	43253.28
714.438	42942.78
714.782	43241.08
715.125	42891.94
715.469	43176.9
715.812	42774.2
716.156	42630.48
716.499	42645.16
716.843	42791.6
717.186	42429.8
717.53	42558.39
717.873	42587.99
718.216	42549.12
718.559	42348
718.902	42127.66
719.246	42185.97
719.589	42123.37
719.932	41995.92
720.275	41845.19
720.617	41973.77
720.96	41833.21
721.303	41914.79
721.646	41753.21
721.989	41450.39
722.331	41662.82
722.674	41559.09
723.016	41619.88
723.359	41456.72
723.701	41461.01
724.044	41170.85
724.386	41034.36
724.729	41318.42
725.071	41122.72
725.413	41126.56
725.755	41041.36
726.097	40868.49
726.439	40798.43
726.782	40738.32
727.124	41007.92
727.465	40830.97
727.807	40693.8
728.149	40537.87
728.491	40729.96
728.833	40771.54
729.175	40621.04
729.516	40546.91
729.858	40450.87
730.199	40507.37
730.541	40310.08
730.882	40373.36
731.224	40332.23
731.565	40007.04
731.906	40181.95
732.248	40295.4
732.589	40110.54
732.93	39957.55
733.271	40033.93
733.612	39893.6
733.953	39947.61
734.294	39844.79
734.635	39692.47
734.976	39791.68
735.317	39641.4
735.658	39576.09
735.999	39640.05
736.339	39454.06
736.68	39559.82
737.021	39426.49
737.361	39358.92
737.702	39566.83
738.042	39384.46
738.383	39341.75
738.723	39172.71
739.063	39232.37
739.404	39339.49
739.744	39297.91
740.084	39082.55
740.424	39231.47
740.764	39012.27
741.104	39070.79
741.444	38897.24
741.784	38830.58
742.124	38990.8
742.464	38724.14
742.804	38832.61
743.143	38713.97
743.483	38799.84
743.823	38573.86
744.162	38505.39
744.502	38615.44
744.841	38281.44
745.181	38657.02
745.52	38281.21
745.86	38416.8
746.199	38298.84
746.538	38307.2
746.877	38389.68
747.216	38156.92
747.556	38178.84
747.895	38164.6
748.234	38024.04
748.573	37955.34
748.911	37939.3
749.25	37919.64
749.589	37717.61
749.928	37789.92
750.267	37944.27
750.605	37797.83
750.944	37477.39
751.283	37515.36
751.621	37664.96
751.96	37377.73
752.298	37402.59
752.636	37392.87
752.975	37272.65
753.313	37114.46
753.651	37288.47
753.989	37024.52
754.327	37096.16
754.666	36876.95
755.004	36904.98
755.342	36923.51
755.679	36717.86
756.017	36593.8
756.355	36777.3
756.693	36498.21
757.031	36717.41
757.368	36423.41
757.706	36394.93
758.044	36229.97
758.381	36167.59
758.719	36070.65
759.056	36018.22
759.394	35899.58
