Data from orange_diffuse_book_FLMS001491_00024.txt Node
Date: Wed Feb 08 15:29:20 GMT 2017
User: dcchb
Spectrometer: FLMS00149
Trigger mode: 0
Integration Time (sec): 2.000000E-2
Scans to average: 10
Electric dark correction enabled: true
Nonlinearity correction enabled: false
Boxcar width: 0
XAxis mode: Wavelengths
Number of Pixels in Spectrum: 2048
>>>>>Begin Spectral Data<<<<<
341.393	-28.59
341.776	-28.59
342.16	-28.59
342.543	-61.58
342.927	-64.29
343.31	-65.2
343.693	-56.83
344.077	-67.91
344.46	-50.73
344.843	-62.71
345.226	-33.11
345.61	-53.9
345.993	-28.36
346.376	-13.9
346.759	8.7
347.142	12.54
347.525	38.76
347.908	60
348.291	91.41
348.674	95.7
349.057	125.53
349.44	133.44
349.823	135.48
350.206	141.58
350.588	198.07
350.971	231.75
351.354	220.67
351.737	259.09
352.119	277.62
352.502	255.7
352.884	284.17
353.267	276.04
353.65	303.16
354.032	302.25
354.414	314.46
354.797	312.42
355.179	330.05
355.562	333.66
355.944	347.67
356.326	327.34
356.709	354
357.091	355.58
357.473	352.42
357.855	340.22
358.238	359.2
358.62	355.81
359.002	346.54
359.384	350.16
359.766	344.28
360.148	366.88
360.53	354
360.912	337.73
361.294	342.25
361.676	343.15
362.057	341.12
362.439	342.93
362.821	368.24
363.203	339.54
363.584	331.4
363.966	353.55
364.348	331.18
364.729	342.48
365.111	323.04
365.493	342.25
365.874	351.74
366.256	343.61
366.637	327.11
367.019	329.6
367.4	313.55
367.781	333.89
368.163	324.17
368.544	329.37
368.925	313.78
369.306	348.13
369.688	317.39
370.069	328.92
370.45	312.42
370.831	307.45
371.212	331.86
371.593	322.82
371.974	331.86
372.355	326.88
372.736	323.27
373.117	330.05
373.498	323.27
373.879	327.79
374.26	307.9
374.641	311.97
375.021	319.65
375.402	320.78
375.783	337.73
376.163	347.9
376.544	353.78
376.925	337.05
377.305	328.69
377.686	349.71
378.066	334.12
378.447	324.62
378.827	339.31
379.208	334.79
379.588	336.83
379.968	358.3
380.349	368.69
380.729	345.64
381.109	337.96
381.489	347.45
381.87	358.75
382.25	352.87
382.63	354.68
383.01	371.85
383.39	354.68
383.77	369.82
384.15	354.68
384.53	352.65
384.91	354.23
385.29	366.21
385.67	350.84
386.049	367.33
386.429	377.96
386.809	393.55
387.189	368.24
387.568	376.6
387.948	381.8
388.328	362.36
388.707	385.87
389.087	352.19
389.466	370.5
389.846	384.51
390.225	366.88
390.605	379.54
390.984	380.44
391.363	389.93
391.743	375.02
392.122	392.42
392.501	394
392.881	404.62
393.26	393.77
393.639	387
394.018	372.31
394.397	411.18
394.776	388.58
395.155	378.86
395.534	379.54
395.913	383.15
396.292	396.71
396.671	408.01
397.05	403.27
397.429	392.42
397.808	421.57
398.186	384.51
398.565	427.22
398.944	405.75
399.323	381.8
399.701	407.11
400.08	388.58
400.458	442.14
400.837	413.44
401.215	402.81
401.594	413.44
401.972	420.44
402.351	433.1
402.729	415.92
403.107	424.51
403.486	432.64
403.864	451.85
404.242	424.73
404.62	432.64
404.999	437.84
405.377	458.41
405.755	440.33
406.133	448.69
406.511	441.68
406.889	439.65
407.267	450.5
407.645	443.27
408.023	450.27
408.401	459.99
408.779	440.33
409.156	457.28
409.534	470.61
409.912	493.21
410.29	474.22
410.667	469.48
411.045	464.28
411.422	503.38
411.8	496.6
412.178	484.62
412.555	510.83
412.933	495.24
413.31	501.12
413.687	523.04
414.065	502.47
414.442	519.65
414.819	511.06
415.197	495.02
415.574	519.65
415.951	557.39
416.328	530.72
416.705	533.66
417.082	544.28
417.46	540.66
417.837	528.01
418.214	544.96
418.591	546.09
418.967	525.3
419.344	555.8
419.721	561.91
420.098	553.54
420.475	569.36
420.852	561.45
421.228	558.52
421.605	585.41
421.982	576.14
422.358	586.99
422.735	585.63
423.111	579.98
423.488	592.64
423.864	614.56
424.241	601.23
424.617	602.81
424.994	629.02
425.37	611.85
425.746	602.81
426.123	633.77
426.499	622.47
426.875	620.44
427.251	641.23
427.627	624.5
428.003	652.07
428.379	663.6
428.756	668.8
429.132	657.5
429.507	650.27
429.883	659.98
430.259	668.12
430.635	692.3
431.011	673.54
431.387	681.23
431.763	724.61
432.138	695.46
432.514	706.31
432.89	688
433.265	713.54
433.641	704.73
434.016	720.32
434.392	736.36
434.767	752.64
435.143	749.25
435.518	760.77
435.894	751.28
436.269	775.91
436.644	771.62
437.02	776.36
437.395	769.13
437.77	768.91
438.145	815.01
438.52	788.34
438.895	805.29
439.271	812.52
439.646	820.2
440.021	819.07
440.395	826.76
440.77	821.33
441.145	845.51
441.52	829.24
441.895	858.85
442.27	833.99
442.645	843.48
443.019	862.69
443.394	859.98
443.769	862.69
444.143	851.39
444.518	839.64
444.892	868.11
445.267	854.78
445.641	895.23
446.016	886.64
446.39	880.09
446.764	889.13
447.139	904.04
447.513	915.34
447.887	909.02
448.262	860.2
448.636	899.07
449.01	902.24
449.384	916.25
449.758	924.83
450.132	935.91
450.506	932.97
450.88	948.79
451.254	956.92
451.628	954.66
452.002	933.42
452.376	993.76
452.75	975.23
453.123	986.98
453.497	975
453.871	971.16
454.244	1001.89
454.618	1013.65
454.992	1003.48
455.365	991.27
455.739	1019.52
456.112	1040.31
456.486	1026.3
456.859	1058.39
457.232	1058.39
457.606	1043.02
457.979	1057.49
458.352	1076.69
458.725	1091.84
459.099	1111.72
459.472	1100.2
459.845	1099.07
460.218	1124.83
460.591	1120.08
460.964	1129.12
461.337	1151.72
461.71	1162.12
462.083	1187.2
462.456	1177.26
462.829	1200.53
463.201	1168.9
463.574	1197.82
463.947	1217.03
464.32	1241.21
464.692	1226.75
465.065	1231.49
465.438	1251.83
465.81	1271.72
466.183	1301.55
466.555	1280.98
466.928	1295.22
467.3	1295.67
467.672	1321.43
468.045	1322.34
468.417	1326.86
468.789	1326.41
469.161	1342
469.534	1342
469.906	1370.7
470.278	1396.69
470.65	1397.14
471.022	1426.29
471.394	1467.65
471.766	1476.23
472.138	1483.46
472.51	1495.44
472.882	1525.72
473.253	1532.05
473.625	1521.88
473.997	1549.9
474.369	1559.62
474.74	1593.29
475.112	1612.95
475.484	1644.14
475.855	1639.39
476.227	1662.67
476.598	1687.07
476.97	1702.44
477.341	1726.62
477.713	1733.4
478.084	1742.21
478.455	1795.55
478.827	1798.26
479.198	1862.89
479.569	1857.47
479.94	1873.28
480.311	1912.83
480.682	1896.56
481.053	1993.28
481.424	2023.56
481.795	2045.26
482.166	2025.37
482.537	2073.5
482.908	2112.83
483.279	2144.24
483.65	2190.11
484.021	2223.56
484.391	2239.83
484.762	2258.81
485.133	2280.73
485.503	2356.66
485.874	2362.99
486.244	2392.59
486.615	2447.96
486.985	2481.86
487.356	2502.87
487.726	2546.71
488.097	2576.09
488.467	2575.86
488.837	2613.38
489.207	2651.79
489.578	2716.65
489.948	2746.93
490.318	2761.4
490.688	2793.71
491.058	2855.18
491.428	2837.78
491.798	2888.85
492.168	2962.07
492.538	2990.77
492.908	3008.62
493.278	3056.76
493.648	3084.33
494.017	3098.79
494.387	3174.27
494.757	3173.59
495.126	3277.99
495.496	3277.09
495.866	3324.77
496.235	3317.54
496.605	3356.41
496.974	3381.72
497.344	3447.25
497.713	3455.84
498.082	3477.08
498.452	3548.49
498.821	3584.2
499.19	3543.07
499.559	3623.75
499.928	3652.45
500.298	3699.9
500.667	3720.69
501.036	3752.56
501.405	3794.36
501.774	3793.23
502.143	3836.85
502.512	3831.2
502.88	3898.77
503.249	3878.88
503.618	3936.28
503.987	4024.41
504.356	4000.01
504.724	4025.77
505.093	4066.22
505.462	4083.85
505.83	4089.27
506.199	4115.49
506.567	4221.7
506.936	4211.75
507.304	4262.37
507.672	4244.07
508.041	4308.47
508.409	4294.46
508.777	4365.2
509.145	4413.56
509.514	4441.35
509.882	4421.69
510.25	4438.41
510.618	4488.58
510.986	4551.41
511.354	4567.9
511.722	4628.24
512.09	4609.94
512.458	4629.37
512.826	4696.26
513.193	4681.57
513.561	4734.9
513.929	4746.2
514.297	4812.87
514.664	4863.49
515.032	4860.32
515.4	4899.19
515.767	4929.7
516.135	4983.26
516.502	4986.87
516.869	5001.79
517.237	5064.39
517.604	5082.24
517.972	5152.29
518.339	5147.77
518.706	5194.55
519.073	5234.1
519.44	5259.18
519.808	5339.41
520.175	5302.57
520.542	5379.63
520.909	5423.7
521.276	5365.85
521.643	5490.59
522.009	5497.37
522.376	5617.14
522.743	5633.86
523.11	5626.63
523.477	5679.74
523.843	5753.18
524.21	5730.81
524.577	5769.23
524.943	5859.39
525.31	5898.26
525.676	5962.67
526.043	5958.6
526.409	5988.2
526.776	5990.92
527.142	6038.15
527.508	6101.2
527.874	6161.31
528.241	6178.03
528.607	6169.89
528.973	6257.12
529.339	6252.38
529.705	6355.2
530.071	6372.15
530.437	6392.94
530.803	6456.21
531.169	6469.32
531.535	6405.82
531.901	6497.34
532.267	6501.18
532.632	6539.83
532.998	6589.54
533.364	6607.4
533.73	6580.5
534.095	6654.4
534.461	6715.19
534.826	6758.35
535.192	6792.93
535.557	6781.63
535.923	6796.09
536.288	6800.39
536.653	6916.32
537.019	6869.76
537.384	6917.9
537.749	6923.55
538.114	6986.6
538.479	7016.65
538.845	7038.57
539.21	6963.77
539.575	7045.8
539.94	7063.2
540.305	7139.81
540.67	7108.17
541.034	7189.75
541.399	7292.8
541.764	7251.22
542.129	7260.49
542.494	7345
542.858	7364.89
543.223	7332.8
543.587	7388.62
543.952	7404.66
544.316	7470.2
544.681	7472.23
545.045	7529.63
545.41	7635.84
545.774	7594.72
546.138	7646.92
546.503	7653.7
546.867	7737.76
547.231	7766.69
547.595	7735.05
547.959	7825.9
548.324	7829.51
548.688	7888.49
549.052	7908.38
549.416	7969.17
549.779	8002.61
550.143	8010.75
550.507	8100.24
550.871	8124.65
551.235	8143.85
551.599	8241.7
551.962	8210.74
552.326	8326.9
552.689	8305.21
553.053	8351.98
553.417	8358.31
553.78	8547.91
554.143	8500.23
554.507	8632.2
554.87	8582.03
555.234	8648.7
555.597	8643.28
555.96	8744.52
556.323	8793.33
556.686	8888.01
557.05	8940.89
557.413	8995.81
557.776	9048.91
558.139	9111.29
558.502	9145.41
558.865	9189.7
559.228	9255.91
559.59	9391.73
559.953	9326.42
560.316	9545.85
560.679	9600.31
561.041	9611.16
561.404	9705.17
561.767	9784.94
562.129	9847.31
562.492	10030.81
562.854	10086.63
563.217	10103.8
563.579	10203.69
563.941	10286.85
564.304	10349.9
564.666	10492.04
565.028	10578.82
565.39	10598.03
565.753	10736.78
566.115	10853.39
566.477	10937.9
566.839	11017.22
567.201	11182.87
567.563	11277.78
567.925	11404.11
568.287	11537.44
568.648	11620.15
569.01	11720.26
569.372	11896.75
569.734	11949.18
570.095	12193.24
570.457	12336.96
570.819	12439.56
571.18	12529.95
571.542	12771.3
571.903	12900.79
572.265	13119.32
572.626	13262.36
572.987	13363.15
573.349	13520.44
573.71	13722.69
574.071	13962.68
574.432	14160.87
574.794	14343.69
575.155	14549.11
575.516	14706.84
575.877	14946.39
576.238	15178.02
576.599	15444.68
576.96	15677.89
577.32	15931.22
577.681	16112.46
578.042	16406.01
578.403	16658.88
578.763	16897.07
579.124	17118.98
579.485	17528.47
579.845	17789.93
580.206	18117.38
580.566	18430.36
580.927	18702.67
581.287	19130.01
581.648	19290
582.008	19718.01
582.368	20003.88
582.728	20427.82
583.089	20652.68
583.449	20943.52
583.809	21375.82
584.169	21765.42
584.529	22035.69
584.889	22552.29
585.249	22907.53
585.609	23226.62
585.969	23815.31
586.329	24051.23
586.688	24530.77
587.048	24866.8
587.408	25356.51
587.768	25674.47
588.127	26172.76
588.487	26536.36
588.846	27174.09
589.206	27370.24
589.565	27982.43
589.925	28511.45
590.284	28923.19
590.643	29358.44
591.003	29798.43
591.362	30319.99
591.721	30731.51
592.08	31303.92
592.44	31776
592.799	32302.31
593.158	32708.63
593.517	33174.61
593.876	33714.93
594.235	34116.28
594.593	34586.77
594.952	35108.79
595.311	35489.12
595.67	36053.85
596.029	36662.2
596.387	37129.53
596.746	37552.35
597.104	37765
597.463	38340.35
597.822	38910.95
598.18	39368.34
598.538	39757.26
598.897	40261.65
599.255	40435.21
599.613	41347.95
599.972	41510.21
600.33	42008.95
600.688	42241.71
601.046	42848.93
601.404	43292.53
601.762	43709.7
602.12	44240.76
602.478	44502.45
602.836	45034.64
603.194	45101.3
603.552	45538.12
603.91	45683.21
604.268	46321.61
604.625	46528.61
604.983	47004.3
605.341	47206.33
605.698	47647.45
606.056	47979.87
606.413	48121.56
606.771	48543.02
607.128	48807.87
607.485	48878.38
607.843	49120.18
608.2	49439.49
608.557	49857.79
608.914	49900.04
609.272	50248.51
609.629	50473.14
609.986	50765.78
610.343	50701.38
610.7	51065.89
611.057	51329.61
611.414	51406.67
611.771	51592.2
612.127	51814.57
612.484	51971.63
612.841	52194.22
613.198	52262.24
613.554	52325.97
613.911	52578.17
614.267	52695
614.624	52793.75
614.98	52930.02
615.337	53133.63
615.693	53305.6
616.05	53285.94
616.406	53584.01
616.762	53569.78
617.118	53551.93
617.475	53654.75
617.831	53759.15
618.187	53900.39
618.543	54039.82
618.899	54156.88
619.255	54253.6
619.611	54242.75
619.967	54410.66
620.323	54549.41
620.678	54409.76
621.034	54339.48
621.39	54487.49
621.746	54542.41
622.101	54812.23
622.457	54700.37
622.812	54749.86
623.168	54853.36
623.523	54874.6
623.879	55007.93
624.234	54907.6
624.589	55004.32
624.945	55041.83
625.3	55095.61
625.655	55069.17
626.01	55183.52
626.365	55237.76
626.72	55210.19
627.075	55203.63
627.43	55246.8
627.785	55195.95
628.14	55327.92
628.495	55346.45
628.85	55341.03
629.205	55273.91
629.559	55506.45
629.914	55288.38
630.269	55456.96
630.623	55384.65
630.978	55365.21
631.332	55439.56
631.687	55513.91
632.041	55371.99
632.396	55477.3
632.75	55362.05
633.104	55419.9
633.459	55291.77
633.813	55334.25
634.167	55352.33
634.521	55345.32
634.875	55451.31
635.229	55382.39
635.583	55230.3
635.937	55297.42
636.291	55242.5
636.645	55280.24
636.999	55266.91
637.352	55369.73
637.706	55206.35
638.06	55322.27
638.413	55236.17
638.767	55182.16
639.121	55197.76
639.474	55022.17
639.828	55153.69
640.181	55214.03
640.534	55130.64
640.888	55107.59
641.241	55021.94
641.594	55069.85
641.947	55111.43
642.301	55057.2
642.654	55085.44
643.007	55080.25
643.36	55064.88
643.713	54962.74
644.066	55104.65
644.419	54948.72
644.771	54765.23
645.124	54459.7
645.477	54477.78
645.83	54347.16
646.182	54183.1
646.535	54098.58
646.888	54328.63
647.24	54118.01
647.593	54290.89
647.945	54200.95
648.298	54160.27
648.65	54029.65
649.002	53941.07
649.355	54082.76
649.707	54021.29
650.059	54124.57
650.411	54479.58
650.763	54499.7
651.115	54836.86
651.467	54653.59
651.819	54711.22
652.171	54641.16
652.523	54623.08
652.875	54636.19
653.227	54561.16
653.578	54729.3
653.93	54664.66
654.282	54606.81
654.633	54534.05
654.985	54550.32
655.337	54597.1
655.688	54548.74
656.039	54705.12
656.391	54489.75
656.742	54475.29
657.094	54540.15
657.445	54583.99
657.796	54509.19
658.147	54459.02
658.498	54508.51
658.849	54549.87
659.2	54527.27
659.551	54393.49
659.902	54607.72
660.253	54456.99
660.604	54561.16
660.955	54391.68
661.306	54505.12
661.656	54367.72
662.007	54405.69
662.358	54506.93
662.708	54507.83
663.059	54506.25
663.409	54243.66
663.76	54405.46
664.11	54423.09
664.461	54436.2
664.811	54449.53
665.161	54441.17
665.511	54326.14
665.862	54414.5
666.212	54398
666.562	54449.98
666.912	54357.33
667.262	54422.18
667.612	54343.32
667.962	54361.62
668.312	54222.64
668.662	54477.1
669.011	54364.33
669.361	54352.81
669.711	54293.15
670.06	54333.83
670.41	54139.03
670.76	54119.82
671.109	54308.29
671.459	54131.12
671.808	54096.54
672.157	54156.66
672.507	53975.64
672.856	54031.01
673.205	54046.15
673.554	54141.06
673.904	53911.46
674.253	54057.67
674.602	54045.7
674.951	53557.12
675.3	53450.68
675.649	53953.04
675.998	53922.31
676.346	53968.19
676.695	54032.36
677.044	53712.37
677.393	53756.21
677.741	53837.34
678.09	53764.8
678.438	53736.1
678.787	53749.66
679.135	53854.97
679.484	53648.87
679.832	53712.6
680.181	53521.64
680.529	53616.1
680.877	53564.81
681.225	53493.62
681.573	53591.02
681.922	53451.81
682.27	53319.16
682.618	53276.68
682.966	53334.08
683.314	53262.67
683.661	53254.08
684.009	53059.28
684.357	53052.28
684.705	53045.05
685.053	53096.8
685.4	52959.62
685.748	52791.27
686.095	52836.69
686.443	52758.73
686.79	52755.79
687.138	52809.35
687.485	52708.56
687.832	52573.65
688.18	52538.84
688.527	52479.86
688.874	52413.88
689.221	52291.17
689.568	52273.31
689.915	52179.76
690.262	52122.58
690.609	52110.83
690.956	51977.28
691.303	51980.44
691.65	51822.25
691.997	51859.54
692.344	51598.3
692.69	51655.93
693.037	51547.01
693.383	51294.58
693.73	51454.13
694.077	51207.35
694.423	51264.3
694.769	51109.28
695.116	51006.91
695.462	51032.67
695.808	50943.86
696.155	50819.34
696.501	50684.88
696.847	50618.22
697.193	50342.07
697.539	50559.46
697.885	50244.89
698.231	50174.16
698.577	50178.91
698.923	50148.4
699.269	49896.2
699.614	49827.96
699.96	49703.66
700.306	49712.03
700.651	49526.04
700.997	49437.23
701.342	49328.53
701.688	49335.76
702.033	49295.31
702.379	49122.21
702.724	49032.95
703.069	49022.55
703.415	48806.29
703.76	48737.59
704.105	48678.61
704.45	48610.81
704.795	48362.46
705.14	48298.05
705.485	48180.77
705.83	48016.48
706.175	48056.48
706.52	47961.79
706.865	47828.69
707.209	47871.85
707.554	47627.56
707.899	47734.45
708.243	47408.81
708.588	47416.72
708.932	47150.96
709.277	47132.21
709.621	47148.93
709.966	46870.29
710.31	47011.53
710.654	46686.34
710.998	46746.23
711.342	46772.22
711.687	46612.45
712.031	46428.72
712.375	46267.6
712.719	46338.1
713.063	46367.71
713.407	46389.4
713.75	46088.84
714.094	46084.78
714.438	45973.14
714.782	45925.69
715.125	45883.65
715.469	45964.55
715.812	45682.08
716.156	45597.11
716.499	45492.02
716.843	45586.03
717.186	45270.34
717.53	45417.9
717.873	45444.57
718.216	45400.05
718.559	45094.52
718.902	44868.99
719.246	45104.01
719.589	44935.88
719.932	44809.78
720.275	44833.06
720.617	44711.48
720.96	44461.32
721.303	44564.36
721.646	44596.23
721.989	44266.29
722.331	44444.82
722.674	44340.42
723.016	44372.05
723.359	44343.13
723.701	44313.75
724.044	44003.48
724.386	43872.41
724.729	44055.23
725.071	43947.66
725.413	43958.05
725.755	43960.77
726.097	43708.79
726.439	43439.87
726.782	43646.2
727.124	43764.16
727.465	43573.43
727.807	43542.92
728.149	43387.9
728.491	43422.02
728.833	43410.5
729.175	43321.69
729.516	43219.77
729.858	43250.5
730.199	43242.14
730.541	43128.7
730.882	42938.42
731.224	43243.04
731.565	42905.65
731.906	42946.33
732.248	43035.14
732.589	42873.11
732.93	42758.31
733.271	42782.04
733.612	42780.91
733.953	42763.28
734.294	42590.41
734.635	42466.34
734.976	42536.85
735.317	42498.88
735.658	42464.08
735.999	42323.75
736.339	42420.47
736.68	42495.72
737.021	42372.33
737.361	42172.34
737.702	42387.02
738.042	42183.86
738.383	42116.97
738.723	42098.67
739.063	42074.03
739.404	42068.16
739.744	42055.28
740.084	41848.28
740.424	41871.33
740.764	41758.79
741.104	41858.22
741.444	41693.71
741.784	41581.62
742.124	41755.63
742.464	41614.16
742.804	41492.36
743.143	41453.71
743.483	41527.61
743.823	41246.94
744.162	41202.87
744.502	41458.01
744.841	41180.73
745.181	41313.83
745.52	41117.9
745.86	41268.63
746.199	41061.41
746.538	41047.85
746.877	41049.66
747.216	41037
747.556	40937.79
747.895	40957.68
748.234	40714.75
748.573	40710.23
748.911	40753.17
749.25	40582.32
749.589	40548.43
749.928	40601.76
750.267	40662.09
750.605	40427.3
750.944	40453.29
751.283	40238.83
751.621	40391.59
751.96	40182.79
752.298	40119.74
752.636	40101.66
752.975	39956.58
753.313	39936.69
753.651	39980.98
753.989	39761.1
754.327	39778.5
754.666	39534.21
755.004	39745.06
755.342	39615.79
755.679	39522.46
756.017	39334.67
756.355	39490.15
756.693	39233.21
757.031	39257.16
757.368	38991.4
757.706	39136.71
758.044	38934.91
758.381	39019.65
758.719	38762.48
759.056	38718.42
759.394	38692.88
759.731	38316.85
760.068	38424.87
