Data from orange_diffuse_book_FLMS001491_00010.txt Node
Date: Wed Feb 08 15:29:03 GMT 2017
User: dcchb
Spectrometer: FLMS00149
Trigger mode: 0
Integration Time (sec): 2.000000E-2
Scans to average: 10
Electric dark correction enabled: true
Nonlinearity correction enabled: false
Boxcar width: 0
XAxis mode: Wavelengths
Number of Pixels in Spectrum: 2048
>>>>>Begin Spectral Data<<<<<
341.393	-20.24
341.776	-20.24
342.16	-20.24
342.543	-53.46
342.927	-68.15
343.31	-44.42
343.693	-75.83
344.077	-74.25
344.46	-56.4
344.843	-57.75
345.226	-33.35
345.61	-37.41
345.993	-13.91
346.376	3.26
346.759	-0.13
347.142	13.88
347.525	48.69
347.908	59.76
348.291	74.22
348.674	89.81
349.057	103.82
349.44	128.23
349.823	152.19
350.206	159.87
350.588	204.61
350.971	207.78
351.354	232.64
351.737	245.06
352.119	249.81
352.502	271.05
352.884	268.79
353.267	299.3
353.65	285.06
354.032	325.06
354.414	324.61
354.797	325.06
355.179	309.92
355.562	309.92
355.944	335.23
356.326	337.49
356.709	344.72
357.091	349.92
357.473	345.17
357.855	345.17
358.238	335.01
358.62	344.95
359.002	347.66
359.384	370.71
359.766	366.19
360.148	351.95
360.53	348.11
360.912	355.8
361.294	355.57
361.676	331.62
362.057	348.11
362.439	358.28
362.821	320.09
363.203	341.56
363.584	346.98
363.966	339.3
364.348	326.19
364.729	336.81
365.111	331.39
365.493	323.03
365.874	338.17
366.256	336.81
366.637	325.97
367.019	333.42
367.4	336.59
367.781	339.52
368.163	322.8
368.544	327.55
368.925	341.33
369.306	323.25
369.688	327.77
370.069	322.12
370.45	311.96
370.831	321.9
371.212	314.89
371.593	321.67
371.974	304.27
372.355	333.88
372.736	343.59
373.117	332.07
373.498	315.34
373.879	326.87
374.26	337.27
374.641	338.17
375.021	318.06
375.402	333.88
375.783	348.79
376.163	347.66
376.544	351.5
376.925	348.56
377.305	324.61
377.686	331.39
378.066	340.2
378.447	340.2
378.827	343.59
379.208	318.28
379.588	349.02
379.968	353.31
380.349	338.62
380.729	337.72
381.109	353.76
381.489	351.95
381.87	344.5
382.25	352.63
382.63	340.2
383.01	355.57
383.39	376.81
383.77	334.33
384.15	351.5
384.53	365.06
384.91	357.15
385.29	356.47
385.67	353.08
386.049	374.1
386.429	363.25
386.809	367.32
387.189	375.23
387.568	375.91
387.948	359.19
388.328	346.08
388.707	356.25
389.087	373.87
389.466	371.61
389.846	376.36
390.225	376.13
390.605	374.55
390.984	389.69
391.363	393.08
391.743	391.28
392.122	363.48
392.501	400.99
392.881	418.17
393.26	406.19
393.639	391.05
394.018	405.29
394.397	381.33
394.776	415.91
395.155	399.86
395.534	407.09
395.913	403.25
396.292	379.3
396.671	415.68
397.05	408.45
397.429	410.71
397.808	404.38
398.186	417.49
398.565	400.99
398.944	418.39
399.323	407.09
399.701	420.65
400.08	425.85
400.458	416.36
400.837	422.91
401.215	409.81
401.594	421.56
401.972	416.36
402.351	431.95
402.729	430.82
403.107	429.92
403.486	417.72
403.864	428.56
404.242	445.28
404.62	427.88
404.999	415.46
405.377	446.41
405.755	436.02
406.133	440.31
406.511	465.62
406.889	445.51
407.267	457.49
407.645	473.76
408.023	469.47
408.401	472.63
408.779	467.66
409.156	465.17
409.534	478.5
409.912	463.14
410.29	471.72
410.667	476.47
411.045	491.61
411.422	495
411.8	496.13
412.178	483.7
412.555	493.19
412.933	473.98
413.31	504.49
413.687	504.27
414.065	505.85
414.442	513.53
414.819	508.33
415.197	518.05
415.574	530.71
415.951	528.45
416.328	527.54
416.705	547.2
417.082	543.59
417.46	520.99
417.837	564.15
418.214	548.33
418.591	533.64
418.967	539.97
419.344	542.46
419.721	560.76
420.098	565.28
420.475	591.95
420.852	584.04
421.228	576.81
421.605	570.03
421.982	585.17
422.358	597.82
422.735	586.75
423.111	588.56
423.488	597.15
423.864	598.95
424.241	634.88
424.617	617.48
424.994	606.41
425.37	592.4
425.746	638.95
426.123	645.73
426.499	627.65
426.875	632.85
427.251	670.14
427.627	643.7
428.003	644.15
428.379	636.92
428.756	643.47
429.132	663.36
429.507	662
429.883	670.59
430.259	695
430.635	696.35
431.011	695.67
431.387	692.28
431.763	721.66
432.138	722.34
432.514	718.95
432.89	712.85
433.265	744.26
433.641	741.77
434.016	749.23
434.392	750.36
434.767	755.79
435.143	776.35
435.518	758.05
435.894	767.31
436.269	783.81
436.644	783.58
437.02	789.91
437.395	790.81
437.77	780.42
438.145	828.1
438.52	833.98
438.895	830.81
439.271	829.68
439.646	829
440.021	839.4
440.395	840.75
440.77	852.96
441.145	850.47
441.52	871.26
441.895	850.02
442.27	864.93
442.645	878.49
443.019	877.36
443.394	882.34
443.769	886.4
444.143	897.02
444.518	926.4
444.892	907.87
445.267	891.37
445.641	899.74
446.016	922.11
446.39	886.63
446.764	915.56
447.139	927.76
447.513	913.3
447.887	955.1
448.262	945.16
448.636	940.87
449.01	972.28
449.384	962.11
449.758	964.82
450.132	965.72
450.506	992.62
450.88	979.51
451.254	967.53
451.628	1013.63
452.002	994.65
452.376	995.55
452.75	1022.22
453.123	996.91
453.497	1026.74
453.871	1032.84
454.244	1005.95
454.618	1053.4
454.992	1030.58
455.365	1041.65
455.739	1061.31
456.112	1100.41
456.486	1110.35
456.859	1078.04
457.232	1118.71
457.606	1081.88
457.979	1135.89
458.352	1123.91
458.725	1141.54
459.099	1167.3
459.472	1177.02
459.845	1182.67
460.218	1193.06
460.591	1177.02
460.964	1179.28
461.337	1214.53
461.71	1213.63
462.083	1245.94
462.456	1226.28
462.829	1246.62
463.201	1259.73
463.574	1252.95
463.947	1282.55
464.32	1301.08
464.692	1301.31
465.065	1310.35
465.438	1329.56
465.81	1323.45
466.183	1367.29
466.555	1385.15
466.928	1358.26
467.3	1394.64
467.672	1405.49
468.045	1442.77
468.417	1426.95
468.789	1461.76
469.161	1442.09
469.534	1457.46
469.906	1468.99
470.278	1476.9
470.65	1486.16
471.022	1537.69
471.394	1555.09
471.766	1584.69
472.138	1513.96
472.51	1599.38
472.882	1620.85
473.253	1637.8
473.625	1636.67
473.997	1680.96
474.369	1676.44
474.74	1685.03
475.112	1702.65
475.484	1725.03
475.855	1759.6
476.227	1791.69
476.598	1834.85
476.97	1840.28
477.341	1868.3
477.713	1907.62
478.084	1868.07
478.455	1957.56
478.827	1950.1
479.198	2015.87
479.569	1995.98
479.94	2064.68
480.311	2071.23
480.682	2102.19
481.053	2122.98
481.424	2147.39
481.795	2193.26
482.166	2241.85
482.537	2251.11
482.908	2295.63
483.279	2314.61
483.65	2386.7
484.021	2367.95
484.391	2441.16
484.762	2463.31
485.133	2464.44
485.503	2489.3
485.874	2535.63
486.244	2600.93
486.615	2621.72
486.985	2670.31
487.356	2707.37
487.726	2728.16
488.097	2758.67
488.467	2797.54
488.837	2852.45
489.207	2894.49
489.578	2948.5
489.948	2953.92
490.318	3007.48
490.688	3012.68
491.058	3068.27
491.428	3111.43
491.798	3153.01
492.168	3202.27
492.538	3243.4
492.908	3275.72
493.278	3308.71
493.648	3348.49
494.017	3370.41
494.387	3411.99
494.757	3485.66
495.126	3550.29
495.496	3527.92
495.866	3566.78
496.235	3574.92
496.605	3635.48
496.974	3648.36
497.344	3699.21
497.713	3707.12
498.082	3765.2
498.452	3769.49
498.821	3796.16
499.19	3840
499.559	3880.22
499.928	3900.34
500.298	3977.62
500.667	4010.39
501.036	3997.51
501.405	4080.67
501.774	4088.8
502.143	4139.43
502.512	4152.53
502.88	4193.21
503.249	4191.18
503.618	4234.34
503.987	4249.25
504.356	4342.36
504.724	4311.4
505.093	4339.65
505.462	4381
505.83	4393.88
506.199	4426.42
506.567	4451.28
506.936	4548.68
507.304	4525.4
507.672	4566.76
508.041	4699.86
508.409	4658.28
508.777	4713.2
509.145	4696.02
509.514	4745.28
509.882	4818.28
510.25	4810.37
510.618	4845.62
510.986	4880.42
511.354	4933.98
511.722	4937.82
512.09	5002.45
512.458	5006.29
512.826	5065.5
513.193	5108.67
513.561	5126.07
513.929	5112.51
514.297	5153.86
514.664	5250.81
515.032	5270.69
515.4	5277.7
515.767	5329.45
516.135	5385.04
516.502	5340.07
516.869	5433.18
517.237	5466.85
517.604	5518.37
517.972	5504.81
518.339	5562.44
518.706	5605.83
519.073	5609.67
519.44	5670.23
519.808	5713.85
520.175	5723.79
520.542	5775.31
520.909	5875.88
521.276	5807.86
521.643	5865.26
522.009	5955.65
522.376	5977.34
522.743	5978.7
523.11	6084.91
523.477	6097.11
523.843	6164.46
524.21	6272.02
524.577	6263.89
524.943	6246.94
525.31	6324.9
525.676	6322.87
526.043	6408.29
526.409	6450.78
526.776	6496.43
527.142	6465.47
527.508	6534.84
527.874	6627.27
528.241	6689.87
528.607	6631.56
528.973	6749.53
529.339	6730.77
529.705	6886.7
530.071	6870.2
530.437	6858.68
530.803	6926.92
531.169	6989.75
531.535	6958.56
531.901	7011.89
532.267	7018.22
532.632	7039.91
532.998	7121.49
533.364	7203.98
533.73	7163.53
534.095	7201.72
534.461	7217.31
534.826	7315.16
535.192	7353.8
535.557	7405.55
535.923	7408.04
536.288	7450.52
536.653	7454.82
537.019	7463.63
537.384	7478.09
537.749	7547.25
538.114	7578.2
538.479	7548.37
538.845	7662.27
539.21	7580.69
539.575	7641.93
539.94	7697.07
540.305	7762.15
540.67	7826.33
541.034	7791.76
541.399	7802.38
541.764	7849.61
542.129	7936.39
542.494	7913.79
542.858	7961.25
543.223	7992.43
543.587	8012.32
543.952	8024.07
544.316	8088.02
544.681	8094.8
545.045	8167.57
545.41	8182.03
545.774	8201.24
546.138	8257.28
546.503	8271.29
546.867	8332.76
547.231	8397.84
547.595	8473.1
547.959	8463.15
548.324	8517.16
548.688	8443.72
549.052	8539.76
549.416	8571.62
549.779	8626.54
550.143	8595.13
550.507	8784.73
550.871	8723.49
551.235	8763.71
551.599	8800.77
551.962	8897.94
552.326	8880.09
552.689	8964.16
553.053	8989.92
553.417	9018.62
553.78	9105.17
554.143	9113.31
554.507	9177.48
554.87	9233.75
555.234	9316.46
555.597	9281.44
555.96	9382.68
556.323	9413.64
556.686	9505.84
557.05	9625.83
557.413	9665.61
557.776	9654.31
558.139	9708.54
558.502	9748.32
558.865	9769.11
559.228	9979.95
559.59	9981.08
559.953	10004.81
560.316	10117.57
560.679	10162.32
561.041	10254.07
561.404	10361.63
561.767	10379.94
562.129	10386.27
562.492	10576.77
562.854	10700.61
563.217	10661.74
563.579	10784.9
563.941	10905.35
564.304	10931.34
564.666	11000.71
565.028	11141.95
565.39	11146.25
565.753	11365.9
566.115	11402.28
566.477	11513.92
566.839	11601.6
567.201	11743.74
567.563	11792.78
567.925	11992.33
568.287	12080.91
568.648	12233.45
569.01	12308.25
569.372	12435.03
569.734	12486.32
570.095	12678.41
570.457	12765.41
570.819	12925.63
571.18	12960.44
571.542	13185.06
571.903	13376.47
572.265	13440.88
572.626	13591.38
572.987	13721.55
573.349	13958.83
573.71	14105.49
574.071	14251.48
574.432	14487.18
574.794	14750.22
575.155	14808.98
575.516	14907.73
575.877	15242.41
576.238	15396.76
576.599	15613.25
576.96	15843.3
577.32	16040.13
577.681	16196.96
578.042	16423.62
578.403	16649.6
578.763	16913.55
579.124	17218.63
579.485	17513.99
579.845	17811.38
580.206	17953.07
580.566	18383.34
580.927	18505.15
581.287	18896.33
581.648	19080.05
582.008	19459.25
582.368	19699.92
582.728	20099.23
583.089	20353.24
583.449	20574.7
583.809	20950.51
584.169	21223.27
584.529	21519.08
584.889	22203.58
585.249	22238.84
585.609	22528.09
585.969	23039.04
586.329	23423.89
586.688	23730.32
587.048	24027.04
587.408	24480.13
587.768	24813.68
588.127	25177.74
588.487	25547.22
588.846	26205.06
589.206	26298.62
589.565	26764.82
589.925	27261.3
590.284	27598.02
590.643	28006.59
591.003	28530.42
591.362	28986.23
591.721	29285.88
592.08	29713.67
592.44	30247.21
592.799	30744.83
593.158	30972.39
593.517	31403.34
593.876	32008.97
594.235	32302.53
594.593	32768.95
594.952	33230.41
595.311	33599.67
595.67	34069.26
596.029	34770.71
596.387	35121.44
596.746	35590.8
597.104	35801.64
597.463	36372.93
597.822	36824.89
598.18	36988.5
598.538	37507.59
598.897	38004.98
599.255	38092.88
599.613	39091.73
599.972	39205.85
600.33	39714.31
600.688	39819.62
601.046	40482.2
601.404	40898.01
601.762	41199.02
602.12	41745.89
602.478	42132.1
602.836	42388.81
603.194	42550.39
603.552	43019.98
603.91	43329.58
604.268	43784.26
604.625	44008.21
604.983	44518.7
605.341	44580.17
605.698	45179.7
606.056	45360.71
606.413	45595.51
606.771	45946.46
607.128	46260.35
607.485	46373.12
607.843	46699.44
608.2	46987.11
608.557	47389.81
608.914	47432.52
609.272	47879.97
609.629	48121.32
609.986	48402.89
610.343	48385.95
610.7	48874.07
611.057	48930.34
611.414	49109.99
611.771	49297.11
612.127	49623.2
612.484	49539.36
612.841	49909.3
613.198	49972.12
613.554	50083.75
613.911	50318.32
614.267	50523.74
614.624	50519.22
614.98	50720.35
615.337	50987.01
615.693	51077.63
616.05	51061.81
616.406	51419.54
616.762	51434.68
617.118	51504.96
617.475	51514.45
617.831	51765.97
618.187	51859.3
618.543	51898.62
618.899	52264.04
619.255	52141.55
619.611	52142.91
619.967	52324.15
620.323	52495.89
620.678	52360.53
621.034	52391.49
621.39	52482.56
621.746	52504.03
622.101	52846.84
622.457	52713.52
622.812	52751.93
623.168	52871.93
623.523	52958.93
623.879	53027.63
624.234	52859.73
624.589	53130.91
624.945	53134.75
625.3	53216.78
625.655	53198.7
626.01	53230.79
626.365	53280.05
626.72	53289.09
627.075	53243.67
627.43	53233.73
627.785	53292.26
628.14	53348.3
628.495	53387.85
628.85	53390.79
629.205	53320.96
629.559	53538.8
629.914	53300.17
630.269	53397.56
630.623	53414.06
630.978	53282.99
631.332	53503.78
631.687	53532.25
632.041	53389.43
632.396	53532.48
632.75	53386.72
633.104	53476.66
633.459	53406.15
633.813	53340.39
634.167	53337.91
634.521	53328.41
634.875	53472.82
635.229	53327.74
635.583	53325.7
635.937	53297.45
636.291	53296.32
636.645	53241.18
636.999	53277.12
637.352	53257.46
637.706	53155.09
638.06	53270.34
638.413	53248.87
638.767	53114.18
639.121	53257.46
639.474	53080.96
639.828	53146.5
640.181	53164.58
640.534	53131.81
640.888	53050
641.241	53026.73
641.594	53010.46
641.947	53179.72
642.301	53083
642.654	53087.06
643.007	53062.88
643.36	53076.67
643.713	52941.08
644.066	53053.39
644.419	52841.2
644.771	52634.65
645.124	52490.47
645.477	52437.82
645.83	52285.73
646.182	52100.88
646.535	52051.84
646.888	52119.63
647.24	51958.28
647.593	52143.13
647.945	52069.46
648.298	51964.61
648.65	51928.9
649.002	51829.24
649.355	51880.54
649.707	51901.11
650.059	52047.32
650.411	52430.58
650.763	52429.68
651.115	52804.13
651.467	52600.75
651.819	52581.32
652.171	52582.67
652.523	52530.7
652.875	52614.08
653.227	52484.82
653.578	52665.83
653.93	52579.51
654.282	52439.4
654.633	52411.15
654.985	52416.12
655.337	52603.01
655.688	52444.37
656.039	52590.81
656.391	52341.77
656.742	52403.47
657.094	52359.85
657.445	52540.41
657.796	52445.95
658.147	52417.7
658.498	52409.34
658.849	52446.86
659.2	52502.45
659.551	52269.23
659.902	52459.74
660.253	52337.25
660.604	52403.01
660.955	52210.48
661.306	52314.2
661.656	52304.03
662.007	52292.28
662.358	52309.91
662.708	52378.61
663.059	52284.37
663.409	52129.12
663.76	52422.9
664.11	52258.16
664.461	52355.56
664.811	52288.89
665.161	52318.95
665.511	52090.48
665.862	52235.56
666.212	52434.88
666.562	52389.68
666.912	52261.55
667.262	52266.3
667.612	52195.56
667.962	52205.05
668.312	52096.36
668.662	52279.18
669.011	52175
669.361	52165.05
669.711	52071.5
670.06	52147.65
670.41	52046.64
670.76	51928
671.109	52095
671.459	52035.34
671.808	52027.66
672.157	52085.06
672.507	51862.01
672.856	51872.86
673.205	51823.59
673.554	52042.57
673.904	51928
674.253	52023.59
674.602	51909.92
674.951	51408.92
675.3	51181.35
675.649	51758.74
675.998	51732.52
676.346	51735.24
676.695	51877.38
677.044	51564.39
677.393	51570.49
677.741	51690.27
678.09	51506.09
678.438	51528.01
678.787	51635.13
679.135	51571.62
679.484	51340.9
679.832	51516.94
680.181	51336.83
680.529	51472.42
680.877	51255.93
681.225	51262.25
681.573	51441.91
681.922	51180
682.27	51180.45
682.618	51171.41
682.966	50988.81
683.314	51120.79
683.661	51009.83
684.009	50950.85
684.357	50751.98
684.705	50800.57
685.053	50776.84
685.4	50794.24
685.748	50564.65
686.095	50606.23
686.443	50436.74
686.79	50398.32
687.138	50410.98
687.485	50467.7
687.832	50417.98
688.18	50349.51
688.527	50204.65
688.874	50145.67
689.221	49952.01
689.568	49972.12
689.915	49879.01
690.262	49715.18
690.609	49679.24
690.956	49582.07
691.303	49545.24
691.65	49353.38
691.997	49377.78
692.344	49201.52
692.69	49112.48
693.037	49173.27
693.383	48869.32
693.73	49012.37
694.077	48755.88
694.423	48750
694.769	48643.79
695.116	48530.57
695.462	48505.26
695.808	48373.97
696.155	48391.14
696.501	48090.81
696.847	47995.9
697.193	47795.23
697.539	48065.73
697.885	47755.68
698.231	47612.86
698.577	47503.03
698.923	47585.29
699.269	47335.35
699.614	47218.74
699.96	47024.63
700.306	47037.96
700.651	46871.41
700.997	46651.53
701.342	46731.3
701.688	46632.32
702.033	46477.97
702.379	46423.96
702.724	46331.31
703.069	46413.12
703.415	45935.61
703.76	45917.31
704.105	45951.43
704.45	45837.31
704.795	45692.68
705.14	45569.75
705.485	45564.32
705.83	45181.51
706.175	45293.82
706.52	45225.58
706.865	45026.71
707.209	44885.25
707.554	44801.41
707.899	44859.48
708.243	44735.87
708.588	44633.73
708.932	44305.15
709.277	44178.37
709.621	44350.12
709.966	44029.22
710.31	44140.41
710.654	43756.01
710.998	43871.71
711.342	44036.91
711.687	43851.83
712.031	43673.3
712.375	43607.99
712.719	43529.58
713.063	43536.13
713.407	43547.43
713.75	43414.32
714.094	43319.41
714.438	43149.92
714.782	43294.78
715.125	42974.11
715.469	43085.97
715.812	42893.21
716.156	42780.44
716.499	42683.95
716.843	42820.89
717.186	42542.48
717.53	42678.52
717.873	42521.47
718.216	42543.39
718.559	42319.21
718.902	42125.54
719.246	42232.21
719.589	42055.94
719.932	41914.03
720.275	42005.32
720.617	41912.44
720.96	41762.62
721.303	41745.89
721.646	41848.26
721.989	41547.26
722.331	41799
722.674	41506.35
723.016	41573.47
723.359	41462.29
723.701	41536.86
724.044	41303.19
724.386	40980.26
724.729	41326.24
725.071	41188.62
725.413	41062.3
725.755	40982.52
726.097	41019.13
726.439	40639.48
726.782	40809.2
727.124	40942.53
727.465	40730.78
727.807	40624.57
728.149	40626.15
728.491	40577.11
728.833	40714.96
729.175	40556.77
729.516	40438.58
729.858	40453.95
730.199	40377.12
730.541	40166.27
730.882	40333.5
731.224	40414.18
731.565	40072.72
731.906	40225.26
732.248	40131.02
732.589	40026.39
732.93	39899.39
733.271	39993.4
733.612	39909.56
733.953	39861.42
734.294	39813.52
734.635	39721.77
734.976	39831.82
735.317	39603.8
735.658	39639.28
735.999	39546.63
736.339	39522.68
736.68	39610.58
737.021	39496.24
737.361	39291.04
737.702	39676.12
738.042	39235
738.383	39382.34
738.723	39459.4
739.063	39166.53
739.404	39346.18
739.744	39140.99
740.084	38991.39
740.424	39137.15
740.764	38941.67
741.104	39119.3
741.444	38840.21
741.784	38826.65
742.124	38910.49
742.464	38775.35
742.804	38755.69
743.143	38649.7
743.483	38724.05
743.823	38425.98
744.162	38404.29
744.502	38569.25
744.841	38440.44
745.181	38647.22
745.52	38262.6
745.86	38400.9
746.199	38262.37
746.538	38331.97
746.877	38383.72
747.216	38298.07
747.556	38128.59
747.895	38160.68
748.234	38095.37
748.573	37890.18
748.911	38019.44
749.25	37928.82
749.589	37783.06
749.928	37910.29
750.267	37889.27
750.605	37678.2
750.944	37716.85
751.283	37598.43
751.621	37572.44
751.96	37436.18
752.298	37256.52
752.636	37391.88
752.975	37289.74
753.313	37238.67
753.651	37215.62
753.989	37142.85
754.327	37076.19
754.666	36837.55
755.004	36854.27
755.342	36828.74
755.679	36846.36
756.017	36646.14
756.355	36736.99
756.693	36464.9
757.031	36676.65
757.368	36387.16
757.706	36225.36
758.044	36031.69
758.381	36282.99
758.719	36100.17
759.056	36092.71
759.394	35888.42
