Data from orange_diffuse_book_FLMS001491_00008.txt Node
Date: Wed Feb 08 15:29:03 GMT 2017
User: dcchb
Spectrometer: FLMS00149
Trigger mode: 0
Integration Time (sec): 2.000000E-2
Scans to average: 10
Electric dark correction enabled: true
Nonlinearity correction enabled: false
Boxcar width: 0
XAxis mode: Wavelengths
Number of Pixels in Spectrum: 2048
>>>>>Begin Spectral Data<<<<<
341.393	-15.48
341.776	-15.48
342.16	-15.48
342.543	-65.87
342.927	-57.06
343.31	-76.04
343.693	-76.95
344.077	-74.01
344.46	-56.83
344.843	-47.8
345.226	-41.47
345.61	-40.34
345.993	-15.71
346.376	12.09
346.759	18.64
347.142	23.62
347.525	51.86
347.908	62.48
348.291	78.53
348.674	78.08
349.057	103.84
349.44	149.71
349.823	137.51
350.206	149.49
350.588	192.2
350.971	228.36
351.354	234.01
351.737	240.11
352.119	272.2
352.502	276.72
352.884	282.59
353.267	296.15
353.65	309.03
354.032	308.81
354.414	314.91
354.797	325.08
355.179	327.79
355.562	341.57
355.944	326.21
356.326	352.42
356.709	353.1
357.091	343.83
357.473	354
357.855	341.35
358.238	345.87
358.62	351.52
359.002	346.54
359.384	357.84
359.766	353.78
360.148	356.49
360.53	336.15
360.912	346.32
361.294	338.86
361.676	335.7
362.057	344.06
362.439	345.64
362.821	363.49
363.203	359.88
363.584	348.35
363.966	330.27
364.348	330.95
364.729	322.82
365.111	313.33
365.493	333.89
365.874	330.5
366.256	346.09
366.637	334.57
367.019	303.38
367.4	327.79
367.781	322.36
368.163	337.05
368.544	300.44
368.925	312.65
369.306	327.34
369.688	319.88
370.069	337.05
370.45	316.71
370.831	320.78
371.212	337.73
371.593	328.47
371.974	330.27
372.355	320.56
372.736	332.53
373.117	338.18
373.498	348.13
373.879	349.03
374.26	316.26
374.641	321.91
375.021	332.31
375.402	324.85
375.783	335.92
376.163	339.31
376.544	348.58
376.925	330.95
377.305	325.08
377.686	344.06
378.066	330.27
378.447	323.04
378.827	335.92
379.208	343.38
379.588	346.77
379.968	337.05
380.349	360.56
380.729	344.74
381.109	360.56
381.489	348.13
381.87	351.97
382.25	368.46
382.63	376.6
383.01	356.94
383.39	338.86
383.77	371.4
384.15	352.42
384.53	361.23
384.91	366.21
385.29	358.75
385.67	350.84
386.049	353.32
386.429	372.53
386.809	366.21
387.189	357.39
387.568	373.66
387.948	377.96
388.328	397.39
388.707	359.2
389.087	379.76
389.466	383.15
389.846	389.26
390.225	388.58
390.605	376.15
390.984	384.96
391.363	373.21
391.743	400.1
392.122	394.23
392.501	403.04
392.881	368.01
393.26	394.68
393.639	387.67
394.018	404.85
394.397	405.53
394.776	396.94
395.155	397.16
395.534	391.29
395.913	410.5
396.292	402.14
396.671	383.83
397.05	421.12
397.429	410.72
397.808	407.79
398.186	389.26
398.565	429.03
398.944	416.37
399.323	445.3
399.701	425.64
400.08	404.85
400.458	421.8
400.837	435.13
401.215	429.25
401.594	437.84
401.972	422.02
402.351	425.86
402.729	418.86
403.107	449.37
403.486	425.64
403.864	440.78
404.242	441.46
404.62	451.85
404.999	447.56
405.377	452.08
405.755	453.21
406.133	463.6
406.511	481.46
406.889	450.72
407.267	463.6
407.645	464.51
408.023	453.43
408.401	487.33
408.779	477.61
409.156	459.08
409.534	511.96
409.912	477.39
410.29	487.56
410.667	503.15
411.045	492.53
411.422	497.73
411.8	475.58
412.178	501.79
412.555	528.01
412.933	517.39
413.31	517.84
413.687	514
414.065	516.03
414.442	514.9
414.819	523.26
415.197	522.13
415.574	508.8
415.951	549.7
416.328	525.07
416.705	542.02
417.082	550.83
417.46	543.38
417.837	542.02
418.214	567.78
418.591	561.23
418.967	557.84
419.344	555.13
419.721	570.95
420.098	579.31
420.475	579.53
420.852	575.24
421.228	579.53
421.605	611.17
421.982	601.91
422.358	600.1
422.735	603.03
423.111	614.33
423.488	619.31
423.864	606.2
424.241	613.88
424.617	613.88
424.994	612.53
425.37	628.35
425.746	625.18
426.123	640.77
426.499	609.81
426.875	655.01
427.251	663.37
427.627	654.79
428.003	655.91
428.379	679.87
428.756	668.34
429.132	675.8
429.507	687.55
429.883	668.8
430.259	711.73
430.635	713.77
431.011	708.57
431.387	740.88
431.763	702.02
432.138	715.8
432.514	745.18
432.89	751.51
433.265	726.65
433.641	735.23
434.016	732.98
434.392	749.92
434.767	772.75
435.143	761
435.518	783.6
435.894	767.1
436.269	776.36
436.644	804.61
437.02	815.68
437.395	808
437.77	790.83
438.145	835.57
438.52	848
438.895	844.61
439.271	850.03
439.646	833.09
440.021	859.98
440.395	838.28
440.77	843.93
441.145	855.23
441.52	877.15
441.895	865.85
442.27	868.11
442.645	864.27
443.019	892.97
443.394	875.8
443.769	900.88
444.143	893.2
444.518	924.61
444.892	912.63
445.267	903.59
445.641	925.51
446.016	915.34
446.39	916.47
446.764	913.99
447.139	907.89
447.513	911.05
447.887	941.78
448.262	941.33
448.636	946.75
449.01	933.65
449.384	972.74
449.758	929.58
450.132	957.83
450.506	983.59
450.88	973.65
451.254	976.13
451.628	975.68
452.002	991.95
452.376	1020.65
452.75	1013.19
453.123	1017.71
453.497	1029.46
453.871	1050.25
454.244	1052.51
454.618	1056.36
454.992	1073.53
455.365	1049.58
455.739	1084.6
456.112	1089.35
456.486	1080.08
456.859	1095.45
457.232	1105.39
457.606	1117.82
457.979	1112.63
458.352	1123.25
458.725	1129.35
459.099	1137.71
459.472	1180.65
459.845	1191.95
460.218	1165.28
460.591	1208.67
460.964	1185.84
461.337	1226.07
461.71	1227.65
462.083	1237.82
462.456	1235.11
462.829	1246.18
463.201	1266.97
463.574	1266.52
463.947	1284.15
464.32	1286.63
464.692	1312.62
465.065	1302.45
465.438	1321.66
465.81	1370.02
466.183	1353.98
466.555	1393.52
466.928	1347.87
467.3	1384.03
467.672	1395.56
468.045	1434.65
468.417	1434.88
468.789	1392.39
469.161	1454.99
469.534	1463.58
469.906	1466.52
470.278	1510.36
470.65	1506.74
471.022	1527.53
471.394	1548.55
471.766	1579.73
472.138	1564.59
472.51	1592.84
472.882	1611.6
473.253	1646.17
473.625	1657.02
473.997	1664.48
474.369	1685.27
474.74	1717.81
475.112	1736.34
475.484	1769.11
475.855	1781.76
476.227	1774.3
476.598	1802.1
476.97	1843
477.341	1859.73
477.713	1882.1
478.084	1917.58
478.455	1949.89
478.827	1941.3
479.198	1995.77
479.569	2018.14
479.94	2060.62
480.311	2070.34
480.682	2124.58
481.053	2127.06
481.424	2194.41
481.795	2209.55
482.166	2222.65
482.537	2286.61
482.908	2325.48
483.279	2323.44
483.65	2339.49
484.021	2374.74
484.391	2454.51
484.762	2445.02
485.133	2486.38
485.503	2535.41
485.874	2582.87
486.244	2571.57
486.615	2620.16
486.985	2689.99
487.356	2684.56
487.726	2733.83
488.097	2755.97
488.467	2823.32
488.837	2869.19
489.207	2900.15
489.578	2911.22
489.948	2986.02
490.318	3025.12
490.688	3019.92
491.058	3102.4
491.428	3089.98
491.798	3153.25
492.168	3231.89
492.538	3212.46
492.908	3280.48
493.278	3325
493.648	3333.13
494.017	3396.41
494.387	3414.71
494.757	3440.02
495.126	3508.95
495.496	3470.98
495.866	3532.68
496.235	3593.46
496.605	3684.76
496.974	3685.89
497.344	3711.88
497.713	3739.68
498.082	3736.96
498.452	3819.22
498.821	3814.7
499.19	3811.54
499.559	3881.59
499.928	3916.17
500.298	3979.67
500.667	3989.84
501.036	4018.09
501.405	4062.61
501.774	4098.76
502.143	4135.6
502.512	4163.62
502.88	4174.92
503.249	4189.16
503.618	4213.34
503.987	4275.93
504.356	4317.97
504.724	4329.72
505.093	4361.81
505.462	4350.06
505.83	4405.42
506.199	4508.24
506.567	4514.34
506.936	4480.67
507.304	4556.15
507.672	4579.65
508.041	4611.97
508.409	4626.21
508.777	4704.62
509.145	4730.38
509.514	4747.11
509.882	4782.13
510.25	4806.54
510.618	4877.72
510.986	4892.19
511.354	4898.52
511.722	4983.71
512.09	4939.64
512.458	5024.84
512.826	5043.14
513.193	5073.2
513.561	5164.5
513.929	5180.99
514.297	5178.96
514.664	5262.35
515.032	5261.44
515.4	5324.04
515.767	5322.91
516.135	5349.58
516.502	5357.94
516.869	5421.44
517.237	5455.11
517.604	5443.59
517.972	5548.89
518.339	5515
518.706	5542.79
519.073	5677.7
519.44	5657.82
519.808	5715.67
520.175	5654.88
520.542	5797.47
520.909	5815.1
521.276	5837.7
521.643	5886.29
522.009	5885.83
522.376	5952.27
522.743	5984.59
523.11	6053.51
523.477	6141.19
523.843	6143
524.21	6244.24
524.577	6285.37
524.943	6256.9
525.31	6318.14
525.676	6410.79
526.043	6430.9
526.409	6414.41
526.776	6568.53
527.142	6550.22
527.508	6549.77
527.874	6626.83
528.241	6688.3
528.607	6639.26
528.973	6730.56
529.339	6739.82
529.705	6814.4
530.071	6903.43
530.437	6949.99
530.803	6987.05
531.169	6985.92
531.535	6936.2
531.901	6954.05
532.267	7005.8
532.632	7096.65
532.998	7136.87
533.364	7202.18
533.73	7175.97
534.095	7262.07
534.461	7246.25
534.826	7290.99
535.192	7281.5
535.557	7399.24
535.923	7413.03
536.288	7402.86
536.653	7466.36
537.019	7476.98
537.384	7478.11
537.749	7573.25
538.114	7578.22
538.479	7604.66
538.845	7660.25
539.21	7642.4
539.575	7641.95
539.94	7763.75
540.305	7753.36
540.67	7833.35
541.034	7740.93
541.399	7824.54
541.764	7875.16
542.129	7888.95
542.494	7962.84
542.858	7980.92
543.223	8000.13
543.587	8025.21
543.952	8126.23
544.316	8063.18
544.681	8064.08
545.045	8208.71
545.41	8176.62
545.774	8207.81
546.138	8343.17
546.503	8271.31
546.867	8344.3
547.231	8401.93
547.595	8409.84
547.959	8431.76
548.324	8469.04
548.688	8514.24
549.052	8502.04
549.416	8530.51
549.779	8634.46
550.143	8666.55
550.507	8747.23
550.871	8765.31
551.235	8834.91
551.599	8853.89
551.962	8858.19
552.326	8836.04
552.689	8984.96
553.053	9028.12
553.417	9044.17
553.78	9147.22
554.143	9116.26
554.507	9229.25
554.87	9219.08
555.234	9367.32
555.597	9325.07
555.96	9364.84
556.323	9447.55
556.686	9510.15
557.05	9586.3
557.413	9596.02
557.776	9633.98
558.139	9758.27
558.502	9827.65
558.865	9834.43
559.228	9898.16
559.59	9939.06
559.953	10069.45
560.316	10160.75
560.679	10244.14
561.041	10213.86
561.404	10278.26
561.767	10404.13
562.129	10429.44
562.492	10544.47
562.854	10645.48
563.217	10655.65
563.579	10719.61
563.941	10884.35
564.304	10900.62
564.666	11058.35
565.028	11097
565.39	11245.47
565.753	11318.91
566.115	11395.07
566.477	11470.09
566.839	11688.39
567.201	11709.64
567.563	11821.27
567.925	12012.68
568.287	12068.27
568.648	12108.5
569.01	12300.35
569.372	12459.22
569.734	12459.22
570.095	12669.38
570.457	12737.63
570.819	12881.81
571.18	13020.34
571.542	13201.12
571.903	13306.88
572.265	13512.75
572.626	13591.62
572.987	13729.02
573.349	13992.29
573.71	14060.31
574.071	14263.24
574.432	14510.24
574.794	14680.86
575.155	14865.48
575.516	14970.34
575.877	15211.92
576.238	15358.81
576.599	15647.61
576.96	15841.5
577.32	15944.33
577.681	16229.06
578.042	16472
578.403	16695.04
578.763	16826.11
579.124	17202.82
579.485	17527.79
579.845	17801.68
580.206	18028.11
580.566	18308.56
580.927	18455.9
581.287	18859.5
581.648	19144.24
582.008	19486.38
582.368	19592.14
582.728	19989.42
583.089	20229.64
583.449	20527.26
583.809	20906.46
584.169	21288.14
584.529	21549.38
584.889	22077.05
585.249	22253.54
585.609	22543.25
585.969	23114.76
586.329	23357.92
586.688	23844.23
587.048	24114.06
587.408	24486.7
587.768	24954.94
588.127	25152.22
588.487	25604.86
588.846	26050.05
589.206	26442.36
589.565	26834.89
589.925	27341.99
590.284	27519.16
590.643	27997.34
591.003	28562.98
591.362	28971.33
591.721	29237.54
592.08	29638.43
592.44	30290.84
592.799	30726.76
593.158	30997.94
593.517	31523.13
593.876	31936.22
594.235	32296.66
594.593	32835.41
594.952	33372.12
595.311	33664.76
595.67	34116.28
596.029	34752.87
596.387	35055.69
596.746	35598.5
597.104	35783.13
597.463	36313.28
597.822	36805.02
598.18	37178.34
598.538	37387.83
598.897	38104.87
599.255	38223.97
599.613	39077.73
599.972	39151.63
600.33	39715.68
600.688	39936.46
601.046	40539.39
601.404	40937.79
601.762	41215.53
602.12	41756.76
602.478	41961.04
602.836	42500.01
603.194	42565.55
603.552	42969.6
603.91	43245.3
604.268	43697.5
604.625	43897.26
604.983	44408.44
605.341	44682.78
605.698	45198.02
606.056	45374.97
606.413	45668.52
606.771	46021.73
607.128	46346.92
607.485	46421.72
607.843	46752.56
608.2	47143.73
608.557	47449.03
608.914	47489.49
609.272	47906.88
609.629	48066.87
609.986	48472.51
610.343	48431.16
610.7	48866.85
611.057	48920.41
611.414	49106.17
611.771	49349.1
612.127	49634.97
612.484	49601.52
612.841	49943.66
613.198	49983.66
613.554	50107.95
613.911	50472.46
614.267	50535.06
614.624	50618.9
614.98	50761.26
615.337	51017.98
615.693	51099.56
616.05	51172.78
616.406	51462.94
616.762	51391.76
617.118	51399.44
617.475	51552.88
617.831	51761.69
618.187	51833.55
618.543	51984.06
618.899	52182.92
619.255	52085.98
619.611	52158.52
619.967	52411.62
620.323	52478.06
620.678	52329.58
621.034	52507.66
621.39	52503.59
621.746	52440.54
622.101	52926.86
622.457	52636.92
622.812	52745.17
623.168	52973.18
623.523	52873.3
623.879	53109.23
624.234	52904.03
624.589	53019.28
624.945	53013.86
625.3	53176.79
625.655	53192.39
626.01	53245.27
626.365	53268.99
626.72	53327.75
627.075	53225.83
627.43	53216.11
627.785	53315.55
628.14	53367.75
628.495	53439.16
628.85	53418.82
629.205	53412.04
629.559	53527.29
629.914	53337.47
630.269	53476.45
630.623	53334.08
630.978	53366.39
631.332	53414.53
631.687	53510.57
632.041	53372.49
632.396	53510.8
632.75	53454.75
633.104	53559.38
633.459	53403.68
633.813	53353.06
634.167	53306.51
634.521	53341.99
634.875	53368.43
635.229	53378.82
635.583	53312.38
635.937	53364.36
636.291	53266.51
636.645	53281.42
636.999	53304.7
637.352	53298.82
637.706	53111.26
638.06	53278.71
638.413	53257.47
638.767	53213.86
639.121	53248.2
639.474	52992.17
639.828	53080.3
640.181	53191.26
640.534	53087.98
640.888	53163.91
641.241	53006.4
641.594	53057.02
641.947	53141.31
642.301	53077.14
642.654	53060.64
643.007	53044.37
643.36	53059.51
643.713	52996.01
644.066	53097.02
644.419	52939.29
644.771	52703.59
645.124	52491.39
645.477	52446.64
645.83	52255.01
646.182	52128.01
646.535	52068.57
646.888	52192.19
647.24	51904.51
647.593	52180.44
647.945	52044.17
648.298	51917.62
648.65	51912.19
649.002	51758.98
649.355	51878.07
649.707	51986.77
650.059	52063.83
650.411	52485.74
650.763	52433.54
651.115	52784.04
651.467	52598.73
651.819	52655.9
652.171	52529.13
652.523	52519.64
652.875	52543.14
653.227	52466.76
653.578	52664.49
653.93	52534.1
654.282	52424.05
654.633	52405.74
654.985	52402.8
655.337	52414.1
655.688	52473.31
656.039	52589.69
656.391	52379.75
656.742	52381.33
657.094	52466.53
657.445	52520.54
657.796	52503.14
658.147	52409.58
658.498	52382.01
658.849	52416.36
659.2	52306.31
659.551	52300.88
659.902	52519.18
660.253	52332.97
660.604	52429.02
660.955	52285.07
661.306	52469.24
661.656	52361
662.007	52347.66
662.358	52354.89
662.708	52316.93
663.059	52296.82
663.409	52158.74
663.76	52386.53
664.11	52262.47
664.461	52380.2
664.811	52374.33
665.161	52281.22
665.511	52222.02
665.862	52282.35
666.212	52363.03
666.562	52336.14
666.912	52271.73
667.262	52184.05
667.612	52231.06
667.962	52174.33
668.312	52170.49
668.662	52355.12
669.011	52254.56
669.361	52126.2
669.711	52117.16
670.06	52102.47
670.41	52045.3
670.76	52001.91
671.109	52128.23
671.459	51980.89
671.808	51994.9
672.157	52089.36
672.507	51820.9
672.856	51907
673.205	51950.16
673.554	51952.65
673.904	51804.63
674.253	52000.55
674.602	51800.78
674.951	51392.89
675.3	51222.72
675.649	51666.55
675.998	51754.46
676.346	51672.43
676.695	51808.47
677.044	51536.16
677.393	51678.75
677.741	51687.79
678.09	51592.2
678.438	51462.04
678.787	51555.14
679.135	51572.54
679.484	51367.35
679.832	51511.3
680.181	51311.53
680.529	51425.2
680.877	51289.39
681.225	51258.43
681.573	51385.43
681.922	51220.91
682.27	51036.29
682.618	51156.96
682.966	51110.86
683.314	51105.44
683.661	50973.01
684.009	50838.32
684.357	50665.67
684.705	50737.08
685.053	50682.4
685.4	50738.44
685.748	50577.99
686.095	50542.96
686.443	50476.07
686.79	50333.25
687.138	50459.35
687.485	50498.45
687.832	50346.36
688.18	50340.71
688.527	50054.16
688.874	50036.76
689.221	50013.94
689.568	49884.9
689.915	49785.47
690.262	49784.11
690.609	49759.71
690.956	49604.46
691.303	49610.33
691.65	49362.2
691.997	49381.64
692.344	49126.28
692.69	49119.05
693.037	49123.57
693.383	48813.97
693.73	48944.81
694.077	48704.82
694.423	48716.57
694.769	48704.14
695.116	48651.94
695.462	48489.01
695.808	48352.29
696.155	48381.89
696.501	48004.5
696.847	48126.53
697.193	47813.55
697.539	47990.04
697.885	47560.9
698.231	47578.75
698.577	47521.58
698.923	47461.01
699.269	47218.31
699.614	47166.56
699.96	47004.75
700.306	47183.73
700.651	46871.87
700.997	46746.23
701.342	46658.32
701.688	46623.07
702.033	46572
702.379	46513.24
702.724	46384.2
703.069	46449.51
703.415	45953.71
703.76	45941.5
704.105	46074.16
704.45	45850.21
704.795	45683.88
705.14	45612.25
705.485	45555.53
705.83	45308.3
706.175	45341.29
706.52	45156.67
706.865	45068.31
707.209	45001.42
707.554	44895.66
707.899	44968.42
708.243	44561.88
708.588	44541.99
708.932	44331.15
709.277	44248.89
709.621	44337.48
709.966	44057.49
710.31	44285.05
710.654	43837.83
710.998	43815.23
711.342	43876.93
711.687	43830.82
712.031	43587.89
712.375	43446.43
712.719	43498.86
713.063	43440.55
713.407	43671.96
713.75	43367.11
714.094	43307.45
714.438	43022.48
714.782	43168.47
715.125	43006.44
715.469	42879.66
715.812	42878.53
716.156	42711.76
716.499	42645.55
716.843	42692.32
717.186	42443.29
717.53	42657.52
717.873	42638.31
718.216	42469.5
718.559	42269.06
718.902	42204.43
719.246	42186.12
719.589	42081.94
719.932	41951.1
720.275	41839.01
720.617	41912.46
720.96	41765.12
721.303	41801.5
721.646	41748.17
721.989	41541.85
722.331	41669.98
722.674	41465.01
723.016	41528.29
723.359	41416.88
723.701	41569.42
724.044	41215.07
724.386	41013.05
724.729	41228.18
725.071	41200.39
725.413	41169.65
725.755	41098.02
726.097	40954.52
726.439	40839.49
726.782	40839.49
727.124	40975.53
727.465	40806.72
727.807	40723.79
728.149	40650.12
728.491	40569.89
728.833	40546.17
729.175	40432.95
729.516	40432.72
729.858	40379.39
730.199	40524.25
730.541	40448.54
730.882	40287.19
731.224	40341.88
731.565	40093.3
731.906	40161.77
732.248	40176.01
732.589	40066.4
732.93	39853.53
733.271	39954.54
733.612	40072.96
733.953	39910.02
734.294	39774.21
734.635	39749.58
734.976	39835.45
735.317	39571.73
735.658	39710.03
735.999	39606.98
736.339	39468.23
736.68	39592.74
737.021	39522.69
737.361	39302.81
737.702	39495.8
738.042	39381
738.383	39338.51
738.723	39316.14
739.063	39122.47
739.404	39282.24
739.744	39118.41
740.084	39123.15
740.424	39079.54
740.764	39070.5
741.104	39024.62
741.444	38932.2
741.784	38744.18
742.124	38934.68
742.464	38822.82
742.804	38667.34
743.143	38724.97
743.483	38715.93
743.823	38448.59
744.162	38415.83
744.502	38683.84
744.841	38366.34
745.181	38553.68
745.52	38469.16
745.86	38322.95
746.199	38381.02
746.538	38228.03
746.877	38437.07
747.216	38216.51
747.556	38208.83
747.895	38154.59
748.234	37875.5
748.573	37965.89
748.911	37986.68
749.25	38018.32
749.589	37840.7
749.928	37782.4
750.267	37749.85
750.605	37721.38
750.944	37708.05
751.283	37674.38
751.621	37574.04
751.96	37433.03
752.298	37527.04
752.636	37429.41
752.975	37245.01
753.313	37022.64
753.651	37411.33
753.989	37127.72
754.327	36989.87
754.666	36800.73
755.004	36889.54
755.342	36943.1
755.679	36964.11
756.017	36604.35
756.355	36612.48
756.693	36641.64
757.031	36592.37
757.368	36395.77
757.706	36366.84
758.044	36147.64
758.381	36144.25
758.719	36116.9
759.056	36063.12
759.394	35947.19
