Data from orange_diffuse_book_FLMS001491_00017.txt Node
Date: Wed Feb 08 15:29:12 GMT 2017
User: dcchb
Spectrometer: FLMS00149
Trigger mode: 0
Integration Time (sec): 2.000000E-2
Scans to average: 10
Electric dark correction enabled: true
Nonlinearity correction enabled: false
Boxcar width: 0
XAxis mode: Wavelengths
Number of Pixels in Spectrum: 2048
>>>>>Begin Spectral Data<<<<<
341.393	-11.69
341.776	-11.69
342.16	-11.69
342.543	-53.28
342.927	-63.9
343.31	-76.78
343.693	-81.98
344.077	-65.93
344.46	-51.02
344.843	-52.37
345.226	-50.11
345.61	-15.31
345.993	4.12
346.376	-12.6
346.759	8.87
347.142	12.94
347.525	55.87
347.908	73.05
348.291	44.8
348.674	101.07
349.057	105.36
349.44	146.27
349.823	146.72
350.206	182.88
350.588	220.62
350.971	231.01
351.354	232.37
351.737	255.42
352.119	254.74
352.502	277.79
352.884	279.37
353.267	293.16
353.65	313.27
354.032	298.35
354.414	324.12
354.797	344.91
355.179	327.51
355.562	332.03
355.944	312.59
356.326	345.36
356.709	334.28
357.091	352.14
357.473	363.21
357.855	354.17
358.238	367.5
358.62	341.52
359.002	363.21
359.384	351.91
359.766	349.2
360.148	322.31
360.53	358.69
360.912	359.6
361.294	345.81
361.676	350.33
362.057	332.03
362.439	339.03
362.821	321.63
363.203	357.11
363.584	331.12
363.966	333.38
364.348	350.1
364.729	322.99
365.111	312.82
365.493	345.58
365.874	340.61
366.256	347.62
366.637	344
367.019	323.66
367.4	315.53
367.781	338.35
368.163	316.88
368.544	329.31
368.925	328.64
369.306	339.48
369.688	327.73
370.069	323.89
370.45	319.6
370.831	339.93
371.212	334.74
371.593	332.93
371.974	343.32
372.355	327.73
372.736	301.29
373.117	324.57
373.498	331.57
373.879	323.66
374.26	331.35
374.641	343.1
375.021	343.78
375.402	324.34
375.783	334.06
376.163	337.9
376.544	332.25
376.925	341.52
377.305	339.26
377.686	333.61
378.066	348.3
378.447	342.87
378.827	339.03
379.208	344
379.588	347.62
379.968	351.01
380.349	333.38
380.729	344.68
381.109	336.32
381.489	352.36
381.87	338.35
382.25	361.85
382.63	355.75
383.01	333.38
383.39	358.69
383.77	351.01
384.15	357.11
384.53	358.47
384.91	348.3
385.29	347.84
385.67	362.53
386.049	364.34
386.429	376.09
386.809	371.12
387.189	377
387.568	360.05
387.948	366.83
388.328	355.98
388.707	369.09
389.087	366.37
389.466	384
389.846	384.68
390.225	377
390.605	372.7
390.984	374.06
391.363	361.18
391.743	393.27
392.122	382.19
392.501	387.62
392.881	389.88
393.26	400.05
393.639	375.41
394.018	414.51
394.397	377.67
394.776	380.84
395.155	399.59
395.534	412.7
395.913	378.58
396.292	405.24
396.671	403.44
397.05	409.99
397.429	404.11
397.808	398.24
398.186	412.48
398.565	414.28
398.944	413.6
399.323	411.12
399.701	406.83
400.08	404.79
400.458	423.1
400.837	411.57
401.215	423.77
401.594	414.28
401.972	416.77
402.351	422.87
402.729	426.49
403.107	431.23
403.486	411.8
403.864	430.55
404.242	428.52
404.62	449.99
404.999	425.13
405.377	430.1
405.755	421.06
406.133	469.87
406.511	448.63
406.889	449.08
407.267	452.02
407.645	457.45
408.023	450.44
408.401	465.35
408.779	453.6
409.156	455.41
409.534	450.67
409.912	461.29
410.29	484.34
410.667	498.57
411.045	474.17
411.422	475.52
411.8	490.67
412.178	498.12
412.555	472.36
412.933	471.23
413.31	487.73
413.687	496.09
414.065	502.64
414.442	495.86
414.819	499.48
415.197	511.68
415.574	514.17
415.951	525.47
416.328	529.31
416.705	527.73
417.082	538.57
417.46	528.4
417.837	520.95
418.214	523.88
418.591	556.88
418.967	538.35
419.344	554.84
419.721	545.35
420.098	566.6
420.475	559.14
420.852	539.7
421.228	562.3
421.605	588.52
421.982	552.13
422.358	565.24
422.735	552.81
423.111	563.43
423.488	597.1
423.864	581.96
424.241	608.63
424.617	597.55
424.994	598.46
425.37	616.09
425.746	607.5
426.123	589.87
426.499	606.37
426.875	616.09
427.251	610.44
427.627	617.67
428.003	632.13
428.379	637.55
428.756	636.65
429.132	656.99
429.507	652.92
429.883	655.86
430.259	648.4
430.635	652.47
431.011	674.84
431.387	692.92
431.763	668.29
432.138	686.82
432.514	700.15
432.89	681.62
433.265	704.44
433.641	699.02
434.016	728.62
434.392	732.69
434.767	718.91
435.143	741.73
435.518	718.46
435.894	738.57
436.269	739.25
436.644	749.87
437.02	775.18
437.395	768.85
437.77	771.56
438.145	774.5
438.52	789.19
438.895	791.45
439.271	810.43
439.646	775.86
440.021	789.19
440.395	806.14
440.77	781.96
441.145	802.97
441.52	822.18
441.895	821.96
442.27	827.15
442.645	812.01
443.019	843.88
443.394	823.99
443.769	840.49
444.143	848.62
444.518	852.69
444.892	829.64
445.267	843.88
445.641	854.05
446.016	862.86
446.39	901.5
446.764	866.02
447.139	865.12
447.513	867.6
447.887	877.1
448.262	869.64
448.636	895.63
449.01	878.9
449.384	904.21
449.758	908.28
450.132	917.32
450.506	896.53
450.88	907.38
451.254	893.37
451.628	906.25
452.002	945.12
452.376	938.56
452.75	945.34
453.123	938.34
453.497	971.56
453.871	960.94
454.244	956.64
454.618	966.13
454.992	998.22
455.365	969.97
455.739	1005.68
456.112	997.32
456.486	996.64
456.859	1040.93
457.232	1028.28
457.606	1009.07
457.979	1034.61
458.352	1045
458.725	1094.72
459.099	1064.89
459.472	1066.24
459.845	1096.3
460.218	1069.18
460.591	1102.4
460.964	1109.86
461.337	1114.6
461.71	1130.87
462.083	1148.27
462.456	1141.04
462.829	1173.36
463.201	1153.25
463.574	1165.45
463.947	1187.14
464.32	1181.49
464.692	1194.6
465.065	1195.96
465.438	1219.23
465.81	1233.7
466.183	1234.83
466.555	1265.11
466.928	1258.1
467.3	1278.67
467.672	1306.69
468.045	1290.19
468.417	1286.58
468.789	1296.29
469.161	1307.14
469.534	1336.74
469.906	1351.43
470.278	1337.87
470.65	1392.79
471.022	1409.74
471.394	1427.36
471.766	1414.26
472.138	1433.47
472.51	1466.91
472.882	1476.4
473.253	1464.2
473.625	1475.95
473.997	1521.15
474.369	1505.1
474.74	1548.26
475.112	1560.24
475.484	1576.51
475.855	1601.37
476.227	1608.6
476.598	1661.71
476.97	1662.84
477.341	1701.48
477.713	1717.53
478.084	1710.29
478.455	1765.89
478.827	1781.25
479.198	1831.42
479.569	1807.47
479.94	1864.19
480.311	1872.32
480.682	1894.02
481.053	1940.12
481.424	1992.32
481.795	2003.17
482.166	2007.69
482.537	2027.35
482.908	2076.39
483.279	2100.57
483.65	2110.28
484.021	2172.43
484.391	2193.9
484.762	2193.67
485.133	2217.4
485.503	2246.1
485.874	2321.13
486.244	2320
486.615	2361.8
486.985	2402.25
487.356	2456.04
487.726	2464.62
488.097	2510.5
488.467	2524.51
488.837	2574.68
489.207	2620.1
489.578	2632.53
489.948	2681.34
490.318	2707.1
490.688	2743.71
491.058	2767.89
491.428	2798.4
491.798	2839.53
492.168	2877.04
492.538	2922.69
492.908	2943.48
493.278	2974.22
493.648	3028
494.017	3044.95
494.387	3037.72
494.757	3101.9
495.126	3150.48
495.496	3156.58
495.866	3190.26
496.235	3238.16
496.605	3227.77
496.974	3307.31
497.344	3362
497.713	3366.3
498.082	3395.22
498.452	3419.85
498.821	3435.9
499.19	3456.01
499.559	3521.32
499.928	3503.24
500.298	3578.04
500.667	3598.15
501.036	3614.42
501.405	3645.16
501.774	3668.21
502.143	3707.76
502.512	3741.2
502.88	3771.93
503.249	3817.13
503.618	3855.77
503.987	3889.45
504.356	3848.99
504.724	3919.28
505.093	3961.99
505.462	3982.32
505.83	3951.37
506.199	3988.88
506.567	4084.02
506.936	4074.53
507.304	4152.94
507.672	4179.16
508.041	4113.85
508.409	4224.13
508.777	4236.78
509.145	4274.75
509.514	4295.76
509.882	4335.31
510.25	4401.97
510.618	4363.11
510.986	4395.2
511.354	4444.69
511.722	4457.11
512.09	4508.86
512.458	4545.7
512.826	4552.48
513.193	4559.26
513.561	4555.87
513.929	4604.68
514.297	4688.97
514.664	4727.16
515.032	4727.84
515.4	4761.06
515.767	4822.75
516.135	4794.51
516.502	4821.85
516.869	4898.68
517.237	4932.36
517.604	4955.18
517.972	5029.98
518.339	5042.86
518.706	5053.03
519.073	5036.53
519.44	5060.04
519.808	5147.49
520.175	5189.3
520.542	5224.1
520.909	5195.85
521.276	5255.29
521.643	5293.7
522.009	5366.92
522.376	5383.87
522.743	5423.19
523.11	5433.81
523.477	5499.35
523.843	5500.25
524.21	5630.87
524.577	5674.71
524.943	5666.35
525.31	5709.28
525.676	5734.59
526.043	5782.73
526.409	5837.42
526.776	5861.82
527.142	5865.89
527.508	5932.1
527.874	5966.91
528.241	6000.8
528.607	5979.11
528.973	6017.07
529.339	6088.94
529.705	6112.44
530.071	6127.13
530.437	6154.7
530.803	6211.64
531.169	6228.14
531.535	6294.81
531.901	6231.98
532.267	6273.34
532.632	6317.18
532.998	6424.97
533.364	6379.32
533.73	6386.56
534.095	6452.99
534.461	6476.04
534.826	6508.59
535.192	6546.33
535.557	6556.04
535.923	6584.97
536.288	6650.96
536.653	6675.14
537.019	6626.77
537.384	6682.37
537.749	6725.3
538.114	6701.58
538.479	6792.42
538.845	6777.51
539.21	6876.94
539.575	6858.18
539.94	6855.92
540.305	6916.94
540.67	6916.26
541.034	6894.79
541.399	7032.41
541.764	7009.82
542.129	7075.12
542.494	7049.81
542.858	7159.64
543.223	7163.94
543.587	7139.3
543.952	7197.61
544.316	7246.65
544.681	7294.55
545.045	7238.06
545.41	7289.58
545.774	7353.08
546.138	7370.48
546.503	7396.7
546.867	7421.56
547.231	7524.83
547.595	7533.19
547.959	7552.17
548.324	7557.6
548.688	7642.57
549.052	7678.5
549.416	7695.45
549.779	7697.93
550.143	7746.75
550.507	7859.96
550.871	7882.56
551.235	7894.76
551.599	7985.38
551.962	7972.73
552.326	8042.33
552.689	8077.81
553.053	8135.21
553.417	8164.81
553.78	8250.01
554.143	8231.25
554.507	8308.99
554.87	8364.36
555.234	8470.12
555.597	8360.97
555.96	8464.92
556.323	8560.06
556.686	8502.88
557.05	8674.86
557.413	8671.92
557.776	8705.59
558.139	8769.09
558.502	8937.22
558.865	8901.74
559.228	9029.65
559.59	9054.96
559.953	9093.38
560.316	9272.81
560.679	9261.06
561.041	9352.8
561.404	9443.88
561.767	9522.07
562.129	9581.95
562.492	9648.16
562.854	9722.29
563.217	9788.95
563.579	9865.11
563.941	9940.81
564.304	10057.65
564.666	10109.62
565.028	10213.8
565.39	10325.43
565.753	10441.14
566.115	10462.38
566.477	10609.5
566.839	10734.69
567.201	10848.81
567.563	10865.08
567.925	11072.31
568.287	11108.01
568.648	11245.41
569.01	11390.49
569.372	11614.44
569.734	11647.43
570.095	11776.02
570.457	11864.6
570.819	11987.99
571.18	12120.42
571.542	12359.51
571.903	12448.77
572.265	12648.09
572.626	12800.62
572.987	13041.07
573.349	13104.12
573.71	13303.44
574.071	13441.96
574.432	13748.62
574.794	13951.1
575.155	14094.6
575.516	14275.61
575.877	14493.23
576.238	14663.4
576.599	14941.36
576.96	15171.18
577.32	15332.31
577.681	15671.28
578.042	15811.62
578.403	16144.49
578.763	16407.53
579.124	16691.6
579.485	16861.53
579.845	17236.89
580.206	17488.18
580.566	17756.88
580.927	18070.77
581.287	18316.86
581.648	18669.62
582.008	19014.7
582.368	19285.88
582.728	19663.72
583.089	19943.49
583.449	20235.46
583.809	20649.68
584.169	20994.53
584.529	21339.16
584.889	21901.4
585.249	21975.52
585.609	22426.59
585.969	22938.21
586.329	23267.69
586.688	23682.6
587.048	23982.25
587.408	24499.07
587.768	24828.33
588.127	25259.73
588.487	25720.06
588.846	26304.9
589.206	26518.46
589.565	27066.24
589.925	27576.05
590.284	27923.39
590.643	28434.79
591.003	28835.46
591.362	29357.93
591.721	29687.19
592.08	30180.73
592.44	30675.86
592.799	31184.55
593.158	31549.28
593.517	32147.46
593.876	32555.13
594.235	32958.29
594.593	33458.61
594.952	33967.52
595.311	34371.81
595.67	34896.31
596.029	35498.56
596.387	35922.05
596.746	36373.79
597.104	36722.71
597.463	37144.62
597.822	37795.45
598.18	37981.66
598.538	38408.54
598.897	39048.3
599.255	39157.9
599.613	40174.37
599.972	40356.74
600.33	40900.68
600.688	41055.25
601.046	41640.09
601.404	42137.71
601.762	42575.43
602.12	43045.93
602.478	43344
602.836	43588.06
603.194	43850.88
603.552	44304.43
603.91	44605.21
604.268	45041.58
604.625	45296.04
604.983	45668.23
605.341	45874.1
605.698	46333.53
606.056	46832.5
606.413	46909.78
606.771	47224.58
607.128	47764
607.485	47678.8
607.843	47911.57
608.2	48457.99
608.557	48677.19
608.914	48755.16
609.272	49210.06
609.629	49408.7
609.986	49712.42
610.343	49595.14
610.7	50144.95
611.057	50211.17
611.414	50329.58
611.771	50515.11
612.127	50801.21
612.484	50860.19
612.841	51158.49
613.198	51187.41
613.554	51330.46
613.911	51600.51
614.267	51704.69
614.624	51738.58
614.98	51909.65
615.337	52155.75
615.693	52232.36
616.05	52262.41
616.406	52552.8
616.762	52551.67
617.118	52607.94
617.475	52725.68
617.831	52920.7
618.187	52976.29
618.543	53024.65
618.899	53284.76
619.255	53261.48
619.611	53330.63
619.967	53431.65
620.323	53606.33
620.678	53629.15
621.034	53442.95
621.39	53527.46
621.746	53579.21
622.101	53914.8
622.457	53689.04
622.812	53818.75
623.168	54044.29
623.523	53990.73
623.879	54169.71
624.234	53941.46
624.589	54068.47
624.945	54261.45
625.3	54313.43
625.655	54223.04
626.01	54298.29
626.365	54326.54
626.72	54337.84
627.075	54307.78
627.43	54353.88
627.785	54326.76
628.14	54453.77
628.495	54452.18
628.85	54513.43
629.205	54452.64
629.559	54632.07
629.914	54434.78
630.269	54496.48
630.623	54510.26
630.978	54394.78
631.332	54602.69
631.687	54598.62
632.041	54465.29
632.396	54583.03
632.75	54571.28
633.104	54596.14
633.459	54470.04
633.813	54466.19
634.167	54451.51
634.521	54451.05
634.875	54527.44
635.229	54449.02
635.583	54329.7
635.937	54431.17
636.291	54405.18
636.645	54375.58
636.999	54394.33
637.352	54389.13
637.706	54203.83
638.06	54446.99
638.413	54328.35
638.767	54276.37
639.121	54358.4
639.474	54105.98
639.828	54113.44
640.181	54339.19
640.534	54317.5
640.888	54180.55
641.241	54097.62
641.594	54134
641.947	54225.52
642.301	54170.38
642.654	54185.07
643.007	54190.95
643.36	54202.7
643.713	54071.86
644.066	54212.87
644.419	53981.24
644.771	53856.04
645.124	53569.5
645.477	53526.78
645.83	53349.84
646.182	53267.13
646.535	53212.89
646.888	53343.29
647.24	53086.57
647.593	53320.91
647.945	53376.51
648.298	53149.85
648.65	53153.69
649.002	52992.34
649.355	53124.99
649.707	53107.13
650.059	53284.98
650.411	53653.79
650.763	53639.1
651.115	53925.64
651.467	53840.67
651.819	53800.45
652.171	53766.33
652.523	53742.15
652.875	53738.53
653.227	53659.89
653.578	53906.89
653.93	53765.87
654.282	53655.82
654.633	53596.16
654.985	53550.96
655.337	53578.31
655.688	53729.94
656.039	53778.53
656.391	53554.35
656.742	53482.49
657.094	53593.22
657.445	53680.45
657.796	53609.72
658.147	53628.93
658.498	53613.56
658.849	53590.74
659.2	53577.18
659.551	53531.3
659.902	53686.1
660.253	53579.21
660.604	53605.88
660.955	53448.82
661.306	53546.45
661.656	53473.23
662.007	53568.37
662.358	53608.82
662.708	53560.46
663.059	53572.21
663.409	53322.04
663.76	53545.54
664.11	53602.26
664.461	53609.27
664.811	53605.88
665.161	53524.52
665.511	53426.67
665.862	53422.38
666.212	53606.33
666.562	53619.44
666.912	53330.41
667.262	53526.33
667.612	53423.74
667.962	53561.36
668.312	53397.52
668.662	53571.08
669.011	53408.6
669.361	53410.86
669.711	53419.44
670.06	53288.15
670.41	53261.03
670.76	53178.55
671.109	53306.45
671.459	53231.2
671.808	53195.72
672.157	53348.94
672.507	53077.76
672.856	53125.44
673.205	53153.91
673.554	53251.99
673.904	53128.15
674.253	53357.98
674.602	53060.13
674.951	52673.47
675.3	52515.29
675.649	52988.04
675.998	52964.54
676.346	53019.23
676.695	53058.1
677.044	52803.87
677.393	52905.56
677.741	52912.79
678.09	52884.77
678.438	52847.48
678.787	52936.74
679.135	52885.45
679.484	52617.43
679.832	52861.04
680.181	52576.98
680.529	52688.61
680.877	52543.53
681.225	52537.66
681.573	52805.45
681.922	52494.27
682.27	52394.84
682.618	52405.01
682.966	52273.26
683.314	52415.63
683.661	52354.39
684.009	52066.48
684.357	52075.07
684.705	51982.19
685.053	52102.87
685.4	52000.72
685.748	51840.5
686.095	51908.07
686.443	51746.04
686.79	51701.07
687.138	51770.45
687.485	51720.05
687.832	51579.94
688.18	51636.44
688.527	51426.27
688.874	51439.61
689.221	51282.1
689.568	51283.68
689.915	51218.14
690.262	51114.64
690.609	51091.59
690.956	50929.79
691.303	50944.71
691.65	50748.78
691.997	50744.71
692.344	50526.86
692.69	50558.5
693.037	50600.53
693.383	50279.19
693.73	50438.05
694.077	50129.13
694.423	50210.04
694.769	50128.68
695.116	50105.18
695.462	49950.38
695.808	49928.46
696.155	49921
696.501	49560.56
696.847	49532.31
697.193	49362.6
697.539	49446.89
697.885	49181.81
698.231	49084.87
698.577	49016.62
698.923	48858.43
699.269	48691.88
699.614	48587.03
699.96	48545.9
700.306	48548.38
700.651	48338.22
700.997	48241.95
701.342	48178.9
701.688	48134.38
702.033	48062.07
702.379	47947.5
702.724	47870.89
703.069	47893.26
703.415	47451.92
703.76	47536.21
704.105	47504.57
704.45	47397.91
704.795	47108.65
705.14	47092.83
705.485	47034.53
705.83	46876.79
706.175	46929.9
706.52	46721.31
706.865	46622.33
707.209	46548.21
707.554	46294.66
707.899	46562.22
708.243	46195.68
708.588	46167.66
708.932	45970.6
709.277	45953.65
709.621	45966.31
709.966	45542.81
710.31	45830.26
710.654	45385.3
710.998	45554.79
711.342	45416.94
711.687	45406.77
712.031	45248.81
712.375	45095.82
712.719	45315.48
713.063	45046.1
713.407	45156.84
713.75	44997.52
714.094	44926.78
714.438	44623.06
714.782	44780.12
715.125	44482.5
715.469	44708.94
715.812	44456.74
716.156	44266.46
716.499	44150.76
716.843	44320.47
717.186	44018.11
717.53	44352.56
717.873	44191.44
718.216	44012.23
718.559	43981.5
718.902	43561.62
719.246	43853.59
719.589	43609.76
719.932	43425.58
720.275	43574.05
720.617	43548.97
720.96	43476.43
721.303	43427.84
721.646	43404.56
721.989	43151.92
722.331	43254.06
722.674	43275.75
723.016	43187.62
723.359	43108.3
723.701	43082.31
724.044	42834.64
724.386	42654.08
724.729	42839.83
725.071	42689.33
725.413	42764.81
725.755	42667.86
726.097	42587.41
726.439	42408.66
726.782	42324.82
727.124	42478.26
727.465	42358.26
727.807	42210.7
728.149	42271.26
728.491	42017.71
728.833	42318.27
729.175	42068.78
729.516	42050.48
729.858	42012.74
730.199	42087.54
730.541	41889.12
730.882	41890.71
731.224	41974.55
731.565	41719.19
731.906	41774.33
732.248	41833.31
732.589	41512.41
732.93	41475.12
733.271	41499.76
733.612	41443.71
733.953	41570.49
734.294	41408.69
734.635	41303.6
734.976	41314.9
735.317	41260.21
735.658	41316.48
735.999	41249.82
736.339	41021.35
736.68	41260.44
737.021	41029.26
737.361	40860
737.702	41163.49
738.042	41025.42
738.383	40937.74
738.723	40869.94
739.063	40653
739.404	40925.31
739.744	40721.92
740.084	40620.68
740.424	40742.49
740.764	40609.16
741.104	40750.62
741.444	40400.35
741.784	40325.55
742.124	40610.06
742.464	40546.11
742.804	40186.8
743.143	40277.64
743.483	40380.46
743.823	40054.82
744.162	40055.05
744.502	40199.68
744.841	40002.62
745.181	40182.28
745.52	39901.15
745.86	40128.27
746.199	39945.9
746.538	39834.49
746.877	40031.77
747.216	39917.88
747.556	39855.96
747.895	39811.67
748.234	39705.91
748.573	39588.39
748.911	39466.59
749.25	39520.6
749.589	39363.99
749.928	39390.89
750.267	39479.7
750.605	39304.11
750.944	39198.8
751.283	39164.22
751.621	39379.59
751.96	39065.7
752.298	39027.5
752.636	38907.28
752.975	38966.94
753.313	38738.47
753.651	38750.22
753.989	38671.36
754.327	38597.23
754.666	38479.04
755.004	38499.16
755.342	38502.09
755.679	38339.39
756.017	38176.68
756.355	38399.27
756.693	38064.14
757.031	38057.13
757.368	37919.29
757.706	37973.07
758.044	37752.96
758.381	37866.63
758.719	37585.96
759.056	37650.59
759.394	37522.01
759.731	37224.61
760.068	37305.74
