Data from orange_diffuse_book_FLMS001491_00021.txt Node
Date: Wed Feb 08 15:29:19 GMT 2017
User: dcchb
Spectrometer: FLMS00149
Trigger mode: 0
Integration Time (sec): 2.000000E-2
Scans to average: 10
Electric dark correction enabled: true
Nonlinearity correction enabled: false
Boxcar width: 0
XAxis mode: Wavelengths
Number of Pixels in Spectrum: 2048
>>>>>Begin Spectral Data<<<<<
341.393	-11.47
341.776	-11.47
342.16	-11.47
342.543	-79.72
342.927	-45.59
343.31	-70.9
343.693	-71.35
344.077	-66.83
344.46	-69.09
344.843	-61.64
345.226	-35.2
345.61	-33.84
345.993	-6.5
346.376	0.51
346.759	10.23
347.142	29.43
347.525	32.15
347.908	54.52
348.291	82.99
348.674	87.74
349.057	117.79
349.44	124.35
349.823	142.88
350.206	174.06
350.588	209.54
350.971	226.27
351.354	250.9
351.737	262.2
352.119	280.28
352.502	299.48
352.884	283.66
353.267	287.05
353.65	295.87
354.032	293.16
354.414	323.44
354.797	342.87
355.179	322.31
355.562	330.9
355.944	351.01
356.326	321.18
356.709	358.47
357.091	351.46
357.473	375.41
357.855	366.6
358.238	367.73
358.62	338.58
359.002	350.33
359.384	355.3
359.766	337.9
360.148	348.52
360.53	361.63
360.912	329.54
361.294	334.96
361.676	337.9
362.057	337.45
362.439	345.58
362.821	346.26
363.203	334.74
363.584	342.19
363.966	326.83
364.348	335.19
364.729	335.41
365.111	339.26
365.493	328.86
365.874	342.87
366.256	331.57
366.637	333.83
367.019	318.69
367.4	327.96
367.781	338.13
368.163	324.12
368.544	332.03
368.925	336.54
369.306	330.44
369.688	318.47
370.069	316.88
370.45	329.99
370.831	310.56
371.212	326.38
371.593	328.41
371.974	337.22
372.355	327.51
372.736	338.35
373.117	356.43
373.498	327.73
373.879	313.04
374.26	343.1
374.641	347.84
375.021	333.38
375.402	345.81
375.783	353.72
376.163	353.49
376.544	350.1
376.925	351.01
377.305	340.39
377.686	318.47
378.066	338.8
378.447	320.5
378.827	314.85
379.208	338.58
379.588	329.77
379.968	348.97
380.349	335.19
380.729	338.13
381.109	341.52
381.489	345.81
381.87	363.44
382.25	372.25
382.63	354.4
383.01	372.48
383.39	354.17
383.77	364.57
384.15	346.49
384.53	345.81
384.91	361.63
385.29	376.32
385.67	361.4
386.049	365.92
386.429	369.54
386.809	357.34
387.189	369.09
387.568	379.71
387.948	346.71
388.328	381.06
388.707	370.67
389.087	359.82
389.466	376.09
389.846	391.46
390.225	385.81
390.605	394.4
390.984	379.93
391.363	369.09
391.743	395.3
392.122	379.71
392.501	382.42
392.881	388.75
393.26	384.23
393.639	395.75
394.018	386.49
394.397	395.98
394.776	392.14
395.155	407.96
395.534	416.09
395.913	382.87
396.292	390.1
396.671	407.73
397.05	416.09
397.429	407.96
397.808	402.53
398.186	413.38
398.565	405.92
398.944	424
399.323	422.19
399.701	435.07
400.08	425.58
400.458	433.49
400.837	413.6
401.215	412.25
401.594	401.63
401.972	427.16
402.351	438.24
402.729	418.8
403.107	420.61
403.486	411.8
403.864	423.1
404.242	448.41
404.62	446.15
404.999	455.64
405.377	461.06
405.755	462.87
406.133	450.67
406.511	440.95
406.889	449.76
407.267	472.81
407.645	486.37
408.023	458.35
408.401	467.39
408.779	470.78
409.156	475.07
409.534	451.12
409.912	461.51
410.29	493.83
410.667	472.36
411.045	497.44
411.422	494.51
411.8	498.57
412.178	493.6
412.555	485.02
412.933	517.78
413.31	507.84
413.687	515.52
414.065	525.01
414.442	520.95
414.819	514.85
415.197	528.18
415.574	520.04
415.951	518.46
416.328	515.98
416.705	507.84
417.082	526.14
417.46	532.7
417.837	548.97
418.214	541.06
418.591	530.66
418.967	543.55
419.344	564.11
419.721	562.75
420.098	559.82
420.475	571.79
420.852	586.48
421.228	568.18
421.605	595.3
421.982	553.26
422.358	563.43
422.735	569.76
423.111	573.6
423.488	603.2
423.864	589.65
424.241	632.58
424.617	602.75
424.994	616.76
425.37	620.83
425.746	623.99
426.123	611.79
426.499	628.51
426.875	612.47
427.251	649.3
427.627	642.53
428.003	641.62
428.379	652.92
428.756	650.21
429.132	673.49
429.507	676.65
429.883	651.56
430.259	682.07
430.635	656.31
431.011	668.97
431.387	699.47
431.763	691.34
432.138	706.25
432.514	697.44
432.89	713.03
433.265	746.93
433.641	751
434.016	724.33
434.392	733.82
434.767	718.46
435.143	745.35
435.518	749.64
435.894	757.32
436.269	759.81
436.644	774.05
437.02	760.04
437.395	746.7
437.77	792.35
438.145	797.55
438.52	779.92
438.895	824.67
439.271	829.87
439.646	814.5
440.021	821.73
440.395	808.62
440.77	805.01
441.145	824.67
441.52	825.57
441.895	839.36
442.27	854.95
442.645	859.92
443.019	856.76
443.394	852.92
443.769	864.44
444.143	863.54
444.518	876.19
444.892	859.92
445.267	860.37
445.641	851.79
446.016	867.83
446.39	896.08
446.764	886.81
447.139	877.32
447.513	910.32
447.887	871.45
448.262	893.59
448.636	905.12
449.01	913.7
449.384	910.77
449.758	939.24
450.132	918.68
450.506	926.81
450.88	909.64
451.254	952.35
451.628	929.3
452.002	922.29
452.376	968.39
452.75	939.69
453.123	980.6
453.497	986.47
453.871	981.05
454.244	1004.78
454.618	1014.95
454.992	991.22
455.365	992.35
455.739	1020.59
456.112	1016.75
456.486	1033.93
456.859	1040.48
457.232	1070.31
457.606	1058.79
457.979	1066.7
458.352	1065.57
458.725	1082.97
459.099	1105.56
459.472	1129.07
459.845	1129.97
460.218	1136.98
460.591	1138.11
460.964	1139.24
461.337	1163.19
461.71	1154.15
462.083	1200.48
462.456	1161.61
462.829	1177.2
463.201	1168.39
463.574	1209.06
463.947	1230.31
464.32	1198.67
464.692	1243.64
465.065	1233.7
465.438	1259.23
465.81	1278.89
466.183	1278.89
466.555	1281.83
466.928	1277.31
467.3	1265.33
467.672	1307.14
468.045	1300.59
468.417	1326.12
468.789	1329.51
469.161	1336.97
469.534	1374.26
469.906	1381.26
470.278	1402.05
470.65	1405.67
471.022	1401.83
471.394	1433.47
471.766	1443.86
472.138	1460.81
472.51	1481.37
472.882	1491.99
473.253	1513.24
473.625	1517.98
473.997	1545.55
474.369	1551.88
474.74	1574.93
475.112	1598.66
475.484	1608.83
475.855	1645.89
476.227	1617.19
476.598	1680.92
476.97	1674.14
477.341	1690.41
477.713	1713.46
478.084	1718.88
478.455	1800.01
478.827	1852.21
479.198	1870.29
479.569	1861.7
479.94	1887.92
480.311	1917.75
480.682	1965.43
481.053	2007.69
481.424	2007.01
481.795	2030.06
482.166	2041.58
482.537	2064.63
482.908	2112.77
483.279	2144.63
483.65	2174.24
484.021	2234.35
484.391	2243.39
484.762	2237.29
485.133	2263.95
485.503	2321.13
485.874	2347.79
486.244	2369.03
486.615	2447.9
486.985	2478.86
487.356	2521.8
487.726	2535.58
488.097	2592.76
488.467	2628.46
488.837	2596.15
489.207	2663.26
489.578	2717.27
489.948	2768.57
490.318	2771.28
490.688	2792.75
491.058	2826.87
491.428	2903.26
491.798	2912.52
492.168	2966.08
492.538	2962.69
492.908	3030.94
493.278	3083.37
493.648	3075.46
494.017	3160.2
494.387	3172.4
494.757	3178.73
495.126	3261.67
495.496	3255.34
495.866	3269.8
496.235	3325.39
496.605	3382.79
496.974	3398.16
497.344	3432.96
497.713	3461.66
498.082	3483.35
498.452	3555.44
498.821	3562.22
499.19	3597.02
499.559	3601.54
499.928	3690.58
500.298	3670.24
500.667	3721.99
501.036	3720.41
501.405	3773.52
501.774	3756.34
502.143	3809
502.512	3831.14
502.88	3857.58
503.249	3899.16
503.618	3944.81
503.987	3938.48
504.356	3964.02
504.724	4021.87
505.093	4049.89
505.462	4060.74
505.83	4093.06
506.199	4123.79
506.567	4172.83
506.936	4212.38
507.304	4270.68
507.672	4246.95
508.041	4257.8
508.409	4287.63
508.777	4367.85
509.145	4386.16
509.514	4414.4
509.882	4462.54
510.25	4468.87
510.618	4518.81
510.986	4530.78
511.354	4552.71
511.722	4617.34
512.09	4651.01
512.458	4587.96
512.826	4660.72
513.193	4703.21
513.561	4746.37
513.929	4793.6
514.297	4826.6
514.664	4896.42
515.032	4879.25
515.4	4918.57
515.767	4937.55
516.135	5009.19
516.502	4959.47
516.869	5038.57
517.237	5070.43
517.604	5066.14
517.972	5173.25
518.339	5152.24
518.706	5173.93
519.073	5198.34
519.44	5292.12
519.808	5351.55
520.175	5326.24
520.542	5417.54
520.909	5407.6
521.276	5381.16
521.643	5462.06
522.009	5492.12
522.376	5552.23
522.743	5573.47
523.11	5701.6
523.477	5639.68
523.843	5698.21
524.21	5773.01
524.577	5812.79
524.943	5847.59
525.31	5863.41
525.676	5950.41
526.043	5959.9
526.409	6016.4
526.776	6067.24
527.142	6034.25
527.508	6093.46
527.874	6105.88
528.241	6200.8
528.607	6210.51
528.973	6229.72
529.339	6204.19
529.705	6334.81
530.071	6378.87
530.437	6382.71
530.803	6373.67
531.169	6542.71
531.535	6427.46
531.901	6498.64
532.267	6511.75
532.632	6515.37
532.998	6572.99
533.364	6609.83
533.73	6661.58
534.095	6695.47
534.461	6701.35
534.826	6774.12
535.192	6753.33
535.557	6783.61
535.923	6840.1
536.288	6844.62
536.653	6860.67
537.019	6882.36
537.384	6944.05
537.749	6942.02
538.114	6976.82
538.479	6908.58
538.845	6993.09
539.21	6998.74
539.575	7088.46
539.94	7137.95
540.305	7193.99
540.67	7162.81
541.034	7224.27
541.399	7274.67
541.764	7293.88
542.129	7241.22
542.494	7245.97
542.858	7329.81
543.223	7343.37
543.587	7393.53
543.952	7403.03
544.316	7421.1
544.681	7547.88
545.045	7520.31
545.41	7531.84
545.774	7603.7
546.138	7635.79
546.503	7659.52
546.867	7767.31
547.231	7740.42
547.595	7778.16
547.959	7789.68
548.324	7914.2
548.688	7926.18
549.052	7903.8
549.416	7931.15
549.779	7982.9
550.143	8060.41
550.507	8066.29
550.871	8130.92
551.235	8147.41
551.599	8317.58
551.962	8236
552.326	8306.05
552.689	8347.86
553.053	8290.46
553.417	8356.22
553.78	8501.98
554.143	8457.24
554.507	8545.37
554.87	8570.45
555.234	8733.84
555.597	8674.18
555.96	8774.97
556.323	8791.69
556.686	8852.71
557.05	8933.61
557.413	9008.63
557.776	9039.82
558.139	9051.57
558.502	9182.41
558.865	9174.96
559.228	9350.32
559.59	9370.88
559.953	9345.35
560.316	9521.84
560.679	9567.49
561.041	9644.1
561.404	9756.86
561.767	9797.54
562.129	9795.28
562.492	9992.11
562.854	9973.58
563.217	10106.23
563.579	10146.91
563.941	10250.18
564.304	10297.41
564.666	10433.45
565.028	10555.94
565.39	10615.14
565.753	10722.71
566.115	10847.91
566.477	10967.45
566.839	11111.85
567.201	11209.03
567.563	11315.24
567.925	11412.41
568.287	11467.33
568.648	11576.93
569.01	11730.6
569.372	11900.08
569.734	12027.99
570.095	12174.65
570.457	12293.97
570.819	12380.75
571.18	12554.98
571.542	12719.72
571.903	12893.95
572.265	13049.43
572.626	13223.89
572.987	13362.42
573.349	13497.78
573.71	13706.14
574.071	13946.13
574.432	14133.02
574.794	14423.86
575.155	14491.65
575.516	14653.68
575.877	14922.38
576.238	15164.4
576.599	15466.09
576.96	15652.75
577.32	15887.55
577.681	16104.72
578.042	16429.91
578.403	16631.03
578.763	16919.84
579.124	17256.1
579.485	17526.6
579.845	17925.46
580.206	18107.83
580.566	18358.44
580.927	18708.27
581.287	19146.9
581.648	19190.29
582.008	19710.72
582.368	19973.32
582.728	20381.67
583.089	20755.89
583.449	20992.72
583.809	21506.16
584.169	21811.01
584.529	22140.94
584.889	22646.01
585.249	22796.52
585.609	23123.29
585.969	23782.03
586.329	24063.38
586.688	24613.19
587.048	24810.48
587.408	25355.32
587.768	25853.16
588.127	26232.59
588.487	26607.27
588.846	27119.12
589.206	27393.01
589.565	27920.68
589.925	28486.31
590.284	28876.59
590.643	29357.7
591.003	29921.08
591.362	30303.89
591.721	30715.41
592.08	31227.71
592.44	31689.17
592.799	32235.37
593.158	32672.19
593.517	33149.92
593.876	33645.27
594.235	33908.09
594.593	34661.74
594.952	35088.4
595.311	35422.85
595.67	35903.75
596.029	36586.67
596.387	36972.87
596.746	37644.94
597.104	37797.48
597.463	38242.89
597.822	38845.36
598.18	39143.43
598.538	39601.73
598.897	40239
599.255	40474.25
599.613	41485.75
599.972	41583.37
600.33	42001.44
600.688	42321.43
601.046	42763.9
601.404	43304.91
601.762	43622.86
602.12	44142.17
602.478	44493.12
602.836	44833.91
603.194	45132.43
603.552	45569.71
603.91	45782.13
604.268	46298.5
604.625	46431.83
604.983	46908.43
605.341	47044.47
605.698	47622.08
606.056	47881.96
606.413	48009.19
606.771	48509.06
607.128	48721.94
607.485	48736.85
607.843	49079.44
608.2	49418.64
608.557	49785.64
608.914	49815.02
609.272	50149.92
609.629	50395.57
609.986	50731.38
610.343	50695.45
610.7	51235.32
611.057	51222.89
611.414	51292.95
611.771	51551.47
612.127	51824
612.484	51886.6
612.841	52080.72
613.198	52071
613.554	52304.67
613.911	52655.17
614.267	52610.65
614.624	52779.69
614.98	52850.64
615.337	53113.01
615.693	53183.06
616.05	53248.37
616.406	53542.15
616.762	53408.82
617.118	53463.28
617.475	53672.77
617.831	53739.66
618.187	53903.95
618.543	53993.89
618.899	54220.55
619.255	54206.77
619.611	54167.67
619.967	54362.69
620.323	54371.51
620.678	54354.11
621.034	54388.68
621.39	54481.56
621.746	54474.78
622.101	54804.27
622.457	54637.94
622.812	54771.5
623.168	54836.58
623.523	54801.33
623.879	54938.95
624.234	54776.47
624.589	54965.39
624.945	54973.98
625.3	55108.89
625.655	55122
626.01	55125.16
626.365	55180.53
626.72	55216.46
627.075	55122
627.43	55172.39
627.785	55228.43
628.14	55261.88
628.495	55335.1
628.85	55373.52
629.205	55267.3
629.559	55498.03
629.914	55294.42
630.269	55365.15
630.623	55353.63
630.978	55289.9
631.332	55397.47
631.687	55439.05
632.041	55352.05
632.396	55470.46
632.75	55300.3
633.104	55423.23
633.459	55271.37
633.813	55268.21
634.167	55334.19
634.521	55273.41
634.875	55294.2
635.229	55259.39
635.583	55219.85
635.937	55265.04
636.291	55196.57
636.645	55280.64
636.999	55173.97
637.352	55256.46
637.706	55127.42
638.06	55250.58
638.413	55156.57
638.767	55044.26
639.121	55170.13
639.474	55018.5
639.828	55067.99
640.181	55138.95
640.534	55115.67
640.888	54969.91
641.241	54888.56
641.594	55014.88
641.947	55165.84
642.301	55094.65
642.654	55039.97
643.007	55060.76
643.36	54944.6
643.713	54919.74
644.066	55039.74
644.419	54898.95
644.771	54764.27
645.124	54469.58
645.477	54388
645.83	54264.84
646.182	54252.42
646.535	54125.86
646.888	54247.9
647.24	54122.93
647.593	54263.94
647.945	54229.82
648.298	54002.48
648.65	53969.03
649.002	53952.76
649.355	54047.22
649.707	53974.68
650.059	54128.12
650.411	54451.51
650.763	54483.14
651.115	54808.78
651.467	54697.15
651.819	54623.7
652.171	54622.12
652.523	54564.72
652.875	54562.69
653.227	54464.61
653.578	54705.28
653.93	54590.26
654.282	54557.04
654.633	54465.07
654.985	54579.41
655.337	54513.88
655.688	54566.98
656.039	54669.35
656.391	54359.76
656.742	54448.12
657.094	54492.86
657.445	54604.72
657.796	54507.78
658.147	54391.85
658.498	54470.26
658.849	54491.05
659.2	54442.47
659.551	54362.24
659.902	54516.82
660.253	54460.77
660.604	54487.89
660.955	54344.84
661.306	54449.02
661.656	54411.06
662.007	54351.17
662.358	54462.81
662.708	54451.73
663.059	54407.67
663.409	54161.34
663.76	54467.1
664.11	54416.03
664.461	54387.1
664.811	54381
665.161	54319.76
665.511	54260.55
665.862	54345.29
666.212	54415.8
666.562	54406.99
666.912	54316.14
667.262	54381.68
667.612	54280.44
667.962	54354.33
668.312	54240.66
668.662	54365.18
669.011	54317.05
669.361	54267.78
669.711	54200.44
670.06	54245.86
670.41	54199.99
670.76	54017.85
671.109	54166.54
671.459	54053.55
671.808	54070.5
672.157	54136.03
672.507	53901.01
672.856	53891.29
673.205	54025.98
673.554	54026.88
673.904	53942.59
674.253	54072.98
674.602	53940.33
674.951	53548.03
675.3	53407.24
675.649	53906.44
675.998	53879.54
676.346	53834.12
676.695	53961.12
677.044	53727.23
677.393	53727.01
677.741	53761.35
678.09	53739.43
678.438	53658.08
678.787	53717.97
679.135	53715.03
679.484	53562.04
679.832	53641.58
680.181	53474.81
680.529	53553.45
680.877	53486.56
681.225	53433.68
681.573	53582.83
681.922	53497.18
682.27	53323.85
682.618	53328.15
682.966	53212.44
683.314	53380.12
683.661	53240.69
684.009	53002.05
684.357	53027.59
684.705	53022.62
685.053	53045.67
685.4	53054.71
685.748	52772.68
686.095	52889.97
686.443	52674.6
686.79	52647.49
687.138	52677.54
687.485	52680.93
687.832	52585.79
688.18	52534.04
688.527	52323.88
688.874	52387.15
689.221	52315.29
689.568	52214.73
689.915	52106.48
690.262	52071
690.609	52047.28
690.956	51971.57
691.303	51849.99
691.65	51772.71
691.997	51698.81
692.344	51566.16
692.69	51530
693.037	51520.28
693.383	51250.46
693.73	51415.65
694.077	51170.46
694.423	51166.39
694.769	51106.28
695.116	51054.31
695.462	50885.95
695.808	50852.5
696.155	50869.45
696.501	50612.51
696.847	50629.01
697.193	50432.63
697.539	50486.19
697.885	50325.06
698.231	50054.79
698.577	50059.76
698.923	49988.57
699.269	49792.65
699.614	49589.71
699.96	49626.1
700.306	49632.88
700.651	49521.24
700.997	49352.88
701.342	49269.5
701.688	49154.24
702.033	49094.13
702.379	49157.18
702.724	48989.28
703.069	49092.1
703.415	48543.41
703.76	48574.37
704.105	48559.46
704.45	48433.59
704.795	48251.44
705.14	48152.01
705.485	48194.04
705.83	47924.45
706.175	48166.93
706.52	47882.19
706.865	47688.07
707.209	47823.21
707.554	47558.81
707.899	47584.79
708.243	47422.54
708.588	47253.5
708.932	46998.37
709.277	47046.28
709.621	47081.76
709.966	46831.82
710.31	46920.63
710.654	46522.22
710.998	46669.34
711.342	46567.65
711.687	46489.68
712.031	46496.69
712.375	46215.79
712.719	46335.11
713.063	46244.49
713.407	46298.5
713.75	46076.36
714.094	45960.2
714.438	45849.92
714.782	45963.14
715.125	45626.88
715.469	45814.45
715.812	45710.49
716.156	45425.3
716.499	45420.78
716.843	45395.47
717.186	45261.47
717.53	45419.88
717.873	45401.12
718.216	45325.19
718.559	45134.69
718.902	44866
719.246	44974.02
719.589	44884.53
719.932	44871.65
720.275	44758.88
720.617	44600.24
720.96	44511.65
721.303	44409.74
721.646	44705.1
721.989	44226.69
722.331	44439.11
722.674	44311.21
723.016	44334.26
723.359	44157.31
723.701	44173.58
724.044	43948.51
724.386	43876.64
724.729	44120.93
725.071	43933.59
725.413	43854.27
725.755	43795.29
726.097	43695.86
726.439	43454.06
726.782	43574.73
727.124	43782.86
727.465	43481.4
727.807	43483.43
728.149	43339.71
728.491	43209.32
728.833	43330.89
729.175	43202.76
729.516	43285.25
729.858	43112.82
730.199	43172.71
730.541	42961.41
730.882	43176.32
731.224	42903.79
731.565	42881.19
731.906	42987.17
732.248	42865.37
732.589	42906.27
732.93	42682.78
733.271	42741.53
733.612	42716
733.953	42759.61
734.294	42466.51
734.635	42415.66
734.976	42508.32
735.317	42281.66
735.658	42263.35
735.999	42321.88
736.339	42308.1
736.68	42372.95
737.021	42207.99
737.361	42128.67
737.702	42171.15
738.042	42053.19
738.383	41958.73
738.723	41996.92
739.063	41952.4
739.404	41968.22
739.744	41728.9
740.084	41700.65
740.424	41826.3
740.764	41691.84
741.104	41825.62
741.444	41525.97
741.784	41586.31
742.124	41641.9
742.464	41539.08
742.804	41459.53
743.143	41442.81
743.483	41422.24
743.823	41062.03
744.162	41182.25
744.502	41299.54
744.841	41085.76
745.181	41278.07
745.52	41130.73
745.86	41172.99
746.199	41023.16
746.538	40955.59
746.877	41030.62
747.216	40989.49
747.556	40832.66
747.895	40991.3
748.234	40867.91
748.573	40765.09
748.911	40574.81
749.25	40601.02
749.589	40536.39
749.928	40499.1
750.267	40435.15
750.605	40400.35
750.944	40312.22
751.283	40226.34
751.621	40471.31
751.96	40138.66
752.298	40007.59
752.636	39962.62
752.975	39958.33
753.313	39860.48
753.651	40093.69
753.989	39771.21
754.327	39716.3
754.666	39421.84
755.004	39493.48
755.342	39566.7
755.679	39353.37
756.017	39349.08
756.355	39380.72
756.693	39284.45
757.031	39188.86
757.368	39001.52
757.706	38906.83
758.044	38785.25
758.381	38853.72
758.719	38612.6
759.056	38771.69
759.394	38712.03
759.731	38364.02
