Data from orange_diffuse_book_FLMS001491_00075.txt Node
Date: Wed Feb 08 15:30:01 GMT 2017
User: dcchb
Spectrometer: FLMS00149
Trigger mode: 0
Integration Time (sec): 2.000000E-2
Scans to average: 10
Electric dark correction enabled: true
Nonlinearity correction enabled: false
Boxcar width: 0
XAxis mode: Wavelengths
Number of Pixels in Spectrum: 2048
>>>>>Begin Spectral Data<<<<<
341.393	-18.63
341.776	-18.63
342.16	-18.63
342.543	-59.53
342.927	-71.74
343.31	-75.8
343.693	-94.79
344.077	-68.12
344.46	-55.69
344.843	-52.07
345.226	-56.82
345.61	-16.82
345.993	-23.6
346.376	11.43
346.759	10.75
347.142	13.69
347.525	39.45
347.908	59.33
348.291	83.51
348.674	91.42
349.057	134.13
349.44	133.68
349.823	133.46
350.206	142.04
350.588	208.03
350.971	208.94
351.354	236.73
351.737	244.41
352.119	254.81
352.502	242.61
352.884	269.95
353.267	300.23
353.65	294.58
354.032	304.98
354.414	324.41
354.797	320.34
355.179	340.23
355.562	340.46
355.944	323.96
356.326	341.81
356.709	359.89
357.091	333.45
357.473	358.08
357.855	345.65
358.238	347.01
358.62	350.85
359.002	361.25
359.384	338.88
359.766	353.11
360.148	338.2
360.53	330.06
360.912	336.62
361.294	330.97
361.676	348.59
362.057	348.37
362.439	312.44
362.821	330.51
363.203	337.07
363.584	326.67
363.966	343.17
364.348	333
364.729	320.12
365.111	329.84
365.493	311.31
365.874	307.69
366.256	310.63
366.637	317.18
367.019	318.54
367.4	325.54
367.781	307.69
368.163	315.83
368.544	328.93
368.925	298.42
369.306	342.27
369.688	315.83
370.069	295.94
370.45	332.1
370.831	316.73
371.212	305.88
371.593	325.32
371.974	331.42
372.355	335.26
372.736	312.21
373.117	337.29
373.498	339.1
373.879	321.7
374.26	329.61
374.641	304.75
375.021	314.92
375.402	335.71
375.783	339.78
376.163	334.81
376.544	330.74
376.925	360.8
377.305	339.1
377.686	353.56
378.066	316.28
378.447	335.94
378.827	372.09
379.208	373.22
379.588	337.52
379.968	347.46
380.349	328.71
380.729	329.38
381.109	346.56
381.489	365.99
381.87	318.76
382.25	361.02
382.63	374.13
383.01	358.31
383.39	347.01
383.77	331.87
384.15	349.95
384.53	346.11
384.91	362.38
385.29	355.37
385.67	360.8
386.049	362.6
386.429	360.8
386.809	352.43
387.189	371.42
387.568	364.19
387.948	361.25
388.328	360.34
388.707	366.67
389.087	354.24
389.466	369.61
389.846	350.85
390.225	380.23
390.605	369.61
390.984	389.04
391.363	378.42
391.743	375.03
392.122	371.19
392.501	396.05
392.881	403.96
393.26	391.98
393.639	387.24
394.018	382.94
394.397	397.86
394.776	380.46
395.155	373
395.534	380.68
395.913	399.66
396.292	402.38
396.671	387.46
397.05	405.54
397.429	395.14
397.808	396.5
398.186	392.21
398.565	373.9
398.944	392.66
399.323	417.29
399.701	407.57
400.08	408.03
400.458	420
400.837	416.16
401.215	423.39
401.594	401.25
401.972	379.33
402.351	424.97
402.729	424.75
403.107	426.56
403.486	415.26
403.864	427.46
404.242	405.99
404.62	440.57
404.999	420.23
405.377	449.15
405.755	437.86
406.133	432.43
406.511	420.46
406.889	436.5
407.267	442.15
407.645	448.48
408.023	456.16
408.401	465.43
408.779	450.96
409.156	454.58
409.534	453.22
409.912	435.37
410.29	462.49
410.667	482.37
411.045	491.19
411.422	478.76
411.8	463.84
412.178	491.19
412.555	498.19
412.933	472.21
413.31	487.12
413.687	496.84
414.065	500.23
414.442	514.69
414.819	516.27
415.197	515.14
415.574	527.12
415.951	516.05
416.328	512.66
416.705	519.89
417.082	516.72
417.46	538.87
417.837	538.64
418.214	568.25
418.591	555.14
418.967	538.87
419.344	535.25
419.721	551.3
420.098	559.89
420.475	569.38
420.852	542.26
421.228	556.95
421.605	535.03
421.982	585.65
422.358	565.76
422.735	565.31
423.111	575.71
423.488	562.6
423.864	586.78
424.241	600.79
424.617	580.45
424.994	615.93
425.37	618.42
425.746	596.95
426.123	618.87
426.499	623.16
426.875	622.26
427.251	622.03
427.627	621.35
428.003	647.34
428.379	655.03
428.756	642.82
429.132	676.95
429.507	664.52
429.883	654.8
430.259	653.44
430.635	670.39
431.011	666.1
431.387	672.43
431.763	690.5
432.138	686.21
432.514	697.96
432.89	676.27
433.265	722.37
433.641	714.01
434.016	713.33
434.392	725.53
434.767	735.93
435.143	743.38
435.518	760.11
435.894	756.94
436.269	746.32
436.644	748.81
437.02	765.76
437.395	770.73
437.77	773.67
438.145	794.68
438.52	781.8
438.895	808.02
439.271	784.06
439.646	790.84
440.021	801.91
440.395	787.9
440.77	815.02
441.145	815.92
441.52	813.44
441.895	827.22
442.27	822.48
442.645	842.82
443.019	835.36
443.394	830.39
443.769	843.04
444.143	847.56
444.518	821.8
444.892	858.64
445.267	853.44
445.641	859.09
446.016	857.73
446.39	877.17
446.764	877.84
447.139	862.25
447.513	864.74
447.887	880.78
448.262	898.18
448.636	897.28
449.01	890.95
449.384	903.83
449.758	900.89
450.132	910.16
450.506	898.63
450.88	921.91
451.254	899.76
451.628	924.85
452.002	925.75
452.376	956.26
452.75	928.24
453.123	943.83
453.497	968.46
453.871	977.73
454.244	967.11
454.618	958.29
454.992	999.87
455.365	979.31
455.739	995.81
456.112	1024.73
456.486	1022.02
456.859	1038.97
457.232	1023.83
457.606	1040.1
457.979	1017.73
458.352	1045.52
458.725	1061.34
459.099	1078.52
459.472	1069.7
459.845	1066.99
460.218	1115.13
460.591	1115.35
460.964	1110.61
461.337	1129.36
461.71	1115.35
462.083	1126.88
462.456	1144.96
462.829	1164.39
463.201	1165.97
463.574	1144.73
463.947	1160.1
464.32	1210.26
464.692	1184.28
465.065	1212.75
465.438	1199.87
465.81	1192.19
466.183	1233.77
466.555	1235.12
466.928	1234.67
467.3	1243.94
467.672	1280.09
468.045	1284.61
468.417	1292.07
468.789	1280.77
469.161	1301.79
469.534	1309.47
469.906	1350.83
470.278	1358.96
470.65	1334.33
471.022	1356.48
471.394	1383.14
471.766	1403.93
472.138	1409.36
472.51	1431.73
472.882	1462.24
473.253	1463.59
473.625	1475.12
473.997	1495.68
474.369	1498.39
474.74	1489.13
475.112	1537.04
475.484	1549.46
475.855	1582.01
476.227	1582.46
476.598	1618.62
476.97	1653.42
477.341	1655
477.713	1671.04
478.084	1681.21
478.455	1700.42
478.827	1745.84
479.198	1777.26
479.569	1753.3
479.94	1796.92
480.311	1819.97
480.682	1826.52
481.053	1927.99
481.424	1924.82
481.795	1941.09
482.166	2002.56
482.537	2013.86
482.908	2037.36
483.279	2043.46
483.65	2089.79
484.021	2098.15
484.391	2135.66
484.762	2172.5
485.133	2170.24
485.503	2230.58
485.874	2240.29
486.244	2297.92
486.615	2320.07
486.985	2330.46
487.356	2396.9
487.726	2408.43
488.097	2435.54
488.467	2478.25
488.837	2549.89
489.207	2567.52
489.578	2618.59
489.948	2630.57
490.318	2674.18
490.688	2680.06
491.058	2746.5
491.428	2725.03
491.798	2807.06
492.168	2876.44
492.538	2883.44
492.908	2904.23
493.278	2941.97
493.648	2990.56
494.017	3022.19
494.387	3038.69
494.757	3051.12
495.126	3115.07
495.496	3122.53
495.866	3139.48
496.235	3209.99
496.605	3195.3
496.974	3259.02
497.344	3278.91
497.713	3313.03
498.082	3389.42
498.452	3405.46
498.821	3392.35
499.19	3467.61
499.559	3524.55
499.928	3539.24
500.298	3551.67
500.667	3586.47
501.036	3645.91
501.405	3651.78
501.774	3711.44
502.143	3716.87
502.512	3737.2
502.88	3791.44
503.249	3778.11
503.618	3831.89
503.987	3860.82
504.356	3911.66
504.724	3955.5
505.093	3979.68
505.462	3950.76
505.83	3966.12
506.199	4056.97
506.567	4106.91
506.936	4094.93
507.304	4147.59
507.672	4189.4
508.041	4193.69
508.409	4254.7
508.777	4298.55
509.145	4266.46
509.514	4339.9
509.882	4348.94
510.25	4364.53
510.618	4419.22
510.986	4454.47
511.354	4479.56
511.722	4531.99
512.09	4567.24
512.458	4555.49
512.826	4657.63
513.193	4628.03
513.561	4641.36
513.929	4701.47
514.297	4766.33
514.664	4801.81
515.032	4773.11
515.4	4801.36
515.767	4823.96
516.135	4858.76
516.502	4838.19
516.869	4938.3
517.237	4983.72
517.604	5030.5
517.972	5052.2
518.339	5068.24
518.706	5049.94
519.073	5126.32
519.44	5167
519.808	5244.28
520.175	5200.89
520.542	5334
520.909	5332.64
521.276	5337.84
521.643	5348.01
522.009	5408.57
522.376	5439.31
522.743	5496.25
523.11	5529.02
523.477	5589.58
523.843	5626.42
524.21	5601.79
524.577	5697.6
524.943	5726.76
525.31	5789.81
525.676	5832.74
526.043	5854.66
526.409	5835.68
526.776	5956.35
527.142	5953.19
527.508	5954.32
527.874	6020.53
528.241	6032.28
528.607	6065.96
528.973	6147.31
529.339	6157.93
529.705	6227.53
530.071	6211.72
530.437	6263.92
530.803	6296.23
531.169	6307.31
531.535	6319.51
531.901	6374.87
532.267	6363.12
532.632	6415.55
532.998	6430.47
533.364	6509.56
533.73	6452.61
534.095	6604.93
534.461	6573.51
534.826	6606.06
535.192	6656.9
535.557	6690.12
535.923	6673.17
536.288	6776.67
536.653	6767.63
537.019	6733.51
537.384	6764.02
537.749	6849.21
538.114	6866.39
538.479	6867.74
538.845	6895.54
539.21	6897.57
539.575	6916.78
539.94	7000.85
540.305	6995.2
540.67	7014.63
541.034	7074.52
541.399	7109.77
541.764	7086.72
542.129	7152.71
542.494	7147.51
542.858	7278.13
543.223	7241.74
543.587	7252.14
543.952	7285.36
544.316	7354.28
544.681	7343.66
545.045	7434.96
545.41	7398.58
545.774	7456.2
546.138	7520.61
546.503	7567.84
546.867	7539.82
547.231	7643.09
547.595	7538.91
547.959	7665.24
548.324	7635.41
548.688	7763.54
549.052	7762.41
549.416	7775.74
549.779	7823.2
550.143	7814.84
550.507	7930.31
550.871	7888.73
551.235	8000.59
551.599	8036.53
551.962	8090.54
552.326	8118.11
552.689	8165.34
553.053	8161.95
553.417	8265.9
553.78	8327.82
554.143	8323.52
554.507	8392.22
554.87	8394.26
555.234	8494.14
555.597	8519.9
555.96	8546.8
556.323	8597.19
556.686	8687.58
557.05	8836.28
557.413	8798.99
557.776	8801.93
558.139	8926.67
558.502	9054.58
558.865	9071.3
559.228	9089.83
559.59	9174.35
559.953	9292.99
560.316	9412.53
560.679	9375.47
561.041	9478.07
561.404	9497.05
561.767	9601.68
562.129	9618.41
562.492	9798.74
562.854	9764.62
563.217	9848.46
563.579	9944.27
563.941	10044.61
564.304	10146.08
564.666	10250.48
565.028	10283.25
565.39	10397.59
565.753	10506.29
566.115	10642.33
566.477	10714.42
566.839	10855.21
567.201	10907.18
567.563	11072.15
567.925	11195.31
568.287	11237.57
568.648	11369.09
569.01	11502.65
569.372	11632.14
569.734	11683.89
570.095	11932.02
570.457	12032.35
570.819	12128.17
571.18	12223.31
571.542	12473.25
571.903	12537.65
572.265	12838.21
572.626	12904.65
572.987	13109.16
573.349	13252.21
573.71	13429.15
574.071	13633.67
574.432	13775.36
574.794	14095.35
575.155	14191.17
575.516	14275.91
575.877	14563.36
576.238	14886.29
576.599	15113.63
576.96	15200.86
577.32	15540.28
577.681	15782.76
578.042	15984.57
578.403	16250.1
578.763	16489.41
579.124	16740.93
579.485	17121.03
579.845	17393.34
580.206	17694.13
580.566	17953.55
580.927	18259.08
581.287	18597.83
581.648	18951.04
582.008	19189.23
582.368	19572.95
582.728	19879.15
583.089	20222.42
583.449	20406.82
583.809	20860.14
584.169	21339.45
584.529	21585.1
584.889	22103.05
585.249	22424.62
585.609	22689.7
585.969	23240.42
586.329	23544.82
586.688	24021.19
587.048	24384.12
587.408	24840.38
587.768	25232.68
588.127	25569.4
588.487	25930.97
588.846	26615.47
589.206	26817.5
589.565	27298.17
589.925	27899.28
590.284	28152.16
590.643	28643.89
591.003	29110.55
591.362	29749.63
591.721	30050.41
592.08	30602.71
592.44	31153.88
592.799	31516.81
593.158	32006.74
593.517	32516.56
593.876	33027.06
594.235	33361.96
594.593	33907.71
594.952	34445.78
595.311	34772.55
595.67	35316.26
596.029	36007.77
596.387	36464.48
596.746	36955.54
597.104	37271.92
597.463	37734.95
597.822	38223.3
598.18	38401.15
598.538	38818.09
598.897	39519.77
599.255	39616.71
599.613	40554.32
599.972	40660.3
600.33	41245.82
600.688	41497.34
601.046	41958.35
601.404	42579.12
601.762	42766.91
602.12	43555.14
602.478	43774.57
602.836	44042.58
603.194	44300.21
603.552	44639.41
603.91	44915.78
604.268	45485.48
604.625	45695.87
604.983	46156.43
605.341	46311
605.698	46679.35
606.056	47127.48
606.413	47191.2
606.771	47618.31
607.128	47946.89
607.485	47969.94
607.843	48261.91
608.2	48750.94
608.557	48943.02
608.914	49132.17
609.272	49407.42
609.629	49675.88
609.986	49869.78
610.343	49985.03
610.7	50342.76
611.057	50481.51
611.414	50555.63
611.771	50835.63
612.127	51112.46
612.484	51179.35
612.841	51431.77
613.198	51359.68
613.554	51501.37
613.911	51819.78
614.267	51970.74
614.624	51981.59
614.98	52225.42
615.337	52486.2
615.693	52410.27
616.05	52474.91
616.406	52775.91
616.762	52721
617.118	52882.8
617.475	52833.54
617.831	53106.75
618.187	53189.01
618.543	53289.57
618.899	53414.32
619.255	53547.19
619.611	53518.72
619.967	53650.02
620.323	53795.55
620.678	53684.37
621.034	53681.65
621.39	53836.45
621.746	53723.46
622.101	54132.26
622.457	53950.35
622.812	54061.53
623.168	54155.54
623.523	54228.76
623.879	54329.32
624.234	54153.05
624.589	54308.76
624.945	54428.53
625.3	54460.62
625.655	54390.56
626.01	54380.17
626.365	54508.3
626.72	54472.82
627.075	54497.68
627.43	54582.87
627.785	54503.1
628.14	54612.93
628.495	54697.9
628.85	54659.71
629.205	54622.87
629.559	54899.93
629.914	54609.09
630.269	54666.94
630.623	54637.11
630.978	54647.28
631.332	54725.69
631.687	54886.37
632.041	54707.84
632.396	54741.06
632.75	54696.09
633.104	54706.49
633.459	54562.99
633.813	54671.46
634.167	54588.07
634.521	54612.25
634.875	54725.69
635.229	54698.58
635.583	54563.89
635.937	54553.49
636.291	54529.77
636.645	54635.53
636.999	54520.95
637.352	54591.01
637.706	54403.89
638.06	54660.84
638.413	54479.15
638.767	54612.93
639.121	54517.34
639.474	54348.98
639.828	54331.13
640.181	54448.64
640.534	54421.07
640.888	54353.27
641.241	54244.8
641.594	54393.27
641.947	54424.23
642.301	54353.73
642.654	54399.83
643.007	54433.05
643.36	54298.13
643.713	54357.79
644.066	54378.81
644.419	54239.6
644.771	54036.45
645.124	53737.02
645.477	53670.58
645.83	53563.01
646.182	53524.6
646.535	53452.73
646.888	53535.44
647.24	53293.87
647.593	53585.61
647.945	53491.38
648.298	53352.85
648.65	53284.38
649.002	53227.43
649.355	53294.55
649.707	53191.72
650.059	53392.4
650.411	53750.58
650.763	53859.95
651.115	54067.18
651.467	53948.77
651.819	53972.72
652.171	53913.29
652.523	53964.58
652.875	53980.85
653.227	53840.75
653.578	54108.08
653.93	53968.65
654.282	53833.97
654.633	53764.82
654.985	53775.44
655.337	53861.08
655.688	53798.94
656.039	53930.91
656.391	53667.42
656.742	53681.65
657.094	53796.45
657.445	53875.09
657.796	53847.52
658.147	53668.55
658.498	53747.41
658.849	53813.18
659.2	53713.52
659.551	53619.96
659.902	53793.51
660.253	53784.25
660.604	53777.02
660.955	53671.48
661.306	53767.3
661.656	53726.85
662.007	53735.44
662.358	53611.82
662.708	53657.02
663.059	53644.59
663.409	53527.31
663.76	53747.64
664.11	53677.81
664.461	53640.3
664.811	53678.26
665.161	53594.2
665.511	53543.35
665.862	53685.27
666.212	53641.65
666.562	53661.32
666.912	53599.17
667.262	53609.79
667.612	53553.07
667.962	53601.43
668.312	53456.8
668.662	53660.41
669.011	53515.56
669.361	53530.7
669.711	53446.86
670.06	53392.4
670.41	53366.41
670.76	53422.68
671.109	53401.43
671.459	53350.14
671.808	53337.03
672.157	53272.62
672.507	53165.73
672.856	53209.8
673.205	53264.72
673.554	53337.03
673.904	53118.5
674.253	53368.89
674.602	53239.41
674.951	52813.65
675.3	52673.09
675.649	53154.66
675.998	53131.39
676.346	53032.86
676.695	53177.71
677.044	52864.27
677.393	52936.59
677.741	52998.51
678.09	52930.71
678.438	52897.72
678.787	52919.64
679.135	52987.89
679.484	52803.26
679.832	52902.46
680.181	52664.28
680.529	52825.86
680.877	52707.44
681.225	52752.41
681.573	52850.49
681.922	52616.6
682.27	52525.53
682.618	52586.77
682.966	52469.71
683.314	52549.25
683.661	52397.17
684.009	52257.96
684.357	52206.89
684.705	52270.17
685.053	52178.42
685.4	52192.65
685.748	52017.97
686.095	51961.47
686.443	51895.71
686.79	51852.78
687.138	51912.66
687.485	51777.52
687.832	51690.29
688.18	51786.56
688.527	51607.36
688.874	51598.09
689.221	51520.13
689.568	51364.43
689.915	51301.6
690.262	51324.43
690.609	51257.76
690.956	51130.99
691.303	51141.38
691.65	50940.71
691.997	50930.31
692.344	50626.82
692.69	50760.15
693.037	50783.88
693.383	50483.55
693.73	50627.27
694.077	50335.3
694.423	50376.2
694.769	50302.31
695.116	50227.96
695.462	50002.88
695.808	50024.8
696.155	50015.99
696.501	49696.67
696.847	49786.84
697.193	49499.39
697.539	49648.77
697.885	49208.55
698.231	49277.7
698.577	49171.26
698.923	49070.25
699.269	48894.21
699.614	48872.29
699.96	48774.44
700.306	48688.56
700.651	48501.22
700.997	48456.03
701.342	48300.1
701.688	48333.77
702.033	48060.33
702.379	48211.06
702.724	48051.75
703.069	48129.26
703.415	47510.52
703.76	47738.31
704.105	47625.99
704.45	47430.74
704.795	47405.21
705.14	47303.06
705.485	47147.81
705.83	47023.98
706.175	47076.4
706.52	46932.9
706.865	46777.2
707.209	46774.04
707.554	46537.21
707.899	46807.26
708.243	46419.47
708.588	46510.09
708.932	46082.98
709.277	46068.52
709.621	46154.39
709.966	45723.9
710.31	46054.74
710.654	45653.62
710.998	45643.45
711.342	45590.79
711.687	45493.17
712.031	45358.03
712.375	45357.8
712.719	45353.06
713.063	45271.93
713.407	45337.24
713.75	45086.85
714.094	45069.22
714.438	44825.39
714.782	44893.64
715.125	44783.58
715.469	44791.72
715.812	44633.98
716.156	44408.22
716.499	44341.11
716.843	44496.13
717.186	44206.2
717.53	44432.41
717.873	44366.87
718.216	44275.8
718.559	44095.01
718.902	43926.66
719.246	44068.35
719.589	43899.99
719.932	43686.66
720.275	43739.77
720.617	43624.29
720.96	43580
721.303	43633.56
721.646	43593.56
721.989	43284.86
722.331	43462.94
722.674	43387.69
723.016	43320.57
723.359	43273.11
723.701	43238.76
724.044	42998.09
724.386	42793.8
724.729	43060.01
725.071	42927.13
725.413	42837.19
725.755	42798.32
726.097	42594.71
726.439	42512.23
726.782	42485.56
727.124	42744.31
727.465	42537.54
727.807	42507.71
728.149	42422.29
728.491	42260.03
728.833	42432.68
729.175	42279.02
729.516	42139.36
729.858	42055.52
730.199	42143.65
730.541	42089.19
730.882	41976.65
731.224	42135.52
731.565	41857.56
731.906	41777.56
732.248	41867.5
732.589	41681.52
732.93	41650.33
733.271	41561.29
733.612	41668.64
733.953	41653.95
734.294	41614.63
734.635	41502.99
734.976	41517.91
735.317	41338.48
735.658	41340.96
735.999	41358.36
736.339	41201.98
736.68	41246.73
737.021	41173.96
737.361	41063.45
737.702	41271.36
738.042	41078.6
738.383	41107.75
738.723	41138.71
739.063	40948.65
739.404	40971.71
739.744	40796.12
740.084	40751.15
740.424	40723.58
740.764	40733.97
741.104	40769.22
741.444	40668.66
741.784	40597.7
742.124	40557.25
742.464	40518.16
742.804	40448.1
743.143	40390.48
743.483	40387.99
743.823	40133.08
744.162	40233.19
744.502	40193.19
744.841	40217.37
745.181	40297.82
745.52	39955.91
745.86	40085.63
746.199	39970.15
746.538	40056.02
746.877	40027.32
747.216	39942.35
747.556	39736.71
747.895	39968.12
748.234	39783.49
748.573	39704.17
748.911	39543.04
749.25	39662.81
749.589	39521.12
749.928	39476.83
750.267	39476.38
750.605	39478.64
750.944	39331.75
751.283	39319.09
751.621	39348.02
751.96	39037.07
752.298	39095.6
752.636	39046.56
752.975	38791.2
753.313	38951.87
753.651	39073.68
753.989	38723.18
754.327	38808.37
754.666	38614.25
755.004	38653.12
755.342	38691.77
755.679	38512.11
756.017	38257.88
756.355	38391.89
756.693	38080.26
757.031	38313.02
757.368	38013.14
757.706	37812.47
758.044	37850.21
758.381	37838.45
758.719	37734.05
759.056	37822.64
