Data from orange_diffuse_book_FLMS001491_00059.txt Node
Date: Wed Feb 08 15:29:46 GMT 2017
User: dcchb
Spectrometer: FLMS00149
Trigger mode: 0
Integration Time (sec): 2.000000E-2
Scans to average: 10
Electric dark correction enabled: true
Nonlinearity correction enabled: false
Boxcar width: 0
XAxis mode: Wavelengths
Number of Pixels in Spectrum: 2048
>>>>>Begin Spectral Data<<<<<
341.393	-13.95
341.776	-13.95
342.16	-13.95
342.543	-65.03
342.927	-56.89
343.31	-56.89
343.693	-52.82
344.077	-73.84
344.46	-54.18
344.843	-31.13
345.226	-56.44
345.61	-10.79
345.993	-13.73
346.376	-11.02
346.759	-2.66
347.142	19.94
347.525	30.11
347.908	47.74
348.291	59.26
348.674	88.64
349.057	117.79
349.44	130.9
349.823	143.33
350.206	149.21
350.588	176.32
350.971	232.59
351.354	232.59
351.737	259.71
352.119	269.65
352.502	261.29
352.884	276.89
353.267	279.15
353.65	297.45
354.032	322.08
354.414	282.99
354.797	350.33
355.179	329.77
355.562	339.03
355.944	333.83
356.326	328.18
356.709	351.91
357.091	330.44
357.473	345.13
357.855	348.52
358.238	351.46
358.62	354.4
359.002	352.59
359.384	355.3
359.766	360.72
360.148	336.77
360.53	360.95
360.912	331.35
361.294	340.16
361.676	359.6
362.057	351.91
362.439	351.46
362.821	322.31
363.203	346.04
363.584	334.28
363.966	343.78
364.348	336.32
364.729	334.51
365.111	337.67
365.493	333.16
365.874	344.91
366.256	314.62
366.637	326.38
367.019	344.45
367.4	322.08
367.781	339.48
368.163	315.75
368.544	337
368.925	328.64
369.306	328.86
369.688	304.23
370.069	319.37
370.45	321.86
370.831	319.82
371.212	324.12
371.593	330.67
371.974	338.8
372.355	350.78
372.736	310.56
373.117	341.29
373.498	310.56
373.879	333.38
374.26	336.09
374.641	321.18
375.021	329.77
375.402	327.51
375.783	322.76
376.163	318.47
376.544	338.13
376.925	345.13
377.305	340.61
377.686	333.38
378.066	340.84
378.447	316.43
378.827	351.23
379.208	339.93
379.588	344.91
379.968	333.16
380.349	338.8
380.729	334.74
381.109	353.04
381.489	344.91
381.87	332.93
382.25	355.3
382.63	372.93
383.01	344.45
383.39	365.47
383.77	342.42
384.15	340.39
384.53	376.77
384.91	367.5
385.29	367.5
385.67	364.11
386.049	350.33
386.429	373.83
386.809	362.98
387.189	365.7
387.568	378.13
387.948	357.34
388.328	365.92
388.707	379.71
389.087	371.12
389.466	376.77
389.846	370.67
390.225	376.77
390.605	363.21
390.984	373.61
391.363	361.18
391.743	378.8
392.122	375.19
392.501	378.13
392.881	384.45
393.26	385.58
393.639	407.5
394.018	383.1
394.397	389.42
394.776	397.11
395.155	395.53
395.534	363.21
395.913	391.91
396.292	405.92
396.671	401.4
397.05	396.43
397.429	403.66
397.808	402.08
398.186	397.56
398.565	383.78
398.944	393.04
399.323	398.24
399.701	401.4
400.08	408.18
400.458	409.09
400.837	414.51
401.215	424.45
401.594	415.64
401.972	397.56
402.351	410.22
402.729	424.45
403.107	410.67
403.486	412.25
403.864	416.54
404.242	420.84
404.62	421.97
404.999	424.9
405.377	440.5
405.755	424.23
406.133	427.16
406.511	435.75
406.889	451.8
407.267	434.62
407.645	444.79
408.023	454.06
408.401	457.45
408.779	476.2
409.156	470.78
409.534	449.54
409.912	467.84
410.29	473.26
410.667	484.56
411.045	443.43
411.422	476.65
411.8	469.2
412.178	507.61
412.555	481.4
412.933	487.28
413.31	475.52
413.687	497.67
414.065	490.67
414.442	492.02
414.819	494.05
415.197	490.67
415.574	505.81
415.951	512.36
416.328	523.21
416.705	517.56
417.082	524.79
417.46	528.63
417.837	518.01
418.214	515.75
418.591	543.32
418.967	533.38
419.344	548.97
419.721	562.3
420.098	550.78
420.475	561.62
420.852	558.23
421.228	583.32
421.605	558.91
421.982	571.11
422.358	574.5
422.735	566.37
423.111	566.14
423.488	579.7
423.864	570.44
424.241	590.32
424.617	578.35
424.994	594.17
425.37	573.15
425.746	602.3
426.123	606.82
426.499	593.26
426.875	633.71
427.251	615.41
427.627	616.54
428.003	640.27
428.379	625.58
428.756	628.51
429.132	646.14
429.507	652.92
429.883	650.21
430.259	632.81
430.635	654.5
431.011	650.89
431.387	671
431.763	674.84
432.138	677.78
432.514	696.54
432.89	663.32
433.265	673.49
433.641	693.15
434.016	696.76
434.392	701.73
434.767	732.69
435.143	725.46
435.518	708.96
435.894	711
436.269	769.3
436.644	761.17
437.02	735.4
437.395	738.79
437.77	766.59
438.145	765.91
438.52	757.1
438.895	781.96
439.271	801.84
439.646	828.06
440.021	781.28
440.395	789.19
440.77	780.15
441.145	804.56
441.52	814.95
441.895	800.04
442.27	813.82
442.645	811.33
443.019	840.71
443.394	826.7
443.769	827.83
444.143	830.09
444.518	845.91
444.892	823.09
445.267	838.68
445.641	832.58
446.016	849.07
446.39	848.85
446.764	873.71
447.139	842.75
447.513	861.5
447.887	838.23
448.262	873.25
448.636	856.76
449.01	871.22
449.384	884.55
449.758	875.29
450.132	895.63
450.506	881.84
450.88	901.95
451.254	906.47
451.628	921.16
452.002	901.28
452.376	918.9
452.75	934.27
453.123	940.6
453.497	946.25
453.871	937.88
454.244	928.85
454.618	962.29
454.992	969.3
455.365	958.45
455.739	988.73
456.112	1009.75
456.486	999.35
456.859	1008.84
457.232	1018.11
457.606	1002.74
457.979	1010.88
458.352	1040.71
458.725	1038.45
459.099	1056.53
459.472	1072.34
459.845	1064.21
460.218	1095.62
460.591	1096.98
460.964	1069.18
461.337	1097.2
461.71	1133.13
462.083	1123.87
462.456	1133.81
462.829	1152.57
463.201	1118.67
463.574	1157.54
463.947	1139.01
464.32	1179.69
464.692	1187.82
465.065	1194.15
465.438	1209.52
465.81	1254.71
466.183	1210.42
466.555	1227.37
466.928	1217.43
467.3	1258.55
467.672	1240.93
468.045	1259.91
468.417	1273.7
468.789	1289.97
469.161	1268.95
469.534	1308.95
469.906	1336.29
470.278	1340.81
470.65	1331.32
471.022	1364.77
471.394	1375.39
471.766	1384.43
472.138	1412.22
472.51	1416.29
472.882	1451.09
473.253	1468.72
473.625	1457.42
473.997	1493.58
474.369	1496.74
474.74	1493.35
475.112	1508.72
475.484	1555.27
475.855	1567.25
476.227	1605.66
476.598	1608.15
476.97	1624.42
477.341	1639.56
477.713	1682.95
478.084	1687.7
478.455	1709.62
478.827	1749.16
479.198	1756.62
479.569	1786.68
479.94	1811.99
480.311	1818.54
480.682	1849.05
481.053	1910.97
481.424	1915.26
481.795	1968.14
482.166	1957.75
482.537	1959.1
482.908	2017.63
483.279	2050.62
483.65	2117.51
484.021	2136.05
484.391	2123.39
484.762	2164.75
485.133	2143.73
485.503	2213.56
485.874	2260.79
486.244	2253.78
486.615	2280.45
486.985	2363.38
487.356	2400.9
487.726	2386.89
488.097	2437.28
488.467	2476.6
488.837	2496.04
489.207	2520.89
489.578	2552.08
489.948	2592.53
490.318	2635.47
490.688	2630.72
491.058	2662.59
491.428	2734
491.798	2743.94
492.168	2833.2
492.538	2835.01
492.908	2862.81
493.278	2908.68
493.648	2857.38
494.017	2961.33
494.387	3001.56
494.757	3032.52
495.126	3049.69
495.496	3053.99
495.866	3101.9
496.235	3153.87
496.605	3172.85
496.974	3198.62
497.344	3222.8
497.713	3284.72
498.082	3340.99
498.452	3332.85
498.821	3334.88
499.19	3398.16
499.559	3385.05
499.928	3463.02
500.298	3411.04
500.667	3496.01
501.036	3485.84
501.405	3545.95
501.774	3558.83
502.143	3583.47
502.512	3617.14
502.88	3658.27
503.249	3695.78
503.618	3671.15
503.987	3700.75
504.356	3747.75
504.724	3822.55
505.093	3788.66
505.462	3815.1
505.83	3858.49
506.199	3857.81
506.567	3918.15
506.936	3963.57
507.304	3987.3
507.672	4002.21
508.041	3998.14
508.409	4056.45
508.777	4115.65
509.145	4139.16
509.514	4125.6
509.882	4185.94
510.25	4175.09
510.618	4230.45
510.986	4239.27
511.354	4309.1
511.722	4300.06
512.09	4354.52
512.458	4348.64
512.826	4386.16
513.193	4421.64
513.561	4415.99
513.929	4503.44
514.297	4576.89
514.664	4591.8
515.032	4580.73
515.4	4588.86
515.767	4632.48
516.135	4644
516.502	4667.73
516.869	4790.21
517.237	4739.14
517.604	4768.07
517.972	4807.16
518.339	4867.73
518.706	4854.39
519.073	4950.21
519.44	4934.62
519.808	5003.99
520.175	4963.32
520.542	5047.16
520.909	5034.5
521.276	5052.58
521.643	5149.07
522.009	5179.58
522.376	5156.53
522.743	5157.66
523.11	5296.41
523.477	5324.66
523.843	5369.18
524.21	5421.61
524.577	5412.34
524.943	5483.08
525.31	5521.72
525.676	5532.79
526.043	5568.27
526.409	5572.34
526.776	5610.08
527.142	5649.63
527.508	5680.59
527.874	5765.55
528.241	5736.18
528.607	5737.08
528.973	5809.62
529.339	5834.93
529.705	5898.66
530.071	5889.85
530.437	5996.06
530.803	5996.06
531.169	6055.04
531.535	6018.66
531.901	6064.76
532.267	6070.63
532.632	6110.4
532.998	6133.45
533.364	6207.35
533.73	6226.79
534.095	6300.91
534.461	6304.3
534.826	6303.39
535.192	6340.91
535.557	6361.02
535.923	6354.47
536.288	6391.75
536.653	6439.89
537.019	6434.24
537.384	6465.42
537.749	6482.15
538.114	6522.82
538.479	6543.61
538.845	6523.73
539.21	6588.81
539.575	6638.75
539.94	6614.35
540.305	6666.1
540.67	6648.7
541.034	6701.12
541.399	6732.08
541.764	6780.9
542.129	6836.49
542.494	6807.56
542.858	6902.47
543.223	6936.82
543.587	6935.92
543.952	6948.35
544.316	6962.13
544.681	7024.05
545.045	7057.95
545.41	7122.81
545.774	7121.68
546.138	7164.84
546.503	7199.64
546.867	7153.09
547.231	7204.16
547.595	7258.62
547.959	7292.52
548.324	7345.17
548.688	7370.48
549.052	7342.91
549.416	7409.35
549.779	7486.87
550.143	7497.26
550.507	7516.92
550.871	7584.26
551.235	7584.72
551.599	7677.82
551.962	7774.32
552.326	7658.84
552.689	7793.07
553.053	7866.06
553.417	7812.28
553.78	7925.95
554.143	7954.65
554.507	8047.08
554.87	8063.12
555.234	8193.06
555.597	8146.73
555.96	8204.59
556.323	8283
556.686	8321.65
557.05	8343.34
557.413	8370.68
557.776	8471.7
558.139	8513.28
558.502	8582.2
558.865	8643.9
559.228	8744.69
559.59	8767.51
559.953	8781.29
560.316	8902.2
560.679	9022.87
561.041	9041.85
561.404	9090.44
561.767	9257.89
562.129	9270.55
562.492	9376.53
562.854	9358
563.217	9457.43
563.579	9524.33
563.941	9617.66
564.304	9728.84
564.666	9870.76
565.028	9891.1
565.39	9882.96
565.753	10140.13
566.115	10198.88
566.477	10279.33
566.839	10376.51
567.201	10486.79
567.563	10590.29
567.925	10720.9
568.287	10755.93
568.648	10849.71
569.01	11048.35
569.372	11276.14
569.734	11272.3
570.095	11468.91
570.457	11636.13
570.819	11729.47
571.18	11840.2
571.542	11943.02
571.903	12152.96
572.265	12346.4
572.626	12444.02
572.987	12672.94
573.349	12800.85
573.71	12987.96
574.071	13192.7
574.432	13370.33
574.794	13563.77
575.155	13749.53
575.516	13986.81
575.877	14165.79
576.238	14398.77
576.599	14588.83
576.96	14804.19
577.32	14986.56
577.681	15243.27
578.042	15528.69
578.403	15815.23
578.763	16029.01
579.124	16397.37
579.485	16600.07
579.845	17033.05
580.206	17273.5
580.566	17493.38
580.927	17809.76
581.287	18166.81
581.648	18380.14
582.008	18880.24
582.368	19014.02
582.728	19434.35
583.089	19765.19
583.449	20031.39
583.809	20500.99
584.169	20870.92
584.529	21090.8
584.889	21740.5
585.249	21991.79
585.609	22136.65
585.969	22815.95
586.329	23184.98
586.688	23475.15
587.048	23980.22
587.408	24345.63
587.768	24669.69
588.127	25142.9
588.487	25611.59
588.846	26191.01
589.206	26323.88
589.565	26954.15
589.925	27471.42
590.284	27800.91
590.643	28251.97
591.003	28732.18
591.362	29251.94
591.721	29783
592.08	30171.47
592.44	30632.25
592.799	31227.26
593.158	31534.82
593.517	32078.99
593.876	32531.63
594.235	32937.27
594.593	33449.57
594.952	34099.72
595.311	34375.88
595.67	34878.01
596.029	35496.52
596.387	35995.27
596.746	36473.45
597.104	36801.57
597.463	37333.76
597.822	37877.25
598.18	38142.1
598.538	38630.91
598.897	39227.05
599.255	39260.04
599.613	40284.2
599.972	40484.42
600.33	40947.45
600.688	41075.59
601.046	41780.65
601.404	42325.5
601.762	42461.09
602.12	43225.81
602.478	43415.86
602.836	43866.93
603.194	43989.63
603.552	44473.46
603.91	44709.84
604.268	45202.71
604.625	45330.62
604.983	45910.26
605.341	46044.04
605.698	46497.59
606.056	46931.93
606.413	47113.62
606.771	47549.54
607.128	47780.04
607.485	47832.7
607.843	48149.98
608.2	48550.19
608.557	48794.03
608.914	49081.48
609.272	49370.28
609.629	49565.31
609.986	49804.85
610.343	49921
610.7	50311.95
611.057	50463.14
611.414	50548.11
611.771	50691.38
612.127	51019.05
612.484	51033.74
612.841	51245.94
613.198	51357.35
613.554	51507.63
613.911	51796.66
614.267	51835.98
614.624	51958.46
614.98	52114.84
615.337	52341.96
615.693	52432.58
616.05	52538.56
616.406	52663.76
616.762	52738.33
617.118	52805
617.475	52869.17
617.831	53100.13
618.187	53130.86
618.543	53288.37
618.899	53547.12
619.255	53480.68
619.611	53445.43
619.967	53620.57
620.323	53807.46
620.678	53714.12
621.034	53656.05
621.39	53829.15
621.746	53782.15
622.101	54179.2
622.457	53910.96
622.812	54145.75
623.168	54205.64
623.523	54152.53
623.879	54330.38
624.234	54194.11
624.589	54242.25
624.945	54379.64
625.3	54450.15
625.655	54445.63
626.01	54448.57
626.365	54491.28
626.72	54537.61
627.075	54466.19
627.43	54573.54
627.785	54494.89
628.14	54674.55
628.495	54625.51
628.85	54689.69
629.205	54579.19
629.559	54794.55
629.914	54729.01
630.269	54692.63
630.623	54640.43
630.978	54673.87
631.332	54758.39
631.687	54913.41
632.041	54706.41
632.396	54841.55
632.75	54691.27
633.104	54671.61
633.459	54572.86
633.813	54652.18
634.167	54652.4
634.521	54677.49
634.875	54751.39
635.229	54633.42
635.583	54553.2
635.937	54589.58
636.291	54547.55
636.645	54551.16
636.999	54499.19
637.352	54621.22
637.706	54402.47
638.06	54555.23
638.413	54454.9
638.767	54470.71
639.121	54561.33
639.474	54355.01
639.828	54412.86
640.181	54500.54
640.534	54479.98
640.888	54373.09
641.241	54223.72
641.594	54384.16
641.947	54469.58
642.301	54457.38
642.654	54337.16
643.007	54347.78
643.36	54347.78
643.713	54262.81
644.066	54390.26
644.419	54188.91
644.771	54090.16
645.124	53765.65
645.477	53688.81
645.83	53603.39
646.182	53492.66
646.535	53489.95
646.888	53498.31
647.24	53336.73
647.593	53521.14
647.945	53523.17
648.298	53327.02
648.65	53311.42
649.002	53202.73
649.355	53397.3
649.707	53383.06
650.059	53422.15
650.411	53799.55
650.763	53889.71
651.115	54088.13
651.467	53991.86
651.819	54004.74
652.171	53957.51
652.523	53908.92
652.875	53835.7
653.227	53816.04
653.578	54072.53
653.93	53931.52
654.282	53759.77
654.633	53744.63
654.985	53847
655.337	53828.47
655.688	53913.89
656.039	53941.69
656.391	53710.06
656.742	53683.84
657.094	53797.96
657.445	53942.59
657.796	53801.13
658.147	53774.69
658.498	53731.3
658.849	53792.99
659.2	53821.47
659.551	53677.74
659.902	53805.87
660.253	53749.6
660.604	53836.61
660.955	53636.84
661.306	53740.79
661.656	53720
662.007	53700.34
662.358	53686.78
662.708	53693.33
663.059	53731.3
663.409	53468.48
663.76	53743.28
664.11	53611.98
664.461	53764.29
664.811	53740.79
665.161	53600.46
665.511	53485.66
665.862	53677.74
666.212	53780.79
666.562	53709.15
666.912	53650.62
667.262	53638.42
667.612	53606.33
667.962	53546.9
668.312	53551.19
668.662	53695.59
669.011	53569.72
669.361	53590.74
669.711	53480.68
670.06	53518.65
670.41	53409.5
670.76	53338.32
671.109	53477.75
671.459	53455.37
671.808	53393.68
672.157	53530.85
672.507	53232.56
672.856	53252.89
673.205	53293.57
673.554	53383.06
673.904	53181.71
674.253	53373.57
674.602	53297.86
674.951	52830.53
675.3	52627.37
675.649	53191.43
675.998	53110.75
676.346	53121.82
676.695	53297.19
677.044	52924.77
677.393	52969.96
677.741	53094.93
678.09	52989.17
678.438	52934.03
678.787	53110.07
679.135	53012
679.484	52806.35
679.832	52922.51
680.181	52670.08
680.529	52852
680.877	52746.47
681.225	52708.95
681.573	52847.93
681.922	52721.61
682.27	52575.4
682.618	52565.23
682.966	52465.8
683.314	52572.69
683.661	52512.8
684.009	52333.37
684.357	52256.99
684.705	52234.62
685.053	52322.97
685.4	52216.54
685.748	52087.73
686.095	52001.85
686.443	51877.11
686.79	51935.87
687.138	51999.59
687.485	51965.92
687.832	51720.73
688.18	51715.53
688.527	51583.78
688.874	51664.01
689.221	51502.21
689.568	51377.01
689.915	51421.98
690.262	51313.51
690.609	51224.7
690.956	51171.82
691.303	51115.77
691.65	50943.58
691.997	50970.02
692.344	50771.15
692.69	50826.52
693.037	50733.19
693.383	50460.88
693.73	50626.52
694.077	50394.44
694.423	50426.08
694.769	50350.6
695.116	50217.95
695.462	50133.2
695.808	49969.82
696.155	50031.28
696.501	49702.7
696.847	49805.98
697.193	49500.22
697.539	49562.6
697.885	49402.6
698.231	49256.39
698.577	49203.28
698.923	49086.22
699.269	48942.27
699.614	48736.4
699.96	48714.71
700.306	48811.2
700.651	48595.61
700.997	48486.92
701.342	48398.78
701.688	48362.63
702.033	48237.21
702.379	48094.61
702.724	47952.24
703.069	48240.37
703.415	47742.53
703.76	47801.96
704.105	47778.24
704.45	47617.79
704.795	47315.2
705.14	47268.64
705.485	47238.59
705.83	47117.46
706.175	47185.48
706.52	46944.13
706.865	46830.24
707.209	46909.78
707.554	46513.86
707.899	46726.74
708.243	46416.46
708.588	46481.77
708.932	46069.35
709.277	46113.19
709.621	46189.12
709.966	45865.74
710.31	45865.74
710.654	45579.2
710.998	45681.34
711.342	45727.67
711.687	45589.82
712.031	45452.65
712.375	45377.62
712.719	45497.17
713.063	45249.26
713.407	45346.21
713.75	45099.66
714.094	45084.52
714.438	44905.09
714.782	44969.5
715.125	44696.06
715.469	44989.83
715.812	44637.53
716.156	44358.44
716.499	44461.26
716.843	44491.32
717.186	44285.45
717.53	44471.2
717.873	44402.96
718.216	44239.35
718.559	44012.23
718.902	43869.19
719.246	43934.72
719.589	43840.03
719.932	43665.35
720.275	43682.3
720.617	43602.3
720.96	43488.18
721.303	43637.78
721.646	43582.19
721.989	43257
722.331	43484.79
722.674	43414.06
723.016	43359.37
723.359	43230.11
723.701	43232.59
724.044	42929.1
724.386	42885.71
724.729	43127.06
725.071	42940.62
725.413	42810.23
725.755	42844.81
726.097	42681.87
726.439	42455.66
726.782	42683.45
727.124	42718.26
727.465	42521.2
727.807	42481.65
728.149	42503.57
728.491	42361.2
728.833	42326.63
729.175	42360.98
729.516	42201.43
729.858	42177.93
730.199	42235.56
730.541	42116.46
730.882	42025.62
731.224	42144.03
731.565	41822.46
731.906	41809.35
732.248	41919.41
732.589	41789.69
732.93	41620.43
733.271	41689.36
733.612	41734.1
733.953	41673.99
734.294	41472.19
734.635	41414.56
734.976	41556.7
735.317	41283.04
735.658	41348.8
735.999	41463.15
736.339	41306.32
736.68	41407.33
737.021	41270.38
737.361	41037.85
737.702	41345.41
738.042	41018.41
738.383	41124.17
738.723	41053.44
739.063	40900.22
739.404	41007.34
739.744	40779.78
740.084	40745.65
740.424	40852.54
740.764	40694.81
741.104	40838.08
741.444	40616.84
741.784	40552.66
742.124	40677.18
742.464	40542.27
742.804	40473.57
743.143	40336.17
743.483	40280.81
743.823	40075.84
744.162	40191.99
744.502	40206.91
744.841	40128.04
745.181	40391.54
745.52	40079.45
745.86	40193.58
746.199	40055.73
746.538	39890.99
746.877	40137.31
747.216	40004.88
747.556	39995.16
747.895	39854.83
748.234	39748.84
748.573	39707.04
748.911	39648.73
749.25	39696.19
749.589	39545.46
749.928	39611.44
750.267	39527.83
750.605	39353.15
750.944	39403.77
751.283	39252.13
751.621	39316.31
751.96	38959.48
752.298	39086.03
752.636	39054.4
752.975	38919.49
753.313	38827.28
753.651	38886.94
753.989	38712.03
754.327	38632.26
754.666	38378.71
755.004	38632.71
755.342	38595.43
755.679	38415.77
756.017	38312.72
756.355	38354.98
756.693	38109.34
757.031	38222.78
757.368	38038.38
757.706	38013.97
758.044	37787.09
758.381	37860.76
758.719	37670.7
759.056	37811.04
759.394	37570.37
759.731	37337.83
