Data from orange_diffuse_book_FLMS001491_00096.txt Node
Date: Wed Feb 08 15:30:19 GMT 2017
User: dcchb
Spectrometer: FLMS00149
Trigger mode: 0
Integration Time (sec): 2.000000E-2
Scans to average: 10
Electric dark correction enabled: true
Nonlinearity correction enabled: false
Boxcar width: 0
XAxis mode: Wavelengths
Number of Pixels in Spectrum: 2048
>>>>>Begin Spectral Data<<<<<
341.393	-7.9
341.776	-7.9
342.16	-7.9
342.543	-64.39
342.927	-63.26
343.31	-47.67
343.693	-64.84
344.077	-61.23
344.46	-66.42
344.843	-60.1
345.226	-53.77
345.61	-24.62
345.993	-30.49
346.376	-10.16
346.759	17.41
347.142	25.1
347.525	19.67
347.908	69.84
348.291	87.92
348.674	87.24
349.057	112.1
349.44	127.47
349.823	150.74
350.206	193
350.588	204.08
350.971	223.29
351.354	252.66
351.737	253.34
352.119	269.39
352.502	283.62
352.884	280.01
353.267	278.65
353.65	315.26
354.032	332.43
354.414	341.02
354.797	331.98
355.179	354.36
355.562	325.43
355.944	343.06
356.326	360.23
356.709	348.93
357.091	344.64
357.473	360.46
357.855	343.28
358.238	361.36
358.62	351.19
359.002	362.72
359.384	341.02
359.766	357.07
360.148	359.33
360.53	357.07
360.912	332.43
361.294	351.19
361.676	339.21
362.057	357.52
362.439	341.7
362.821	353.45
363.203	339.89
363.584	339.67
363.966	344.64
364.348	332.43
364.729	320.46
365.111	358.42
365.493	333.79
365.874	317.97
366.256	333.34
366.637	310.51
367.019	328.82
367.4	348.93
367.781	337.18
368.163	340.8
368.544	307.12
368.925	348.25
369.306	356.39
369.688	348.48
370.069	342.38
370.45	337.41
370.831	332.21
371.212	329.27
371.593	347.12
371.974	331.98
372.355	317.97
372.736	345.09
373.117	342.38
373.498	340.12
373.879	319.1
374.26	310.29
374.641	347.35
375.021	349.16
375.402	348.93
375.783	338.31
376.163	357.07
376.544	347.35
376.925	334.69
377.305	323.4
377.686	323.4
378.066	345.54
378.447	338.99
378.827	346.67
379.208	335.37
379.588	347.58
379.968	349.16
380.349	360
380.729	362.94
381.109	346.9
381.489	362.04
381.87	336.73
382.25	353.68
382.63	365.65
383.01	371.98
383.39	357.29
383.77	349.61
384.15	344.41
384.53	350.97
384.91	378.08
385.29	374.69
385.67	355.03
386.049	381.02
386.429	359.78
386.809	374.02
387.189	362.26
387.568	364.07
387.948	396.39
388.328	401.13
388.707	376.28
389.087	373.79
389.466	378.31
389.846	385.31
390.225	372.43
390.605	399.1
390.984	408.14
391.363	389.61
391.743	401.81
392.122	410.17
392.501	379.21
392.881	408.59
393.26	401.81
393.639	414.01
394.018	389.16
394.397	401.59
394.776	406.33
395.155	400
395.534	402.49
395.913	410.62
396.292	395.26
396.671	416.73
397.05	392.77
397.429	400
397.808	415.14
398.186	433
398.565	407.69
398.944	411.3
399.323	435.93
399.701	440.23
400.08	409.95
400.458	430.06
400.837	430.74
401.215	441.13
401.594	430.51
401.972	409.95
402.351	429.83
402.729	438.65
403.107	448.36
403.486	437.06
403.864	441.58
404.242	450.4
404.62	441.36
404.999	454.92
405.377	448.14
405.755	449.04
406.133	428.7
406.511	467.8
406.889	463.73
407.267	454.92
407.645	470.28
408.023	477.74
408.401	473.22
408.779	491.75
409.156	468.7
409.534	463.73
409.912	490.4
410.29	479.55
410.667	495.37
411.045	477.74
411.422	493.56
411.8	497.63
412.178	496.5
412.555	516.84
412.933	519.55
413.31	507.35
413.687	507.12
414.065	514.8
414.442	534.69
414.819	544.86
415.197	541.24
415.574	547.8
415.951	547.12
416.328	543.28
416.705	567.46
417.082	546.21
417.46	548.25
417.837	554.12
418.214	559.1
418.591	569.49
418.967	549.6
419.344	560.45
419.721	541.47
420.098	588.47
420.475	598.64
420.852	568.36
421.228	599.09
421.605	600.68
421.982	604.97
422.358	609.49
422.735	640.22
423.111	621.69
423.488	604.07
423.864	610.62
424.241	625.53
424.617	615.82
424.994	626.21
425.37	655.36
425.746	627.34
426.123	633.44
426.499	658.3
426.875	658.98
427.251	671.18
427.627	675.25
428.003	652.65
428.379	666.66
428.756	673.22
429.132	682.26
429.507	690.84
429.883	681.35
430.259	710.5
430.635	710.05
431.011	706.21
431.387	726.32
431.763	721.35
432.138	733.78
432.514	753.21
432.89	748.02
433.265	755.47
433.641	753.89
434.016	745.08
434.392	766.55
434.767	788.92
435.143	785.53
435.518	774.91
435.894	788.92
436.269	808.13
436.644	812.65
437.02	804.29
437.395	839.99
437.77	816.94
438.145	828.92
438.52	853.1
438.895	874.79
439.271	860.1
439.646	863.72
440.021	866.88
440.395	846.09
440.77	856.26
441.145	858.3
441.52	897.62
441.895	896.04
442.27	905.53
442.645	894.23
443.019	894.68
443.394	900.56
443.769	914.57
444.143	922.48
444.518	909.82
444.892	907.79
445.267	935.58
445.641	924.96
446.016	936.26
446.39	947.56
446.764	939.2
447.139	926.09
447.513	947.33
447.887	961.57
448.262	986.43
448.636	953.21
449.01	975.13
449.384	967.22
449.758	965.41
450.132	991.17
450.506	990.04
450.88	983.72
451.254	990.27
451.628	1006.09
452.002	976.71
452.376	1004.96
452.75	993.66
453.123	988.46
453.497	1035.92
453.871	1037.05
454.244	1050.83
454.618	1036.15
454.992	1032.08
455.365	1049.25
455.739	1083.15
456.112	1084.51
456.486	1077.27
456.859	1113.66
457.232	1113.21
457.606	1105.3
457.979	1113.66
458.352	1126.99
458.725	1131.06
459.099	1144.16
459.472	1148.91
459.845	1156.82
460.218	1177.61
460.591	1185.29
460.964	1176.25
461.337	1208.57
461.71	1200.66
462.083	1233.88
462.456	1235.69
462.829	1234.56
463.201	1243.37
463.574	1249.92
463.947	1259.19
464.32	1278.62
464.692	1284.95
465.065	1283.37
465.438	1312.3
465.81	1342.8
466.183	1306.65
466.555	1317.72
466.928	1315.69
467.3	1322.69
467.672	1372.41
468.045	1369.47
468.417	1373.99
468.789	1399.53
469.161	1399.75
469.534	1418.06
469.906	1449.47
470.278	1469.58
470.65	1449.02
471.022	1483.36
471.394	1492.4
471.766	1501.22
472.138	1533.76
472.51	1521.33
472.882	1582.12
473.253	1602.01
473.625	1591.61
473.997	1602.68
474.369	1620.08
474.74	1638.39
475.112	1621.21
475.484	1672.51
475.855	1698.5
476.227	1691.27
476.598	1745.73
476.97	1756.8
477.341	1788.44
477.713	1814.43
478.084	1801.77
478.455	1866.86
478.827	1843.81
479.198	1935.78
479.569	1896.24
479.94	1936.46
480.311	1935.1
480.682	2027.53
481.053	2053.75
481.424	2073.18
481.795	2106.4
482.166	2121.31
482.537	2160.86
482.908	2163.35
483.279	2181.65
483.65	2217.36
484.021	2274.3
484.391	2286.51
484.762	2326.28
485.133	2361.53
485.503	2366.05
485.874	2416.67
486.244	2416.9
486.615	2472.49
486.985	2463.23
487.356	2558.82
487.726	2579.38
488.097	2636.33
488.467	2664.58
488.837	2713.84
489.207	2715.2
489.578	2779.38
489.948	2773.5
490.318	2860.28
490.688	2867.74
491.058	2858.24
491.428	2910.9
491.798	2989.77
492.168	3046.94
492.538	3027.73
492.908	3082.42
493.278	3126.71
493.648	3125.36
494.017	3146.6
494.387	3171.68
494.757	3246.71
495.126	3307.95
495.496	3300.27
495.866	3352.92
496.235	3329.64
496.605	3409.19
496.974	3488.51
497.344	3489.41
497.713	3491.45
498.082	3535.29
498.452	3608.96
498.821	3608.73
499.19	3605.12
499.559	3680.37
499.928	3749.97
500.298	3714.94
500.667	3764.21
501.036	3779.8
501.405	3837.43
501.774	3814.6
502.143	3872.91
502.512	3888.95
502.88	3929.63
503.249	3905.45
503.618	3995.62
503.987	4026.12
504.356	4024.77
504.724	4106.12
505.093	4135.5
505.462	4160.58
505.83	4187.93
506.199	4208.94
506.567	4232.45
506.936	4269.05
507.304	4343.18
507.672	4293.23
508.041	4363.97
508.409	4420.24
508.777	4465.66
509.145	4477.18
509.514	4508.37
509.882	4516.28
510.25	4526
510.618	4587.01
510.986	4639.67
511.354	4649.84
511.722	4709.95
512.09	4717.86
512.458	4727.12
512.826	4771.64
513.193	4805.31
513.561	4801.92
513.929	4855.48
514.297	4936.16
514.664	4932.77
515.032	4965.08
515.4	5014.12
515.767	5029.26
516.135	5057.51
516.502	5054.12
516.869	5135.47
517.237	5175.25
517.604	5172.31
517.972	5197.17
518.339	5239.2
518.706	5243.72
519.073	5298.41
519.44	5325.07
519.808	5404.17
520.175	5380.66
520.542	5478.29
520.909	5470.38
521.276	5516.03
521.643	5507.89
522.009	5578.4
522.376	5657.94
522.743	5658.4
523.11	5731.61
523.477	5759.18
523.843	5788.56
524.21	5845.51
524.577	5884.83
524.943	5903.14
525.31	5978.84
525.676	6070.59
526.043	6058.84
526.409	6086.41
526.776	6134.54
527.142	6177.03
527.508	6213.18
527.874	6220.42
528.241	6257.93
528.607	6229
528.973	6365.27
529.339	6333.63
529.705	6438.04
530.071	6464.02
530.437	6453.63
530.803	6521.88
531.169	6536.34
531.535	6541.31
531.901	6590.12
532.267	6598.71
532.632	6610.01
532.998	6702.44
533.364	6729.78
533.73	6701.76
534.095	6760.29
534.461	6891.13
534.826	6878.7
535.192	6867.4
535.557	6919.83
535.923	6972.94
536.288	6941.3
536.653	6982.88
537.019	7015.65
537.384	7038.7
537.749	7078.02
538.114	7089.77
538.479	7092.03
538.845	7207.73
539.21	7133.84
539.575	7186.72
539.94	7208.41
540.305	7253.61
540.67	7273.5
541.034	7303.1
541.399	7366.15
541.764	7440.72
542.129	7419.93
542.494	7476.43
542.858	7532.7
543.223	7525.69
543.587	7539.93
543.952	7578.35
544.316	7594.16
544.681	7595.52
545.045	7669.19
545.41	7663.32
545.774	7689.53
546.138	7759.81
546.503	7814.5
546.867	7809.07
547.231	7914.16
547.595	7943.08
547.959	7913.25
548.324	8031.89
548.688	7996.19
549.052	8029.86
549.416	8085.68
549.779	8051.33
550.143	8188.05
550.507	8211.32
550.871	8254.94
551.235	8318.89
551.599	8316.41
551.962	8414.26
552.326	8425.33
552.689	8459.9
553.053	8442.28
553.417	8501.49
553.78	8602.73
554.143	8637.75
554.507	8715.49
554.87	8744.87
555.234	8851.08
555.597	8799.1
555.96	8921.14
556.323	8961.36
556.686	8988.03
557.05	9073.22
557.413	9160.45
557.776	9174.91
558.139	9275.7
558.502	9263.5
558.865	9354.57
559.228	9418.3
559.59	9458.97
559.953	9500.56
560.316	9642.02
560.679	9659.65
561.041	9801.34
561.404	9875.69
561.767	9948.68
562.129	9988.68
562.492	10053.31
562.854	10114.32
563.217	10148.45
563.579	10287.65
563.941	10354.09
564.304	10490.13
564.666	10650.13
565.028	10778.71
565.39	10732.61
565.753	10844.25
566.115	10977.8
566.477	10989.1
566.839	11173.28
567.201	11311.13
567.563	11364.01
567.925	11536.43
568.287	11606.94
568.648	11728.07
569.01	11848.52
569.372	11995.63
569.734	12010.77
570.095	12196.08
570.457	12387.49
570.819	12554.03
571.18	12671.09
571.542	12818.43
571.903	12919.67
572.265	13183.4
572.626	13307.69
572.987	13479.21
573.349	13645.53
573.71	13917.16
574.071	13991.28
574.432	14261.56
574.794	14513.53
575.155	14606.41
575.516	14746.97
575.877	15041.2
576.238	15183.57
576.599	15438.48
576.96	15677.12
577.32	15829.65
577.681	16154.39
578.042	16446.14
578.403	16729.97
578.763	16975.39
579.124	17320.24
579.485	17649.04
579.845	17955.7
580.206	18115.02
580.566	18448.12
580.927	18793.19
581.287	19163.58
581.648	19351.14
582.008	19716.56
582.368	20132.37
582.728	20414.17
583.089	20672.46
583.449	21159.23
583.809	21465.44
584.169	21855.71
584.529	22129.6
584.889	22811.17
585.249	22971.39
585.609	23264.04
585.969	23896.11
586.329	24219.04
586.688	24695.64
587.048	25022.18
587.408	25454.03
587.768	25891.76
588.127	26368.36
588.487	26696.26
588.846	27352.97
589.206	27616.01
589.565	28108.65
589.925	28600.39
590.284	28931.91
590.643	29548.16
591.003	29938.66
591.362	30441.7
591.721	30861.58
592.08	31462.24
592.44	32002.34
592.799	32416.11
593.158	32769.1
593.517	33313.94
593.876	33941.49
594.235	34296.29
594.593	34762.26
594.952	35339.42
595.311	35706.42
595.67	36205.39
596.029	36857.58
596.387	37382.76
596.746	37798.34
597.104	38137.99
597.463	38495.27
597.822	39179.55
598.18	39473.1
598.538	39865.63
598.897	40687.76
599.255	40782.44
599.613	41718.24
599.972	41845.24
600.33	42294.5
600.688	42607.03
601.046	43197.3
601.404	43611.52
601.762	44000.67
602.12	44470.71
602.478	44916.12
602.836	45237.24
603.194	45370.12
603.552	45757.46
603.91	45957.68
604.268	46594.5
604.625	46678.79
604.983	47173.01
605.341	47282.16
605.698	47833.33
606.056	48162.82
606.413	48310.16
606.771	48651.84
607.128	48895
607.485	49078.95
607.843	49200.08
608.2	49634.19
608.557	49967.74
608.914	50097.45
609.272	50443.89
609.629	50829.19
609.986	51001.84
610.343	51005.45
610.7	51362.28
611.057	51443.18
611.414	51586.23
611.771	51829.61
612.127	51907.8
612.484	52066.22
612.841	52358.86
613.198	52307.11
613.554	52485.64
613.911	52780.1
614.267	52859.87
614.624	52852.86
614.98	53071.16
615.337	53301.21
615.693	53379.85
616.05	53383.24
616.406	53647.64
616.762	53608.32
617.118	53738.49
617.475	53746.85
617.831	53896.9
618.187	54105.03
618.543	54176.44
618.899	54353.16
619.255	54320.39
619.611	54484.46
619.967	54547.28
620.323	54623.21
620.678	54615.08
621.034	54564.68
621.39	54631.35
621.746	54649.88
622.101	55023.65
622.457	54845.35
622.812	54848.29
623.168	55013.03
623.523	55012.8
623.879	55148.62
624.234	54961.51
624.589	55128.28
624.945	55135.29
625.3	55185.23
625.655	55320.82
626.01	55351.33
626.365	55322.63
626.72	55307.26
627.075	55297.77
627.43	55262.06
627.785	55290.99
628.14	55430.87
628.495	55475.17
628.85	55413.02
629.205	55402.4
629.559	55530.31
629.914	55522.85
630.269	55516.52
630.623	55451.21
630.978	55366.02
631.332	55661.6
631.687	55648.04
632.041	55519.46
632.396	55535.05
632.75	55434.71
633.104	55538.89
633.459	55403.3
633.813	55415.51
634.167	55466.13
634.521	55411.89
634.875	55531.44
635.229	55490.08
635.583	55396.52
635.937	55397.2
636.291	55412.12
636.645	55389.29
636.999	55309.75
637.352	55480.59
637.706	55248.28
638.06	55345.23
638.413	55307.94
638.767	55308.84
639.121	55363.53
639.474	55237.66
639.828	55174.38
640.181	55203.53
640.534	55333.25
640.888	55181.84
641.241	55149.07
641.594	55209.18
641.947	55268.17
642.301	55234.27
642.654	55203.31
643.007	55279.92
643.36	55186.36
643.713	55193.59
644.066	55288.28
644.419	55018.23
644.771	54881.06
645.124	54661.85
645.477	54625.47
645.83	54475.64
646.182	54343.44
646.535	54325.37
646.888	54382.99
647.24	54265.93
647.593	54397
647.945	54350.22
648.298	54192.71
648.65	54127.18
649.002	54129.44
649.355	54270.45
649.707	54173.96
650.059	54286.27
650.411	54576.21
650.763	54694.17
651.115	54993.82
651.467	54839.93
651.819	54851.68
652.171	54834.28
652.523	54715.19
652.875	54766.48
653.227	54733.04
653.578	54906.14
653.93	54724.22
654.282	54732.59
654.633	54627.28
654.985	54711.57
655.337	54778.46
655.688	54760.38
656.039	54789.53
656.391	54660.27
656.742	54642.87
657.094	54645.36
657.445	54733.72
657.796	54744.34
658.147	54650.55
658.498	54694.62
658.849	54717.9
659.2	54716.54
659.551	54610.78
659.902	54683.77
660.253	54633.61
660.604	54660.05
660.955	54636.32
661.306	54610.78
661.656	54605.81
662.007	54637.22
662.358	54582.08
662.708	54578.47
663.059	54608.97
663.409	54397.91
663.76	54641.06
664.11	54608.52
664.461	54693.27
664.811	54638.13
665.161	54581.4
665.511	54537.56
665.862	54540.73
666.212	54614.85
666.562	54585.02
666.912	54572.14
667.262	54576.88
667.612	54481.97
667.962	54456.21
668.312	54454.18
668.662	54588.86
669.011	54364.01
669.361	54471.35
669.711	54507.96
670.06	54330.56
670.41	54317
670.76	54255.54
671.109	54387.96
671.459	54251.47
671.808	54232.71
672.157	54298.47
672.507	54161.98
672.856	54124.69
673.205	54224.35
673.554	54213.96
673.904	54091.25
674.253	54419.37
674.602	54124.47
674.951	53724.7
675.3	53597.7
675.649	54043.11
675.998	53995.66
676.346	54043.11
676.695	54098.03
677.044	53876.56
677.393	54004.02
677.741	54014.41
678.09	53956.34
678.438	53851.93
678.787	53894.19
679.135	53988.2
679.484	53714.53
679.832	53897.35
680.181	53558.38
680.529	53767.64
680.877	53703.46
681.225	53619.85
681.573	53780.29
681.922	53663.01
682.27	53541.66
682.618	53579.62
682.966	53445.39
683.314	53564.26
683.661	53391.83
684.009	53235
684.357	53271.61
684.705	53109.8
685.053	53233.19
685.4	53158.84
685.748	53037.49
686.095	52936.7
686.443	52846.99
686.79	52790.72
687.138	52883.14
687.485	52911.62
687.832	52702.81
688.18	52741
688.527	52565.41
688.874	52671.17
689.221	52537.84
689.568	52463.95
689.915	52389.15
690.262	52299.66
690.609	52201.81
690.956	52098.98
691.303	52131.75
691.65	51884.53
691.997	52003.84
692.344	51717.52
692.69	51716.17
693.037	51817.63
693.383	51460.36
693.73	51575.16
694.077	51287.71
694.423	51442.28
694.769	51325.9
695.116	51213.13
695.462	51153.7
695.808	51028.5
696.155	51087.03
696.501	50864.21
696.847	50828.73
697.193	50640.72
697.539	50816.76
697.885	50410.89
698.231	50355.75
698.577	50351.23
698.923	50242.53
699.269	50092.71
699.614	49892.26
699.96	49819.5
700.306	49933.84
700.651	49786.28
700.997	49599.16
701.342	49536.34
701.688	49475.1
702.033	49284.59
702.379	49347.64
702.724	49246.18
703.069	49281.66
703.415	48858.84
703.76	48895.9
704.105	48784.95
704.45	48846.19
704.795	48476.71
705.14	48393.32
705.485	48426.09
705.83	48242.14
706.175	48263.15
706.52	48229.48
706.865	47951.3
707.209	47922.6
707.554	47822.49
707.899	47859.32
708.243	47615.26
708.588	47569.16
708.932	47372.1
709.277	47227.47
709.621	47256.62
709.966	46973.92
710.31	47171.88
710.654	46958.55
710.998	46928.27
711.342	46988.16
711.687	46744.55
712.031	46583.2
712.375	46454.16
712.719	46536.87
713.063	46428.4
713.407	46527.6
713.75	46371.22
714.094	46236.09
714.438	46155.86
714.782	46248.97
715.125	46048.29
715.469	46081.29
715.812	45844.23
716.156	45703.9
716.499	45607.85
716.843	45675.65
717.186	45486.05
717.53	45735.31
717.873	45583.9
718.216	45564.69
718.559	45334.87
718.902	45202.67
719.246	45235.66
719.589	45076.12
719.932	44977.59
720.275	44908.44
720.617	44990.7
720.96	44946.85
721.303	44830.7
721.646	44762
721.989	44560.88
722.331	44811.72
722.674	44462.35
723.016	44524.04
723.359	44465.51
723.701	44477.04
724.044	44225.52
724.386	44107.78
724.729	44260.55
725.071	44101
725.413	44070.72
725.755	44120.44
726.097	43937.39
726.439	43784.4
726.782	43865.98
727.124	44021.68
727.465	43775.59
727.807	43736.72
728.149	43753.44
728.491	43554.12
728.833	43729.03
729.175	43611.97
729.516	43424.86
729.858	43378.31
730.199	43618.3
730.541	43341.47
730.882	43307.35
731.224	43482.94
731.565	43051.31
731.906	43142.61
732.248	43276.16
732.589	43081.14
732.93	42932.67
733.271	42859.9
733.612	42890.19
733.953	42946.91
734.294	42817.87
734.635	42800.47
734.976	42856.51
735.317	42680.02
735.658	42533.36
735.999	42531.33
736.339	42596.41
736.68	42621.27
737.021	42537.65
737.361	42267.38
737.702	42596.41
738.042	42361.61
738.383	42211.79
738.723	42411.78
739.063	42115.97
739.404	42380.14
739.744	42284.78
740.084	42175.18
740.424	42155.52
740.764	42159.36
741.104	42115.29
741.444	41940.83
741.784	41742.19
742.124	41967.05
742.464	41814.51
742.804	41621.07
743.143	41683.44
743.483	41789.42
743.823	41420.39
744.162	41534.97
744.502	41607.51
744.841	41538.81
745.181	41515.31
745.52	41330.23
745.86	41291.13
746.199	41285.48
746.538	41318.02
746.877	41349.21
747.216	41142.89
747.556	41256.33
747.895	41207.07
748.234	40928.88
748.573	40876.91
748.911	40804.82
749.25	40948.09
749.589	40771.82
749.928	40805.04
750.267	40858.6
750.605	40763.46
750.944	40683.01
751.283	40465.39
751.621	40587.2
751.96	40380.2
752.298	40322.57
752.636	40382.91
752.975	40225.17
753.313	40046.42
753.651	40283.02
753.989	39994.89
754.327	39873.09
754.666	39837.38
755.004	39788.57
755.342	39852.75
755.679	39784.05
756.017	39572.53
756.355	39594.91
756.693	39367.34
757.031	39489.82
757.368	39271.07
757.706	39266.33
758.044	39054.13
758.381	39174.13
758.719	39061.13
759.056	39044.41
759.394	38751.09
759.731	38551.77
