Data from orange_diffuse_book_FLMS001491_00016.txt Node
Date: Wed Feb 08 15:29:12 GMT 2017
User: dcchb
Spectrometer: FLMS00149
Trigger mode: 0
Integration Time (sec): 2.000000E-2
Scans to average: 10
Electric dark correction enabled: true
Nonlinearity correction enabled: false
Boxcar width: 0
XAxis mode: Wavelengths
Number of Pixels in Spectrum: 2048
>>>>>Begin Spectral Data<<<<<
341.393	-19.29
341.776	-19.29
342.16	-19.29
342.543	-69.69
342.927	-83.25
343.31	-65.85
343.693	-52.29
344.077	-62.46
344.46	-66.75
344.843	-56.13
345.226	-40.08
345.61	-24.49
345.993	-24.04
346.376	-3.25
346.759	-15.9
347.142	13.02
347.525	42.63
347.908	59.35
348.291	73.13
348.674	108.16
349.057	114.94
349.44	143.41
349.823	148.39
350.206	167.82
350.588	209.4
350.971	222.51
351.354	246.01
351.737	226.35
352.119	263.19
352.502	272
352.884	280.13
353.267	288.04
353.65	303.86
354.032	312.9
354.414	309.06
354.797	324.65
355.179	332.11
355.562	340.25
355.944	326.46
356.326	329.62
356.709	330.75
357.091	354.71
357.473	359.68
357.855	344.09
358.238	345.67
358.62	368.72
359.002	361.49
359.384	366.01
359.766	345.67
360.148	361.26
360.53	356.97
360.912	352.22
361.294	352.45
361.676	346.57
362.057	339.57
362.439	332.79
362.821	364.43
363.203	348.83
363.584	364.43
363.966	331.66
364.348	337.99
364.729	340.47
365.111	347.02
365.493	345.89
365.874	336.4
366.256	325.1
366.637	331.66
367.019	320.36
367.4	319.23
367.781	319.91
368.163	330.75
368.544	321.94
368.925	316.74
369.306	325.56
369.688	339.57
370.069	311.77
370.45	333.92
370.831	315.16
371.212	327.82
371.593	324.2
371.974	334.37
372.355	325.1
372.736	335.73
373.117	338.89
373.498	323.97
373.879	321.94
374.26	339.34
374.641	327.82
375.021	354.48
375.402	338.21
375.783	337.53
376.163	366.91
376.544	338.89
376.925	327.59
377.305	328.49
377.686	336.86
378.066	330.75
378.447	319.45
378.827	334.6
379.208	344.76
379.588	344.54
379.968	337.31
380.349	332.79
380.729	358.78
381.109	348.15
381.489	345.22
381.87	351.77
382.25	337.76
382.63	349.28
383.01	340.02
383.39	352.9
383.77	359.45
384.15	357.19
384.53	336.86
384.91	326.91
385.29	360.58
385.67	374.59
386.049	363.97
386.429	342.51
386.809	383.18
387.189	356.06
387.568	376.85
387.948	366.23
388.328	370.98
388.707	376.63
389.087	347.7
389.466	362.39
389.846	369.4
390.225	380.24
390.605	383.63
390.984	383.18
391.363	371.43
391.743	376.18
392.122	374.82
392.501	380.92
392.881	393.35
393.26	388.61
393.639	405.55
394.018	405.55
394.397	381.83
394.776	381.83
395.155	417.98
395.534	413.69
395.913	401.71
396.292	412.79
396.671	396.29
397.05	413.24
397.429	418.89
397.808	387.25
398.186	403.07
398.565	431.54
398.944	401.71
399.323	412.79
399.701	406.91
400.08	393.8
400.458	402.84
400.837	404.88
401.215	407.59
401.594	418.66
401.972	422.73
402.351	407.59
402.729	422.05
403.107	404.2
403.486	448.49
403.864	440.36
404.242	430.64
404.62	427.25
404.999	453.46
405.377	440.36
405.755	447.14
406.133	458.21
406.511	449.85
406.889	439.68
407.267	441.03
407.645	409.17
408.023	460.69
408.401	443.07
408.779	470.86
409.156	470.64
409.534	466.57
409.912	485.33
410.29	480.13
410.667	474.03
411.045	462.5
411.422	492.56
411.8	469.73
412.178	486.91
412.555	495.04
412.933	493.91
413.31	487.59
413.687	490.98
414.065	505.21
414.442	515.83
414.819	526.46
415.197	508.15
415.574	501.6
415.951	488.04
416.328	516.74
416.705	532.56
417.082	525.78
417.46	510.64
417.837	537.75
418.214	550.41
418.591	553.12
418.967	554.7
419.344	554.25
419.721	547.02
420.098	544.76
420.475	549.96
420.852	544.31
421.228	559.67
421.605	543.4
421.982	548.15
422.358	564.87
422.735	570.97
423.111	573.69
423.488	551.09
423.864	571.43
424.241	583.85
424.617	587.47
424.994	610.29
425.37	588.6
425.746	604.42
426.123	593.12
426.499	599.9
426.875	608.71
427.251	625.21
427.627	627.02
428.003	632.89
428.379	646.23
428.756	643.74
429.132	641.71
429.507	640.8
429.883	659.11
430.259	636.06
430.635	662.27
431.011	637.19
431.387	672.67
431.763	688.94
432.138	682.38
432.514	682.16
432.89	727.35
433.265	714.02
433.641	711.53
434.016	721.93
434.392	718.09
434.767	738.88
435.143	729.16
435.518	743.85
435.894	742.95
436.269	743.62
436.644	750.4
437.02	786.79
437.395	758.54
437.77	759.67
438.145	756.51
438.52	803.28
438.895	772.55
439.271	802.38
439.646	805.32
440.021	799.44
440.395	789.5
440.77	803.51
441.145	819.33
441.52	839.67
441.895	807.13
442.27	829.72
442.645	832.44
443.019	821.36
443.394	829.27
443.769	844.19
444.143	836.5
444.518	841.93
444.892	829.95
445.267	838.76
445.641	856.84
446.016	856.16
446.39	876.73
446.764	866.33
447.139	870.17
447.513	895.03
447.887	876.95
448.262	885.54
448.636	892.32
449.01	896.61
449.384	879.89
449.758	895.26
450.132	918.31
450.506	913.79
450.88	947.23
451.254	906.78
451.628	915.15
452.002	960.34
452.376	930.29
452.75	949.95
453.123	958.31
453.497	960.34
453.871	973
454.244	970.74
454.618	980.23
454.992	1001.47
455.365	981.13
455.739	990.85
456.112	1005.31
456.486	987.01
456.859	1018.19
457.232	1046.89
457.606	1045.09
457.979	1039.66
458.352	1083.73
458.725	1046.67
459.099	1051.64
459.472	1076.27
459.845	1094.58
460.218	1073.33
460.591	1103.16
460.964	1102.26
461.337	1087.12
461.71	1135.03
462.083	1151.52
462.456	1172.99
462.829	1165.08
463.201	1158.75
463.574	1161.47
463.947	1174.8
464.32	1160.79
464.692	1215.25
465.065	1213.22
465.438	1212.09
465.81	1212.76
466.183	1251.63
466.555	1275.14
466.928	1242.14
467.3	1262.93
467.672	1282.82
468.045	1314.68
468.417	1303.38
468.789	1316.26
469.161	1323.72
469.534	1322.14
469.906	1357.85
470.278	1337.73
470.65	1388.35
471.022	1412.53
471.394	1399.65
471.766	1443.27
472.138	1414.79
472.51	1460.89
472.882	1462.93
473.253	1488.69
473.625	1496.15
473.997	1532.3
474.369	1519.88
474.74	1565.3
475.112	1575.92
475.484	1592.19
475.855	1589.93
476.227	1601.91
476.598	1643.94
476.97	1650.95
477.341	1693.88
477.713	1693.66
478.084	1722.36
478.455	1755.8
478.827	1756.03
479.198	1797.38
479.569	1848.45
479.94	1845.52
480.311	1882.8
480.682	1886.19
481.053	1940.43
481.424	1975.68
481.795	1995.34
482.166	1994.67
482.537	2044.61
482.908	2050.93
483.279	2065.62
483.65	2140.42
484.021	2152.85
484.391	2190.82
484.762	2173.19
485.133	2258.84
485.503	2311.04
485.874	2303.13
486.244	2336.13
486.615	2355.11
486.985	2365.05
487.356	2439.63
487.726	2456.8
488.097	2515.1
488.467	2513.75
488.837	2551.94
489.207	2624.93
489.578	2621.54
489.948	2679.84
490.318	2668.32
490.688	2718.71
491.058	2807.53
491.428	2812.04
491.798	2860.86
492.168	2899.95
492.538	2917.8
492.908	2951.02
493.278	2999.84
493.648	2986.05
494.017	3022.89
494.387	3053.85
494.757	3139.95
495.126	3121.64
495.496	3184.01
495.866	3193.96
496.235	3217.01
496.605	3277.57
496.974	3334.29
497.344	3316.89
497.713	3343.78
498.082	3363.44
498.452	3424.01
498.821	3456.55
499.19	3475.3
499.559	3562.76
499.928	3563.89
500.298	3587.84
500.667	3617.45
501.036	3618.13
501.405	3640.05
501.774	3710.55
502.143	3695.64
502.512	3728.4
502.88	3811.11
503.249	3786.26
503.618	3839.36
503.987	3842.3
504.356	3910.77
504.724	3888.17
505.093	3925.01
505.462	3966.82
505.83	3955.29
506.199	4004.56
506.567	4068.51
506.936	4101.73
507.304	4127.94
507.672	4186.02
508.041	4155.96
508.409	4197.77
508.777	4244.32
509.145	4326.58
509.514	4279.8
509.882	4290.42
510.25	4342.17
510.618	4404.55
510.986	4353.47
511.354	4450.65
511.722	4476.41
512.09	4553.47
512.458	4544.2
512.826	4583.75
513.193	4574.26
513.561	4573.35
513.929	4629.62
514.297	4654.26
514.664	4669.62
515.032	4686.35
515.4	4760.47
515.767	4780.81
516.135	4821.03
516.502	4809.05
516.869	4899.22
517.237	4928.37
517.604	4971.76
517.972	4932.21
518.339	5028.26
518.706	5049.27
519.073	5029.16
519.44	5050.63
519.808	5165.88
520.175	5125.43
520.542	5218.76
520.909	5212.66
521.276	5201.13
521.643	5302.6
522.009	5347.35
522.376	5367.46
522.743	5447.91
523.11	5482.03
523.477	5544.18
523.843	5538.75
524.21	5604.29
524.577	5668.24
524.943	5669.37
525.31	5724.28
525.676	5742.14
526.043	5793.66
526.409	5850.16
526.776	5827.78
527.142	5870.72
527.508	5874.79
527.874	5956.82
528.241	5961.79
528.607	6026.88
528.973	6075.01
529.339	6052.86
529.705	6137.83
530.071	6115.46
530.437	6152.07
530.803	6257.15
531.169	6289.47
531.535	6284.5
531.901	6254.21
532.267	6286.53
532.632	6318.62
532.998	6385.28
533.364	6414.44
533.73	6407.2
534.095	6457.15
534.461	6510.7
534.826	6565.39
535.192	6524.72
535.557	6591.15
535.923	6601.55
536.288	6613.3
536.653	6638.16
537.019	6626.86
537.384	6724.94
537.749	6738.5
538.114	6754.31
538.479	6737.59
538.845	6815.56
539.21	6750.92
539.575	6847.64
539.94	6887.64
540.305	6898.94
540.67	6867.31
541.034	6966.06
541.399	7003.57
541.764	7010.8
542.129	7154.98
542.494	7054.65
542.858	7153.63
543.223	7166.51
543.587	7183.46
543.952	7231.82
544.316	7229.56
544.681	7259.84
545.045	7279.72
545.41	7320.85
545.774	7370.57
546.138	7374.18
546.503	7398.59
546.867	7458.02
547.231	7495.54
547.595	7546.16
547.959	7574.63
548.324	7563.78
548.688	7633.84
549.052	7625.7
549.416	7654.18
549.779	7753.61
550.143	7809.43
550.507	7794.06
550.871	7857.34
551.235	7892.36
551.599	7921.51
551.962	7949.08
552.326	8046.94
552.689	8145.69
553.053	8105.46
553.417	8165.58
553.78	8203.99
554.143	8275.4
554.507	8289.87
554.87	8337.55
555.234	8439.69
555.597	8368.73
555.96	8505.45
556.323	8475.62
556.686	8554.72
557.05	8679.01
557.413	8689.86
557.776	8799.23
558.139	8839.68
558.502	8853.24
558.865	8903.41
559.228	9050.3
559.59	9066.8
559.953	9136.4
560.316	9201.93
560.679	9239.9
561.041	9321.25
561.404	9490.06
561.767	9508.37
562.129	9507.46
562.492	9669.72
562.854	9689.83
563.217	9769.83
563.579	9816.38
563.941	9899.09
564.304	10064.51
564.666	10163.94
565.028	10243.71
565.39	10314.22
565.753	10447.1
566.115	10587.89
566.477	10564.84
566.839	10717.15
567.201	10866.07
567.563	10948.55
567.925	11011.83
568.287	11133.41
568.648	11237.13
569.01	11392.16
569.372	11495.88
569.734	11562.1
570.095	11776.33
570.457	11864.24
570.819	12019.26
571.18	12158.92
571.542	12302.64
571.903	12461.06
572.265	12665.8
572.626	12815.4
572.987	12942.63
573.349	13107.59
573.71	13310.98
574.071	13578.99
574.432	13663.06
574.794	13897.63
575.155	14141.24
575.516	14201.58
575.877	14544.62
576.238	14785.74
576.599	14900.99
576.96	15122
577.32	15284.94
577.681	15627.98
578.042	15888.31
578.403	16073.62
578.763	16384.34
579.124	16552.93
579.485	16996.08
579.845	17207.37
580.206	17519.23
580.566	17690.07
580.927	18053.9
581.287	18490.95
581.648	18602.14
582.008	19048.91
582.368	19255.45
582.728	19659.06
583.089	19934.76
583.449	20245.94
583.809	20569.54
584.169	21101.28
584.529	21356.42
584.889	21843.18
585.249	22174.47
585.609	22438.87
585.969	22978.97
586.329	23303.71
586.688	23770.82
587.048	24065.05
587.408	24458.93
587.768	24855.76
588.127	25232.25
588.487	25558.79
588.846	26269.96
589.206	26572.78
589.565	26942.03
589.925	27595.8
590.284	27957.37
590.643	28403.46
591.003	28803.23
591.362	29268.98
591.721	29714.61
592.08	30120.25
592.44	30715.49
592.799	31131.75
593.158	31675.24
593.517	31976.02
593.876	32500.76
594.235	33004.92
594.593	33391.13
594.952	34034.27
595.311	34331.22
595.67	34889.62
596.029	35494.8
596.387	35945.86
596.746	36398.05
597.104	36663.36
597.463	37092.5
597.822	37743.33
598.18	38095.41
598.538	38513.48
598.897	39218.55
599.255	39223.29
599.613	40129.48
599.972	40272.3
600.33	40875
600.688	41019.63
601.046	41557.01
601.404	41973.05
601.762	42395.18
602.12	43127.37
602.478	43371.43
602.836	43555.83
603.194	43699.78
603.552	44149.49
603.91	44511.51
604.268	45020.88
604.625	45159.63
604.983	45769.33
605.341	45889.78
605.698	46391.69
606.056	46769.53
606.413	46946.48
606.771	47256.53
607.128	47581.71
607.485	47733.58
607.843	48005.66
608.2	48354.12
608.557	48727.45
608.914	48731.06
609.272	49210.15
609.629	49454.66
609.986	49675.67
610.343	49656.91
610.7	50163.57
611.057	50199.05
611.414	50404.69
611.771	50591.35
612.127	50832.48
612.484	50905.7
612.841	51119.02
613.198	51076.31
613.554	51389.3
613.911	51599.46
614.267	51571.89
614.624	51722.17
614.98	51903.18
615.337	52221.59
615.693	52245.1
616.05	52370.06
616.406	52551.75
616.762	52488.48
617.118	52650.28
617.475	52645.76
617.831	52936.38
618.187	52973.66
618.543	53073.1
618.899	53297.04
619.255	53284.62
619.611	53334.33
619.967	53576.59
620.323	53615.91
620.678	53514.21
621.034	53514.67
621.39	53546.08
621.746	53522.58
622.101	53999.17
622.457	53782.23
622.812	53842.12
623.168	53955.33
623.523	53990.36
623.879	54112.84
624.234	53950.81
624.589	54104.93
624.945	54181.09
625.3	54274.65
625.655	54264.7
626.01	54245.95
626.365	54323.68
626.72	54350.58
627.075	54374.08
627.43	54350.12
627.785	54321.42
628.14	54521.87
628.495	54472.61
628.85	54515.09
629.205	54426.28
629.559	54647.29
629.914	54466.73
630.269	54508.09
630.623	54470.35
630.978	54427.86
631.332	54538.82
631.687	54645.26
632.041	54605.49
632.396	54601.64
632.75	54486.62
633.104	54605.71
633.459	54461.99
633.813	54459.27
634.167	54433.96
634.521	54465.38
634.875	54607.97
635.229	54476.9
635.583	54380.18
635.937	54417.02
636.291	54371.82
636.645	54367.53
636.999	54377.92
637.352	54481.42
637.706	54364.14
638.06	54374.08
638.413	54301.09
638.767	54286.85
639.121	54334.31
639.474	54207.76
639.828	54159.4
640.181	54205.95
640.534	54249.34
640.888	54118.04
641.241	54042.79
641.594	54175.89
641.947	54222.67
642.301	54113.52
642.654	54163.01
643.007	54162.11
643.36	54142.45
643.713	54162.78
644.066	54301.54
644.419	54069.45
644.771	53789.46
645.124	53535
645.477	53520.09
645.83	53375.01
646.182	53305.63
646.535	53249.14
646.888	53349.92
647.24	53152.64
647.593	53418.62
647.945	53311.96
648.298	53142.92
648.65	53072.64
649.002	53022.25
649.355	53158.97
649.707	53099.76
650.059	53273.32
650.411	53643.02
650.763	53622.46
651.115	53947.42
651.467	53790.37
651.819	53855.45
652.171	53786.75
652.523	53735.45
652.875	53744.49
653.227	53574.33
653.578	53767.99
653.93	53697.26
654.282	53630.37
654.633	53596.02
654.985	53724.83
655.337	53696.58
655.688	53706.53
656.039	53721.67
656.391	53533.2
656.742	53617.94
657.094	53685.51
657.445	53693.87
657.796	53651.16
658.147	53534.78
658.498	53627.66
658.849	53629.92
659.2	53575.91
659.551	53608.68
659.902	53745.62
660.253	53681.44
660.604	53669.24
660.955	53408.23
661.306	53577.72
661.656	53568
662.007	53615.23
662.358	53633.08
662.708	53501.33
663.059	53509.69
663.409	53350.15
663.76	53553.31
664.11	53481.67
664.461	53522.12
664.811	53570.03
665.161	53520.99
665.511	53411.17
665.862	53486.64
666.212	53577.04
666.562	53545.63
666.912	53480.99
667.262	53395.57
667.612	53459.75
667.962	53419.3
668.312	53287.55
668.662	53561.22
669.011	53389.47
669.361	53398.74
669.711	53429.92
670.06	53348.34
670.41	53313.54
670.76	53199.19
671.109	53356.25
671.459	53275.35
671.808	53162.81
672.157	53268.8
672.507	53100.44
672.856	53092.76
673.205	53214.56
673.554	53256.59
673.904	53111.74
674.253	53215.01
674.602	53086.65
674.951	52608.48
675.3	52481.25
675.649	52946.55
675.998	52931.86
676.346	52970.5
676.695	53009.14
677.044	52789.04
677.393	52875.14
677.741	52890.28
678.09	52837.62
678.438	52772.99
678.787	52869.71
679.135	52912.2
679.484	52594.01
679.832	52700.22
680.181	52511.98
680.529	52704.07
680.877	52601.47
681.225	52563.28
681.573	52742.03
681.922	52492.55
682.27	52314.47
682.618	52462.49
682.966	52365.32
683.314	52393.11
683.661	52301.14
684.009	52192.22
684.357	52096.85
684.705	52058.66
685.053	52168.94
685.4	52094.82
685.748	51812.11
686.095	51813.69
686.443	51748.84
686.79	51687.14
687.138	51845.33
687.485	51784.32
687.832	51659.8
688.18	51587.94
688.527	51451.9
688.874	51370.99
689.221	51317.44
689.568	51214.39
689.915	51180.26
690.262	51179.36
690.609	51167.16
690.956	51060.72
691.303	50980.72
691.65	50803.55
691.997	50784.79
692.344	50523.56
692.69	50588.19
693.037	50702.99
693.383	50368.08
693.73	50381.42
694.077	50245.6
694.423	50284.47
694.769	50046.51
695.116	50104.13
695.462	49983.01
695.808	49782.34
696.155	49879.51
696.501	49495.11
696.847	49508.44
697.193	49426.19
697.539	49603.58
697.885	49175.8
698.231	49089.92
698.577	49060.55
698.923	48887.44
699.269	48852.64
699.614	48665.53
699.96	48578.75
700.306	48482.93
700.651	48439.77
700.997	48298.76
701.342	48260.12
701.688	48098.54
702.033	47944.42
702.379	47958.43
702.724	47751.88
703.069	47942.16
703.415	47473.7
703.76	47539.91
704.105	47366.13
704.45	47337.43
704.795	47180.6
705.14	47060.82
705.485	46939.25
705.83	46934.27
706.175	46917.33
706.52	46768.4
706.865	46634.17
707.209	46561.85
707.554	46423.55
707.899	46474.63
708.243	46394.85
708.588	46242.54
708.932	45856.34
709.277	45934.07
709.621	45949.89
709.966	45659.96
710.31	45788.99
710.654	45409.34
710.998	45522.56
711.342	45431.04
711.687	45454.77
712.031	45247.31
712.375	45037.83
712.719	45205.28
713.063	45084.83
713.407	45211.83
713.75	44969.35
714.094	44838.96
714.438	44635.58
714.782	44559.87
715.125	44530.27
715.469	44739.53
715.812	44359.65
716.156	44341.57
716.499	44233.33
716.843	44319.88
717.186	44109.26
717.53	44229.94
717.873	44179.09
718.216	44053.9
718.559	43969.38
718.902	43573.91
719.246	43791.98
719.589	43542.27
719.932	43519.22
720.275	43544.53
720.617	43466.57
720.96	43511.09
721.303	43411.2
721.646	43358.32
721.989	43131.44
722.331	43272
722.674	43147.26
723.016	43125.11
723.359	43087.6
723.701	43054.83
724.044	42917.2
724.386	42658.23
724.729	42882.86
725.071	42803.54
725.413	42697.78
725.755	42735.74
726.097	42507.5
726.439	42331.46
726.782	42366.94
727.124	42471.57
727.465	42333.72
727.807	42384.56
728.149	42226.83
728.491	42208.97
728.833	42299.82
729.175	42034.29
729.516	42060.73
729.858	42004.23
730.199	42000.62
730.541	42034.52
730.882	41757.91
731.224	42004.91
731.565	41689.21
731.906	41773.28
732.248	41815.54
732.589	41639.27
732.93	41434.53
733.271	41533.06
733.612	41492.16
733.953	41510.91
734.294	41395.89
734.635	41216.68
734.976	41361.09
735.317	41145.5
735.658	41123.58
735.999	41341.65
736.339	41200.41
736.68	41226.85
737.021	41136.01
737.361	40854.43
737.702	41292.61
738.042	40964.71
738.383	40924.94
738.723	40884.49
739.063	40797.49
739.404	40743.7
739.744	40736.02
740.084	40702.8
740.424	40686.08
740.764	40508.23
741.104	40720.43
741.444	40481.56
741.784	40368.35
742.124	40522.92
742.464	40429.81
742.804	40392.98
743.143	40268.23
743.483	40232.53
743.823	40219.2
744.162	40068.69
744.502	40143.04
744.841	40009.03
745.181	40180.78
745.52	40053.55
745.86	40070.73
746.199	39918.87
746.538	39922.03
746.877	39994.34
747.216	39906.89
747.556	39791.19
747.895	39836.38
748.234	39581.25
748.573	39591.64
748.911	39586.44
749.25	39547.58
749.589	39384.19
749.928	39499.22
750.267	39399.33
750.605	39333.34
750.944	39399.78
751.283	39105.1
751.621	39176.51
751.96	39008.61
752.298	39096.29
752.636	39072.79
752.975	38787.6
753.313	38683.87
753.651	38885.45
753.989	38537.21
754.327	38512.35
754.666	38442.07
755.004	38458.34
755.342	38434.38
755.679	38495.4
756.017	38134.73
756.355	38196.88
756.693	38094.05
757.031	38158.91
757.368	37971.35
757.706	37858.81
758.044	37647.06
758.381	37816.32
758.719	37734.06
759.056	37754.4
