Data from orange_diffuse_book_FLMS001491_00099.txt Node
Date: Wed Feb 08 15:30:19 GMT 2017
User: dcchb
Spectrometer: FLMS00149
Trigger mode: 0
Integration Time (sec): 2.000000E-2
Scans to average: 10
Electric dark correction enabled: true
Nonlinearity correction enabled: false
Boxcar width: 0
XAxis mode: Wavelengths
Number of Pixels in Spectrum: 2048
>>>>>Begin Spectral Data<<<<<
341.393	5.14
341.776	5.14
342.16	5.14
342.543	-62.43
342.927	-67.4
343.31	-75.08
343.693	-67.63
344.077	-85.7
344.46	-61.98
344.843	-53.39
345.226	-28.76
345.61	-23.56
345.993	-6.61
346.376	14.18
346.759	3.11
347.142	25.48
347.525	41.3
347.908	60.73
348.291	72.94
348.674	99.38
349.057	85.59
349.44	117.45
349.823	137.12
350.206	171.92
350.588	213.27
350.971	227.06
351.354	257.34
351.737	247.39
352.119	279.48
352.502	285.36
352.884	294.17
353.267	312.93
353.65	291.91
354.032	300.95
354.414	319.71
354.797	320.84
355.179	321.29
355.562	331.69
355.944	330.78
356.326	367.17
356.709	330.33
357.091	348.63
357.473	365.13
357.855	370.33
358.238	354.51
358.62	343.89
359.002	354.74
359.384	357.9
359.766	351.57
360.148	347.28
360.53	360.61
360.912	331.23
361.294	329.2
361.676	348.86
362.057	310.67
362.439	339.82
362.821	327.17
363.203	337.11
363.584	338.47
363.966	353.15
364.348	330.33
364.729	328.3
365.111	337.11
365.493	338.69
365.874	345.92
366.256	326.04
366.637	357.9
367.019	330.33
367.4	331.46
367.781	336.43
368.163	336.21
368.544	343.21
368.925	321.74
369.306	331.69
369.688	323.55
370.069	316.77
370.45	329.2
370.831	327.84
371.212	334.85
371.593	328.75
371.974	310.44
372.355	328.75
372.736	325.36
373.117	320.16
373.498	341.86
373.879	335.53
374.26	316.77
374.641	329.65
375.021	339.6
375.402	357.22
375.783	333.95
376.163	362.19
376.544	327.62
376.925	347.5
377.305	338.24
377.686	361.06
378.066	312.93
378.447	359.71
378.827	372.59
379.208	349.09
379.588	330.33
379.968	337.56
380.349	350.89
380.729	350.44
381.109	355.41
381.489	333.27
381.87	355.19
382.25	351.35
382.63	359.03
383.01	369.2
383.39	355.19
383.77	380.27
384.15	350.44
384.53	369.2
384.91	360.39
385.29	369.2
385.67	342.53
386.049	380.5
386.429	363.55
386.809	387.5
387.189	383.89
387.568	393.61
387.948	381.85
388.328	382.98
388.707	375.98
389.087	392.02
389.466	390.22
389.846	388.63
390.225	400.16
390.605	354.28
390.984	399.03
391.363	393.15
391.743	377.56
392.122	385.92
392.501	392.02
392.881	384.11
393.26	404.45
393.639	404.23
394.018	409.88
394.397	388.41
394.776	415.98
395.155	393.83
395.534	402.42
395.913	397
396.292	413.72
396.671	411.68
397.05	414.85
397.429	417.33
397.808	404.9
398.186	410.33
398.565	427.05
398.944	410.1
399.323	404.45
399.701	408.75
400.08	415.53
400.458	416.2
400.837	423.66
401.215	416.88
401.594	427.5
401.972	436.54
402.351	453.26
402.729	444.45
403.107	398.58
403.486	429.99
403.864	460.5
404.242	427.5
404.62	441.51
404.999	440.84
405.377	471.12
405.755	439.71
406.133	433.83
406.511	433.38
406.889	443.55
407.267	482.42
407.645	455.98
408.023	492.36
408.401	467.28
408.779	456.43
409.156	494.39
409.534	472.7
409.912	477.22
410.29	479.25
410.667	495.98
411.045	507.27
411.422	494.85
411.8	505.47
412.178	498.24
412.555	513.83
412.933	510.44
413.31	516.31
413.687	519.03
414.065	505.69
414.442	531.23
414.819	524.45
415.197	540.72
415.574	532.58
415.951	533.26
416.328	542.75
416.705	560.61
417.082	563.54
417.46	580.04
417.837	560.83
418.214	548.18
418.591	545.24
418.967	575.07
419.344	588.63
419.721	573.26
420.098	584.33
420.475	567.16
420.852	615.07
421.228	581.62
421.605	589.76
421.982	599.93
422.358	582.3
422.735	626.37
423.111	607.84
423.488	609.87
423.864	612.36
424.241	613.03
424.617	629.76
424.994	621.85
425.37	630.89
425.746	648.74
426.123	634.73
426.499	639.02
426.875	643.09
427.251	654.62
427.627	650.1
428.003	650.77
428.379	665.91
428.756	667.72
429.132	689.87
429.507	718.12
429.883	680.6
430.259	681.28
430.635	708.4
431.011	720.38
431.387	726.93
431.763	753.37
432.138	739.81
432.514	735.07
432.89	758.79
433.265	763.77
433.641	779.36
434.016	749.3
434.392	776.65
434.767	767.83
435.143	768.06
435.518	789.08
435.894	819.13
436.269	778.23
436.644	782.3
437.02	823.42
437.395	830.43
437.77	842.63
438.145	819.13
438.52	825.68
438.895	845.8
439.271	860.49
439.646	854.16
440.021	865.23
440.395	873.14
440.77	852.8
441.145	870.88
441.52	881.73
441.895	877.21
442.27	893.03
442.645	894.16
443.019	909.98
443.394	919.47
443.769	907.26
444.143	893.25
444.518	917.21
444.892	930.09
445.267	891.45
445.641	904.1
446.016	907.26
446.39	955.17
446.764	935.29
447.139	931.9
447.513	940.71
447.887	930.09
448.262	935.51
448.636	942.74
449.01	962.63
449.384	953.36
449.758	966.7
450.132	982.97
450.506	952.23
450.88	977.32
451.254	965.57
451.628	1007.6
452.002	1001.5
452.376	1008.73
452.75	1001.5
453.123	1016.19
453.497	1009.18
453.871	1044.44
454.244	1045.11
454.618	1078.33
454.992	1064.32
455.365	1082.63
455.739	1081.5
456.112	1091.21
456.486	1086.47
456.859	1086.69
457.232	1094.6
457.606	1119.24
457.979	1145.22
458.352	1153.81
458.725	1113.36
459.099	1141.83
459.472	1164.43
459.845	1177.54
460.218	1167.6
460.591	1180.25
460.964	1201.49
461.337	1192
461.71	1186.8
462.083	1250.53
462.456	1227.48
462.829	1238.33
463.201	1236.07
463.574	1232.45
463.947	1274.03
464.32	1245.33
464.692	1282.85
465.065	1301.83
465.438	1304.99
465.81	1328.04
466.183	1309.97
466.555	1335.5
466.928	1343.19
467.3	1336.18
467.672	1347.48
468.045	1376.18
468.417	1356.74
468.789	1366.24
469.161	1388.83
469.534	1382.51
469.906	1428.83
470.278	1450.98
470.65	1455.95
471.022	1471.54
471.394	1490.53
471.766	1503.18
472.138	1509.51
472.51	1534.59
472.882	1567.13
473.253	1567.59
473.625	1580.47
473.997	1606.23
474.369	1596.74
474.74	1655.72
475.112	1645.32
475.484	1637.41
475.855	1706.79
476.227	1721.03
476.598	1729.39
476.97	1737.52
477.341	1801.48
477.713	1770.74
478.084	1792.66
478.455	1857.3
478.827	1839.67
479.198	1903.4
479.569	1919.67
479.94	1925.09
480.311	1962.83
480.682	2012.77
481.053	2045.31
481.424	2068.82
481.795	2054.8
482.166	2123.96
482.537	2153.33
482.908	2154.69
483.279	2193.11
483.65	2205.99
484.021	2280.56
484.391	2312.88
484.762	2286.66
485.133	2355.59
485.503	2337.51
485.874	2421.8
486.244	2465.87
486.615	2464.29
486.985	2521.23
487.356	2548.13
487.726	2596.03
488.097	2616.37
488.467	2636.48
488.837	2681.45
489.207	2718.52
489.578	2777.95
489.948	2793.54
490.318	2814.78
490.688	2822.47
491.058	2917.83
491.428	2961.22
491.798	2960.54
492.168	3026.53
492.538	3035.34
492.908	3073.54
493.278	3099.52
493.648	3153.53
494.017	3190.37
494.387	3199.86
494.757	3254.32
495.126	3266.3
495.496	3306.52
495.866	3342
496.235	3361.44
496.605	3426.07
496.974	3438.95
497.344	3473.75
497.713	3487.31
498.082	3564.6
498.452	3580.87
498.821	3599.17
499.19	3638.72
499.559	3677.59
499.928	3688.21
500.298	3724.37
500.667	3770.24
501.036	3791.48
501.405	3840.97
501.774	3881.65
502.143	3839.62
502.512	3861.54
502.88	3957.35
503.249	3918.48
503.618	3988.99
503.987	4017.92
504.356	4072.83
504.724	4080.06
505.093	4117.58
505.462	4123
505.83	4203.9
506.199	4224.92
506.567	4250.68
506.936	4277.57
507.304	4330.68
507.672	4300.85
508.041	4316.67
508.409	4435.76
508.777	4447.74
509.145	4448.41
509.514	4484.35
509.882	4516.21
510.25	4532.48
510.618	4578.58
510.986	4546.49
511.354	4689.76
511.722	4720.27
512.09	4774.96
512.458	4730.89
512.826	4777.9
513.193	4816.77
513.561	4831.45
513.929	4851.79
514.297	4926.14
514.664	4967.72
515.032	4955.29
515.4	4996.87
515.767	5023.09
516.135	5084.78
516.502	5063.99
516.869	5159.58
517.237	5152.58
517.604	5167.94
517.972	5240.26
518.339	5253.59
518.706	5238.45
519.073	5320.48
519.44	5315.51
519.808	5394.38
520.175	5402.51
520.542	5464.66
520.909	5540.81
521.276	5496.07
521.643	5583.75
522.009	5599.57
522.376	5636.86
522.743	5674.6
523.11	5720.02
523.477	5802.05
523.843	5823.75
524.21	5866.23
524.577	5916.4
524.943	5914.36
525.31	5984.87
525.676	6018.77
526.043	6047.47
526.409	6073.68
526.776	6124.53
527.142	6197.07
527.508	6203.17
527.874	6234.36
528.241	6260.8
528.607	6290.85
528.973	6337.4
529.339	6341.47
529.705	6384.63
530.071	6431.86
530.437	6493.56
530.803	6488.36
531.169	6569.49
531.535	6563.16
531.901	6552.99
532.267	6574.46
532.632	6692.65
532.998	6673.89
533.364	6696.04
533.73	6710.05
534.095	6798.18
534.461	6791.4
534.826	6852.19
535.192	6885.19
535.557	6897.62
535.923	6917.28
536.288	6987.78
536.653	6943.49
537.019	7028.46
537.384	6964.05
537.749	7026.88
538.114	7039.76
538.479	7130.83
538.845	7157.5
539.21	7136.71
539.575	7204.73
539.94	7220.54
540.305	7261.22
540.67	7346.87
541.034	7242.92
541.399	7343.03
541.764	7369.92
542.129	7437.49
542.494	7418.05
542.858	7472.06
543.223	7490.59
543.587	7493.53
543.952	7557.71
544.316	7525.62
544.681	7625.73
545.045	7671.61
545.41	7707.54
545.774	7714.77
546.138	7801.77
546.503	7820.75
546.867	7798.61
547.231	7897.36
547.595	7889.68
547.959	7893.75
548.324	8017.59
548.688	8025.72
549.052	8018.49
549.416	8035.44
549.779	8074.76
550.143	8129.67
550.507	8223
550.871	8284.47
551.235	8275.21
551.599	8334.64
551.962	8293.28
552.326	8451.02
552.689	8448.76
553.053	8538.02
553.417	8468.2
553.78	8620.73
554.143	8639.72
554.507	8609.66
554.87	8728.08
555.234	8850.11
555.597	8841.97
555.96	8899.82
556.323	8889.65
556.686	8997.22
557.05	9066.82
557.413	9125.81
557.776	9162.41
558.139	9206.93
558.502	9316.76
558.865	9294.61
559.228	9432.01
559.59	9481.73
559.953	9523.99
560.316	9610.09
560.679	9665
561.041	9733.25
561.404	9849.63
561.767	9942.05
562.129	9898.89
562.492	10183.18
562.854	10102.05
563.217	10176.17
563.579	10258.2
563.941	10404.64
564.304	10455.04
564.666	10576.61
565.028	10718.98
565.39	10759.21
565.753	10842.37
566.115	10984.06
566.477	11095.02
566.839	11143.83
567.201	11341.57
567.563	11313.09
567.925	11479.64
568.287	11544.05
568.648	11722.8
569.01	11880.31
569.372	12038.5
569.734	12050.7
570.095	12316.23
570.457	12389.22
570.819	12524.36
571.18	12656.56
571.542	12922.09
571.903	12981.07
572.265	13119.15
572.626	13301.06
572.987	13405.92
573.349	13614.5
573.71	13891.56
574.071	14075.73
574.432	14285.22
574.794	14474.59
575.155	14663.06
575.516	14848.14
575.877	14993.45
576.238	15257.4
576.599	15517.05
576.96	15760.21
577.32	15927.66
577.681	16235.67
578.042	16451.26
578.403	16753.85
578.763	16977.12
579.124	17256.44
579.485	17570.55
579.845	17897.55
580.206	18147.94
580.566	18511.32
580.927	18816.17
581.287	19212.09
581.648	19400.34
582.008	19777.5
582.368	20105.18
582.728	20436.02
583.089	20859.28
583.449	21099.73
583.809	21506.27
584.169	21852.02
584.529	22142.19
584.889	22788.27
585.249	22948.49
585.609	23350.74
585.969	23852.88
586.329	24213.09
586.688	24784.6
587.048	25088.32
587.408	25507.52
587.768	25889.66
588.127	26289.2
588.487	26648.96
588.846	27316.51
589.206	27484.64
589.565	28057.06
589.925	28578.18
590.284	28954.21
590.643	29504.48
591.003	30062.2
591.362	30496.54
591.721	31034.16
592.08	31395.95
592.44	32078.87
592.799	32511.41
593.158	32838.85
593.517	33171.05
593.876	33877.24
594.235	34256.22
594.593	34887.39
594.952	35401.72
595.311	35563.75
595.67	36264.3
596.029	36839.65
596.387	37344.72
596.746	37739.52
597.104	38052.73
597.463	38527.97
597.822	39127.28
598.18	39475.74
598.538	39985.11
598.897	40598.88
599.255	40668.93
599.613	41539.42
599.972	41827.09
600.33	42250.58
600.688	42642.21
601.046	43028.19
601.404	43678.57
601.762	43835.18
602.12	44497.76
602.478	44883.96
602.836	45151.75
603.194	45376.83
603.552	45817.72
603.91	46092.06
604.268	46633.07
604.625	46724.59
604.983	47141.75
605.341	47362.31
605.698	47795.07
606.056	48149.86
606.413	48337.66
606.771	48679.79
607.128	48982.61
607.485	49167.92
607.843	49310.51
608.2	49790.95
608.557	50018.06
608.914	50135.8
609.272	50515.45
609.629	50736.46
609.986	50950.24
610.343	50942.33
610.7	51354.07
611.057	51411.02
611.414	51576.89
611.771	51737.11
612.127	51921.52
612.484	52051.68
612.841	52266.37
613.198	52282.18
613.554	52402.41
613.911	52717.43
614.267	52785.45
614.624	52890.08
614.98	53018.44
615.337	53267.24
615.693	53360.12
616.05	53442.83
616.406	53650.06
616.762	53621.58
617.118	53819.09
617.475	53732.09
617.831	53941.12
618.187	54048.47
618.543	54147.9
618.899	54381.56
619.255	54324.84
619.611	54423.6
619.967	54572.29
620.323	54678.05
620.678	54588.34
621.034	54589.69
621.39	54600.09
621.746	54604.16
622.101	54960.53
622.457	54848.67
622.812	54960.31
623.168	54967.09
623.523	54998.72
623.879	55118.95
624.234	55012.73
624.589	55138.15
624.945	55175.67
625.3	55183.8
625.655	55242.78
626.01	55260.64
626.365	55315.1
626.72	55315.78
627.075	55350.58
627.43	55257.25
627.785	55258.6
628.14	55499.28
628.495	55517.81
628.85	55535.88
629.205	55508.31
629.559	55598.93
629.914	55555.32
630.269	55472.38
630.623	55374.31
630.978	55452.27
631.332	55602.55
631.687	55612.04
632.041	55571.36
632.396	55610.91
632.75	55370.01
633.104	55569.78
633.459	55417.47
633.813	55425.38
634.167	55420.18
634.521	55439.16
634.875	55486.39
635.229	55537.92
635.583	55382.22
635.937	55408.2
636.291	55338.83
636.645	55415.21
636.999	55399.62
637.352	55390.35
637.706	55225.16
638.06	55382.67
638.413	55307.87
638.767	55220.19
639.121	55352.16
639.474	55162.33
639.828	55217.25
640.181	55225.38
640.534	55329.34
640.888	55179.28
641.241	55103.13
641.594	55147.65
641.947	55241.88
642.301	55216.12
642.654	55225.61
643.007	55234.88
643.36	55238.72
643.713	55117.14
644.066	55330.69
644.419	55021.77
644.771	54862.23
645.124	54611.39
645.477	54588.11
645.83	54442.13
646.182	54328.68
646.535	54327.1
646.888	54438.06
647.24	54267.44
647.593	54386.99
647.945	54399.19
648.298	54311.06
648.65	54167.11
649.002	54125.3
649.355	54276.93
649.707	54169.59
650.059	54293.21
650.411	54684.83
650.763	54702.91
651.115	54986.97
651.467	54820.2
651.819	54956.69
652.171	54837.82
652.523	54759.63
652.875	54825.85
653.227	54782.91
653.578	54916.24
653.93	54815.45
654.282	54699.75
654.633	54575.68
654.985	54738.17
655.337	54714.21
655.688	54702.23
656.039	54819.97
656.391	54610.26
656.742	54589.69
657.094	54624.27
657.445	54737.71
657.796	54669.92
658.147	54670.82
658.498	54630.37
658.849	54674.21
659.2	54691.61
659.551	54554.22
659.902	54671.05
660.253	54665.17
660.604	54730.03
660.955	54561.9
661.306	54632.41
661.656	54582.92
662.007	54630.37
662.358	54579.98
662.708	54622.24
663.059	54597.83
663.409	54430.15
663.76	54615.46
664.11	54616.36
664.461	54615.46
664.811	54624.04
665.161	54591.95
665.511	54483.26
665.862	54511.96
666.212	54610.71
666.562	54597.6
666.912	54517.38
667.262	54540.2
667.612	54481.67
667.962	54449.81
668.312	54408.91
668.662	54587.66
669.011	54460.66
669.361	54464.73
669.711	54431.73
670.06	54347.89
670.41	54332.53
670.76	54258.86
671.109	54303.37
671.459	54236.71
671.808	54306.31
672.157	54273.77
672.507	54088.01
672.856	54140.89
673.205	54169.59
673.554	54302.7
673.904	54094.57
674.253	54228.57
674.602	54102.48
674.951	53735.48
675.3	53554.47
675.649	54111.74
675.998	54042.59
676.346	54062.02
676.695	54112.42
677.044	53975.7
677.393	53984.96
677.741	54062.02
678.09	53887.57
678.438	53857.28
678.787	53929.15
679.135	53914.91
679.484	53698.42
679.832	53832.88
680.181	53603.51
680.529	53816.38
680.877	53668.81
681.225	53666.33
681.573	53808.02
681.922	53551.76
682.27	53452.1
682.618	53452.32
682.966	53458.2
683.314	53481.25
683.661	53277.86
684.009	53180.92
684.357	53190.18
684.705	53142.05
685.053	53221.82
685.4	53182.95
685.748	53005.56
686.095	52975.5
686.443	52987.02
686.79	52925.33
687.138	52913.13
687.485	52823.41
687.832	52736.64
688.18	52803.98
688.527	52570.76
688.874	52552.69
689.221	52556.98
689.568	52451.45
689.915	52296.42
690.262	52454.16
690.609	52218.68
690.956	52108.18
691.303	52060.5
691.65	51990.67
691.997	51811.91
692.344	51751.13
692.69	51691.47
693.037	51718.36
693.383	51452.6
693.73	51605.37
694.077	51351.59
694.423	51410.8
694.769	51287.63
695.116	51278.6
695.462	51203.34
695.808	50974.65
696.155	51063.91
696.501	50828.89
696.847	50760.87
697.193	50561.33
697.539	50673.87
697.885	50447.2
698.231	50306.87
698.577	50274.1
698.923	50232.75
699.269	50094.67
699.614	49944.17
699.96	49851.97
700.306	49915.92
700.651	49771.29
700.997	49559.54
701.342	49609.26
701.688	49447.91
702.033	49322.71
702.379	49261.93
702.724	49224.19
703.069	49246.11
703.415	48917.75
703.76	48811.77
704.105	48845.44
704.45	48782.84
704.795	48578.1
705.14	48507.14
705.485	48508.95
705.83	48208.39
706.175	48166.59
706.52	48099.7
706.865	47934.73
707.209	47965.24
707.554	47786.48
707.899	47833.94
708.243	47597.56
708.588	47574.74
708.932	47319.6
709.277	47423.1
709.621	47230.79
709.966	47005.49
710.31	47147.18
710.654	46893.85
710.998	46987.41
711.342	46901.99
711.687	46821.54
712.031	46630.36
712.375	46612.05
712.719	46613.18
713.063	46524.82
713.407	46625.16
713.75	46411.15
714.094	46339.29
714.438	46133.19
714.782	46170.71
715.125	45977.49
715.469	46108.11
715.812	45882.8
716.156	45651.4
716.499	45677.84
716.843	45753.32
717.186	45524.62
717.53	45732.53
717.873	45644.62
718.216	45560.55
718.559	45443.27
718.902	45089.15
719.246	45126.44
719.589	45025.65
719.932	44909.27
720.275	45005.77
720.617	44850.52
720.96	44897.29
721.303	44791.99
721.646	44781.36
721.989	44439.23
722.331	44601.71
722.674	44663.4
723.016	44565.33
723.359	44462.05
723.701	44615.49
724.044	44233.36
724.386	44020.25
724.729	44432.45
725.071	44396.52
725.413	44219.12
725.755	44201.04
726.097	44103.19
726.439	43783.2
726.782	43799.24
727.124	44001.5
727.465	43621.4
727.807	43801.28
728.149	43691.68
728.491	43658.68
728.833	43737.1
729.175	43468.18
729.516	43425.02
729.858	43402.19
730.199	43544.11
730.541	43409.88
730.882	43391.34
731.224	43443.77
731.565	43073.39
731.906	43199.03
732.248	43163.1
732.589	43043.78
732.93	42859.83
733.271	42873.39
733.612	42891.92
733.953	42873.62
734.294	42769.44
734.635	42780.74
734.976	42864.81
735.317	42596.56
735.658	42683.34
735.999	42613.74
736.339	42546.62
736.68	42573.97
737.021	42427.3
737.361	42345.5
737.702	42552.04
738.042	42492.61
738.383	42288.55
738.723	42444.48
739.063	42167.65
739.404	42197.48
739.744	42197.25
740.084	42016.24
740.424	42170.81
740.764	42051.72
741.104	42020.53
741.444	41927.65
741.784	41885.4
742.124	41879.97
742.464	41886.53
742.804	41684.05
743.143	41677.27
743.483	41908.22
743.823	41457.61
744.162	41556.36
744.502	41522.69
744.841	41377.84
745.181	41605.86
745.52	41294.45
745.86	41394.11
746.199	41277.95
746.538	41260.78
746.877	41265.98
747.216	41343.94
747.556	41184.4
747.895	41126.09
748.234	41010.84
748.573	40980.33
748.911	40969.71
749.25	40948.02
749.589	40818.76
749.928	40895.59
750.267	40874.57
750.605	40658.99
750.944	40678.65
751.283	40457.64
751.621	40648.14
751.96	40290.86
752.298	40357.53
752.636	40330.41
752.975	40129.51
753.313	40011.55
753.651	40248.6
753.989	39948.95
754.327	39973.36
754.666	39791.89
755.004	39824.43
755.342	39857.65
755.679	39816.3
756.017	39476.19
756.355	39575.4
756.693	39496.31
757.031	39558.9
757.368	39193.04
757.706	39226.26
758.044	38985.36
758.381	39067.39
758.719	39002.99
759.056	38936.32
