Data from orange_diffuse_book_FLMS001491_00028.txt Node
Date: Wed Feb 08 15:29:20 GMT 2017
User: dcchb
Spectrometer: FLMS00149
Trigger mode: 0
Integration Time (sec): 2.000000E-2
Scans to average: 10
Electric dark correction enabled: true
Nonlinearity correction enabled: false
Boxcar width: 0
XAxis mode: Wavelengths
Number of Pixels in Spectrum: 2048
>>>>>Begin Spectral Data<<<<<
341.393	-23.64
341.776	-23.64
342.16	-23.64
342.543	-51.21
342.927	-65.22
343.31	-65.45
343.693	-68.84
344.077	-57.54
344.46	-53.02
344.843	-53.47
345.226	-24.55
345.61	-37.65
345.993	-12.34
346.376	-6.69
346.759	14.1
347.142	12.29
347.525	34.21
347.908	59.07
348.291	59.97
348.674	105.39
349.057	94.55
349.44	122.57
349.823	142.23
350.206	166.18
350.588	212.28
350.971	231.27
351.354	243.02
351.737	261.55
352.119	265.16
352.502	260.19
352.884	271.72
353.267	303.58
353.65	303.13
354.032	306.74
354.414	327.08
354.797	311.04
355.179	335.44
355.562	352.62
355.944	351.71
356.326	335.9
356.709	345.84
357.091	351.71
357.473	357.59
357.855	337.7
358.238	342.67
358.62	367.08
359.002	347.65
359.384	362.79
359.766	344.26
360.148	377.25
360.53	345.16
360.912	331.15
361.294	344.93
361.676	351.94
362.057	342
362.439	329.57
362.821	320.75
363.203	347.19
363.584	353.97
363.966	343.13
364.348	340.19
364.729	350.58
365.111	330.7
365.493	320.3
365.874	340.64
366.256	323.01
366.637	335.67
367.019	344.71
367.4	335.67
367.781	333.18
368.163	330.47
368.544	322.79
368.925	333.41
369.306	360.08
369.688	321.88
370.069	336.57
370.45	317.59
370.831	331.15
371.212	336.57
371.593	303.35
371.974	325.73
372.355	320.53
372.736	335.9
373.117	345.84
373.498	319.17
373.879	332.51
374.26	315.78
374.641	343.35
375.021	354.65
375.402	326.63
375.783	355.1
376.163	358.04
376.544	339.06
376.925	352.62
377.305	322.34
377.686	343.13
378.066	316.23
378.447	356.91
378.827	330.7
379.208	325.95
379.588	351.04
379.968	365.72
380.349	362.79
380.729	336.35
381.109	366.85
381.489	357.59
381.87	359.62
382.25	353.07
382.63	367.98
383.01	353.52
383.39	361.43
383.77	366.85
384.15	334.77
384.53	363.01
384.91	369.34
385.29	363.92
385.67	390.36
386.049	386.74
386.429	369.79
386.809	385.16
387.189	375.22
387.568	369.79
387.948	353.75
388.328	385.16
388.707	373.86
389.087	362.11
389.466	378.38
389.846	374.31
390.225	370.24
390.605	396.46
390.984	398.04
391.363	390.13
391.743	382.45
392.122	367.08
392.501	384.26
392.881	383.35
393.26	396.01
393.639	377.48
394.018	418.15
394.397	391.94
394.776	390.36
395.155	385.61
395.534	397.36
395.913	403.01
396.292	393.75
396.671	412.05
397.05	428.32
397.429	414.99
397.808	387.65
398.186	416.12
398.565	417.02
398.944	419.28
399.323	420.41
399.701	428.77
400.08	415.67
400.458	415.89
400.837	436.91
401.215	413.86
401.594	432.84
401.972	418.38
402.351	411.15
402.729	431.94
403.107	428.55
403.486	436.46
403.864	430.13
404.242	447.3
404.62	427.87
404.999	443.91
405.377	454.54
405.755	437.36
406.133	446.85
406.511	471.26
406.889	464.25
407.267	463.58
407.645	455.21
408.023	458.6
408.401	470.35
408.779	460.41
409.156	450.02
409.534	472.16
409.912	457.02
410.29	484.82
410.667	468.1
411.045	489.34
411.422	483.69
411.8	484.82
412.178	502.44
412.555	493.63
412.933	517.81
413.31	515.78
413.687	494.31
414.065	526.4
414.442	516.23
414.819	526.85
415.197	518.94
415.574	530.01
415.951	543.35
416.328	527.53
416.705	509.68
417.082	544.25
417.46	543.57
417.837	548.54
418.214	549.67
418.591	550.35
418.967	554.42
419.344	550.13
419.721	597.58
420.098	574.31
420.475	548.54
420.852	549.45
421.228	579.28
421.605	586.74
421.982	579.96
422.358	579.73
422.735	579.73
423.111	565.72
423.488	597.13
423.864	619.28
424.241	607.07
424.617	586.96
424.994	598.71
425.37	598.71
425.746	592.61
426.123	617.24
426.499	608.66
426.875	612.72
427.251	637.13
427.627	627.64
428.003	625.15
428.379	660.18
428.756	648.66
429.132	659.05
429.507	672.38
429.883	675.32
430.259	678.94
430.635	670.58
431.011	680.74
431.387	702.44
431.763	697.47
432.138	704.25
432.514	729.11
432.89	708.77
433.265	725.94
433.641	743.12
434.016	740.86
434.392	727.52
434.767	768.2
435.143	759.39
435.518	751.93
435.894	766.39
436.269	748.09
436.644	767.3
437.02	772.49
437.395	771.36
437.77	817.92
438.145	784.02
438.52	779.05
438.895	779.05
439.271	801.65
439.646	817.92
440.021	827.18
440.395	828.31
440.77	828.76
441.145	840.51
441.52	861.76
441.895	814.75
442.27	850.01
442.645	830.8
443.019	839.84
443.394	843.23
443.769	842.32
444.143	873.51
444.518	844.13
444.892	853.62
445.267	852.94
445.641	880.06
446.016	901.53
446.39	872.83
446.764	888.42
447.139	912.38
447.513	889.33
447.887	907.86
448.262	908.54
448.636	902.43
449.01	906.5
449.384	914.41
449.758	944.01
450.132	948.53
450.506	949.89
450.88	927.07
451.254	925.71
451.628	965.26
452.002	949.66
452.376	981.3
452.75	965.26
453.123	949.44
453.497	1005.71
453.871	983.11
454.244	1010
454.618	981.08
454.992	1013.39
455.365	1017.69
455.739	1032.83
456.112	1045.71
456.486	1052.71
456.859	1051.58
457.232	1061.07
457.606	1059.72
457.979	1063.33
458.352	1100.39
458.725	1092.49
459.099	1134.52
459.472	1126.38
459.845	1105.37
460.218	1146.95
460.591	1127.51
460.964	1129.32
461.337	1169.32
461.71	1139.72
462.083	1150.79
462.456	1174.07
462.829	1170.68
463.201	1201.18
463.574	1216.1
463.947	1251.13
464.32	1228.53
464.692	1253.84
465.065	1221.75
465.438	1232.37
465.81	1286.38
466.183	1260.84
466.555	1310.11
466.928	1269.2
467.3	1285.47
467.672	1322.54
468.045	1302.2
468.417	1340.61
468.789	1364.57
469.161	1343.55
469.534	1370.9
469.906	1384.23
470.278	1385.81
470.65	1409.77
471.022	1419.26
471.394	1461.74
471.766	1452.48
472.138	1452.48
472.51	1464.9
472.882	1494.73
473.253	1505.36
473.625	1543.1
473.997	1553.72
474.369	1556.65
474.74	1607.95
475.112	1595.3
475.484	1626.26
475.855	1645.24
476.227	1651.79
476.598	1691.57
476.97	1698.8
477.341	1725.24
477.713	1771.11
478.084	1749.19
478.455	1769.98
478.827	1798.68
479.198	1831.45
479.569	1878.68
479.94	1913.25
480.311	1942.63
480.682	1963.2
481.053	1990.54
481.424	2007.49
481.795	2046.36
482.166	2085
482.537	2091.78
482.908	2107.6
483.279	2167.03
483.65	2186.02
484.021	2197.09
484.391	2240.7
484.762	2271.66
485.133	2289.29
485.503	2321.83
485.874	2323.87
486.244	2391.89
486.615	2408.83
486.985	2454.03
487.356	2496.06
487.726	2528.83
488.097	2578.55
488.467	2607.7
488.837	2639.34
489.207	2691.31
489.578	2735.83
489.948	2723.85
490.318	2793.46
490.688	2779.22
491.058	2855.15
491.428	2879.56
491.798	2884.53
492.168	2945.77
492.538	3009.05
492.908	3051.76
493.278	3033.45
493.648	3104.18
494.017	3121.36
494.387	3188.02
494.757	3201.36
495.126	3250.39
495.496	3265.08
495.866	3250.17
496.235	3275.03
496.605	3348.92
496.974	3407.9
497.344	3440.9
497.713	3485.64
498.082	3508.47
498.452	3514.79
498.821	3597.96
499.19	3574.23
499.559	3613.1
499.928	3615.13
500.298	3700.78
500.667	3687.67
501.036	3719.53
501.405	3771.06
501.774	3790.72
502.143	3823.04
502.512	3834.79
502.88	3882.69
503.249	3854.45
503.618	3931.28
503.987	3932.41
504.356	3992.75
504.724	4028.45
505.093	4050.83
505.462	4072.97
505.83	4089.02
506.199	4161.33
506.567	4230.93
506.936	4164.95
507.304	4211.95
507.672	4273.87
508.041	4268.22
508.409	4286.3
508.777	4402.91
509.145	4391.16
509.514	4397.26
509.882	4435
510.25	4500.08
510.618	4518.16
510.986	4523.81
511.354	4562.68
511.722	4621.88
512.09	4635.67
512.458	4653.3
512.826	4673.18
513.193	4780.75
513.561	4749.79
513.929	4768.09
514.297	4813.52
514.664	4898.94
515.032	4856.68
515.4	4935.32
515.767	4970.58
516.135	4987.98
516.502	4943.68
516.869	5026.39
517.237	5055.09
517.604	5079.27
517.972	5126.96
518.339	5154.07
518.706	5161.53
519.073	5214.86
519.44	5223.9
519.808	5316.1
520.175	5325.59
520.542	5371.69
520.909	5446.27
521.276	5440.17
521.643	5475.2
522.009	5545.93
522.376	5576.44
522.743	5576.21
523.11	5661.63
523.477	5690.33
523.843	5721.06
524.21	5775.3
524.577	5828.18
524.943	5876.09
525.31	5840.38
525.676	5938.69
526.043	5980.94
526.409	5998.35
526.776	6039.02
527.142	6068.63
527.508	6086.7
527.874	6147.95
528.241	6211.22
528.607	6204.44
528.973	6224.78
529.339	6283.76
529.705	6276.76
530.071	6313.14
530.437	6392.23
530.803	6370.09
531.169	6435.4
531.535	6408.28
531.901	6483.98
532.267	6498.9
532.632	6521.27
532.998	6637.42
533.364	6611.66
533.73	6681.49
534.095	6728.27
534.461	6719
534.826	6820.92
535.192	6763.52
535.557	6850.07
535.923	6769.85
536.288	6875.84
536.653	6851.43
537.019	6926.23
537.384	6872.67
537.749	6963.29
538.114	6952.67
538.479	6997.19
538.845	7061.59
539.21	7033.57
539.575	7068.37
539.94	7093.01
540.305	7134.81
540.67	7179.78
541.034	7145.66
541.399	7278.09
541.764	7212.1
542.129	7291.87
542.494	7297.07
542.858	7413.22
543.223	7364.18
543.587	7452.77
543.952	7452.77
544.316	7457.06
544.681	7456.84
545.045	7548.59
545.41	7599.21
545.774	7572.77
546.138	7684.85
546.503	7649.6
546.867	7671.75
547.231	7785.42
547.595	7754.91
547.959	7877.39
548.324	7820.22
548.688	7843.49
549.052	7922.59
549.416	8027.22
549.779	7975.92
550.143	8041
550.507	8076.03
550.871	8128.01
551.235	8143.83
551.599	8215.46
551.962	8243.94
552.326	8297.27
552.689	8381.56
553.053	8348.57
553.417	8394.89
553.78	8548.11
554.143	8504.72
554.507	8564.83
554.87	8590.82
555.234	8699.97
555.597	8655
555.96	8772.96
556.323	8857.48
556.686	8818.16
557.05	8897.25
557.413	9041.88
557.776	9031.94
558.139	9111.94
558.502	9148.54
558.865	9188.54
559.228	9340.4
559.59	9302.89
559.953	9471.47
560.316	9458.82
560.679	9607.06
561.041	9660.4
561.404	9702.65
561.767	9791.01
562.129	9824.46
562.492	9994.62
562.854	10041.4
563.217	10097.67
563.579	10214.96
563.941	10295.18
564.304	10420.15
564.666	10553.71
565.028	10566.81
565.39	10639.13
565.753	10737.2
566.115	10824.88
566.477	10973.13
566.839	11044.31
567.201	11210.64
567.563	11258.09
567.925	11484.3
568.287	11554.81
568.648	11595.49
569.01	11738.76
569.372	11926.55
569.734	12058.75
570.095	12133.78
570.457	12276.6
570.819	12441.57
571.18	12523.15
571.542	12783.93
571.903	12909.12
572.265	13043.36
572.626	13187.08
572.987	13450.35
573.349	13581.2
573.71	13748.65
574.071	13913.62
574.432	14130.11
574.794	14425.47
575.155	14525.35
575.516	14643.77
575.877	14943.42
576.238	15176.18
576.599	15414.37
576.96	15576.85
577.32	15848.26
577.681	16123.28
578.042	16403.95
578.403	16609.37
578.763	16961.67
579.124	17244.38
579.485	17547.19
579.845	17921.87
580.206	18145.82
580.566	18431.01
580.927	18692.02
581.287	19098.57
581.648	19294.49
582.008	19648.61
582.368	19950.29
582.728	20359.32
583.089	20655.36
583.449	20950.04
583.809	21411.73
584.169	21878.61
584.529	22087.87
584.889	22708.19
585.249	22800.62
585.609	23236.54
585.969	23783.19
586.329	24144.31
586.688	24561.02
587.048	24858.64
587.408	25286.43
587.768	25804.6
588.127	26153.52
588.487	26548.99
588.846	27238.92
589.206	27368.63
589.565	27984.89
589.925	28447.25
590.284	28814.69
590.643	29348.24
591.003	29823.93
591.362	30295.11
591.721	30705.27
592.08	31219.6
592.44	31737.56
592.799	32262.29
593.158	32642.62
593.517	33237.63
593.876	33648.47
594.235	34046.87
594.593	34603.47
594.952	35073.51
595.311	35483.67
595.67	36053.37
596.029	36755.5
596.387	37070.75
596.746	37597.29
597.104	37840.9
597.463	38284.05
597.822	38892.62
598.18	39205.38
598.538	39736.89
598.897	40291.23
599.255	40403.99
599.613	41309.73
599.972	41492.55
600.33	42031.97
600.688	42394.22
601.046	42938.62
601.404	43405.27
601.762	43667.41
602.12	44264.01
602.478	44485.02
602.836	44861.96
603.194	45176.98
603.552	45528.61
603.91	45764.31
604.268	46267.34
604.625	46504.85
604.983	46956.59
605.341	47013.99
605.698	47594.54
606.056	47928.09
606.413	48176.45
606.771	48501.41
607.128	48711.35
607.485	48839.25
607.843	49056.65
608.2	49442.17
608.557	49869.06
608.914	49882.16
609.272	50264.98
609.629	50502.49
609.986	50753.1
610.343	50803.04
610.7	51160.55
611.057	51321.45
611.414	51427.21
611.771	51571.61
612.127	51785.39
612.484	52015.21
612.841	52164.81
613.198	52184.25
613.554	52290.01
613.911	52547.4
614.267	52704.01
614.624	52734.52
614.98	52906.94
615.337	53175.64
615.693	53138.57
616.05	53294.28
616.406	53487.94
616.762	53490.66
617.118	53565.23
617.475	53584.66
617.831	53787.82
618.187	53898.33
618.543	53997.08
618.899	54279.34
619.255	54143.52
619.611	54285.66
619.967	54415.38
620.323	54567.01
620.678	54441.14
621.034	54401.82
621.39	54510.06
621.746	54527.01
622.101	54860.34
622.457	54602.49
622.812	54751.19
623.168	54858.3
623.523	54884.29
623.879	55023.95
624.234	54887.46
624.589	55042.48
624.945	55070.73
625.3	55140.56
625.655	55095.13
626.01	55119.31
626.365	55235.24
626.72	55247.9
627.075	55324.73
627.43	55250.16
627.785	55194.34
628.14	55387.33
628.495	55416.71
628.85	55400.89
629.205	55264.39
629.559	55468.68
629.914	55357.27
630.269	55439.53
630.623	55319.53
630.978	55359.08
631.332	55463.03
631.687	55509.59
632.041	55352.75
632.396	55487.21
632.75	55394.79
633.104	55393.66
633.459	55268.24
633.813	55260.55
634.167	55246.09
634.521	55323.6
634.875	55319.31
635.229	55357.5
635.583	55260.55
635.937	55302.59
636.291	55284.51
636.645	55255.36
636.999	55159.09
637.352	55241.34
637.706	55151.18
638.06	55239.76
638.413	55166.32
638.767	55190.27
639.121	55154.11
639.474	55101.91
639.828	55141.01
640.181	55146.66
640.534	55183.49
640.888	55132.19
641.241	55029.15
641.594	55037.51
641.947	55162.48
642.301	55015.59
642.654	55121.57
643.007	55161.12
643.36	55142.59
643.713	55063.72
644.066	55112.76
644.419	54954.57
644.771	54812.65
645.124	54516.62
645.477	54451.53
645.83	54311.43
646.182	54239.79
646.535	54176.29
646.888	54251.77
647.24	54114.37
647.593	54318.88
647.945	54324.08
648.298	54093.58
648.65	54035.27
649.002	53978.1
649.355	54107.36
649.707	54009.74
650.059	54264.65
650.411	54453.12
650.763	54554.81
651.115	54915.93
651.467	54667.8
651.819	54722.49
652.171	54694.01
652.523	54660.34
652.875	54690.4
653.227	54550.29
653.578	54783.5
653.93	54597.52
654.282	54523.62
654.633	54440.01
654.985	54580.34
655.337	54603.39
655.688	54608.59
656.039	54678.2
656.391	54421.7
656.742	54584.41
657.094	54535.6
657.445	54661.7
657.796	54559.33
658.147	54470.29
658.498	54569.72
658.849	54561.14
659.2	54491.08
659.551	54475.71
659.902	54590.06
660.253	54478.2
660.604	54558.88
660.955	54370.41
661.306	54516.17
661.656	54461.03
662.007	54433.23
662.358	54467.58
662.708	54423.74
663.059	54475.04
663.409	54288.15
663.76	54491.76
664.11	54440.01
664.461	54440.24
664.811	54446.11
665.161	54416.96
665.511	54390.97
665.862	54448.37
666.212	54534.7
666.562	54488.37
666.912	54404.76
667.262	54325.21
667.612	54370.41
667.962	54400.91
668.312	54358.66
668.662	54473.91
669.011	54407.47
669.361	54337.64
669.711	54294.02
670.06	54174.93
670.41	54236.4
670.76	54146.46
671.109	54198.66
671.459	54202.95
671.808	54157.76
672.157	54269.84
672.507	54070.75
672.856	54093.35
673.205	54038.21
673.554	54115.95
673.904	53984.65
674.253	54151.88
674.602	54044.31
674.951	53557.09
675.3	53474.61
675.649	53936.29
675.998	53912.11
676.346	53908.95
676.695	53987.82
677.044	53756.41
677.393	53828.5
677.741	53900.59
678.09	53773.81
678.438	53771.78
678.787	53836.41
679.135	53733.14
679.484	53582.18
679.832	53679.13
680.181	53522.29
680.529	53631.22
680.877	53494.27
681.225	53441.62
681.573	53690.88
681.922	53378.57
682.27	53476.19
682.618	53347.61
682.966	53388.06
683.314	53365.69
683.661	53238.01
684.009	53106.26
684.357	53091.8
684.705	53111.46
685.053	53114.85
685.4	53024.45
685.748	52859.71
686.095	52785.59
686.443	52774.06
686.79	52750.11
687.138	52795.08
687.485	52709.89
687.832	52584.92
688.18	52571.81
688.527	52483.45
688.874	52500.4
689.221	52398.03
689.568	52252.04
689.915	52114.87
690.262	52261.31
690.609	52037.36
690.956	51934.09
691.303	51972.96
691.65	51822.45
691.997	51835.78
692.344	51571.38
692.69	51544.72
693.037	51591.27
693.383	51344.05
693.73	51525.51
694.077	51233.31
694.423	51236.25
694.769	51241.45
695.116	51143.37
695.462	51044.62
695.808	50856.83
696.155	50841.01
696.501	50650.28
696.847	50658.64
697.193	50434.24
697.539	50549.04
697.885	50243.28
698.231	50219.56
698.577	50137.75
698.923	50125.55
699.269	49893.91
699.614	49771.43
699.96	49729.4
700.306	49754.26
700.651	49530.31
700.997	49448.95
701.342	49438.33
701.688	49368.5
702.033	49164.89
702.379	49177.1
702.724	48950.44
703.069	49217.55
703.415	48719.93
703.76	48751.57
704.105	48754.06
704.45	48647.39
704.795	48347.06
705.14	48203.34
705.485	48319.49
705.83	48037.01
706.175	48165.37
706.52	47947.75
706.865	47834.76
707.209	47704.59
707.554	47608.78
707.899	47635.22
708.243	47460.08
708.588	47417.14
708.932	47162.01
709.277	47124.5
709.621	47184.83
709.966	46763.83
710.31	47069.81
710.654	46699.87
710.998	46763.15
711.342	46640.89
711.687	46604.96
712.031	46331.52
712.375	46291.07
712.719	46407.9
713.063	46229.38
713.407	46509.82
713.75	46151.87
714.094	46163.84
714.438	45944.19
714.782	46056.73
715.125	45832.78
715.469	45728.15
715.812	45649.73
716.156	45485.22
716.499	45477.99
716.843	45605.67
717.186	45289.52
717.53	45455.84
717.873	45501.49
718.216	45241.61
718.559	45159.12
718.902	44819.47
719.246	44997.55
719.589	44857.89
719.932	44748.06
720.275	44840.71
720.617	44692.47
720.96	44620.61
721.303	44709.87
721.646	44581.29
721.989	44317.11
722.331	44591.91
722.674	44416.09
723.016	44363.89
723.359	44259.26
723.701	44329.09
724.044	43911.25
724.386	43835.32
724.729	44215.65
725.071	43868.08
725.413	43922.55
725.755	43836.45
726.097	43699.27
726.439	43651.14
726.782	43539.96
727.124	43738.14
727.465	43553.52
727.807	43405.72
728.149	43523.69
728.491	43386.29
728.833	43391.49
729.175	43175.22
729.516	43220.64
729.858	43258.38
730.199	43243.69
730.541	43070.14
730.882	43177.48
731.224	43112.17
731.565	42878.05
731.906	42934.78
732.248	43008.45
732.589	42896.58
732.93	42747.66
733.271	42764.38
733.612	42686.87
733.953	42683.26
734.294	42504.05
734.635	42413.21
734.976	42688.45
735.317	42390.61
735.658	42405.75
735.999	42425.41
736.339	42315.81
736.68	42481
737.021	42351.06
737.361	42096.6
737.702	42350.16
738.042	42184.51
738.383	42060.67
738.723	42001.01
739.063	41909.27
739.404	42017.74
739.744	41942.48
740.084	41839.66
740.424	41869.49
740.764	41703.62
741.104	41853.22
741.444	41577.75
741.784	41606
742.124	41764.41
742.464	41608.03
742.804	41498.88
743.143	41463.85
743.483	41505.21
743.823	41211.2
744.162	41304.31
744.502	41270.86
744.841	41173.92
745.181	41417.75
745.52	41180.92
745.86	41251.43
746.199	41053.02
746.538	41032.45
746.877	41120.13
747.216	41003.3
747.556	40852.57
747.895	40923.08
748.234	40871.33
748.573	40892.79
748.911	40732.12
749.25	40629.3
749.589	40543.65
749.928	40658.22
750.267	40598.57
750.605	40533.48
750.944	40379.14
751.283	40356.99
751.621	40408.29
751.96	40180.72
752.298	40186.15
752.636	40223.89
752.975	39977.11
753.313	39965.59
753.651	40079.71
753.989	39837.68
754.327	39733.73
754.666	39536.45
755.004	39620.06
755.342	39570.8
755.679	39601.53
756.017	39438.37
756.355	39400.18
756.693	39241.54
757.031	39228.43
757.368	39075.67
757.706	39002.22
758.044	38987.99
758.381	38952.73
758.719	38843.81
