Data from orange_diffuse_book_FLMS001491_00095.txt Node
Date: Wed Feb 08 15:30:19 GMT 2017
User: dcchb
Spectrometer: FLMS00149
Trigger mode: 0
Integration Time (sec): 2.000000E-2
Scans to average: 10
Electric dark correction enabled: true
Nonlinearity correction enabled: false
Boxcar width: 0
XAxis mode: Wavelengths
Number of Pixels in Spectrum: 2048
>>>>>Begin Spectral Data<<<<<
341.393	-14.43
341.776	-14.43
342.16	-14.43
342.543	-47.2
342.927	-65.28
343.31	-56.69
343.693	-56.47
344.077	-65.96
344.46	-43.59
344.843	-57.37
345.226	-35.9
345.61	-18.73
345.993	-24.83
346.376	-17.82
346.759	-13.08
347.142	30.54
347.525	33.47
347.908	64.21
348.291	76.64
348.674	91.55
349.057	94.04
349.44	123.19
349.823	153.24
350.206	166.13
350.588	207.93
350.971	231.43
351.354	233.92
351.737	269.4
352.119	275.73
352.502	279.34
352.884	290.87
353.267	266.91
353.65	313.69
354.032	310.75
354.414	332.9
354.797	311.21
355.179	333.13
355.562	339.91
355.944	350.3
356.326	361.83
356.709	348.72
357.091	356.18
357.473	344.2
357.855	356.86
358.238	348.49
358.62	348.49
359.002	364.76
359.384	369.96
359.766	351.43
360.148	362.73
360.53	360.92
360.912	355.73
361.294	370.19
361.676	357.53
362.057	324.77
362.439	339.23
362.821	330.19
363.203	364.76
363.584	333.13
363.966	343.07
364.348	348.95
364.729	348.95
365.111	333.58
365.493	335.61
365.874	332.45
366.256	319.34
366.637	323.41
367.019	328.61
367.4	316.86
367.781	329.51
368.163	319.12
368.544	332.67
368.925	345.1
369.306	348.95
369.688	342.17
370.069	345.33
370.45	351.66
370.831	324.99
371.212	331.32
371.593	341.26
371.974	328.61
372.355	310.98
372.736	345.56
373.117	341.94
373.498	335.61
373.879	349.85
374.26	339.45
374.641	353.01
375.021	338.78
375.402	342.17
375.783	335.84
376.163	354.82
376.544	347.36
376.925	360.02
377.305	332.22
377.686	340.13
378.066	355.5
378.447	362.05
378.827	325.67
379.208	355.5
379.588	344.2
379.968	368.15
380.349	360.47
380.729	355.05
381.109	353.01
381.489	362.5
381.87	342.17
382.25	343.97
382.63	345.33
383.01	354.82
383.39	359.34
383.77	391.2
384.15	354.6
384.53	362.05
384.91	371.09
385.29	355.73
385.67	371.32
386.049	370.41
386.429	364.09
386.809	352.79
387.189	383.52
387.568	371.77
387.948	381.04
388.328	374.93
388.707	393.46
389.087	377.65
389.466	383.75
389.846	374.26
390.225	369.74
390.605	366.35
390.984	394.37
391.363	403.41
391.743	387.59
392.122	396.4
392.501	400.92
392.881	397.53
393.26	402.73
393.639	421.26
394.018	404.09
394.397	398.66
394.776	409.06
395.155	424.2
395.534	403.86
395.913	400.7
396.292	408.61
396.671	407.48
397.05	412.9
397.429	384.2
397.808	409.51
398.186	431.2
398.565	421.26
398.944	411.32
399.323	432.56
399.701	409.96
400.08	409.73
400.458	437.53
400.837	434.37
401.215	431.88
401.594	432.79
401.972	444.99
402.351	433.92
402.729	435.95
403.107	420.13
403.486	454.25
403.864	437.53
404.242	467.36
404.62	456.06
404.999	425.55
405.377	442.73
405.755	454.93
406.133	457.42
406.511	457.87
406.889	455.38
407.267	474.82
407.645	466.68
408.023	467.59
408.401	499
408.779	478.89
409.156	477.53
409.534	506.46
409.912	501.26
410.29	484.08
410.667	498.55
411.045	496.06
411.422	505.55
411.8	498.32
412.178	500.81
412.555	523.86
412.933	506.46
413.31	518.88
413.687	518.43
414.065	510.75
414.442	555.04
414.819	502.61
415.197	530.86
415.574	564.53
415.951	546.45
416.328	562.95
416.705	531.99
417.082	543.52
417.46	545.78
417.837	573.12
418.214	555.49
418.591	579.45
418.967	582.16
419.344	579.9
419.721	560.92
420.098	576.28
420.475	593.91
420.852	583.06
421.228	575.15
421.605	590.97
421.982	612.22
422.358	597.98
422.735	606.79
423.111	619
423.488	607.92
423.864	605.44
424.241	620.8
424.617	612.22
424.994	640.69
425.37	639.56
425.746	647.47
426.123	641.59
426.499	658.09
426.875	642.72
427.251	656.51
427.627	674.59
428.003	652.89
428.379	672.33
428.756	700.35
429.132	697.64
429.507	710.52
429.883	681.59
430.259	695.15
430.635	678.43
431.011	712.55
431.387	717.52
431.763	755.49
432.138	746.9
432.514	723.85
432.89	766.56
433.265	764.08
433.641	759.78
434.016	746.9
434.392	783.06
434.767	783.06
435.143	767.47
435.518	811.08
435.894	810.4
436.269	786
436.644	805.2
437.02	814.24
437.395	791.65
437.77	814.02
438.145	809.5
438.52	825.77
438.895	820.12
439.271	840.68
439.646	850.18
440.021	881.36
440.395	863.51
440.77	863.06
441.145	885.88
441.52	856.28
441.895	876.39
442.27	889.5
442.645	881.14
443.019	896.73
443.394	918.87
443.769	905.99
444.143	896.73
444.518	894.69
444.892	904.64
445.267	921.13
445.641	901.25
446.016	946.9
446.39	937.4
446.764	923.85
447.139	923.85
447.513	918.65
447.887	975.14
448.262	948.7
448.636	959.1
449.01	946.44
449.384	951.19
449.758	964.3
450.132	986.22
450.506	985.09
450.88	992.77
451.254	971.98
451.628	995.03
452.002	981.47
452.376	1008.59
452.75	1000.68
453.123	1004.52
453.497	1010.85
453.871	1031.87
454.244	1043.16
454.618	1051.98
454.992	1058.31
455.365	1035.26
455.739	1075.25
456.112	1084.75
456.486	1094.01
456.859	1079.77
457.232	1102.37
457.606	1101.47
457.979	1091.98
458.352	1137.4
458.725	1154.12
459.099	1143.28
459.472	1133.56
459.845	1172.65
460.218	1177.62
460.591	1149.6
460.964	1206.32
461.337	1199.77
461.71	1208.81
462.083	1195.7
462.456	1226.66
462.829	1210.17
463.201	1233.44
463.574	1263.72
463.947	1262.82
464.32	1252.88
464.692	1273.44
465.065	1320.9
465.438	1270.28
465.81	1322.93
466.183	1310.95
466.555	1350.5
466.928	1362.25
467.3	1322.03
467.672	1346.89
468.045	1382.36
468.417	1381.01
468.789	1362.25
469.161	1379.88
469.534	1395.92
469.906	1457.84
470.278	1443.61
470.65	1454.45
471.022	1484.96
471.394	1472.53
471.766	1506.66
472.138	1488.8
472.51	1528.8
472.882	1527.67
473.253	1544.39
473.625	1586.88
473.997	1591.85
474.369	1593.43
474.74	1619.87
475.112	1650.38
475.484	1685.86
475.855	1702.36
476.227	1685.86
476.598	1742.81
476.97	1747.55
477.341	1788.46
477.713	1813.99
478.084	1800.66
478.455	1809.47
478.827	1878.85
479.198	1906.19
479.569	1912.52
479.94	1955.68
480.311	1980.09
480.682	1974.21
481.053	2026.64
481.424	2053.08
481.795	2064.61
482.166	2105.51
482.537	2139.18
482.908	2198.61
483.279	2170.37
483.65	2254.88
484.021	2279.29
484.391	2261.66
484.762	2303.92
485.133	2318.84
485.503	2367.65
485.874	2445.61
486.244	2422.56
486.615	2447.87
486.985	2522.9
487.356	2583.46
487.726	2582.33
488.097	2633.86
488.467	2654.42
488.837	2676.57
489.207	2732.39
489.578	2748.88
489.948	2764.02
490.318	2831.14
490.688	2858.26
491.058	2851.03
491.428	2960.4
491.798	2953.4
492.168	3061.64
492.538	3049.67
492.908	3065.26
493.278	3137.12
493.648	3158.36
494.017	3174.18
494.387	3224.35
494.757	3245.14
495.126	3301.86
495.496	3312.71
495.866	3345.93
496.235	3394.29
496.605	3411.69
496.974	3432.71
497.344	3502.99
497.713	3488.98
498.082	3554.29
498.452	3618.92
498.821	3615.07
499.19	3649.2
499.559	3681.06
499.928	3673.6
500.298	3775.07
500.667	3786.14
501.036	3768.06
501.405	3858.68
501.774	3854.39
502.143	3895.75
502.512	3930.09
502.88	3968.96
503.249	3938.91
503.618	3990.88
503.987	4035.85
504.356	4069.07
504.724	4081.05
505.093	4142.97
505.462	4153.14
505.83	4207.6
506.199	4176.42
506.567	4229.97
506.936	4214.38
507.304	4322.85
507.672	4328.95
508.041	4352
508.409	4428.39
508.777	4464.09
509.145	4423.64
509.514	4467.93
509.882	4456.63
510.25	4544.54
510.618	4552.45
510.986	4604.65
511.354	4610.98
511.722	4659.34
512.09	4751.77
512.458	4675.39
512.826	4759.68
513.193	4807.81
513.561	4819.56
513.929	4873.8
514.297	4872.44
514.664	4961.93
515.032	4964.19
515.4	5006.68
515.767	5026.56
516.135	5059.33
516.502	5096.84
516.869	5108.82
517.237	5160.57
517.604	5213
517.972	5236.05
518.339	5244.18
518.706	5271.98
519.073	5323.28
519.44	5323.5
519.808	5369.83
520.175	5419.55
520.542	5418.19
520.909	5537.28
521.276	5522.37
521.643	5554.46
522.009	5595.81
522.376	5649.37
522.743	5657.05
523.11	5699.09
523.477	5722.59
523.843	5857.73
524.21	5835.81
524.577	5882.81
524.943	5936.82
525.31	5952.19
525.676	6031.73
526.043	6032.41
526.409	6068.8
526.776	6113.31
527.142	6172.3
527.508	6204.61
527.874	6217.72
528.241	6234.21
528.607	6295
528.973	6323.03
529.339	6310.82
529.705	6375
530.071	6419.29
530.437	6475.56
530.803	6518.05
531.169	6592.4
531.535	6530.25
531.901	6553.75
532.267	6572.96
532.632	6656.58
532.998	6619.74
533.364	6690.93
533.73	6738.38
534.095	6789.91
534.461	6799.62
534.826	6853.18
535.192	6848.21
535.557	6878.94
535.923	6963.69
536.288	6896.8
536.653	7012.95
537.019	6973.63
537.384	7028.54
537.749	7059.5
538.114	7080.75
538.479	7101.76
538.845	7142.89
539.21	7188.77
539.575	7181.08
539.94	7208.65
540.305	7245.26
540.67	7332.72
541.034	7332.94
541.399	7308.54
541.764	7329.33
542.129	7379.27
542.494	7470.57
542.858	7440.06
543.223	7529.55
543.587	7519.38
543.952	7564.58
544.316	7616.55
544.681	7599.38
545.045	7610.9
545.41	7629.21
545.774	7788.98
546.138	7733.84
546.503	7774.06
546.867	7749.88
547.231	7892.93
547.595	7895.87
547.959	7920.72
548.324	7933.6
548.688	7993.04
549.052	8067.39
549.416	8097.67
549.779	8130.89
550.143	8126.82
550.507	8257.44
550.871	8275.29
551.235	8253.37
551.599	8338.57
551.962	8367.72
552.326	8424.21
552.689	8422.18
553.053	8430.54
553.417	8493.59
553.78	8609.52
554.143	8629.18
554.507	8682.29
554.87	8741.49
555.234	8806.35
555.597	8836.41
555.96	8868.72
556.323	8979.91
556.686	9016.97
557.05	9033.92
557.413	9140.8
557.776	9181.48
558.139	9282.5
558.502	9313.23
558.865	9356.17
559.228	9440.91
559.59	9423.96
559.953	9492.66
560.316	9665.54
560.679	9679.1
561.041	9768.13
561.404	9880.45
561.767	9938.75
562.129	9969.94
562.492	10114.56
562.854	10168.12
563.217	10258.52
563.579	10228.69
563.941	10389.81
564.304	10536.47
564.666	10629.81
565.028	10683.59
565.39	10730.37
565.753	10906.18
566.115	10919.29
566.477	11089.91
566.839	11169
567.201	11242.22
567.563	11392.05
567.925	11562.89
568.287	11569.22
568.648	11706.39
569.01	11828.42
569.372	12025.93
569.734	12083.33
570.095	12221.18
570.457	12441.96
570.819	12435.41
571.18	12628.4
571.542	12832.69
571.903	13055.05
572.265	13106.35
572.626	13353.8
572.987	13468.37
573.349	13673.57
573.71	13812.55
574.071	13988.36
574.432	14280.78
574.794	14434.45
575.155	14639.64
575.516	14779.75
575.877	15030.59
576.238	15317.14
576.599	15463.12
576.96	15664.7
577.32	15862.66
577.681	16152.15
578.042	16383.55
578.403	16719.14
578.763	16948.96
579.124	17194.83
579.485	17629.85
579.845	18000.68
580.206	18125.2
580.566	18508.69
580.927	18859.65
581.287	19132.86
581.648	19380.99
582.008	19759.51
582.368	20032.95
582.728	20430.9
583.089	20803.32
583.449	21055.52
583.809	21479.92
584.169	21905.67
584.529	22221.14
584.889	22808.24
585.249	22977.28
585.609	23482.35
585.969	23947.42
586.329	24224.25
586.688	24591.25
587.048	24962.31
587.408	25454.95
587.768	25931.78
588.127	26397.53
588.487	26669.61
588.846	27355.24
589.206	27626.42
589.565	28004.49
589.925	28663
590.284	28922.21
590.643	29502.76
591.003	30019.58
591.362	30512.67
591.721	30991.53
592.08	31448.01
592.44	32000.32
592.799	32266.07
593.158	32676.91
593.517	33439.6
593.876	33885.24
594.235	34349.18
594.593	34747.59
594.952	35356.84
595.311	35640.45
595.67	36199.98
596.029	36809.91
596.387	37323.79
596.746	37808.75
597.104	38015.53
597.463	38625.91
597.822	39224.76
598.18	39528.25
598.538	39903.39
598.897	40681.44
599.255	40733.19
599.613	41613.17
599.972	41810.45
600.33	42318.92
600.688	42662.18
601.046	43136.3
601.404	43573.57
601.762	43831.19
602.12	44370.16
602.478	44719.08
602.836	45143.02
603.194	45368.1
603.552	45751.14
603.91	46037.01
604.268	46539.82
604.625	46808.74
604.983	47242.18
605.341	47372.12
605.698	47845.78
606.056	48119.21
606.413	48395.59
606.771	48697.28
607.128	49066.08
607.485	49063.37
607.843	49354.89
608.2	49711.72
608.557	50013.4
608.914	50126.62
609.272	50583.33
609.629	50712.37
609.986	51067.84
610.343	50991.23
610.7	51392.58
611.057	51449.3
611.414	51573.81
611.771	51748.95
612.127	51980.58
612.484	52157.98
612.841	52311.87
613.198	52344.87
613.554	52498.08
613.911	52723.16
614.267	52752.54
614.624	52879.32
614.98	52998.63
615.337	53274.56
615.693	53444.72
616.05	53362.24
616.406	53657.6
616.762	53578.28
617.118	53766.3
617.475	53767.65
617.831	53965.61
618.187	54063.24
618.543	54175.55
618.899	54303.01
619.255	54403.34
619.611	54376.45
619.967	54535.09
620.323	54626.84
620.678	54554.53
621.034	54492.83
621.39	54581.19
621.746	54697.12
622.101	54994.51
622.457	54780.06
622.812	54954.06
623.168	54989.54
623.523	55056.89
623.879	55194.06
624.234	55008.3
624.589	55136.21
624.945	55188.86
625.3	55242.42
625.655	55244.45
626.01	55271.57
626.365	55319.7
626.72	55337.78
627.075	55307.05
627.43	55320.16
627.785	55289.42
628.14	55465.24
628.495	55515.63
628.85	55506.82
629.205	55440.15
629.559	55651.9
629.914	55511.11
630.269	55524.67
630.623	55540.26
630.978	55483.54
631.332	55626.14
631.687	55614.61
632.041	55530.77
632.396	55642.86
632.75	55486.03
633.104	55555.4
633.459	55422.3
633.813	55446.93
634.167	55408.06
634.521	55420.94
634.875	55491
635.229	55502.98
635.583	55322.64
635.937	55377.33
636.291	55406.93
636.645	55440.6
636.999	55365.35
637.352	55445.35
637.706	55286.71
638.06	55375.07
638.413	55260.72
638.767	55306.37
639.121	55334.17
639.474	55190.89
639.828	55236.09
640.181	55316.77
640.534	55297.56
640.888	55261.85
641.241	55173.04
641.594	55194.06
641.947	55304.56
642.301	55162.65
642.654	55241.51
643.007	55240.84
643.36	55182.31
643.713	55171.46
644.066	55203.1
644.419	55031.12
644.771	54872.26
645.124	54640.17
645.477	54608.76
645.83	54465.94
646.182	54308.2
646.535	54275.21
646.888	54433.4
647.24	54246.29
647.593	54413.51
647.945	54382.33
648.298	54207.19
648.65	54257.36
649.002	54114.09
649.355	54237.92
649.707	54100.3
650.059	54310.69
650.411	54550.68
650.763	54755.42
651.115	54949.54
651.467	54833.61
651.819	54839.72
652.171	54761.07
652.523	54852.15
652.875	54789.1
653.227	54609.67
653.578	54933.5
653.93	54777.8
654.282	54693.05
654.633	54649.66
654.985	54747.74
655.337	54660.96
655.688	54727.85
656.039	54874.07
656.391	54584.36
656.742	54584.81
657.094	54653.73
657.445	54836.1
657.796	54699.38
658.147	54647.4
658.498	54631.36
658.849	54656.22
659.2	54641.08
659.551	54548.2
659.902	54690.79
660.253	54646.5
660.604	54741.41
660.955	54551.59
661.306	54673.17
661.656	54528.99
662.007	54707.29
662.358	54623.9
662.708	54660.29
663.059	54651.02
663.409	54415.09
663.76	54563.57
664.11	54625.03
664.461	54628.65
664.811	54676.56
665.161	54557.01
665.511	54542.32
665.862	54546.16
666.212	54655.09
666.562	54624.58
666.912	54545.71
667.262	54486.96
667.612	54383.68
667.962	54484.7
668.312	54355.66
668.662	54553.4
669.011	54453.96
669.361	54451.7
669.711	54408.54
670.06	54335.1
670.41	54280.18
670.76	54246.29
671.109	54331.03
671.459	54284.02
671.808	54314.53
672.157	54327.64
672.507	54063.01
672.856	54148.21
673.205	54166.06
673.554	54222.33
673.904	54131.26
674.253	54228.43
674.602	54114.54
674.951	53712.29
675.3	53607.43
675.649	54102.33
675.998	54002.68
676.346	54066.4
676.695	54121.77
677.044	53903.7
677.393	53955.22
677.741	54039.51
678.09	53863.02
678.438	53918.84
678.787	53903.92
679.135	53864.83
679.484	53685.62
679.832	53760.87
680.181	53636.36
680.529	53771.95
680.877	53578.73
681.225	53673.19
681.573	53764.04
681.922	53559.52
682.27	53415.57
682.618	53555.46
682.966	53401.34
683.314	53429.36
683.661	53442.24
684.009	53242.02
684.357	53197.5
684.705	53147.78
685.053	53244.5
685.4	53202.02
685.748	53009.03
686.095	52956.83
686.443	52910.05
686.79	52865.76
687.138	52891.52
687.485	52895.81
687.832	52784.63
688.18	52782.14
688.527	52610.4
688.874	52528.82
689.221	52560.91
689.568	52438.88
689.915	52299.44
690.262	52303.29
690.609	52388.93
690.956	52120.24
691.303	52111.65
691.65	52035.72
691.997	51853.35
692.344	51792.56
692.69	51728.39
693.037	51757.09
693.383	51537.43
693.73	51656.07
694.077	51377.43
694.423	51341.73
694.769	51275.97
695.116	51206.37
695.462	51178.34
695.808	50969.76
696.155	51042.3
696.501	50831.01
696.847	50904
697.193	50613.39
697.539	50743.55
697.885	50421.98
698.231	50386.05
698.577	50344.02
698.923	50166.17
699.269	50057.92
699.614	49862.67
699.96	49957.81
700.306	49847.08
700.651	49723.69
700.997	49673.3
701.342	49521.66
701.688	49578.16
702.033	49300.65
702.379	49373.87
702.724	49193.76
703.069	49273.76
703.415	48865.64
703.76	48856.82
704.105	48818.18
704.45	48738.18
704.795	48501.58
705.14	48397.4
705.485	48364.86
705.83	48268.36
706.175	48317.18
706.52	48094.36
706.865	47925.77
707.209	47942.04
707.554	47757.64
707.899	47822.5
708.243	47601.04
708.588	47549.51
708.932	47289.41
709.277	47252.8
709.621	47260.71
709.966	47042.63
710.31	47129.18
710.654	46834.95
710.998	46956.99
711.342	46853.94
711.687	46709.08
712.031	46516.55
712.375	46480.84
712.719	46589.31
713.063	46619.59
713.407	46602.42
713.75	46364.01
714.094	46406.94
714.438	46167.18
714.782	46013.51
715.125	45893.74
715.469	46058.93
715.812	45966.73
716.156	45627.76
716.499	45736.23
716.843	45630.01
717.186	45513.18
717.53	45631.14
717.873	45585.27
718.216	45502.33
718.559	45358.38
718.902	45020.09
719.246	45246.3
719.589	45094.44
719.932	44756.37
720.275	44957.72
720.617	44970.82
720.96	44852.41
721.303	44753.65
721.646	44841.79
721.989	44488.58
722.331	44801.11
722.674	44583.71
723.016	44636.59
723.359	44480.67
723.701	44460.78
724.044	44201.13
724.386	44100.34
724.729	44347.79
725.071	44263.72
725.413	44135.59
725.755	44279.32
726.097	43920.68
726.439	43738.99
726.782	43817.63
727.124	43907.8
727.465	43729.5
727.807	43717.3
728.149	43657.19
728.491	43564.98
728.833	43725.43
729.175	43616.96
729.516	43503.29
729.858	43407.93
730.199	43449.96
730.541	43326.35
730.882	43182.85
731.224	43501.03
731.565	43131.55
731.906	43153.24
732.248	43243.86
732.589	42965.68
732.93	42988.5
733.271	42946.24
733.612	42989.86
733.953	42961.16
734.294	42723.88
734.635	42788.51
734.976	42834.38
735.317	42561.85
735.658	42571.56
735.999	42704.67
736.339	42540.15
736.68	42720.49
737.021	42478.01
737.361	42460.83
737.702	42516.42
738.042	42299.48
738.383	42273.04
738.723	42376.09
739.063	42139.71
739.404	42316.66
739.744	42188.98
740.084	42068.3
740.424	42201.86
740.764	42028.3
741.104	42186.49
741.444	41923.9
741.784	41734.3
742.124	41826.27
742.464	41833.05
742.804	41736.33
743.143	41582.44
743.483	41684.13
743.823	41529.56
744.162	41396
744.502	41546.96
744.841	41354.87
745.181	41649.55
745.52	41424.25
745.86	41474.64
746.199	41226.51
746.538	41230.58
746.877	41368.88
747.216	41355.1
747.556	41110.13
747.895	41018.38
748.234	40992.85
748.573	40882.12
748.911	40966.86
749.25	40823.36
749.589	40780.65
749.928	40788.33
750.267	40761.44
750.605	40686.87
750.944	40717.15
751.283	40568
751.621	40604.16
751.96	40251.63
752.298	40529.13
752.636	40485.97
752.975	40135.02
753.313	40076.94
753.651	40133.44
753.989	40128.24
754.327	39827
754.666	39760.79
755.004	39698.42
755.342	39763.05
755.679	39786.1
756.017	39553.34
756.355	39605.54
756.693	39439.67
757.031	39365.32
757.368	39342.04
757.706	39267.47
758.044	39184.53
758.381	39083.75
758.719	38947.03
759.056	39016.18
759.394	38906.35
