Data from orange_diffuse_book_FLMS001491_00013.txt Node
Date: Wed Feb 08 15:29:11 GMT 2017
User: dcchb
Spectrometer: FLMS00149
Trigger mode: 0
Integration Time (sec): 2.000000E-2
Scans to average: 10
Electric dark correction enabled: true
Nonlinearity correction enabled: false
Boxcar width: 0
XAxis mode: Wavelengths
Number of Pixels in Spectrum: 2048
>>>>>Begin Spectral Data<<<<<
341.393	-14.28
341.776	-14.28
342.16	-14.28
342.543	-58.35
342.927	-77.78
343.31	-70.1
343.693	-82.75
344.077	-61.51
344.46	-44.11
344.843	-57.67
345.226	-31
345.61	-35.52
345.993	-20.38
346.376	-11.34
346.759	-8.63
347.142	13.06
347.525	61.42
347.908	60.3
348.291	74.76
348.674	101.65
349.057	111.82
349.44	128.54
349.823	154.98
350.206	195.88
350.588	192.27
350.971	210.8
351.354	240.4
351.737	254.64
352.119	262.1
352.502	278.37
352.884	298.48
353.267	298.48
353.65	321.98
354.032	305.49
354.414	330.12
354.797	327.41
355.179	331.47
355.562	342.55
355.944	345.71
356.326	354.98
356.709	347.75
357.091	348.42
357.473	352.49
357.855	345.26
358.238	384.58
358.62	355.2
359.002	365.6
359.384	349.1
359.766	342.77
360.148	361.53
360.53	345.03
360.912	336.67
361.294	347.07
361.676	342.32
362.057	344.58
362.439	351.36
362.821	354.75
363.203	338.48
363.584	335.09
363.966	327.86
364.348	337.35
364.729	356.11
365.111	308.42
365.493	334.86
365.874	326.05
366.256	325.15
366.637	329.89
367.019	341.64
367.4	346.62
367.781	331.47
368.163	314.3
368.544	336.67
368.925	348.88
369.306	333.28
369.688	337.12
370.069	331.25
370.45	340.51
370.831	315.2
371.212	313.85
371.593	333.73
371.974	324.02
372.355	323.79
372.736	327.86
373.117	330.57
373.498	325.82
373.879	348.65
374.26	324.69
374.641	297.35
375.021	319.05
375.402	344.58
375.783	351.36
376.163	322.44
376.544	325.6
376.925	348.42
377.305	338.71
377.686	341.64
378.066	333.06
378.447	348.42
378.827	361.08
379.208	342.77
379.588	351.81
379.968	358.82
380.349	334.19
380.729	325.37
381.109	349.78
381.489	368.08
381.87	359.04
382.25	361.53
382.63	338.48
383.01	358.37
383.39	355.43
383.77	358.82
384.15	330.12
384.53	351.36
384.91	352.94
385.29	354.52
385.67	362.89
386.049	364.47
386.429	353.39
386.809	372.15
387.189	373.73
387.568	335.99
387.948	366.73
388.328	392.26
388.707	399.95
389.087	388.42
389.466	381.87
389.846	366.5
390.225	378.48
390.605	387.29
390.984	379.38
391.363	383
391.743	394.3
392.122	371.47
392.501	369.44
392.881	386.84
393.26	363.79
393.639	384.58
394.018	391.59
394.397	383
394.776	397.46
395.155	402.43
395.534	394.3
395.913	394.3
396.292	390
396.671	404.92
397.05	397.01
397.429	410.79
397.808	396.33
398.186	401.75
398.565	407.63
398.944	397.24
399.323	424.58
399.701	399.95
400.08	406.95
400.458	419.16
400.837	405.82
401.215	427.74
401.594	421.64
401.972	434.52
402.351	431.81
402.729	414.18
403.107	401.53
403.486	430.23
403.864	421.19
404.242	440.62
404.62	435.88
404.999	411.47
405.377	433.39
405.755	445.6
406.133	452.83
406.511	447.63
406.889	453.28
407.267	462.77
407.645	433.17
408.023	452.38
408.401	457.12
408.779	431.58
409.156	470.91
409.534	474.52
409.912	448.99
410.29	466.61
410.667	481.3
411.045	472.04
411.422	479.49
411.8	482.43
412.178	466.16
412.555	494.63
412.933	489.66
413.31	498.25
413.687	514.29
414.065	490.57
414.442	521.75
414.819	510.45
415.197	498.93
415.574	525.14
415.951	512.03
416.328	533.73
416.705	518.59
417.082	528.08
417.46	534.18
417.837	547.97
418.214	512.71
418.591	552.49
418.967	542.32
419.344	550
419.721	551.13
420.098	541.64
420.475	555.42
420.852	556.1
421.228	572.6
421.605	554.07
421.982	561.07
422.358	558.14
422.735	573.95
423.111	568.3
423.488	573.73
423.864	598.13
424.241	589.55
424.617	585.7
424.994	604.46
425.37	608.53
425.746	587.06
426.123	604.69
426.499	583.9
426.875	613.95
427.251	637
427.627	633.84
428.003	640.84
428.379	624.8
428.756	641.75
429.132	641.3
429.507	645.14
429.883	649.43
430.259	648.53
430.635	674.29
431.011	671.58
431.387	691.46
431.763	687.62
432.138	664.12
432.514	690.11
432.89	672.26
433.265	708.64
433.641	710
434.016	686.04
434.392	720.16
434.767	732.37
435.143	720.62
435.518	743.21
435.894	750.45
436.269	741.86
436.644	789.54
437.02	754.06
437.395	778.69
437.77	774.17
438.145	764.68
438.52	756.55
438.895	795.19
439.271	763.78
439.646	793.61
440.021	781.63
440.395	815.98
440.77	809.43
441.145	803.55
441.52	820.5
441.895	822.99
442.27	815.53
442.645	825.47
443.019	819.15
443.394	821.86
443.769	840.16
444.143	819.82
444.518	841.97
444.892	815.98
445.267	865.47
445.641	885.13
446.016	879.03
446.39	853.04
446.764	865.02
447.139	843.55
447.513	852.82
447.887	870.44
448.262	875.41
448.636	890.56
449.01	907.5
449.384	908.63
449.758	888.97
450.132	907.05
450.506	895.98
450.88	912.48
451.254	914.51
451.628	934.62
452.002	922.19
452.376	937.11
452.75	950.22
453.123	928.97
453.497	985.69
453.871	972.36
454.244	969.65
454.618	966.03
454.992	969.2
455.365	995.86
455.739	1017.11
456.112	1015.52
456.486	1004
456.859	1016.2
457.232	1035.41
457.606	1019.82
457.979	1041.06
458.352	1049.42
458.725	1077.44
459.099	1072.02
459.472	1095.3
459.845	1084
460.218	1112.92
460.591	1088.74
460.964	1117.89
461.337	1120.83
461.71	1160.83
462.083	1156.99
462.456	1164.22
462.829	1127.39
463.201	1149.31
463.574	1180.49
463.947	1178.23
464.32	1209.64
464.692	1198.12
465.065	1205.35
465.438	1211.68
465.81	1231.11
466.183	1229.3
466.555	1227.95
466.928	1266.59
467.3	1276.53
467.672	1270.21
468.045	1312.24
468.417	1317.66
468.789	1291.45
469.161	1330.09
469.534	1356.53
469.906	1369.64
470.278	1343.88
470.65	1361.73
471.022	1362.18
471.394	1395.18
471.766	1409.19
472.138	1413.93
472.51	1447.83
472.882	1446.7
473.253	1450.31
473.625	1530.09
473.997	1559.24
474.369	1531.67
474.74	1521.27
475.112	1538.67
475.484	1596.98
475.855	1585.68
476.227	1617.99
476.598	1642.85
476.97	1626.13
477.341	1684.66
477.713	1702.06
478.084	1702.06
478.455	1727.6
478.827	1741.61
479.198	1786.8
479.569	1794.03
479.94	1857.99
480.311	1856.41
480.682	1909.29
481.053	1953.35
481.424	1957.19
481.795	1967.36
482.166	2013.46
482.537	2002.16
482.908	2075.16
483.279	2075.16
483.65	2104.54
484.021	2143.4
484.391	2171.43
484.762	2215.72
485.133	2211.2
485.503	2244.64
485.874	2316.73
486.244	2299.11
486.615	2377.3
486.985	2430.4
487.356	2418.2
487.726	2470.4
488.097	2519.44
488.467	2497.97
488.837	2565.77
489.207	2610.06
489.578	2645.76
489.948	2667.68
490.318	2708.59
490.688	2755.37
491.058	2787.91
491.428	2810.51
491.798	2833.1
492.168	2890.28
492.538	2916.49
492.908	2967.56
493.278	2967.56
493.648	3018.18
494.017	3090.72
494.387	3090.27
494.757	3107.9
495.126	3155.81
495.496	3172.53
495.866	3238.74
496.235	3257.27
496.605	3270.61
496.974	3302.47
497.344	3336.59
497.713	3357.61
498.082	3387.21
498.452	3434.9
498.821	3468.57
499.19	3455.69
499.559	3478.06
499.928	3528.45
500.298	3575.23
500.667	3581.11
501.036	3620.88
501.405	3684.38
501.774	3645.51
502.143	3675.57
502.512	3763.7
502.88	3736.58
503.249	3808.22
503.618	3826.3
503.987	3864.04
504.356	3890.25
504.724	3874.21
505.093	3944.26
505.462	3923.7
505.83	3989.23
506.199	4033.07
506.567	4051.15
506.936	4096.8
507.304	4099.96
507.672	4143.35
508.041	4165.05
508.409	4227.87
508.777	4247.53
509.145	4272.61
509.514	4255.89
509.882	4281.2
510.25	4366.85
510.618	4362.1
510.986	4419.95
511.354	4410.46
511.722	4446.62
512.09	4517.35
512.458	4497.69
512.826	4545.83
513.193	4565.49
513.561	4582.44
513.929	4622.89
514.297	4664.02
514.664	4727.06
515.032	4719.38
515.4	4756.44
515.767	4765.93
516.135	4844.12
516.502	4806.61
516.869	4917.12
517.237	4931.35
517.604	4892.03
517.972	5034.63
518.339	5009.32
518.706	5073.72
519.073	5075.53
519.44	5132.25
519.808	5147.84
520.175	5145.36
520.542	5185.36
520.909	5201.4
521.276	5236.2
521.643	5270.1
522.009	5329.76
522.376	5335.41
522.743	5376.99
523.11	5453.15
523.477	5502.86
523.843	5481.85
524.21	5600.26
524.577	5642.75
524.943	5649.75
525.31	5676.19
525.676	5777.43
526.043	5740.37
526.409	5813.36
526.776	5877.77
527.142	5882.06
527.508	5896.3
527.874	5989.86
528.241	5992.79
528.607	6033.47
528.973	6029.86
529.339	5987.6
529.705	6103.98
530.071	6155.73
530.437	6175.39
530.803	6190.76
531.169	6258.78
531.535	6240.02
531.901	6256.06
532.267	6287.93
532.632	6347.14
532.998	6319.57
533.364	6400.24
533.73	6374.93
534.095	6451.09
534.461	6476.85
534.826	6491.09
535.192	6535.6
535.557	6588.03
535.923	6583.74
536.288	6637.52
536.653	6636.39
537.019	6640.91
537.384	6705.54
537.749	6764.07
538.114	6767.46
538.479	6767.46
538.845	6811.53
539.21	6811.08
539.575	6868.03
539.94	6871.42
540.305	6904.86
540.67	6905.99
541.034	6959.55
541.399	7044.07
541.764	7025.99
542.129	7111.64
542.494	7079.32
542.858	7068.7
543.223	7095.36
543.587	7172.65
543.952	7196.15
544.316	7259.2
544.681	7240.45
545.045	7321.12
545.41	7301.69
545.774	7360.44
546.138	7343.04
546.503	7420.78
546.867	7382.81
547.231	7485.18
547.595	7476.15
547.959	7567.89
548.324	7582.81
548.688	7600.21
549.052	7656.25
549.416	7672.52
549.779	7697.61
550.143	7754.56
550.507	7864.16
550.871	7869.81
551.235	7832.97
551.599	7992.29
551.962	7970.37
552.326	8025.74
552.689	8118.16
553.053	8098.05
553.417	8153.42
553.78	8249.01
554.143	8219.18
554.507	8289.23
554.87	8316.35
555.234	8472.28
555.597	8320.42
555.96	8440.19
556.323	8555.21
556.686	8524.71
557.05	8651.71
557.413	8724.93
557.776	8693.29
558.139	8822.1
558.502	8903.68
558.865	8875.2
559.228	8991.59
559.59	9028.65
559.953	9086.95
560.316	9226.61
560.679	9269.09
561.041	9366.72
561.404	9391.58
561.767	9494.17
562.129	9577.56
562.492	9651
562.854	9713.6
563.217	9790.43
563.579	9818
563.941	9921.5
564.304	10064.1
564.666	10151.56
565.028	10189.97
565.39	10304.09
565.753	10405.11
566.115	10484.65
566.477	10588.38
566.839	10714.93
567.201	10774.36
567.563	10885.77
567.925	11060.23
568.287	11063.62
568.648	11226.33
569.01	11380
569.372	11558.07
569.734	11595.13
570.095	11686.66
570.457	11939.08
570.819	12116.93
571.18	12134.78
571.542	12383.59
571.903	12514.43
572.265	12630.81
572.626	12808.66
572.987	12920.3
573.349	13055.89
573.71	13270.57
574.071	13486.61
574.432	13714.4
574.794	14033.26
575.155	14086.37
575.516	14227.38
575.877	14532.91
576.238	14680.7
576.599	14939.9
576.96	15171.31
577.32	15379.44
577.681	15540.34
578.042	15838.86
578.403	16084.96
578.763	16345.06
579.124	16656.02
579.485	16933.52
579.845	17255.78
580.206	17475.88
580.566	17800.85
580.927	18089.88
581.287	18344.11
581.648	18717.21
582.008	19077.87
582.368	19264.08
582.728	19732.09
583.089	19848.93
583.449	20237.17
583.809	20593.09
584.169	21057.48
584.529	21328.44
584.889	21888.42
585.249	22136.32
585.609	22429.42
585.969	22952.57
586.329	23268.5
586.688	23758.65
587.048	24066.67
587.408	24362.48
587.768	24865.74
588.127	25249.46
588.487	25592.96
588.846	26237.23
589.206	26456.21
589.565	26975.29
589.925	27529.63
590.284	27846.68
590.643	28337.97
591.003	28778.41
591.362	29294.1
591.721	29751.49
592.08	30130.24
592.44	30838.69
592.799	31236.65
593.158	31744.66
593.517	32074.14
593.876	32530.4
594.235	33056.72
594.593	33422.36
594.952	33980.08
595.311	34260.98
595.67	34817.8
596.029	35451.23
596.387	35857.32
596.746	36397.87
597.104	36647.13
597.463	37136.38
597.822	37855.01
598.18	38098.16
598.538	38344.26
598.897	39032.6
599.255	39224.46
599.613	40165.91
599.972	40313.93
600.33	40809.96
600.688	41023.51
601.046	41470.96
601.404	42220.09
601.762	42290.15
602.12	43013.97
602.478	43249.89
602.836	43580.51
603.194	43735.98
603.552	44438.34
603.91	44475.17
604.268	45165.78
604.625	45318.54
604.983	45784.06
605.341	45785.87
605.698	46458.4
606.056	46620.88
606.413	46804.38
606.771	47305.61
607.128	47610.46
607.485	47747.63
607.843	47959.83
608.2	48448.85
608.557	48737.43
608.914	48795.96
609.272	49134.94
609.629	49347.13
609.986	49696.28
610.343	49656.28
610.7	50062.37
611.057	50119.54
611.414	50312.98
611.771	50565.18
612.127	50841.33
612.484	50888.79
612.841	51149.35
613.198	51142.57
613.554	51257.37
613.911	51553.63
614.267	51723.57
614.624	51693.74
614.98	51903.9
615.337	52228.64
615.693	52166.04
616.05	52348.86
616.406	52519.25
616.762	52523.32
617.118	52621.85
617.475	52810.32
617.831	52819.36
618.187	53078.11
618.543	53080.82
618.899	53278.33
619.255	53249.63
619.611	53315.84
619.967	53469.74
620.323	53617.98
620.678	53527.82
621.034	53489.85
621.39	53550.41
621.746	53540.02
622.101	53966.67
622.457	53703.63
622.812	53802.38
623.168	53953.57
623.523	53961.48
623.879	54158.76
624.234	53933.91
624.589	54093.22
624.945	54182.94
625.3	54149.49
625.655	54228.59
626.01	54322.82
626.365	54283.5
626.72	54286.67
627.075	54362.14
627.43	54347
627.785	54410.05
628.14	54412.09
628.495	54513.33
628.85	54349.49
629.205	54416.83
629.559	54558.52
629.914	54477.62
630.269	54498.41
630.623	54412.31
630.978	54360.11
631.332	54551.52
631.687	54701.57
632.041	54529.82
632.396	54580.9
632.75	54446.21
633.104	54612.31
633.459	54369.38
633.813	54415.48
634.167	54427.23
634.521	54455.25
634.875	54463.61
635.229	54430.39
635.583	54364.63
635.937	54456.15
636.291	54432.88
636.645	54385.87
636.999	54319.21
637.352	54410.28
637.706	54281.24
638.06	54380.67
638.413	54274.91
638.767	54264.75
639.121	54373.44
639.474	54096.61
639.828	54203.05
640.181	54225.88
640.534	54245.76
640.888	54151.08
641.241	54051.42
641.594	54188.36
641.947	54246.44
642.301	54184.3
642.654	54198.98
643.007	54216.84
643.36	54203.05
643.713	54118.99
644.066	54139.33
644.419	53927.58
644.771	53822.72
645.124	53621.6
645.477	53525.56
645.83	53415.95
646.182	53273.36
646.535	53207.82
646.888	53278.56
647.24	53183.42
647.593	53381.38
647.945	53264.77
648.298	53164.66
648.65	53150.2
649.002	53014.16
649.355	53145.23
649.707	53137.09
650.059	53269.97
650.411	53591.54
650.763	53610.98
651.115	53900.24
651.467	53836.28
651.819	53878.99
652.171	53783.63
652.523	53721.71
652.875	53668.83
653.227	53623.18
653.578	53745.44
653.93	53784.98
654.282	53619.34
654.633	53618.43
654.985	53701.14
655.337	53679.45
655.688	53659.79
656.039	53777.75
656.391	53427.93
656.742	53559
657.094	53581.83
657.445	53664.08
657.796	53678.09
658.147	53586.12
658.498	53527.36
658.849	53687.81
659.2	53524.65
659.551	53585.44
659.902	53681.71
660.253	53553.13
660.604	53664.54
660.955	53480.59
661.306	53624.54
661.656	53565.1
662.007	53550.87
662.358	53468.38
662.708	53512.9
663.059	53525.78
663.409	53352
663.76	53539.57
664.11	53540.92
664.461	53564.65
664.811	53597.42
665.161	53469.06
665.511	53360.59
665.862	53460.02
666.212	53525.56
666.562	53510.64
666.912	53455.73
667.262	53423.41
667.612	53368.72
667.962	53438.55
668.312	53371.21
668.662	53467.93
669.011	53347.26
669.361	53391.1
669.711	53335.73
670.06	53334.37
670.41	53212.8
670.76	53204.21
671.109	53239.46
671.459	53324.21
671.808	53212.8
672.157	53254.83
672.507	53024.1
672.856	53027.26
673.205	53121.95
673.554	53211.21
673.904	53091.44
674.253	53191.33
674.602	53119.24
674.951	52629.08
675.3	52529.2
675.649	52985.23
675.998	52971.9
676.346	52942.97
676.695	53077.43
677.044	52726.25
677.393	52896.87
677.741	52908.62
678.09	52864.33
678.438	52705.92
678.787	52822.07
679.135	52770.77
679.484	52624.11
679.832	52794.5
680.181	52439.26
680.529	52660.95
680.877	52635.86
681.225	52596.54
681.573	52682.41
681.922	52569.2
682.27	52340.5
682.618	52347.51
682.966	52330.79
683.314	52412.82
683.661	52260.96
684.009	52265.48
684.357	52018.48
684.705	52059.38
685.053	51975.54
685.4	52095.99
685.748	51920.63
686.095	51829.33
686.443	51767.86
686.79	51688.99
687.138	51782.55
687.485	51693.06
687.832	51601.54
688.18	51575.78
688.527	51367.65
688.874	51477.02
689.221	51394.99
689.568	51229.57
689.915	51230.47
690.262	51164.71
690.609	51075.9
690.956	50970.82
691.303	50963.36
691.65	50818.73
691.997	50730.6
692.344	50494.45
692.69	50537.16
693.037	50653.32
693.383	50216.49
693.73	50396.6
694.077	50265.3
694.423	50143.5
694.769	50016.04
695.116	50001.58
695.462	49873.22
695.808	49813.56
696.155	49847.69
696.501	49481.37
696.847	49558.43
697.193	49290.19
697.539	49456.96
697.885	49059.23
698.231	49043.64
698.577	49091.77
698.923	48920.93
699.269	48870.54
699.614	48697.21
699.96	48570.21
700.306	48489.53
700.651	48379.7
700.997	48196.2
701.342	48195.3
701.688	48218.58
702.033	47884.12
702.379	47961.63
702.724	47916.66
703.069	47862.65
703.415	47502.44
703.76	47535.2
704.105	47497.01
704.45	47466.51
704.795	47221.09
705.14	47088.44
705.485	47132.05
705.83	46925.96
706.175	46961.43
706.52	46758.5
706.865	46625.17
707.209	46517.15
707.554	46392.41
707.899	46502.24
708.243	46269.25
708.588	46145.41
708.932	45833.78
709.277	45929.37
709.621	45915.81
709.966	45581.58
710.31	45759.21
710.654	45447.12
710.998	45423.4
711.342	45438.76
711.687	45331.65
712.031	45120.35
712.375	45025.21
712.719	45193.8
713.063	45075.38
713.407	45141.37
713.75	44878.78
714.094	44871.32
714.438	44648.95
714.782	44674.94
715.125	44642.85
715.469	44686.69
715.812	44578.45
716.156	44126.03
716.499	44301.17
716.843	44423.65
717.186	44197.21
717.53	44295.74
717.873	44227.27
718.216	44029.99
718.559	44011.46
718.902	43740.73
719.246	43907.73
719.589	43665.93
719.932	43498.93
720.275	43441.08
720.617	43462.09
720.96	43284.7
721.303	43431.13
721.646	43300.74
721.989	43157.92
722.331	43423
722.674	43248.76
723.016	43330.57
723.359	43063.91
723.701	43000.63
724.044	42720.64
724.386	42661.21
724.729	42916.12
725.071	42713.41
725.413	42698.27
725.755	42694.88
726.097	42571.49
726.439	42294.21
726.782	42348.45
727.124	42490.37
727.465	42321.1
727.807	42392.29
728.149	42247.89
728.491	42190.94
728.833	42091.51
729.175	42043.15
729.516	42096.25
729.858	41977.16
730.199	42060.32
730.541	41861
730.882	41762.7
731.224	41977.61
731.565	41655.59
731.906	41690.61
732.248	41781.01
732.589	41636.38
732.93	41493.56
733.271	41594.12
733.612	41624.17
733.953	41585.76
734.294	41438.64
734.635	41287.69
734.976	41514.57
735.317	41242.72
735.658	41133.11
735.999	41185.32
736.339	41175.15
736.68	41268.03
737.021	41023.29
737.361	40889.28
737.702	40969.73
738.042	40897.64
738.383	40824.87
738.723	40918.66
739.063	40784.65
739.404	40815.38
739.744	40807.47
740.084	40558.67
740.424	40662.39
740.764	40536.07
741.104	40776.29
741.444	40429.18
741.784	40384.88
742.124	40512.56
742.464	40333.59
742.804	40348.5
743.143	40388.5
743.483	40230.54
743.823	40162.29
744.162	40062.41
744.502	40167.72
744.841	40002.75
745.181	40013.82
745.52	40008.4
745.86	40002.3
746.199	39913.03
746.538	39947.38
746.877	39915.74
747.216	39998.91
747.556	39897.21
747.895	39663.77
748.234	39598.69
748.573	39644.34
748.911	39534.29
749.25	39437.79
749.589	39393.95
749.928	39525.02
750.267	39560.73
750.605	39351.01
750.944	39253.16
751.283	39086.84
751.621	39231.69
751.96	39011.36
752.298	39043.9
752.636	39001.19
752.975	38744.48
753.313	38699.51
753.651	38776.79
753.989	38597.36
754.327	38581.32
754.666	38457.7
755.004	38400.76
755.342	38629.68
755.679	38342.68
756.017	38132.06
756.355	38284.83
756.693	37990.82
757.031	38180.65
757.368	37912.86
757.706	37837.15
758.044	37764.84
758.381	37665.63
758.719	37665.63
759.056	37757.16
759.394	37453.44
759.731	37284.85
