Data from orange_diffuse_book_FLMS001491_00039.txt Node
Date: Wed Feb 08 15:29:29 GMT 2017
User: dcchb
Spectrometer: FLMS00149
Trigger mode: 0
Integration Time (sec): 2.000000E-2
Scans to average: 10
Electric dark correction enabled: true
Nonlinearity correction enabled: false
Boxcar width: 0
XAxis mode: Wavelengths
Number of Pixels in Spectrum: 2048
>>>>>Begin Spectral Data<<<<<
341.393	-19.36
341.776	-19.36
342.16	-19.36
342.543	-54.17
342.927	-94.39
343.31	-73.37
343.693	-69.53
344.077	-65.92
344.46	-63.43
344.843	-66.14
345.226	-40.15
345.61	-18.91
345.993	-13.49
346.376	-18.46
346.759	-11.45
347.142	15.21
347.525	39.84
347.908	70.58
348.291	103.34
348.674	102.67
349.057	109.22
349.44	111.48
349.823	153.51
350.206	168.2
350.588	203.91
350.971	235.54
351.354	240.74
351.737	249.1
352.119	274.41
352.502	281.65
352.884	292.49
353.267	279.61
353.65	319.16
354.032	295.88
354.414	302.66
354.797	313.73
355.179	316.22
355.562	332.94
355.944	345.37
356.326	343.79
356.709	353.51
357.091	339.95
357.473	344.69
357.855	336.33
358.238	358.71
358.62	361.42
359.002	351.47
359.384	373.62
359.766	355.54
360.148	358.03
360.53	345.82
360.912	350.12
361.294	334.98
361.676	334.75
362.057	344.47
362.439	342.43
362.821	345.82
363.203	337.24
363.584	334.98
363.966	330.01
364.348	315.99
364.729	332.27
365.111	336.56
365.493	317.35
365.874	327.29
366.256	299.72
366.637	332.04
367.019	340.85
367.4	352.38
367.781	323.23
368.163	330.46
368.544	326.16
368.925	320.29
369.306	325.94
369.688	328.65
370.069	334.3
370.45	309.44
370.831	323.9
371.212	327.97
371.593	325.03
371.974	333.4
372.355	318.25
372.736	329.55
373.117	325.94
373.498	325.26
373.879	333.17
374.26	338.14
374.641	344.69
375.021	343.79
375.402	327.75
375.783	344.24
376.163	334.75
376.544	330.91
376.925	333.17
377.305	361.42
377.686	349.44
378.066	356.9
378.447	355.32
378.827	341.98
379.208	342.89
379.588	367.52
379.968	352.83
380.349	351.7
380.729	362.32
381.109	344.02
381.489	349.21
381.87	351.47
382.25	353.06
382.63	364.81
383.01	355.32
383.39	380.85
383.77	373.39
384.15	380.63
384.53	354.41
384.91	351.7
385.29	355.09
385.67	374.3
386.049	355.32
386.429	376.33
386.809	374.52
387.189	381.76
387.568	359.84
387.948	361.64
388.328	383.34
388.707	410.23
389.087	375.43
389.466	387.18
389.846	381.76
390.225	378.37
390.605	390.57
390.984	395.77
391.363	375.43
391.743	404.81
392.122	391.02
392.501	405.48
392.881	385.82
393.26	400.06
393.639	378.14
394.018	415.88
394.397	407.29
394.776	409.1
395.155	423.79
395.534	426.95
395.913	412.94
396.292	398.48
396.671	403
397.05	407.52
397.429	419.72
397.808	437.35
398.186	413.17
398.565	417.46
398.944	440.51
399.323	432.15
399.701	430.57
400.08	426.05
400.458	440.51
400.837	435.54
401.215	443.45
401.594	428.99
401.972	442.32
402.351	458.59
402.729	433.05
403.107	424.24
403.486	455.43
403.864	442.32
404.242	449.55
404.62	465.6
404.999	453.39
405.377	478.25
405.755	475.54
406.133	458.36
406.511	473.5
406.889	462.88
407.267	483.22
407.645	477.8
408.023	498.59
408.401	487.29
408.779	488.42
409.156	504.46
409.534	497.01
409.912	501.53
410.29	502.2
410.667	510.57
411.045	497.68
411.422	507.18
411.8	516.22
412.178	523.22
412.555	531.58
412.933	523.22
413.31	516.89
413.687	543.56
414.065	530.68
414.442	560.51
414.819	559.38
415.197	545.14
415.574	545.59
415.951	555.31
416.328	559.15
416.705	562.77
417.082	599.6
417.46	589.43
417.837	579.72
418.214	559.6
418.591	591.24
418.967	562.77
419.344	587.85
419.721	578.59
420.098	605.03
420.475	602.77
420.852	625.59
421.228	626.27
421.605	596.67
421.982	619.49
422.358	621.75
422.735	619.49
423.111	663.1
423.488	615.2
423.864	615.65
424.241	645.03
424.617	648.64
424.994	655.87
425.37	681.63
425.746	682.09
426.123	678.24
426.499	672.82
426.875	675.31
427.251	681.41
427.627	714.4
428.003	707.4
428.379	694.52
428.756	714.18
429.132	708.3
429.507	702.43
429.883	747.4
430.259	753.72
430.635	731.8
431.011	774.51
431.387	731.58
431.763	779.03
432.138	740.62
432.514	785.59
432.89	763.89
433.265	777
433.641	767.06
434.016	803.67
434.392	801.18
434.767	822.42
435.143	823.55
435.518	828.98
435.894	837.11
436.269	865.58
436.644	841.63
437.02	843.21
437.395	875.08
437.77	872.14
438.145	890.67
438.52	905.13
438.895	891.8
439.271	868.3
439.646	940.16
440.021	892.93
440.395	934.28
440.77	912.81
441.145	927.73
441.52	945.81
441.895	938.35
442.27	938.8
442.645	943.1
443.019	967.05
443.394	947.84
443.769	942.64
444.143	985.13
444.518	949.2
444.892	932.93
445.267	986.94
445.641	1001.63
446.016	990.1
446.39	981.74
446.764	995.98
447.139	972.47
447.513	1018.12
447.887	1019.93
448.262	993.26
448.636	1020.16
449.01	1024.9
449.384	1046.37
449.758	1026.26
450.132	1041.17
450.506	1050.21
450.88	1050.44
451.254	1062.87
451.628	1079.36
452.002	1125.01
452.376	1079.36
452.75	1099.25
453.123	1104.9
453.497	1137.22
453.871	1139.48
454.244	1120.27
454.618	1163.2
454.992	1151
455.365	1151.23
455.739	1189.42
456.112	1178.8
456.486	1182.86
456.859	1223.32
457.232	1239.81
457.606	1191.68
457.979	1215.18
458.352	1256.08
458.725	1260.38
459.099	1260.38
459.472	1266.48
459.845	1297.44
460.218	1291.79
460.591	1318.23
460.964	1304.44
461.337	1320.49
461.71	1347.83
462.083	1388.06
462.456	1370.43
462.829	1382.41
463.201	1386.47
463.574	1406.36
463.947	1399.81
464.32	1438
464.692	1406.59
465.065	1470.77
465.438	1464.89
465.81	1462.86
466.183	1507.83
466.555	1500.6
466.928	1524.55
467.3	1528.62
467.672	1534.95
468.045	1554.38
468.417	1573.59
468.789	1575.4
469.161	1596.64
469.534	1631.44
469.906	1621.95
470.278	1633.93
470.65	1657.2
471.022	1709.63
471.394	1727.26
471.766	1717.31
472.138	1748.05
472.51	1769.97
472.882	1800.02
473.253	1789.85
473.625	1864.2
473.997	1852.9
474.369	1891.55
474.74	1864.88
475.112	1915.73
475.484	1949.4
475.855	1989.17
476.227	1994.59
476.598	2040.02
476.97	2038.66
477.341	2083.86
477.713	2113.91
478.084	2114.37
478.455	2176.06
478.827	2210.63
479.198	2259.45
479.569	2258.77
479.94	2306.9
480.311	2314.59
480.682	2344.19
481.053	2441.59
481.424	2462.15
481.795	2481.14
482.166	2521.59
482.537	2531.08
482.908	2592.77
483.279	2629.15
483.65	2675.71
484.021	2681.13
484.391	2737.85
484.762	2771.3
485.133	2792.99
485.503	2846.32
485.874	2874.35
486.244	2911.41
486.615	2949.6
486.985	3002.03
487.356	3027.79
487.726	3069.82
488.097	3110.5
488.467	3126.77
488.837	3248.8
489.207	3236.6
489.578	3282.02
489.948	3326.08
490.318	3396.14
490.688	3407.66
491.058	3473.88
491.428	3544.38
491.798	3542.12
492.168	3608.79
492.538	3664.38
492.908	3688.79
493.278	3743.02
493.648	3736.02
494.017	3815.56
494.387	3880.19
494.757	3922.91
495.126	3947.31
495.496	4025.05
495.866	3971.04
496.235	4070.92
496.605	4122
496.974	4132.84
497.344	4133.75
497.713	4189.11
498.082	4261.65
498.452	4319.05
498.821	4342.1
499.19	4339.39
499.559	4436.56
499.928	4434.08
500.298	4472.04
500.667	4509.56
501.036	4535.32
501.405	4600.63
501.774	4585.94
502.143	4647.86
502.512	4638.82
502.88	4746.84
503.249	4737.8
503.618	4774.86
503.987	4811.02
504.356	4845.82
504.724	4875.2
505.093	4915.2
505.462	4951.35
505.83	4952.93
506.199	5033.16
506.567	5152.48
506.936	5121.07
507.304	5198.13
507.672	5165.58
508.041	5234.51
508.409	5232.25
508.777	5325.35
509.145	5387.5
509.514	5388.18
509.882	5429.98
510.25	5418.69
510.618	5498.91
510.986	5518.12
511.354	5562.41
511.722	5628.85
512.09	5641.5
512.458	5642.86
512.826	5770.77
513.193	5787.72
513.561	5779.13
513.929	5820.93
514.297	5898.67
514.664	5981.38
515.032	5969.18
515.4	5977.31
515.767	6053.7
516.135	6090.76
516.502	6086.46
516.869	6149.29
517.237	6166.46
517.604	6172.11
517.972	6276.29
518.339	6325.33
518.706	6369.62
519.073	6360.13
519.44	6403.97
519.808	6496.4
520.175	6496.62
520.542	6543.63
520.909	6621.37
521.276	6629.73
521.643	6658.2
522.009	6747.46
522.376	6815.94
522.743	6798.76
523.11	6900.23
523.477	6937.74
523.843	6997.85
524.21	7049.38
524.577	7146.32
524.943	7153.1
525.31	7256.15
525.676	7256.6
526.043	7356.71
526.409	7303.16
526.776	7425.41
527.142	7437.84
527.508	7471.51
527.874	7558.06
528.241	7610.27
528.607	7597.61
528.973	7684.16
529.339	7663.82
529.705	7739.75
530.071	7801
530.437	7866.08
530.803	7923.03
531.169	7952.4
531.535	7947.21
531.901	7955.34
532.267	8024.72
532.632	8052.06
532.998	8064.27
533.364	8172.29
533.73	8121.89
534.095	8254.99
534.461	8331.6
534.826	8290.25
535.192	8336.35
535.557	8406.86
535.923	8479.17
536.288	8449.34
536.653	8464.48
537.019	8517.36
537.384	8514.87
537.749	8599.84
538.114	8621.54
538.479	8657.24
538.845	8675.32
539.21	8729.78
539.575	8781.08
539.94	8776.11
540.305	8839.61
540.67	8789.44
541.034	8870.35
541.399	8911.25
541.764	9030.12
542.129	9030.34
542.494	9062.21
542.858	9093.84
543.223	9086.39
543.587	9196.89
543.952	9169.1
544.316	9198.47
544.681	9274.63
545.045	9330.67
545.41	9417.22
545.774	9402.08
546.138	9376.32
546.503	9438.47
546.867	9457
547.231	9532.7
547.595	9621.96
547.959	9638.69
548.324	9642.3
548.688	9657.44
549.052	9802.52
549.416	9758.23
549.779	9822.86
550.143	9832.13
550.507	9914.39
550.871	9987.6
551.235	9960.94
551.599	10021.95
551.962	10084.55
552.326	10189.18
552.689	10162.52
553.053	10217.43
553.417	10295.39
553.78	10463.52
554.143	10410.64
554.507	10471.66
554.87	10583.52
555.234	10656.06
555.597	10631.66
555.96	10658.77
556.323	10846.57
556.686	10863.29
557.05	10959.56
557.413	10979.89
557.776	11018.99
558.139	11134.47
558.502	11220.34
558.865	11176.5
559.228	11303.28
559.59	11383.27
559.953	11475.7
560.316	11612.42
560.679	11607
561.041	11623.72
561.404	11760.67
561.767	11850.61
562.129	11994.56
562.492	12094.22
562.854	12094.89
563.217	12195
563.579	12285.85
563.941	12373.3
564.304	12523.36
564.666	12615.56
565.028	12682.45
565.39	12761.32
565.753	12986.62
566.115	13041.99
566.477	13087.64
566.839	13255.09
567.201	13409.21
567.563	13467.06
567.925	13637.23
568.287	13685.59
568.648	13873.6
569.01	13920.83
569.372	14181.39
569.734	14144.33
570.095	14342.52
570.457	14505.45
570.819	14612.34
571.18	14770.08
571.542	14948.83
571.903	15077.19
572.265	15198.99
572.626	15434.02
572.987	15557.63
573.349	15737.74
573.71	16033.1
574.071	16226.31
574.432	16377.49
574.794	16560.09
575.155	16793.08
575.516	16909.68
575.877	17245.04
576.238	17385.15
576.599	17631.92
576.96	17752.15
577.32	18040.27
577.681	18259.48
578.042	18674.83
578.403	18871.44
578.763	19113.47
579.124	19314.82
579.485	19644.3
579.845	19973.56
580.206	20164.06
580.566	20509.14
580.927	20856.47
581.287	21116.8
581.648	21337.14
582.008	21734.41
582.368	21979.38
582.728	22396.77
583.089	22661.17
583.449	22939.35
583.809	23333.47
584.169	23686.68
584.529	23920.8
584.889	24571.63
585.249	24890.94
585.609	25185.17
585.969	25643.46
586.329	25928.88
586.688	26303.33
587.048	26824.68
587.408	27092.69
587.768	27549.63
588.127	27979
588.487	28312.32
588.846	28840.22
589.206	29140.55
589.565	29538.73
589.925	30084.03
590.284	30474.07
590.643	30916.55
591.003	31458
591.362	31986.12
591.721	32325.32
592.08	32674.47
592.44	33243.72
592.799	33628.34
593.158	33960.53
593.517	34597.35
593.876	34979.72
594.235	35383.32
594.593	35874.83
594.952	36456.74
595.311	36651.76
595.67	37345.3
596.029	37842.69
596.387	38323.81
596.746	38881.08
597.104	39037.24
597.463	39594.74
597.822	40060.94
598.18	40388.39
598.538	40775.72
598.897	41410.96
599.255	41427
599.613	42246.64
599.972	42463.36
600.33	42977.25
600.688	43320.06
601.046	43726.15
601.404	44275.52
601.762	44423.76
602.12	44967.93
602.478	45360.91
602.836	45589.38
603.194	45863.95
603.552	46283.37
603.91	46422.58
604.268	47013.75
604.625	47129.68
604.983	47633.62
605.341	47746.61
605.698	48176.21
606.056	48441.06
606.413	48630.2
606.771	49044.66
607.128	49230.41
607.485	49461.14
607.843	49512.67
608.2	49892.09
608.557	50307.9
608.914	50375.24
609.272	50658.85
609.629	50899.52
609.986	51152.4
610.343	51174.09
610.7	51478.04
611.057	51614.31
611.414	51656.11
611.771	51874.64
612.127	52094.97
612.484	52225.82
612.841	52497.9
613.198	52417.45
613.554	52601.85
613.911	52787.16
614.267	52941.96
614.624	53014.04
614.98	53034.83
615.337	53342.62
615.693	53364.32
616.05	53502.39
616.406	53706.91
616.762	53686.12
617.118	53725.89
617.475	53818.77
617.831	54026.45
618.187	54031.64
618.543	54231.41
618.899	54297.85
619.255	54443.61
619.611	54397.96
619.967	54524.96
620.323	54632.98
620.678	54633.21
621.034	54599.09
621.39	54597.05
621.746	54640.44
622.101	55028
622.457	54810.83
622.812	54849.7
623.168	55010.83
623.523	55067.55
623.879	55151.84
624.234	54996.59
624.589	55145.74
624.945	55220.99
625.3	55261.67
625.655	55273.19
626.01	55308.67
626.365	55310.71
626.72	55270.26
627.075	55343.47
627.43	55333.08
627.785	55300.99
628.14	55423.7
628.495	55489.01
628.85	55497.82
629.205	55389.57
629.559	55581.89
629.914	55474.77
630.269	55594.99
630.623	55420.08
630.978	55438.61
631.332	55547.54
631.687	55504.83
632.041	55534.2
632.396	55525.84
632.75	55475.22
633.104	55506.63
633.459	55401.55
633.813	55415.56
634.167	55443.81
634.521	55367.88
634.875	55489.69
635.229	55453.3
635.583	55357.26
635.937	55344.83
636.291	55285.4
636.645	55345.28
636.999	55259.86
637.352	55391.83
637.706	55241.1
638.06	55385.06
638.413	55269.58
638.767	55185.06
639.121	55243.36
639.474	55123.37
639.828	55177.15
640.181	55195.46
640.534	55218.28
640.888	55263.7
641.241	55049.47
641.594	55123.59
641.947	55118.17
642.301	55070.04
642.654	55120.88
643.007	55266.41
643.36	55113.88
643.713	55083.14
644.066	55181.22
644.419	55035.69
644.771	54725.86
645.124	54541.24
645.477	54576.04
645.83	54328.13
646.182	54285.42
646.535	54263.5
646.888	54354.12
647.24	54248.81
647.593	54328.81
647.945	54229.61
648.298	54135.14
648.65	54100.57
649.002	54018.09
649.355	54152.09
649.707	54085.88
650.059	54237.97
650.411	54462.37
650.763	54637.28
651.115	54898.97
651.467	54786.2
651.819	54764.96
652.171	54758.86
652.523	54628.01
652.875	54762.47
653.227	54667.56
653.578	54863.26
653.93	54689.25
654.282	54653.77
654.633	54604.96
654.985	54638.63
655.337	54595.92
655.688	54662.81
656.039	54714.34
656.391	54514.34
656.742	54569.03
657.094	54524.51
657.445	54730.61
657.796	54560.67
658.147	54601.8
658.498	54537.85
658.849	54634.79
659.2	54630.72
659.551	54454.46
659.902	54567.22
660.253	54608.35
660.604	54610.84
660.955	54481.35
661.306	54529.94
661.656	54464.18
662.007	54564.29
662.358	54458.53
662.708	54436.61
663.059	54503.5
663.409	54276.61
663.76	54570.16
664.11	54449.49
664.461	54555.25
664.811	54544.17
665.161	54438.19
665.511	54385.31
665.862	54458.75
666.212	54440.45
666.562	54504.4
666.912	54426.21
667.262	54384.86
667.612	54366.32
667.962	54374.91
668.312	54305.54
668.662	54494
669.011	54355.93
669.361	54352.77
669.711	54353.22
670.06	54274.35
670.41	54194.35
670.76	54159.32
671.109	54318.87
671.459	54214.01
671.808	54125.43
672.157	54199.55
672.507	54029.16
672.856	54075.03
673.205	54134.24
673.554	54144.64
673.904	53988.71
674.253	54210.4
674.602	54080.91
674.951	53635.72
675.3	53478.21
675.649	54015.6
675.998	53925.66
676.346	53869.61
676.695	54069.16
677.044	53852.44
677.393	53901.7
677.741	53842.95
678.09	53777.87
678.438	53730.64
678.787	53888.6
679.135	53873.23
679.484	53604.54
679.832	53697.64
680.181	53525.44
680.529	53630.52
680.877	53548.27
681.225	53569.51
681.573	53663.29
681.922	53481.38
682.27	53420.59
682.618	53481.15
682.966	53339.23
683.314	53477.76
683.661	53242.74
684.009	53128.62
684.357	53099.92
684.705	53130.88
685.053	53112.8
685.4	53059.24
685.748	52890.43
686.095	52883.43
686.443	52772.92
686.79	52833.03
687.138	52819.92
687.485	52777.21
687.832	52584.22
688.18	52681.4
688.527	52422.42
688.874	52475.75
689.221	52393.95
689.568	52327.28
689.915	52249.32
690.262	52229.21
690.609	52092.94
690.956	52077.12
691.303	52072.6
691.65	51804.81
691.997	51832.83
692.344	51570.47
692.69	51600.07
693.037	51580.64
693.383	51307.65
693.73	51543.8
694.077	51297.48
694.423	51177.93
694.769	51148.33
695.116	51127.54
695.462	51038.5
695.808	50870.82
696.155	51007.54
696.501	50671.73
696.847	50724.16
697.193	50483.49
697.539	50600.32
697.885	50335.24
698.231	50240.78
698.577	50307.45
698.923	50097.06
699.269	50008.02
699.614	49762.6
699.96	49796.73
700.306	49741.14
700.651	49721.7
700.997	49495.49
701.342	49465.66
701.688	49446.68
702.033	49302.73
702.379	49248.49
702.724	49130.98
703.069	49099.12
703.415	48784.32
703.76	48800.37
704.105	48759.69
704.45	48502.07
704.795	48441.96
705.14	48352.7
705.485	48403.54
705.83	48080.61
706.175	48179.59
706.52	48088.75
706.865	47909.77
707.209	47873.39
707.554	47664.58
707.899	47827.29
708.243	47606.73
708.588	47569.67
708.932	47198.15
709.277	47097.82
709.621	47186.4
709.966	46916.13
710.31	47118.61
710.654	46719.07
710.998	46991.83
711.342	46973.98
711.687	46698.05
712.031	46531.95
712.375	46390.26
712.719	46561.33
713.063	46308.01
713.407	46568.56
713.75	46212.19
714.094	46338.51
714.438	46001.57
714.782	46121.12
715.125	45823.72
715.469	45993.66
715.812	45802.71
716.156	45569.49
716.499	45719.09
716.843	45712.77
717.186	45458.76
717.53	45587.57
717.873	45627.35
718.216	45386.9
718.559	45219.45
718.902	44938.1
719.246	45153.46
719.589	44890.87
719.932	44799.12
720.275	44811.77
720.617	44836.63
720.96	44818.1
721.303	44778.78
721.646	44813.13
721.989	44466.02
722.331	44746.69
722.674	44419.69
723.016	44431.22
723.359	44276.19
723.701	44374.72
724.044	44171.34
724.386	44056.77
724.729	44283.2
725.071	44116.42
725.413	44209.08
725.755	44062.64
726.097	43784
726.439	43617.91
726.782	43745.14
727.124	43964.11
727.465	43689.09
727.807	43577.23
728.149	43688.87
728.491	43548.3
728.833	43562.32
729.175	43357.12
729.516	43325.49
729.858	43394.18
730.199	43360.06
730.541	43218.82
730.882	43203.45
731.224	43337.01
731.565	43056.57
731.906	43003.01
732.248	43105.15
732.589	42839.85
732.93	42853.63
733.271	42891.6
733.612	42808.66
733.953	42819.28
734.294	42697.03
734.635	42532.96
734.976	42607.54
735.317	42422.68
735.658	42433.31
735.999	42403.7
736.339	42412.51
736.68	42452.29
737.021	42417.94
737.361	42134.56
737.702	42429.46
738.042	42116.03
738.383	42215.46
738.723	42159.87
739.063	42138.62
739.404	42242.8
739.744	42039.19
740.084	41939.08
740.424	42140.66
740.764	41906.99
741.104	41981.79
741.444	41761.68
741.784	41567.11
742.124	41771.18
742.464	41596.49
742.804	41694.79
743.143	41542.71
743.483	41607.56
743.823	41333
744.162	41480.56
744.502	41499.32
744.841	41259.1
745.181	41454.57
745.52	41128.03
745.86	41216.16
746.199	41069.95
746.538	41182.26
746.877	41200.12
747.216	41070.63
747.556	40927.58
747.895	41040.8
748.234	40796.06
748.573	40773.91
748.911	40708.83
749.25	40720.36
749.589	40592.45
749.928	40689.85
750.267	40631.09
750.605	40515.84
750.944	40520.81
751.283	40441.27
751.621	40383.87
751.96	40258.22
752.298	40368.5
752.636	40231.56
752.975	40117.21
753.313	39806.03
753.651	40027.94
753.989	39867.5
754.327	39933.71
754.666	39507.96
755.004	39648.52
755.342	39676.54
755.679	39586.15
756.017	39384.35
756.355	39551.8
756.693	39373.72
757.031	39312.26
757.368	39122.66
757.706	39020.29
758.044	38957.01
758.381	38921.53
758.719	38848.31
