Data from orange_diffuse_book_FLMS001491_00001.txt Node
Date: Wed Feb 08 15:29:02 GMT 2017
User: dcchb
Spectrometer: FLMS00149
Trigger mode: 0
Integration Time (sec): 2.000000E-2
Scans to average: 10
Electric dark correction enabled: true
Nonlinearity correction enabled: false
Boxcar width: 0
XAxis mode: Wavelengths
Number of Pixels in Spectrum: 2048
>>>>>Begin Spectral Data<<<<<
341.393	-14.28
341.776	-14.28
342.16	-14.28
342.543	-45.92
342.927	-62.19
343.31	-61.96
343.693	-51.34
344.077	-72.13
344.46	-45.01
344.843	-49.76
345.226	-59.48
345.61	-54.5
345.993	-1.4
346.376	-19.25
346.759	6.29
347.142	35.66
347.525	45.61
347.908	50.8
348.291	81.31
348.674	91.03
349.057	104.14
349.44	132.16
349.823	147.07
350.206	177.58
350.588	210.12
350.971	222.55
351.354	226.62
351.737	233.4
352.119	252.83
352.502	288.09
352.884	270.23
353.267	303.68
353.65	299.84
354.032	300.74
354.414	311.59
354.797	336.45
355.179	336.22
355.562	345.03
355.944	344.81
356.326	347.07
356.709	355.43
357.091	345.26
357.473	358.14
357.855	353.39
358.238	349.1
358.62	340.29
359.002	362.43
359.384	345.49
359.766	341.19
360.148	343.9
360.53	345.94
360.912	360.85
361.294	351.59
361.676	320.85
362.057	329.21
362.439	357.46
362.821	324.02
363.203	360.4
363.584	341.64
363.966	328.76
364.348	329.89
364.729	348.2
365.111	331.02
365.493	324.69
365.874	315.88
366.256	335.77
366.637	349.78
367.019	335.32
367.4	313.85
367.781	331.47
368.163	326.5
368.544	336.9
368.925	336.9
369.306	336.67
369.688	326.95
370.069	308.2
370.45	320.18
370.831	320.63
371.212	331.02
371.593	330.57
371.974	312.49
372.355	316.79
372.736	339.84
373.117	324.47
373.498	335.54
373.879	353.85
374.26	322.21
374.641	336.22
375.021	317.69
375.402	360.4
375.783	350.23
376.163	316.79
376.544	336.67
376.925	351.81
377.305	338.25
377.686	345.71
378.066	329.67
378.447	347.97
378.827	347.97
379.208	353.17
379.588	327.63
379.968	340.97
380.349	344.13
380.729	348.42
381.109	344.81
381.489	339.84
381.87	365.15
382.25	367.63
382.63	350
383.01	341.19
383.39	360.85
383.77	357.46
384.15	358.14
384.53	353.62
384.91	381.87
385.29	394.07
385.67	384.13
386.049	374.86
386.429	354.07
386.809	375.54
387.189	338.25
387.568	391.59
387.948	369.89
388.328	378.7
388.707	367.18
389.087	379.38
389.466	357.91
389.846	373.73
390.225	392.94
390.605	372.38
390.984	397.24
391.363	385.71
391.743	383
392.122	369.21
392.501	403.56
392.881	383.9
393.26	394.3
393.639	399.04
394.018	391.36
394.397	399.95
394.776	386.39
395.155	393.39
395.534	383.45
395.913	407.86
396.292	418.48
396.671	406.73
397.05	398.82
397.429	403.79
397.808	415.09
398.186	409.89
398.565	405.6
398.944	407.86
399.323	431.36
399.701	422.32
400.08	424.81
400.458	397.46
400.837	450.12
401.215	430.91
401.594	405.37
401.972	407.86
402.351	418.03
402.729	431.58
403.107	416.9
403.486	437.01
403.864	438.82
404.242	444.69
404.62	430.68
404.999	439.72
405.377	434.97
405.755	445.6
406.133	456.44
406.511	446.95
406.889	437.23
407.267	470.68
407.645	471.36
408.023	476.1
408.401	463.67
408.779	476.56
409.156	481.3
409.534	461.87
409.912	489.44
410.29	479.49
410.667	475.88
411.045	494.18
411.422	515.88
411.8	479.27
412.178	497.35
412.555	511.13
412.933	506.84
413.31	507.74
413.687	496.22
414.065	503.67
414.442	534.86
414.819	544.58
415.197	534.63
415.574	563.56
415.951	529.44
416.328	530.34
416.705	535.99
417.082	556.33
417.46	558.59
417.837	552.94
418.214	563.56
418.591	538.93
418.967	560.62
419.344	587.51
419.721	566.72
420.098	561.3
420.475	578.7
420.852	592.03
421.228	564.24
421.605	578.25
421.982	588.19
422.358	588.19
422.735	624.35
423.111	603.56
423.488	593.39
423.864	606.5
424.241	614.63
424.617	598.81
424.994	617.57
425.37	632.26
425.746	649.43
426.123	638.58
426.499	613.05
426.875	637.23
427.251	631.13
427.627	647.85
428.003	645.82
428.379	653.5
428.756	690.11
429.132	686.72
429.507	710.45
429.883	691.69
430.259	715.87
430.635	695.31
431.011	691.24
431.387	717.9
431.763	718.58
432.138	718.13
432.514	733.95
432.89	730.11
433.265	721.75
433.641	753.16
434.016	760.84
434.392	745.25
434.767	760.62
435.143	775.76
435.518	774.63
435.894	768.98
436.269	807.85
436.644	800.84
437.02	816.21
437.395	800.39
437.77	826.38
438.145	818.02
438.52	822.99
438.895	824.34
439.271	855.3
439.646	866.38
440.021	818.92
440.395	830.22
440.77	852.82
441.145	861.86
441.52	842.2
441.895	858.24
442.27	886.49
442.645	854.85
443.019	895.75
443.394	884.68
443.769	927.62
444.143	893.95
444.518	927.62
444.892	895.98
445.267	895.75
445.641	888.97
446.016	912.48
446.39	942.53
446.764	930.78
447.139	928.75
447.513	928.29
447.887	943.44
448.262	947.96
448.636	964
449.01	955.64
449.384	966.03
449.758	964.9
450.132	954.73
450.506	983.43
450.88	971.46
451.254	979.14
451.628	980.5
452.002	980.5
452.376	997.22
452.75	1020.72
453.123	1008.07
453.497	1048.29
453.871	1042.64
454.244	1048.97
454.618	1047.16
454.992	1074.73
455.365	1072.7
455.739	1106.37
456.112	1099.36
456.486	1098.69
456.859	1119.25
457.232	1134.62
457.606	1133.71
457.979	1125.58
458.352	1135.07
458.725	1163.77
459.099	1156.54
459.472	1176.2
459.845	1192.24
460.218	1208.29
460.591	1186.14
460.964	1212.81
461.337	1219.13
461.71	1234.95
462.083	1262.75
462.456	1248.29
462.829	1251
463.201	1266.59
463.574	1279.47
463.947	1291
464.32	1273.14
464.692	1317.44
465.065	1322.41
465.438	1345.23
465.81	1339.13
466.183	1353.82
466.555	1332.13
466.928	1362.18
467.3	1375.74
467.672	1408.96
468.045	1416.64
468.417	1439.02
468.789	1436.53
469.161	1443.08
469.534	1450.09
469.906	1480.82
470.278	1495.96
470.65	1520.82
471.022	1536.19
471.394	1517.21
471.766	1562.18
472.138	1556.53
472.51	1584.55
472.882	1622.74
473.253	1628.39
473.625	1630.65
473.997	1653.93
474.369	1676.3
474.74	1695.05
475.112	1713.58
475.484	1735.05
475.855	1754.26
476.227	1778.89
476.598	1841.49
476.97	1817.54
477.341	1858.44
477.713	1890.08
478.084	1921.94
478.455	1923.75
478.827	1947.48
479.198	2006.68
479.569	2010.53
479.94	2058.66
480.311	2046.68
480.682	2133.01
481.053	2171.43
481.424	2200.35
481.795	2156.06
482.166	2219.33
482.537	2238.77
482.908	2291.42
483.279	2314.25
483.65	2369.39
484.021	2380.69
484.391	2418.43
484.762	2436.5
485.133	2497.75
485.503	2494.58
485.874	2543.62
486.244	2584.52
486.615	2648.02
486.985	2651.41
487.356	2726.21
487.726	2693.9
488.097	2782.94
488.467	2812.54
488.837	2867
489.207	2869.03
489.578	2960.56
489.948	2967.79
490.318	3005.3
490.688	3048.69
491.058	3075.58
491.428	3087.56
491.798	3138.18
492.168	3194.45
492.538	3229.25
492.908	3261.79
493.278	3333.43
493.648	3367.55
494.017	3379.08
494.387	3410.26
494.757	3481.45
495.126	3488.23
495.496	3506.76
495.866	3556.93
496.235	3586.08
496.605	3660.2
496.974	3661.1
497.344	3673.53
497.713	3739.07
498.082	3794.89
498.452	3819.97
498.821	3846.86
499.19	3829.01
499.559	3904.71
499.928	3922.79
500.298	3925.96
500.667	4014.32
501.036	4027.42
501.405	4045.95
501.774	4043.02
502.143	4137.25
502.512	4094.54
502.88	4183.12
503.249	4214.99
503.618	4261.54
503.987	4289.79
504.356	4313.06
504.724	4298.15
505.093	4327.98
505.462	4397.13
505.83	4440.52
506.199	4440.29
506.567	4475.55
506.936	4539.95
507.304	4577.01
507.672	4579.27
508.041	4617.46
508.409	4629.44
508.777	4701.75
509.145	4729.78
509.514	4683.68
509.882	4799.83
510.25	4772.94
510.618	4857.23
510.986	4861.07
511.354	4917.12
511.722	4959.38
512.09	4974.06
512.458	4993.95
512.826	5012.48
513.193	5108.98
513.561	5071.69
513.929	5171.12
514.297	5192.59
514.664	5184.45
515.032	5220.84
515.4	5309.65
515.767	5339.03
516.135	5361.17
516.502	5363.21
516.869	5490.66
517.237	5474.16
517.604	5489.76
517.972	5553.94
518.339	5560.49
518.706	5587.83
519.073	5609.3
519.44	5655.18
519.808	5712.58
520.175	5747.38
520.542	5824.21
520.909	5850.2
521.276	5834.83
521.643	5902.85
522.009	5957.09
522.376	6006.35
522.743	6020.14
523.11	6047.48
523.477	6090.42
523.843	6172.68
524.21	6201.83
524.577	6297.65
524.943	6285.44
525.31	6354.37
525.676	6357.08
526.043	6395.5
526.409	6484.98
526.776	6525.21
527.142	6556.17
527.508	6577.86
527.874	6677.07
528.241	6649.27
528.607	6713.23
528.973	6742.83
529.339	6830.51
529.705	6862.83
530.071	6877.06
530.437	6859.89
530.803	6908.25
531.169	6933.79
531.535	7030.96
531.901	7000.45
532.267	7053.78
532.632	7098.08
532.998	7121.13
533.364	7182.59
533.73	7131.52
534.095	7294.23
534.461	7257.39
534.826	7237.06
535.192	7352.53
535.557	7366.54
535.923	7408.35
536.288	7435.92
536.653	7440.67
537.019	7496.26
537.384	7487.9
537.749	7570.15
538.114	7580.1
538.479	7574.22
538.845	7625.07
539.21	7580.78
539.575	7653.09
539.94	7724.27
540.305	7765.63
540.67	7724.95
541.034	7813.76
541.399	7802.01
541.764	7881.11
542.129	7943.93
542.494	7991.16
542.858	7960.88
543.223	7962.91
543.587	8058.5
543.952	8065.51
544.316	8078.39
544.681	8152.29
545.045	8154.77
545.41	8224.6
545.774	8227.99
546.138	8200.87
546.503	8250.36
546.867	8337.82
547.231	8356.8
547.595	8464.37
547.959	8467.98
548.324	8501.2
548.688	8465.5
549.052	8513.86
549.416	8631.14
549.779	8617.13
550.143	8656.68
550.507	8699.39
550.871	8779.39
551.235	8747.98
551.599	8864.13
551.962	8879.72
552.326	8897.8
552.689	9041.53
553.053	8977.8
553.417	9041.53
553.78	9169.43
554.143	9099.61
554.507	9220.28
554.87	9210.34
555.234	9326.94
555.597	9232.71
555.96	9372.14
556.323	9445.13
556.686	9521.06
557.05	9601.51
557.413	9579.37
557.776	9658.46
558.139	9772.13
558.502	9817.33
558.865	9866.59
559.228	9970.99
559.59	9947.27
559.953	10021.16
560.316	10128.05
560.679	10215.28
561.041	10210.99
561.404	10326.69
561.767	10456.86
562.129	10436.29
562.492	10612.56
562.854	10652.78
563.217	10803.97
563.579	10786.11
563.941	10890.29
564.304	10972.78
564.666	11057.07
565.028	11139.55
565.39	11194.47
565.753	11344.97
566.115	11416.61
566.477	11558.52
566.839	11606.88
567.201	11770.72
567.563	11825.18
567.925	11966.87
568.287	12048
568.648	12158.96
569.01	12342.46
569.372	12489.57
569.734	12511.72
570.095	12648.66
570.457	12814.99
570.819	12954.19
571.18	13123.68
571.542	13268.08
571.903	13318.93
572.265	13546.72
572.626	13625.81
572.987	13824.68
573.349	13941.74
573.71	14164.33
574.071	14262.86
574.432	14492.23
574.794	14699.68
575.155	14804.99
575.516	14970.19
575.877	15207.69
576.238	15384.86
576.599	15660.11
576.96	15894.45
577.32	16042.25
577.681	16268.91
578.042	16530.6
578.403	16690.37
578.763	17001.32
579.124	17320.86
579.485	17639.72
579.845	17825.25
580.206	18028.64
580.566	18303.66
580.927	18646.92
581.287	18954.71
581.648	19004.66
582.008	19444.87
582.368	19750.62
582.728	19983.61
583.089	20318.52
583.449	20554.9
583.809	20918.96
584.169	21269.68
584.529	21634.64
584.889	21999.83
585.249	22233.95
585.609	22481.85
585.969	23093.59
586.329	23280.02
586.688	23768.37
587.048	24159.77
587.408	24486.55
587.768	24967.21
588.127	25302.57
588.487	25574.2
588.846	26143.23
589.206	26365.14
589.565	26791.8
589.925	27288.28
590.284	27577.31
590.643	28111.99
591.003	28547.68
591.362	29025.18
591.721	29396.7
592.08	29756.01
592.44	30327.52
592.799	30556.89
593.158	31071.23
593.517	31559.81
593.876	31937.87
594.235	32325.44
594.593	32880.45
594.952	33343.04
595.311	33580.09
595.67	34036.58
596.029	34651.25
596.387	35119.49
596.746	35692.35
597.104	35787.72
597.463	36346.8
597.822	36869.95
598.18	37151.75
598.538	37452.76
598.897	37976.81
599.255	38286.86
599.613	39160.06
599.972	39166.39
600.33	39696.99
600.688	39923.2
601.046	40490.42
601.404	41037.97
601.762	41098.54
602.12	41775.81
602.478	42082.69
602.836	42658.95
603.194	42586.63
603.552	42863.24
603.91	43213.28
604.268	43753.61
604.625	44062.98
604.983	44566.02
605.341	44617.54
605.698	44989.51
606.056	45380.23
606.413	45636.95
606.771	46012.08
607.128	46293.88
607.485	46316.03
607.843	46667.43
608.2	47048.89
608.557	47474.87
608.914	47595.54
609.272	48011.58
609.629	48026.72
609.986	48477.55
610.343	48459.7
610.7	48944.21
611.057	48954.83
611.414	49125.22
611.771	49335.16
612.127	49565.89
612.484	49565.66
612.841	49916.61
613.198	49999.09
613.554	50088.81
613.911	50411.29
614.267	50570.38
614.624	50565.41
614.98	50637.27
615.337	51093.76
615.693	51098.05
616.05	51139.86
616.406	51322.68
616.762	51360.42
617.118	51547.75
617.475	51555.89
617.831	51706.17
618.187	51808.31
618.543	51897.12
618.899	52072.03
619.255	52179.83
619.611	52257.79
619.967	52390.67
620.323	52443.32
620.678	52449.2
621.034	52343.44
621.39	52565.81
621.746	52476.32
622.101	52871.11
622.457	52689.65
622.812	52776.65
623.168	52945.68
623.523	52914.72
623.879	53116.98
624.234	52863.65
624.589	53087.83
624.945	53169.18
625.3	53193.36
625.655	53185.23
626.01	53246.47
626.365	53243.98
626.72	53206.69
627.075	53278.78
627.43	53296.86
627.785	53246.24
628.14	53332.57
628.495	53401.04
628.85	53407.82
629.205	53286.92
629.559	53471.77
629.914	53413.69
630.269	53436.52
630.623	53352.68
630.978	53361.49
631.332	53509.74
631.687	53525.56
632.041	53390.19
632.396	53577.53
632.75	53389.29
633.104	53488.72
633.459	53345.45
633.813	53381.38
634.167	53385.9
634.521	53403.3
634.875	53407.82
635.229	53372.79
635.583	53335.5
635.937	53259.8
636.291	53289.86
636.645	53250.99
636.999	53252.57
637.352	53401.94
637.706	53168.5
638.06	53305.45
638.413	53225.68
638.767	53069.3
639.121	53276.97
639.474	52972.12
639.828	53071.1
640.181	53148.62
640.534	53177.77
640.888	53010.77
641.241	52932.35
641.594	53025.91
641.947	53096.87
642.301	53039.24
642.654	53095.96
643.007	53089.41
643.36	53071.33
643.713	53005.12
644.066	53108.17
644.419	52901.84
644.771	52736.88
645.124	52507.73
645.477	52435.64
645.83	52223.44
646.182	52086.05
646.535	52064.58
646.888	52143.9
647.24	51971.25
647.593	52170.56
647.945	52037.69
648.298	51909.78
648.65	51924.47
649.002	51892.83
649.355	51968.08
649.707	51993.17
650.059	52061.41
650.411	52367.17
650.763	52478.58
651.115	52707.95
651.467	52710.66
651.819	52635.86
652.171	52554.73
652.523	52594.28
652.875	52507.5
653.227	52428.41
653.578	52669.53
653.93	52582.3
654.282	52424.12
654.633	52421.4
654.985	52462.53
655.337	52524.68
655.688	52424.57
656.039	52575.52
656.391	52405.36
656.742	52428.86
657.094	52401.97
657.445	52523.55
657.796	52434.96
658.147	52453.95
658.498	52419.6
658.849	52527.39
659.2	52420.95
659.551	52266.83
659.902	52518.58
660.253	52399.48
660.604	52469.31
660.955	52306.38
661.306	52379.15
661.656	52341.18
662.007	52324.46
662.358	52310.22
662.708	52288.98
663.059	52283.78
663.409	52098.25
663.76	52316.1
664.11	52401.97
664.461	52289.66
664.811	52422.31
665.161	52289.66
665.511	52172.15
665.862	52277.68
666.212	52263.67
666.562	52267.51
666.912	52296.21
667.262	52238.36
667.612	52235.42
667.962	52309.09
668.312	52185.48
668.662	52313.61
669.011	52246.04
669.361	52228.64
669.711	52172.37
670.06	52076.78
670.41	52096.21
670.76	51985.26
671.109	52134.86
671.459	52084.24
671.808	51967.4
672.157	51998.14
672.507	51791.36
672.856	51851.7
673.205	51873.62
673.554	51923.79
673.904	51776.68
674.253	52012.38
674.602	51919.72
674.951	51455.1
675.3	51203.81
675.649	51833.17
675.998	51731.7
676.346	51718.6
676.695	51702.55
677.044	51559.73
677.393	51690.8
677.741	51670.46
678.09	51550.92
678.438	51592.95
678.787	51591.37
679.135	51524.48
679.484	51375.33
679.832	51509.11
680.181	51284.26
680.529	51345.27
680.877	51257.37
681.225	51190.7
681.573	51508.89
681.922	51194.77
682.27	51149.57
682.618	51170.59
682.966	51131.49
683.314	51159.74
683.661	51073.64
684.009	50878.85
684.357	50781.67
684.705	50873.65
685.053	50657.61
685.4	50628.46
685.748	50503.04
686.095	50567.22
686.443	50417.84
686.79	50545.52
687.138	50592.53
687.485	50433.66
687.832	50319.09
688.18	50339.42
688.527	50084.29
688.874	50165.19
689.221	49997.51
689.568	49950.73
689.915	49819.44
690.262	49778.54
690.609	49763.85
690.956	49587.35
691.303	49610.4
691.65	49428.94
691.997	49435.95
692.344	49168.83
692.69	49132.23
693.037	49111.21
693.383	48807.04
693.73	49068.72
694.077	48789.41
694.423	48799.35
694.769	48623.54
695.116	48575.18
695.462	48488.4
695.808	48346.48
696.155	48421.51
696.501	48138.8
696.847	48023.55
697.193	47727.52
697.539	48054.51
697.885	47689.55
698.231	47634.41
698.577	47598.25
698.923	47436.68
699.269	47310.58
699.614	47173.63
699.96	47019.51
700.306	47176.12
700.651	46885.5
700.997	46645.96
701.342	46690.26
701.688	46638.51
702.033	46521.45
702.379	46437.83
702.724	46437.83
703.069	46361.45
703.415	45928.02
703.76	46006.66
704.105	46001.46
704.45	45858.19
704.795	45640.34
705.14	45450.06
705.485	45472.43
705.83	45248.26
706.175	45424.75
706.52	45216.4
706.865	44935.73
707.209	44959.23
707.554	44811.66
707.899	44929.85
708.243	44633.81
708.588	44642.4
708.932	44360.15
709.277	44311.56
709.621	44295.74
709.966	44016.43
710.31	44124.67
710.654	43837.68
710.998	44034.28
711.342	43987.28
711.687	43666.15
712.031	43626.83
712.375	43617.79
712.719	43564.69
713.063	43508.87
713.407	43505.71
713.75	43367.63
714.094	43227.75
714.438	43115.21
714.782	43131.7
715.125	42972.39
715.469	43148.43
715.812	42811.26
716.156	42693.07
716.499	42763.58
716.843	42776.91
717.186	42451.04
717.53	42647.88
717.873	42560.65
718.216	42537.6
718.559	42309.35
718.902	42120.66
719.246	42128.57
719.589	42067.55
719.932	41938.74
720.275	41909.36
720.617	41916.37
720.96	41859.87
721.303	41712.08
721.646	41831.4
721.989	41481.13
722.331	41736.04
722.674	41487.45
723.016	41712.76
723.359	41449.94
723.701	41401.13
724.044	41287.01
724.386	41146.67
724.729	41258.99
725.071	41140.34
725.413	41150.51
725.755	41099.44
726.097	40945.1
726.439	40747.36
726.782	40805.89
727.124	40955.04
727.465	40797.98
727.807	40717.31
728.149	40671.43
728.491	40562.96
728.833	40735.16
729.175	40674.82
729.516	40388.73
729.858	40499.91
730.199	40538.33
730.541	40312.57
730.882	40216.08
731.224	40382.85
731.565	40013.14
731.906	40162.74
732.248	40238.45
732.589	40016.53
732.93	39897.67
733.271	39905.12
733.612	39897.89
733.953	39941.28
734.294	39875.97
734.635	39676.43
734.976	39758.69
735.317	39558.92
735.658	39522.08
735.999	39609.54
736.339	39616.09
736.68	39619.71
737.021	39452.03
737.361	39337.23
737.702	39651.57
738.042	39239.6
738.383	39227.17
738.723	39354.18
739.063	39151.47
739.404	39200.51
739.744	39126.16
740.084	39064.24
740.424	39026.28
740.764	39084.13
741.104	39192.6
741.444	38854.53
741.784	38862.21
742.124	38993.06
742.464	38857.02
742.804	38781.31
743.143	38671.03
743.483	38652.27
743.823	38543.12
744.162	38510.81
744.502	38578.38
744.841	38316.46
745.181	38519.17
745.52	38260.42
745.86	38497.93
746.199	38308.33
746.538	38360.3
746.877	38410.02
747.216	38234.43
747.556	38117.6
747.895	38075.34
748.234	38015.91
748.573	37960.77
748.911	37882.58
749.25	37895.68
749.589	37820.88
749.928	37824.5
750.267	37770.04
750.605	37704.28
750.944	37614.56
751.283	37584.28
751.621	37587.22
751.96	37499.08
752.298	37427.22
752.636	37434
752.975	37261.35
753.313	37125.76
753.651	37311.97
753.989	37054.58
754.327	37142.94
754.666	36803.51
755.004	36972.77
755.342	36987.46
755.679	36832.89
756.017	36655.94
756.355	36711.76
756.693	36483.29
757.031	36578.43
757.368	36412.11
757.706	36261.83
758.044	36208.05
758.381	36278.33
758.719	36095.96
