Data from orange_diffuse_book_FLMS001491_00034.txt Node
Date: Wed Feb 08 15:29:28 GMT 2017
User: dcchb
Spectrometer: FLMS00149
Trigger mode: 0
Integration Time (sec): 2.000000E-2
Scans to average: 10
Electric dark correction enabled: true
Nonlinearity correction enabled: false
Boxcar width: 0
XAxis mode: Wavelengths
Number of Pixels in Spectrum: 2048
>>>>>Begin Spectral Data<<<<<
341.393	-20.78
341.776	-20.78
342.16	-20.78
342.543	-50.38
342.927	-49.93
343.31	-72.3
343.693	-69.59
344.077	-52.87
344.46	-56.03
344.843	-46.76
345.226	-58.52
345.61	-35.69
345.993	-22.58
346.376	-7.9
346.759	2.27
347.142	14.93
347.525	71.2
347.908	57.87
348.291	82.05
348.674	87.47
349.057	106.45
349.44	115.49
349.823	136.73
350.206	149.61
350.588	202.04
350.971	223.74
351.354	225.09
351.737	253.34
352.119	273.91
352.502	263.96
352.884	284.98
353.267	300.57
353.65	292.44
354.032	315.71
354.414	316.84
354.797	328.82
355.179	319.78
355.562	357.74
355.944	336.05
356.326	360
356.709	357.07
357.091	354.58
357.473	347.58
357.855	389.83
358.238	361.81
358.62	362.49
359.002	336.28
359.384	353
359.766	340.12
360.148	338.08
360.53	345.09
360.912	327.46
361.294	339.21
361.676	350.97
362.057	330.17
362.439	342.83
362.821	338.31
363.203	320.01
363.584	349.61
363.966	367.01
364.348	321.14
364.729	313.9
365.111	331.76
365.493	346.9
365.874	333.11
366.256	318.65
366.637	324.3
367.019	333.34
367.4	329.05
367.781	329.05
368.163	328.14
368.544	324.3
368.925	309.16
369.306	346.9
369.688	318.2
370.069	306.22
370.45	334.69
370.831	344.64
371.212	336.95
371.593	330.4
371.974	314.81
372.355	329.95
372.736	322.27
373.117	328.37
373.498	339.21
373.879	334.69
374.26	322.27
374.641	312.55
375.021	331.53
375.402	330.85
375.783	345.99
376.163	336.28
376.544	337.18
376.925	340.34
377.305	333.79
377.686	350.74
378.066	360.23
378.447	349.38
378.827	358.65
379.208	339.44
379.588	335.15
379.968	355.71
380.349	348.71
380.729	347.12
381.109	374.47
381.489	353.23
381.87	328.14
382.25	350.74
382.63	371.08
383.01	374.92
383.39	371.3
383.77	383.51
384.15	371.3
384.53	376.05
384.91	362.26
385.29	380.12
385.67	358.87
386.049	374.02
386.429	357.74
386.809	398.65
387.189	380.12
387.568	371.76
387.948	398.65
388.328	386.9
388.707	385.99
389.087	368.82
389.466	376.05
389.846	399.33
390.225	401.13
390.605	376.5
390.984	396.39
391.363	374.24
391.743	384.64
392.122	395.03
392.501	403.39
392.881	411.75
393.26	395.71
393.639	407.69
394.018	404.3
394.397	411.98
394.776	404.52
395.155	395.26
395.534	412.66
395.913	420.57
396.292	407.91
396.671	429.16
397.05	429.38
397.429	421.92
397.808	416.95
398.186	414.47
398.565	419.89
398.944	434.58
399.323	431.64
399.701	449.72
400.08	418.31
400.458	440.45
400.837	449.72
401.215	437.29
401.594	430.74
401.972	454.24
402.351	465.54
402.729	448.59
403.107	453.56
403.486	441.36
403.864	468.7
404.242	482.26
404.62	454.47
404.999	458.76
405.377	480.91
405.755	475.71
406.133	480.68
406.511	464.41
406.889	475.03
407.267	474.35
407.645	463.96
408.023	489.72
408.401	486.56
408.779	470.96
409.156	481.13
409.534	505.54
409.912	482.26
410.29	509.15
410.667	499.44
411.045	512.54
411.422	504.41
411.8	506.67
412.178	512.09
412.555	560.45
412.933	524.97
413.31	557.97
413.687	528.59
414.065	552.54
414.442	521.58
414.819	541.92
415.197	560.45
415.574	560.23
415.951	550.73
416.328	561.81
416.705	582.82
417.082	586.67
417.46	579.21
417.837	573.33
418.214	607.23
418.591	601.35
418.967	607.46
419.344	596.83
419.721	587.12
420.098	588.7
420.475	600.45
420.852	616.27
421.228	616.95
421.605	619.66
421.982	645.42
422.358	614.91
422.735	631.41
423.111	653.1
423.488	639.55
423.864	666.66
424.241	675.25
424.617	677.28
424.994	662.82
425.37	665.31
425.746	660.79
426.123	710.73
426.499	659.88
426.875	680.45
427.251	691.07
427.627	717.51
428.003	703.27
428.379	716.83
428.756	716.61
429.132	711.86
429.507	720
429.883	727.23
430.259	724.06
430.635	724.06
431.011	758.64
431.387	760.9
431.763	778.75
432.138	774.01
432.514	783.5
432.89	785.08
433.265	808.13
433.641	785.3
434.016	805.42
434.392	826.43
434.767	840.9
435.143	823.5
435.518	822.14
435.894	832.08
436.269	841.57
436.644	862.14
437.02	858.07
437.395	838.18
437.77	897.84
438.145	884.51
438.52	901.01
438.895	908.69
439.271	908.01
439.646	935.58
440.021	906.43
440.395	906.88
440.77	927.67
441.145	919.99
441.52	947.79
441.895	948.46
442.27	945.3
442.645	947.33
443.019	936.26
443.394	966.09
443.769	963.6
444.143	932.87
444.518	946.2
444.892	978.52
445.267	994.79
445.641	980.33
446.016	985.98
446.39	987.56
446.764	990.95
447.139	1009.03
447.513	1016.71
447.887	1023.26
448.262	1017.61
448.636	1004.28
449.01	1033.21
449.384	1076.37
449.758	1025.52
450.132	1073.66
450.506	1070.04
450.88	1078.18
451.254	1047.44
451.628	1062.81
452.002	1081.79
452.376	1084.28
452.75	1129.7
453.123	1101.68
453.497	1098.06
453.871	1140.78
454.244	1134.9
454.618	1141
454.992	1152.53
455.365	1160.89
455.739	1174.22
456.112	1210.83
456.486	1189.36
456.859	1204.5
457.232	1217.84
457.606	1239.98
457.979	1227.78
458.352	1256.93
458.725	1267.55
459.099	1274.56
459.472	1325.4
459.845	1262.58
460.218	1288.34
460.591	1298.06
460.964	1314.1
461.337	1375.57
461.71	1379.86
462.083	1358.17
462.456	1380.77
462.829	1395.91
463.201	1366.53
463.574	1430.48
463.947	1405.63
464.32	1444.27
464.692	1437.04
465.065	1452.41
465.438	1469.81
465.81	1447.89
466.183	1494.66
466.555	1540.31
466.928	1517.04
467.3	1497.38
467.672	1557.94
468.045	1571.72
468.417	1598.16
468.789	1566.07
469.161	1596.13
469.534	1647.2
469.906	1617.82
470.278	1664.15
470.65	1660.54
471.022	1691.27
471.394	1722
471.766	1725.84
472.138	1747.31
472.51	1777.37
472.882	1833.64
473.253	1836.8
473.625	1837.71
473.997	1851.49
474.369	1884.71
474.74	1890.36
475.112	1929.68
475.484	1942.79
475.855	1978.04
476.227	2006.97
476.598	2025.95
476.97	2048.55
477.341	2081.99
477.713	2119.28
478.084	2128.77
478.455	2196.57
478.827	2195.21
479.198	2256.23
479.569	2258.26
479.94	2328.54
480.311	2326.05
480.682	2356.11
481.053	2437.01
481.424	2455.32
481.795	2490.8
482.166	2498.93
482.537	2576.9
482.908	2597.01
483.279	2590
483.65	2670.68
484.021	2707.51
484.391	2749.09
484.762	2776.21
485.133	2794.29
485.503	2799.71
485.874	2884.01
486.244	2910.22
486.615	2968.52
486.985	3014.4
487.356	3069.09
487.726	3079.71
488.097	3164.45
488.467	3145.69
488.837	3260.95
489.207	3287.39
489.578	3292.36
489.948	3324.45
490.318	3394.95
490.688	3393.6
491.058	3457.78
491.428	3552.01
491.798	3549.75
492.168	3630.65
492.538	3662.52
492.908	3742.74
493.278	3759.24
493.648	3781.38
494.017	3844.43
494.387	3871.55
494.757	3838.11
495.126	3952.9
495.496	3978.21
495.866	4011.43
496.235	4077.42
496.605	4099.34
496.974	4147.48
497.344	4206.23
497.713	4230.86
498.082	4250.75
498.452	4334.59
498.821	4285.33
499.19	4322.39
499.559	4446.9
499.928	4433.34
500.298	4456.39
500.667	4544.98
501.036	4575.94
501.405	4591.98
501.774	4614.36
502.143	4660
502.512	4658.42
502.88	4705.43
503.249	4743.17
503.618	4795.14
503.987	4832.43
504.356	4858.64
504.724	4896.38
505.093	4916.27
505.462	4965.53
505.83	4963.73
506.199	5076.04
506.567	5081.69
506.936	5099.54
507.304	5154.68
507.672	5233.32
508.041	5203.49
508.409	5259.08
508.777	5343.83
509.145	5392.87
509.514	5383.6
509.882	5448.01
510.25	5442.36
510.618	5513.77
510.986	5510.83
511.354	5620.88
511.722	5626.53
512.09	5680.99
512.458	5676.25
512.826	5719.41
513.193	5740.88
513.561	5841.22
513.929	5848.22
514.297	5887.77
514.664	5904.72
515.032	5966.86
515.4	6032.62
515.767	6069.01
516.135	6128.89
516.502	6016.81
516.869	6177.93
517.237	6237.82
517.604	6199.17
517.972	6273.75
518.339	6345.16
518.706	6357.59
519.073	6426.74
519.44	6452.05
519.808	6472.16
520.175	6501.54
520.542	6585.15
520.909	6555.77
521.276	6613.17
521.643	6632.38
522.009	6777.01
522.376	6751.7
522.743	6880.29
523.11	6887.06
523.477	6943.56
523.843	7018.59
524.21	7083.22
524.577	7130.45
524.943	7113.73
525.31	7192.37
525.676	7250.44
526.043	7355.98
526.409	7357.56
526.776	7436.65
527.142	7419.03
527.508	7466.94
527.874	7587.16
528.241	7552.81
528.607	7637.33
528.973	7687.72
529.339	7690.89
529.705	7770.21
530.071	7785.12
530.437	7908.51
530.803	7971.78
531.169	7939.69
531.535	7954.16
531.901	7998.22
532.267	8011.78
532.632	8140.82
532.998	8089.74
533.364	8195.96
533.73	8176.52
534.095	8296.52
534.461	8280.02
534.826	8395.95
535.192	8361.83
535.557	8444.76
535.923	8440.24
536.288	8454.71
536.653	8501.71
537.019	8518.21
537.384	8581.03
537.749	8566.34
538.114	8660.58
538.479	8652.89
538.845	8738.09
539.21	8681.14
539.575	8756.17
539.94	8804.3
540.305	8840.46
540.67	8889.95
541.034	8906.9
541.399	8933.11
541.764	8960
542.129	9006.33
542.494	9101.02
542.858	9089.04
543.223	9105.31
543.587	9215.14
543.952	9200.9
544.316	9217.85
544.681	9222.14
545.045	9295.59
545.41	9362.93
545.774	9361.35
546.138	9444.96
546.503	9459.43
546.867	9462.59
547.231	9630.04
547.595	9633.21
547.959	9674.79
548.324	9657.61
548.688	9732.87
549.052	9739.65
549.416	9733.32
549.779	9857.61
550.143	9889.25
550.507	9928.79
550.871	9953.65
551.235	9985.06
551.599	10112.74
551.962	10121.33
552.326	10093.53
552.689	10318.84
553.053	10249.24
553.417	10275.22
553.78	10357.48
554.143	10363.58
554.507	10475.67
554.87	10520.19
555.234	10610.81
555.597	10581.88
555.96	10766.28
556.323	10814.42
556.686	10817.36
557.05	11016.67
557.413	10954.75
557.776	11011.93
558.139	11157.46
558.502	11154.07
558.865	11190.68
559.228	11367.17
559.59	11384.35
559.953	11368.08
560.316	11580.5
560.679	11620.73
561.041	11649.2
561.404	11783.89
561.767	11912.47
562.129	11912.24
562.492	12132.58
562.854	12133.71
563.217	12191.56
563.579	12248.51
563.941	12407.82
564.304	12542.06
564.666	12640.36
565.028	12758.32
565.39	12856.17
565.753	12930.75
566.115	13065.89
566.477	13078.31
566.839	13232.66
567.201	13386.55
567.563	13477.17
567.925	13619.99
568.287	13732.76
568.648	13766.21
569.01	13965.97
569.372	14170.26
569.734	14239.64
570.095	14348.79
570.457	14515.79
570.819	14714.2
571.18	14756.91
571.542	14909
571.903	15047.75
572.265	15286.39
572.626	15400.06
572.987	15621.75
573.349	15787.4
573.71	16078.24
574.071	16217.89
574.432	16411.79
574.794	16668.73
575.155	16738.56
575.516	16977.19
575.877	17159.56
576.238	17414.92
576.599	17754.58
576.96	17818.75
577.32	18135.36
577.681	18342.58
578.042	18618.06
578.403	18781.44
578.763	19059.63
579.124	19366.96
579.485	19706.84
579.845	20009.21
580.206	20248.07
580.566	20523.32
580.927	20864.78
581.287	21168.72
581.648	21464.31
582.008	21826.56
582.368	22039.66
582.728	22371.86
583.089	22744.5
583.449	22893.2
583.809	23296.35
584.169	23753.97
584.529	24028.53
584.889	24502.87
585.249	24735.86
585.609	25090.65
585.969	25634.59
586.329	25895.83
586.688	26404.74
587.048	26717.73
587.408	27136.02
587.768	27610.81
588.127	27966.28
588.487	28357.69
588.846	28941.4
589.206	28994.73
589.565	29649.63
589.925	30198.77
590.284	30530.06
590.643	30979.76
591.003	31411.39
591.362	31917.82
591.721	32391.03
592.08	32704.69
592.44	33257.22
592.799	33793.02
593.158	34047.93
593.517	34526.34
593.876	35064.63
594.235	35382.59
594.593	35838.17
594.952	36454.65
595.311	36657.81
595.67	37299.37
596.029	37956.98
596.387	38273.13
596.746	38853.46
597.104	39182.26
597.463	39512.2
597.822	40156.92
598.18	40358.05
598.538	40705.16
598.897	41351.02
599.255	41399.15
599.613	42391.67
599.972	42513.7
600.33	43031.65
600.688	43224.41
601.046	43615.36
601.404	44242.69
601.762	44420.54
602.12	45026.85
602.478	45363.79
602.836	45646.27
603.194	45889.88
603.552	46327.61
603.91	46558.56
604.268	46997.87
604.625	47110.64
604.983	47599.44
605.341	47690.96
605.698	48219.54
606.056	48528.46
606.413	48653.2
606.771	49037.14
607.128	49311.71
607.485	49364.14
607.843	49600.52
608.2	49980.39
608.557	50185.81
608.914	50329.09
609.272	50682.52
609.629	50887.72
609.986	51204.32
610.343	51215.84
610.7	51546.46
611.057	51583.74
611.414	51649.28
611.771	51869.38
612.127	52077.29
612.484	52173.56
612.841	52460.78
613.198	52465.53
613.554	52536.94
613.911	52861.9
614.267	52913.65
614.624	52986.42
614.98	53032.52
615.337	53421.66
615.693	53346.86
616.05	53543.47
616.406	53652.16
616.762	53688.77
617.118	53762.67
617.475	53837.47
617.831	54015.77
618.187	54097.35
618.543	54193.84
618.899	54412.59
619.255	54384.8
619.611	54369.21
619.967	54646.03
620.323	54690.33
620.678	54560.39
621.034	54574.62
621.39	54682.64
621.746	54675.19
622.101	55025.91
622.457	54857.33
622.812	54916.99
623.168	55010.77
623.523	55050.32
623.879	55194.04
624.234	54987.27
624.589	55179.58
624.945	55149.52
625.3	55205.57
625.655	55241.05
626.01	55174.16
626.365	55223.87
626.72	55230.88
627.075	55379.12
627.43	55356.52
627.785	55326.47
628.14	55478.1
628.495	55488.95
628.85	55458.22
629.205	55397.65
629.559	55621.38
629.914	55485.56
630.269	55551.55
630.623	55493.92
630.978	55443.53
631.332	55582.06
631.687	55567.59
632.041	55491.66
632.396	55602.85
632.75	55407.82
633.104	55538.21
633.459	55374.6
633.813	55434.04
634.167	55394.26
634.521	55462.51
634.875	55531.21
635.229	55457.09
635.583	55336.41
635.937	55398.11
636.291	55346.58
636.645	55345.9
636.999	55348.84
637.352	55432.45
637.706	55205.34
638.06	55423.19
638.413	55297.32
638.767	55167.6
639.121	55265
639.474	55116.08
639.828	55190.43
640.181	55239.01
640.534	55178.22
640.888	55177.09
641.241	55146.36
641.594	55164.89
641.947	55205.34
642.301	55188.17
642.654	55155.4
643.007	55154.95
643.36	55152.24
643.713	55095.97
644.066	55207.6
644.419	54959.7
644.771	54900.04
645.124	54600.84
645.477	54557.9
645.83	54338.02
646.182	54268.19
646.535	54203.79
646.888	54318.81
647.24	54229.77
647.593	54360.62
647.945	54272.03
648.298	54213.73
648.65	54055.99
649.002	54053.51
649.355	54170.34
649.707	54096.67
650.059	54196.1
650.411	54654.17
650.763	54651.68
651.115	54960.38
651.467	54807.16
651.819	54794.05
652.171	54779.36
652.523	54707.28
652.875	54697.33
653.227	54657.79
653.578	54789.08
653.93	54712.93
654.282	54581.18
654.633	54589.77
654.985	54668.63
655.337	54645.58
655.688	54538.24
656.039	54676.54
656.391	54492.37
656.742	54491.24
657.094	54569.65
657.445	54741.4
657.796	54671.12
658.147	54550.9
658.498	54539.82
658.849	54619.37
659.2	54557.68
659.551	54442.65
659.902	54574.85
660.253	54469.32
660.604	54646.49
660.955	54386.15
661.306	54533.95
661.656	54421.63
662.007	54480.39
662.358	54509.99
662.708	54544.34
663.059	54544.12
663.409	54285.37
663.76	54554.51
664.11	54487.4
664.461	54532.59
664.811	54483.55
665.161	54526.72
665.511	54397.91
665.862	54414.4
666.212	54437.68
666.562	54517
666.912	54445.36
667.262	54310.22
667.612	54393.16
667.962	54399.49
668.312	54331.01
668.662	54409.88
669.011	54385.25
669.361	54330.34
669.711	54362.88
670.06	54292.6
670.41	54222.32
670.76	54135.77
671.109	54335.99
671.459	54221.41
671.808	54239.04
672.157	54212.15
672.507	54070.68
672.856	54006.96
673.205	54103.68
673.554	54225.26
673.904	54040.4
674.253	54165.37
674.602	54054.19
674.951	53640.86
675.3	53503.47
675.649	54014.87
675.998	53935.55
676.346	53930.57
676.695	54009.44
677.044	53782.55
677.393	53827.98
677.741	53865.49
678.09	53801.31
678.438	53767.64
678.787	53745.72
679.135	53864.59
679.484	53632.5
679.832	53723.12
680.181	53539.4
680.529	53673.63
680.877	53585.27
681.225	53578.04
681.573	53681.54
681.922	53497.82
682.27	53364.49
682.618	53450.59
682.966	53384.83
683.314	53429.34
683.661	53423.47
684.009	53222.8
684.357	53145.51
684.705	53007.89
685.053	53028.45
685.4	53071.16
685.748	52883.6
686.095	52989.36
686.443	52906.87
686.79	52806.08
687.138	52735.12
687.485	52809.7
687.832	52649.93
688.18	52670.04
688.527	52497.39
688.874	52518.41
689.221	52315.02
689.568	52397.28
689.915	52180.79
690.262	52161.58
690.609	52132.65
690.956	52011.75
691.303	52005.2
691.65	51862.15
691.997	51800.46
692.344	51663.29
692.69	51694.7
693.037	51690.41
693.383	51372.9
693.73	51476.17
694.077	51237.54
694.423	51229.85
694.769	51257.88
695.116	51116.18
695.462	51032.34
695.808	50988.73
696.155	50911.9
696.501	50759.58
696.847	50780.15
697.193	50466.48
697.539	50512.36
697.885	50350.78
698.231	50289.77
698.577	50310.78
698.923	50135.42
699.269	50013.61
699.614	49810.68
699.96	49801.64
700.306	49729.78
700.651	49633.06
700.997	49615.43
701.342	49356
701.688	49420.86
702.033	49228.1
702.379	49216.12
702.724	49108.78
703.069	49239.62
703.415	48798.28
703.76	48737.94
704.105	48798.28
704.45	48583.6
704.795	48466.54
705.14	48371.4
705.485	48352.87
705.83	48310.38
706.175	48196.94
706.52	48166.88
706.865	47792.88
707.209	47864.52
707.554	47843.73
707.899	47822.26
708.243	47615.71
708.588	47539.33
708.932	47320.13
709.277	47221.82
709.621	47269.51
709.966	47114.26
710.31	47125.1
710.654	46607.6
710.998	46856.64
711.342	46933.92
711.687	46612.12
712.031	46700.93
712.375	46363.09
712.719	46526.25
713.063	46362.64
713.407	46476.08
713.75	46353.37
714.094	46222.08
714.438	46058.24
714.782	46229.31
715.125	45806.04
715.469	46015.75
715.812	45847.4
716.156	45664.8
716.499	45597.69
716.843	45683.33
717.186	45434.98
717.53	45669.32
717.873	45561.98
718.216	45452.83
718.559	45259.62
718.902	44955.44
719.246	45076.12
719.589	44955.67
719.932	44851.04
720.275	44887.2
720.617	44857.59
720.96	44823.47
721.303	44772.62
721.646	44794.54
721.989	44531.27
722.331	44734.66
722.674	44578.28
723.016	44530.59
723.359	44342.13
723.701	44467.09
724.044	44221.9
724.386	44063.26
724.729	44162.92
725.071	44136.25
725.413	44042.7
725.755	43996.15
726.097	43835.7
726.439	43667.34
726.782	43740.33
727.124	43864.17
727.465	43688.58
727.807	43738.75
728.149	43596.38
728.491	43586.44
728.833	43674.8
729.175	43423.51
729.516	43443.84
729.858	43386.22
730.199	43405.88
730.541	43340.34
730.882	43210.18
731.224	43260.12
731.565	42993.01
731.906	43092.89
732.248	43157.98
732.589	42857.64
732.93	42732.9
733.271	42741.72
733.612	42709.17
733.953	42835.95
734.294	42596.18
734.635	42544.21
734.976	42687.03
735.317	42433.25
735.658	42429.63
735.999	42460.59
736.339	42416.53
736.68	42600.48
737.021	42357.77
737.361	42270.54
737.702	42371.56
738.042	42281.61
738.383	42160.71
738.723	42063.99
739.063	42147.61
739.404	42188.28
739.744	42039.36
740.084	41894.96
740.424	41891.34
740.764	41885.24
741.104	42026.48
741.444	41772.25
741.784	41754.17
742.124	41801.63
742.464	41685.7
742.804	41739.48
743.143	41562.76
743.483	41622.65
743.823	41314.41
744.162	41266.95
744.502	41458.36
744.841	41252.94
745.181	41467.4
745.52	41279.38
745.86	41294.07
746.199	41149.67
746.538	41121.19
746.877	41198.7
747.216	41118.48
747.556	40996.22
747.895	40991.7
748.234	40824.93
748.573	40942.89
748.911	40856.34
749.25	40778.38
749.589	40714.88
749.928	40666.06
750.267	40680.07
750.605	40570.7
750.944	40534.99
751.283	40417.03
751.621	40393.53
751.96	40168.9
752.298	40227.88
752.636	40130.03
752.975	40057.04
753.313	40012.3
753.651	40107.21
753.989	39859.08
754.327	39793.54
754.666	39555.81
755.004	39682.59
755.342	39658.41
755.679	39597.17
756.017	39459.54
756.355	39543.38
756.693	39344.74
757.031	39403.72
757.368	39120.12
757.706	39084.64
758.044	38858.88
758.381	38956.05
