Data from orange_diffuse_book_FLMS001491_00089.txt Node
Date: Wed Feb 08 15:30:10 GMT 2017
User: dcchb
Spectrometer: FLMS00149
Trigger mode: 0
Integration Time (sec): 2.000000E-2
Scans to average: 10
Electric dark correction enabled: true
Nonlinearity correction enabled: false
Boxcar width: 0
XAxis mode: Wavelengths
Number of Pixels in Spectrum: 2048
>>>>>Begin Spectral Data<<<<<
341.393	-30.9
341.776	-30.9
342.16	-30.9
342.543	-53.73
342.927	-31.36
343.31	-67.06
343.693	-58.25
344.077	-72.71
344.46	-64.12
344.843	-51.47
345.226	-27.74
345.61	-32.03
345.993	-24.8
346.376	-9.43
346.759	26.27
347.142	3.9
347.525	57.23
347.908	47.51
348.291	75.31
348.674	90.22
349.057	107.17
349.44	127.28
349.823	160.05
350.206	177.45
350.588	190.79
350.971	212.48
351.354	260.61
351.737	264
352.119	253.38
352.502	274.85
352.884	274.85
353.267	299.94
353.65	299.71
354.032	291.8
354.414	308.07
354.797	309.2
355.179	335.19
355.562	329.54
355.944	346.26
356.326	349.65
356.709	359.6
357.091	362.31
357.473	342.42
357.855	366.83
358.238	350.78
358.62	315.53
359.002	342.65
359.384	351.01
359.766	367.73
360.148	335.64
360.53	372.93
360.912	345.36
361.294	355.98
361.676	349.2
362.057	327.51
362.439	342.65
362.821	335.19
363.203	340.16
363.584	341.52
363.966	324.57
364.348	346.49
364.729	343.78
365.111	342.65
365.493	334.96
365.874	343.78
366.256	320.27
366.637	337.22
367.019	313.72
367.4	325.02
367.781	319.6
368.163	339.48
368.544	322.76
368.925	298.35
369.306	327.28
369.688	333.83
370.069	321.86
370.45	334.96
370.831	328.18
371.212	323.44
371.593	327.51
371.974	318.69
372.355	329.54
372.736	313.95
373.117	334.28
373.498	319.37
373.879	317.79
374.26	322.99
374.641	319.14
375.021	318.01
375.402	328.64
375.783	335.41
376.163	330.67
376.544	350.56
376.925	323.44
377.305	351.46
377.686	329.31
378.066	337.22
378.447	339.71
378.827	342.42
379.208	345.36
379.588	354.85
379.968	353.04
380.349	342.87
380.729	357.56
381.109	346.04
381.489	359.37
381.87	361.18
382.25	336.77
382.63	355.98
383.01	344
383.39	342.19
383.77	353.49
384.15	343.78
384.53	357.79
384.91	365.24
385.29	361.63
385.67	369.99
386.049	350.1
386.429	351.69
386.809	366.37
387.189	375.41
387.568	374.51
387.948	360.27
388.328	370.22
388.707	381.52
389.087	372.25
389.466	379.71
389.846	386.94
390.225	369.09
390.605	375.64
390.984	372.02
391.363	361.85
391.743	386.26
392.122	397.79
392.501	391.01
392.881	378.8
393.26	391.68
393.639	389.2
394.018	404.79
394.397	389.2
394.776	382.65
395.155	378.58
395.534	388.07
395.913	405.47
396.292	395.98
396.671	403.21
397.05	405.02
397.429	401.85
397.808	394.85
398.186	393.49
398.565	409.76
398.944	394.85
399.323	405.7
399.701	404.34
400.08	408.63
400.458	414.73
400.837	409.99
401.215	416.32
401.594	437.56
401.972	413.38
402.351	400.5
402.729	428.07
403.107	422.64
403.486	394.4
403.864	412.7
404.242	420.84
404.62	420.38
404.999	426.71
405.377	438.24
405.755	444.11
406.133	444.34
406.511	442.53
406.889	422.64
407.267	436.43
407.645	448.63
408.023	462.64
408.401	460.61
408.779	446.37
409.156	463.77
409.534	446.37
409.912	464.68
410.29	466.03
410.667	482.53
411.045	480.27
411.422	463.77
411.8	480.5
412.178	486.15
412.555	496.09
412.933	503.55
413.31	502.87
413.687	498.12
414.065	510.78
414.442	488.41
414.819	511.68
415.197	503.09
415.574	498.12
415.951	499.03
416.328	522.08
416.705	525.24
417.082	532.7
417.46	515.3
417.837	524.34
418.214	529.76
418.591	550.32
418.967	537.22
419.344	544.67
419.721	526.82
420.098	542.42
420.475	530.44
420.852	554.62
421.228	561.17
421.605	580.15
421.982	550.55
422.358	591.91
422.735	575.63
423.111	591.91
423.488	577.44
423.864	584.45
424.241	581.96
424.617	594.17
424.994	617.22
425.37	579.02
425.746	595.07
426.123	578.8
426.499	605.69
426.875	626.03
427.251	604.33
427.627	597.33
428.003	633.03
428.379	622.41
428.756	631.9
429.132	649.53
429.507	651.34
429.883	653.37
430.259	670.55
430.635	673.71
431.011	660.6
431.387	669.42
431.763	674.16
432.138	655.86
432.514	698.12
432.89	702.18
433.265	682.07
433.641	708.29
434.016	689.53
434.392	708.06
434.767	717.55
435.143	728.62
435.518	721.85
435.894	736.76
436.269	736.76
436.644	746.48
437.02	776.53
437.395	765.69
437.77	769.08
438.145	792.8
438.52	782.41
438.895	757.55
439.271	801.62
439.646	783.76
440.021	791.67
440.395	799.13
440.77	787.38
441.145	791.67
441.52	862.18
441.895	803.2
442.27	795.29
442.645	818.57
443.019	823.99
443.394	833.03
443.769	838.9
444.143	827.61
444.518	848.62
444.892	841.16
445.267	847.72
445.641	845.01
446.016	861.73
446.39	878.9
446.764	851.33
447.139	872.35
447.513	852.46
447.887	878
448.262	865.57
448.636	889.52
449.01	900.15
449.384	896.53
449.758	894.95
450.132	904.21
450.506	880.71
450.88	922.52
451.254	917.77
451.628	918.9
452.002	932.69
452.376	918.68
452.75	932.01
453.123	925
453.497	955.06
453.871	936.76
454.244	983.08
454.618	965.68
454.992	1003.65
455.365	959.13
455.739	998.9
456.112	983.76
456.486	1025.34
456.859	1018.11
457.232	1025.79
457.606	1027.83
457.979	1047.49
458.352	1036.19
458.725	1063.31
459.099	1053.81
459.472	1065.11
459.845	1054.94
460.218	1090.2
460.591	1096.75
460.964	1086.36
461.337	1096.3
461.71	1108.28
462.083	1139.46
462.456	1146.24
462.829	1147.14
463.201	1132.91
463.574	1151.89
463.947	1193.7
464.32	1211.55
464.692	1188.27
465.065	1195.05
465.438	1224.66
465.81	1235.73
466.183	1223.3
466.555	1251.77
466.928	1245.67
467.3	1268.05
467.672	1284.77
468.045	1287.25
468.417	1275.5
468.789	1298.33
469.161	1311.66
469.534	1322.51
469.906	1343.3
470.278	1353.24
470.65	1373.13
471.022	1376.97
471.394	1412
471.766	1384.43
472.138	1398.21
472.51	1434.37
472.882	1457.19
473.253	1457.42
473.625	1487.7
473.997	1519.79
474.369	1527.7
474.74	1496.29
475.112	1543.74
475.484	1560.02
475.855	1583.97
476.227	1595.27
476.598	1661.93
476.97	1642.73
477.341	1664.42
477.713	1674.36
478.084	1706.68
478.455	1717.75
478.827	1735.83
479.198	1788.48
479.569	1800.46
479.94	1807.69
480.311	1854.25
480.682	1882.94
481.053	1879.56
481.424	1914.81
481.795	1964.52
482.166	2019.89
482.537	1986.44
482.908	2011.98
483.279	2079.32
483.65	2090.85
484.021	2138.53
484.391	2145.31
484.762	2190.73
485.133	2194.58
485.503	2229.83
485.874	2267.57
486.244	2289.71
486.615	2319.77
486.985	2372.2
487.356	2392.08
487.726	2459.43
488.097	2428.69
488.467	2503.95
488.837	2508.47
489.207	2549.82
489.578	2581.01
489.948	2615.13
490.318	2666.65
490.688	2701.91
491.058	2719.76
491.428	2743.49
491.798	2799.3
492.168	2858.51
492.538	2849.47
492.908	2892.41
493.278	2940.32
493.648	2964.27
494.017	2968.79
494.387	3051.73
494.757	3036.13
495.126	3090.6
495.496	3118.62
495.866	3150.48
496.235	3187.09
496.605	3244.72
496.974	3242.01
497.344	3298.27
497.713	3330.59
498.082	3330.82
498.452	3351.38
498.821	3399.29
499.19	3419.18
499.559	3442
499.928	3494.65
500.298	3513.86
500.667	3572.39
501.036	3527.42
501.405	3620.53
501.774	3617.36
502.143	3640.41
502.512	3683.58
502.88	3754.31
503.249	3728.32
503.618	3797.24
503.987	3805.38
504.356	3815.55
504.724	3822.1
505.093	3885.15
505.462	3895.77
505.83	3895.32
506.199	3953.4
506.567	4009.44
506.936	3987.97
507.304	4042.89
507.672	4062.32
508.041	4101.87
508.409	4125.15
508.777	4203.79
509.145	4223.22
509.514	4191.81
509.882	4248.98
510.25	4288.98
510.618	4318.14
510.986	4335.54
511.354	4391.35
511.722	4433.39
512.09	4436.32
512.458	4407.4
512.826	4463.44
513.193	4524.68
513.561	4574.4
513.929	4606.72
514.297	4662.31
514.664	4656.21
515.032	4677.67
515.4	4721.06
515.767	4732.81
516.135	4801.96
516.502	4770.33
516.869	4798.35
517.237	4877.22
517.604	4861.4
517.972	4906.82
518.339	4927.84
518.706	4964.9
519.073	4956.76
519.44	5020.49
519.808	5069.08
520.175	5117.44
520.542	5138
520.909	5230.2
521.276	5194.95
521.643	5259.58
522.009	5328.5
522.376	5293.02
522.743	5333.02
523.11	5423.87
523.477	5452.79
523.843	5428.61
524.21	5535.96
524.577	5548.16
524.943	5576.18
525.31	5637.42
525.676	5673.58
526.043	5679.68
526.409	5728.49
526.776	5797.19
527.142	5747.25
527.508	5789.51
527.874	5877.87
528.241	5941.14
528.607	5903.4
528.973	5968.71
529.339	5972.78
529.705	6011.42
530.071	6083.51
530.437	6107.24
530.803	6133.68
531.169	6205.77
531.535	6177.97
531.901	6221.36
532.267	6175.49
532.632	6246.9
532.998	6293.68
533.364	6320.79
533.73	6361.47
534.095	6404.63
534.461	6457.74
534.826	6456.84
535.192	6424.29
535.557	6489.6
535.923	6504.74
536.288	6540.68
536.653	6594.46
537.019	6580.45
537.384	6575.48
537.749	6646.89
538.114	6662.25
538.479	6700.9
538.845	6787.67
539.21	6705.42
539.575	6749.26
539.94	6789.26
540.305	6820.44
540.67	6808.01
541.034	6866.09
541.399	6903.83
541.764	6938.18
542.129	6945.86
542.494	6950.16
542.858	7000.78
543.223	7047.55
543.587	7059.76
543.952	7057.27
544.316	7139.3
544.681	7158.51
545.045	7203.03
545.41	7276.48
545.774	7267.89
546.138	7314.89
546.503	7277.15
546.867	7362.57
547.231	7386.98
547.595	7424.72
547.959	7513.98
548.324	7494.55
548.688	7567.99
549.052	7548.56
549.416	7611.16
549.779	7598.27
550.143	7693.41
550.507	7699.74
550.871	7711.04
551.235	7788.1
551.599	7815.9
551.962	7847.76
552.326	7925.95
552.689	7920.3
553.053	7935.67
553.417	7976.8
553.78	8111.26
554.143	8150.8
554.507	8157.58
554.87	8274.19
555.234	8305.37
555.597	8341.53
555.96	8354.87
556.323	8448.42
556.686	8417.24
557.05	8521.87
557.413	8593.05
557.776	8622.43
558.139	8708.08
558.502	8730.9
558.865	8788.07
559.228	8868.98
559.59	9014.73
559.953	8994.62
560.316	9138.57
560.679	9157.56
561.041	9253.15
561.404	9391.9
561.767	9459.24
562.129	9493.82
562.492	9547.6
562.854	9659.01
563.217	9617.2
563.579	9735.17
563.941	9888.61
564.304	9933.35
564.666	10016.06
565.028	10082.96
565.39	10242.27
565.753	10321.37
566.115	10400.91
566.477	10518.42
566.839	10628.03
567.201	10706.44
567.563	10757.06
567.925	10988.92
568.287	11084.51
568.648	11138.07
569.01	11285.86
569.372	11417.61
569.734	11450.15
570.095	11683.37
570.457	11782.35
570.819	11938.95
571.18	12046.97
571.542	12222.79
571.903	12370.58
572.265	12517.24
572.626	12716.11
572.987	12832.04
573.349	13054.18
573.71	13238.58
574.071	13488.52
574.432	13591.79
574.794	13942.74
575.155	14114.71
575.516	14252.11
575.877	14466.57
576.238	14642.84
576.599	14842.83
576.96	15054.8
577.32	15354.91
577.681	15578.86
578.042	15848.68
578.403	16115.56
578.763	16278.05
579.124	16604.82
579.485	17013.39
579.845	17351.69
580.206	17539.48
580.566	17777.22
580.927	18130.88
581.287	18559.34
581.648	18812.44
582.008	19123.62
582.368	19446.78
582.728	19805.86
583.089	20225.51
583.449	20464.83
583.809	20877.02
584.169	21275.43
584.529	21517.46
584.889	22130.55
585.249	22329.41
585.609	22705.9
585.969	23246
586.329	23569.83
586.688	24043.04
587.048	24373.43
587.408	24753.76
587.768	25224.25
588.127	25730.23
588.487	25957.11
588.846	26727.26
589.206	26873.47
589.565	27433.91
589.925	27971.75
590.284	28296.26
590.643	28830.26
591.003	29337.36
591.362	29873.62
591.721	30135.99
592.08	30638.12
592.44	31197.2
592.799	31706.34
593.158	32056.84
593.517	32598.07
593.876	33076.02
594.235	33456.35
594.593	34010.91
594.952	34502.65
595.311	34942.41
595.67	35419.69
596.029	36124.08
596.387	36657.17
596.746	37149.36
597.104	37279.98
597.463	37873.86
597.822	38374.19
598.18	38652.83
598.538	39128.97
598.897	39795.17
599.255	39998.78
599.613	40792.88
599.972	40938.87
600.33	41523.48
600.688	41680.77
601.046	42277.14
601.404	42922.77
601.762	43181.29
602.12	43547.39
602.478	44070.08
602.836	44424.65
603.194	44551.43
603.552	44972.66
603.91	45160.9
604.268	45756.82
604.625	46022.58
604.983	46431.38
605.341	46628.21
605.698	46978.03
606.056	47432.48
606.413	47607.62
606.771	48004.44
607.128	48272.46
607.485	48393.81
607.843	48597.65
608.2	49056.85
608.557	49361.92
608.914	49491.41
609.272	49921.68
609.629	50045.52
609.986	50288
610.343	50295.23
610.7	50808.44
611.057	50844.82
611.414	50956.68
611.771	51176.79
612.127	51421.76
612.484	51423.11
612.841	51711.47
613.198	51777.9
613.554	51891.35
613.911	52261.96
614.267	52268.74
614.624	52263.32
614.98	52494.04
615.337	52687.94
615.693	52743.08
616.05	52855.16
616.406	53142.84
616.762	53059.45
617.118	53190.07
617.475	53246.11
617.831	53422.83
618.187	53548.03
618.543	53650.85
618.899	53798.64
619.255	53879.32
619.611	53908.47
619.967	54022.59
620.323	54122.7
620.678	54030.95
621.034	53975.36
621.39	54143.49
621.746	54103.72
622.101	54538.96
622.457	54317.05
622.812	54462.35
623.168	54497.15
623.523	54498.06
623.879	54659.64
624.234	54494.44
624.589	54644.27
624.945	54718.84
625.3	54778.73
625.655	54797.94
626.01	54787.54
626.365	54914.77
626.72	54864.6
627.075	54847.2
627.43	54835
627.785	54864.15
628.14	54923.36
628.495	54970.59
628.85	54974.43
629.205	54952.96
629.559	55107.08
629.914	54930.36
630.269	55074.09
630.623	54925.62
630.978	54879.07
631.332	55046.29
631.687	55144.37
632.041	55055.56
632.396	55064.82
632.75	54995.45
633.104	54972.85
633.459	54970.14
633.813	54922.23
634.167	54926.3
634.521	55049.46
634.875	55087.2
635.229	54998.38
635.583	54792.06
635.937	54940.08
636.291	54902.34
636.645	54942.11
636.999	54840.2
637.352	54956.58
637.706	54799.52
638.06	54849.01
638.413	54851.5
638.767	54781.89
639.121	54813.08
639.474	54691.73
639.828	54694.66
640.181	54789.8
640.534	54816.69
640.888	54736.02
641.241	54582.58
641.594	54669.13
641.947	54786.19
642.301	54710.93
642.654	54756.81
643.007	54684.27
643.36	54684.27
643.713	54705.96
644.066	54797.71
644.419	54507.32
644.771	54380.77
645.124	54118.63
645.477	54082.25
645.83	53934.91
646.182	53815.59
646.535	53794.12
646.888	53798.42
647.24	53709.38
647.593	53971.29
647.945	53871.63
648.298	53694.46
648.65	53659.66
649.002	53559.33
649.355	53743.28
649.707	53643.17
650.059	53803.61
650.411	54127.67
650.763	54171.29
651.115	54441.79
651.467	54409.02
651.819	54324.73
652.171	54318.63
652.523	54255.81
652.875	54182.59
653.227	54157.28
653.578	54317.27
653.93	54235.47
654.282	54037.51
654.633	54047.67
654.985	54114.57
655.337	54180.1
655.688	54177.39
656.039	54252.42
656.391	54098.97
656.742	54092.87
657.094	54061.23
657.445	54255.81
657.796	54129.25
658.147	54125.19
658.498	54178.52
658.849	54149.37
659.2	54162.7
659.551	54049.71
659.902	54202.02
660.253	54061.69
660.604	54148.24
660.955	54044.51
661.306	54085.64
661.656	54145.75
662.007	54106.88
662.358	54058.75
662.708	54057.84
663.059	54042.03
663.409	53930.62
663.76	54089.26
664.11	54084.96
664.461	54183.72
664.811	54021.46
665.161	54046.77
665.511	53865.31
665.862	53914.57
666.212	54056.71
666.562	54095.81
666.912	54021.01
667.262	53940.56
667.612	53985.98
667.962	53940.79
668.312	53865.53
668.662	54008.13
669.011	53983.04
669.361	53904.63
669.711	53828.02
670.06	53851.75
670.41	53848.13
670.76	53752.77
671.109	53860.34
671.459	53777.17
671.808	53709.6
672.157	53794.57
672.507	53607.91
672.856	53661.02
673.205	53670.96
673.554	53792.54
673.904	53564.52
674.253	53708.7
674.602	53586.9
674.951	53171.77
675.3	53081.82
675.649	53473.9
675.998	53466.45
676.346	53498.54
676.695	53549.38
677.044	53316.62
677.393	53459.44
677.741	53401.14
678.09	53466.45
678.438	53347.81
678.787	53452.44
679.135	53398.2
679.484	53145.33
679.832	53233.46
680.181	53197.3
680.529	53167.02
680.877	53117.3
681.225	53077.08
681.573	53224.42
681.922	52971.77
682.27	52890.19
682.618	53024.88
682.966	52873.92
683.314	52948.04
683.661	52820.59
684.009	52617.2
684.357	52622.18
684.705	52550.99
685.053	52643.19
685.4	52649.75
685.748	52411.79
686.095	52416.98
686.443	52286.59
686.79	52276.42
687.138	52340.15
687.485	52299.7
687.832	52167.72
688.18	52188.29
688.527	52014.28
688.874	51908.97
689.221	51932.48
689.568	51847.51
689.915	51674.63
690.262	51708.53
690.609	51586.5
690.956	51598.47
691.303	51559.6
691.65	51289.78
691.997	51300.18
692.344	51104.7
692.69	51236.22
693.037	51156.9
693.383	50937.25
693.73	51021.09
694.077	50727.76
694.423	50838.49
694.769	50668.33
695.116	50670.59
695.462	50480.54
695.808	50473.08
696.155	50479.18
696.501	50250.49
696.847	50206.87
697.193	49944.28
697.539	50134.33
697.885	49808.01
698.231	49619.54
698.577	49640.33
698.923	49624.51
699.269	49468.13
699.614	49224.75
699.96	49181.14
700.306	49258.42
700.651	48963.06
700.997	48872.9
701.342	48904.31
701.688	48732.79
702.033	48615.28
702.379	48738.21
702.724	48463.87
703.069	48652.56
703.415	48213.25
703.76	48121.73
704.105	48123.76
704.45	48040.15
704.795	47873.15
705.14	47741.4
705.485	47769.2
705.83	47541.41
706.175	47544.34
706.52	47465.7
706.865	47284.91
707.209	47283.33
707.554	47081.53
707.899	47224.35
708.243	46949.56
708.588	46916.56
708.932	46707.08
709.277	46606.29
709.621	46649.45
709.966	46415.56
710.31	46521.09
710.654	46190.93
710.998	46223.02
711.342	46220.99
711.687	46125.17
712.031	45927.21
712.375	45767.21
712.719	45788.91
713.063	45821.68
713.407	45910.04
713.75	45679.99
714.094	45723.6
714.438	45490.39
714.782	45456.49
715.125	45250.17
715.469	45361.8
715.812	45145.08
716.156	45011.08
716.499	45112.54
716.843	45008.59
717.186	44815.83
717.53	44937.86
717.873	44816.96
718.216	44816.96
718.559	44579
718.902	44450.19
719.246	44487.93
719.589	44348.27
719.932	44311.43
720.275	44255.39
720.617	44179.23
720.96	44141.49
721.303	44094.49
721.646	44022.18
721.989	43870.54
722.331	43980.37
722.674	43775.63
723.016	43829.41
723.359	43639.81
723.701	43822.86
724.044	43475.98
724.386	43269.65
724.729	43559.82
725.071	43512.58
725.413	43278.24
725.755	43344.91
726.097	43212.25
726.439	43077.34
726.782	43029.66
727.124	43226.94
727.465	43056.33
727.807	43081.86
728.149	42871.47
728.491	42843
728.833	42854.3
729.175	42754.19
729.516	42637.13
729.858	42618.6
730.199	42729.78
730.541	42590.35
730.882	42571.59
731.224	42583.8
731.565	42388.77
731.906	42442.1
732.248	42538.82
732.589	42204.37
732.93	42088.67
733.271	42202.79
733.612	42148.55
733.953	42374.99
734.294	42055
734.635	41843.93
734.976	42128.21
735.317	41811.84
735.658	41786.08
735.999	41880.76
736.339	41768
736.68	41934.32
737.021	41805.96
737.361	41641.9
737.702	41709.47
738.042	41640.54
738.383	41464.95
738.723	41609.58
739.063	41455.92
739.404	41478.29
739.744	41398.74
740.084	41169.82
740.424	41455.01
740.764	41209.37
741.104	41347.22
741.444	41061.12
741.784	41092.54
742.124	41096.6
742.464	41071.74
742.804	40874.69
743.143	40889.6
743.483	41004.18
743.823	40704.3
744.162	40849.83
744.502	40731.64
744.841	40591.31
745.181	40864.07
745.52	40520.8
745.86	40624.53
746.199	40412.78
746.538	40583.85
746.877	40491.2
747.216	40600.12
747.556	40415.49
747.895	40361.93
748.234	40293.46
748.573	40181.15
748.911	40159.9
749.25	40138.66
749.589	39865.67
749.928	40009.85
750.267	40024.99
750.605	39980.25
750.944	39898.67
751.283	39761.04
751.621	39817.99
751.96	39453.71
752.298	39570.77
752.636	39497.32
752.975	39418.68
753.313	39198.57
753.651	39397.89
753.989	39135.3
754.327	39129.65
754.666	38919.71
755.004	38945.47
755.342	39017.11
755.679	39020.95
756.017	38701.86
756.355	38724.69
756.693	38668.42
757.031	38783.9
757.368	38453.06
757.706	38423.9
758.044	38418.48
758.381	38207.19
758.719	38129.45
759.056	38195.89
759.394	38148.21
759.731	37747.09
