Data from orange_diffuse_book_FLMS001491_00049.txt Node
Date: Wed Feb 08 15:29:38 GMT 2017
User: dcchb
Spectrometer: FLMS00149
Trigger mode: 0
Integration Time (sec): 2.000000E-2
Scans to average: 10
Electric dark correction enabled: true
Nonlinearity correction enabled: false
Boxcar width: 0
XAxis mode: Wavelengths
Number of Pixels in Spectrum: 2048
>>>>>Begin Spectral Data<<<<<
341.393	-7.43
341.776	-7.43
342.16	-7.43
342.543	-68.67
342.927	-57.82
343.31	-72.96
343.693	-74.32
344.077	-85.62
344.46	-43.36
344.843	-57.6
345.226	-47.2
345.61	-23.25
345.993	-26.64
346.376	0.48
346.759	23.76
347.142	3.42
347.525	60.59
347.908	59.69
348.291	82.29
348.674	94.26
349.057	106.47
349.44	128.39
349.823	147.59
350.206	172.91
350.588	201.15
350.971	218.1
351.354	235.73
351.737	232.11
352.119	251.1
352.502	241.6
352.884	284.54
353.267	308.27
353.65	288.83
354.032	321.6
354.414	299.91
354.797	302.62
355.179	330.42
355.562	346.46
355.944	341.71
356.326	348.27
356.709	323.41
357.091	347.82
357.473	350.98
357.855	357.53
358.238	326.35
358.62	349.85
359.002	346.69
359.384	362.96
359.766	360.7
360.148	341.04
360.53	353.47
360.912	345.33
361.294	347.59
361.676	338.32
362.057	342.39
362.439	334.93
362.821	345.1
363.203	340.13
363.584	343.3
363.966	346.69
364.348	320.7
364.729	338.32
365.111	325.9
365.493	325.67
365.874	349.4
366.256	327.48
366.637	320.25
367.019	336.06
367.4	342.62
367.781	300.13
368.163	326.8
368.544	319.79
368.925	306.91
369.306	334.48
369.688	334.71
370.069	340.13
370.45	317.53
370.831	326.35
371.212	342.62
371.593	327.7
371.974	334.71
372.355	308.95
372.736	321.38
373.117	316.86
373.498	342.17
373.879	320.92
374.26	307.14
374.641	315.73
375.021	317.76
375.402	324.77
375.783	347.36
376.163	346.46
376.544	319.79
376.925	325.67
377.305	329.51
377.686	317.76
378.066	348.49
378.447	322.96
378.827	347.82
379.208	331.09
379.588	339.68
379.968	343.3
380.349	347.82
380.729	350.08
381.109	330.87
381.489	356.4
381.87	347.82
382.25	347.14
382.63	344.2
383.01	346.01
383.39	367.93
383.77	354.82
384.15	348.95
384.53	363.18
384.91	359.79
385.29	361.15
385.67	335.16
386.049	363.18
386.429	355.05
386.809	359.57
387.189	367.7
387.568	337.87
387.948	377.42
388.328	367.02
388.707	368.38
389.087	376.97
389.466	374.48
389.846	367.02
390.225	390.53
390.605	371.54
390.984	381.49
391.363	370.64
391.743	359.34
392.122	385.33
392.501	386.68
392.881	384.88
393.26	391.43
393.639	388.72
394.018	390.98
394.397	376.29
394.776	379.45
395.155	399.57
395.534	372.45
395.913	398.66
396.292	384.42
396.671	420.13
397.05	405.67
397.429	413.12
397.808	407.02
398.186	400.02
398.565	387.36
398.944	413.8
399.323	403.63
399.701	410.41
400.08	419.9
400.458	421.94
400.837	406.57
401.215	428.27
401.594	392.11
401.972	411.99
402.351	422.39
402.729	411.99
403.107	437.76
403.486	424.88
403.864	424.65
404.242	426.01
404.62	435.05
404.999	416.51
405.377	419.23
405.755	423.29
406.133	433.46
406.511	430.98
406.889	441.15
407.267	466.46
407.645	450.19
408.023	440.69
408.401	432.79
408.779	450.41
409.156	465.33
409.534	446.34
409.912	446.12
410.29	464.2
410.667	469.17
411.045	471.88
411.422	482.73
411.8	480.69
412.178	486.34
412.555	504.87
412.933	487.02
413.31	479.11
413.687	497.64
414.065	510.3
414.442	512.33
414.819	491.77
415.197	501.03
415.574	500.81
415.951	501.03
416.328	507.13
416.705	491.54
417.082	534.93
417.46	519.11
417.837	531.99
418.214	516.85
418.591	548.04
418.967	529.96
419.344	536.96
419.721	552.78
420.098	557.98
420.475	546.91
420.852	560.92
421.228	564.99
421.605	546.91
421.982	570.86
422.358	578.77
422.735	583.29
423.111	565.89
423.488	572.44
423.864	589.17
424.241	557.98
424.617	586
424.994	586.45
425.37	593.46
425.746	582.39
426.123	597.3
426.499	576.28
426.875	619.67
427.251	608.15
427.627	619
428.003	623.51
428.379	633.23
428.756	633.23
429.132	668.49
429.507	648.37
429.883	653.12
430.259	642.72
430.635	640.24
431.011	634.36
431.387	674.81
431.763	680.69
432.138	674.81
432.514	678.2
432.89	701.93
433.265	715.49
433.641	710.29
434.016	699.22
434.392	716.39
434.767	724.08
435.143	737.86
435.518	752.55
435.894	744.19
436.269	758.65
436.644	750.07
437.02	760.46
437.395	773.12
437.77	778.99
438.145	773.79
438.52	788.71
438.895	774.7
439.271	772.66
439.646	800.01
440.021	820.57
440.395	798.43
440.77	805.66
441.145	794.13
441.52	817.18
441.895	814.47
442.27	824.41
442.645	819.44
443.019	838.65
443.394	823.74
443.769	845.66
444.143	861.25
444.518	853.79
444.892	827.8
445.267	845.66
445.641	842.04
446.016	852.89
446.39	863.51
446.764	883.39
447.139	865.77
447.513	882.94
447.887	883.17
448.262	898.31
448.636	887.69
449.01	888.37
449.384	897.41
449.758	905.09
450.132	902.38
450.506	895.82
450.88	906.67
451.254	875.26
451.628	928.14
452.002	939.21
452.376	947.8
452.75	937.63
453.123	935.82
453.497	941.25
453.871	968.59
454.244	963.84
454.618	955.71
454.992	996.84
455.365	988.25
455.739	991.64
456.112	1003.17
456.486	1006.56
456.859	1021.7
457.232	1065.54
457.606	1034.58
457.979	1023.96
458.352	1050.4
458.725	1075.93
459.099	1064.18
459.472	1099.21
459.845	1080
460.218	1121.81
460.591	1101.24
460.964	1091.98
461.337	1126.1
461.71	1145.08
462.083	1139.66
462.456	1130.85
462.829	1141.24
463.201	1145.99
463.574	1152.09
463.947	1205.19
464.32	1198.64
464.692	1214.69
465.065	1196.15
465.438	1234.8
465.81	1231.63
466.183	1251.07
466.555	1239.54
466.928	1251.29
467.3	1278.64
467.672	1234.8
468.045	1307.11
468.417	1318.19
468.789	1324.97
469.161	1339.43
469.534	1326.77
469.906	1353.66
470.278	1380.1
470.65	1381.01
471.022	1395.02
471.394	1404.29
471.766	1395.7
472.138	1438.86
472.51	1461.46
472.882	1437.5
473.253	1466.2
473.625	1494.68
473.997	1530.16
474.369	1525.19
474.74	1551.85
475.112	1593.88
475.484	1583.72
475.855	1622.36
476.227	1624.17
476.598	1637.73
476.97	1676.14
477.341	1672.98
477.713	1727.44
478.084	1721.79
478.455	1724.73
478.827	1787.55
479.198	1822.58
479.569	1818.96
479.94	1870.04
480.311	1874.33
480.682	1899.87
481.053	1929.24
481.424	1922.46
481.795	1993.42
482.166	2020.77
482.537	2037.26
482.908	2067.54
483.279	2074.55
483.65	2141.21
484.021	2166.3
484.391	2195.22
484.762	2232.96
485.133	2223.25
485.503	2277.93
485.874	2298.95
486.244	2358.84
486.615	2394.77
486.985	2396.35
487.356	2453.3
487.726	2435.44
488.097	2515.44
488.467	2514.09
488.837	2572.16
489.207	2588.43
489.578	2613.52
489.948	2667.08
490.318	2691.26
490.688	2699.17
491.058	2746.17
491.428	2837.02
491.798	2817.58
492.168	2905.94
492.538	2904.81
492.908	2913.85
493.278	3005.15
493.648	2989.33
494.017	3057.12
494.387	3039.04
494.757	3118.36
495.126	3132.83
495.496	3179.61
495.866	3168.76
496.235	3236.78
496.605	3265.71
496.974	3298.7
497.344	3362.43
497.713	3354.06
498.082	3378.47
498.452	3411.69
498.821	3498.02
499.19	3470.67
499.559	3511.12
499.928	3531.23
500.298	3556.77
500.667	3607.17
501.036	3586.83
501.405	3654.85
501.774	3646.03
502.143	3736.43
502.512	3730.1
502.88	3798.57
503.249	3771.45
503.618	3797.89
503.987	3887.16
504.356	3897.78
504.724	3906.14
505.093	3964.9
505.462	3954.27
505.83	3968.96
506.199	4019.13
506.567	4052.35
506.936	4085.12
507.304	4122.86
507.672	4131.9
508.041	4165.12
508.409	4170.99
508.777	4250.54
509.145	4291.44
509.514	4281.95
509.882	4287.37
510.25	4347.48
510.618	4368.95
510.986	4377.09
511.354	4448.5
511.722	4459.12
512.09	4519.68
512.458	4523.98
512.826	4532.56
513.193	4560.81
513.561	4606.01
513.929	4619.57
514.297	4670.19
514.664	4753.8
515.032	4695.5
515.4	4779.79
515.767	4778.66
516.135	4822.5
516.502	4818.66
516.869	4871.99
517.237	4873.8
517.604	4918.09
517.972	4971.87
518.339	4986.11
518.706	5035.15
519.073	5001.25
519.44	5101.14
519.808	5121.02
520.175	5149.95
520.542	5161.93
520.909	5223.17
521.276	5215.26
521.643	5307.23
522.009	5316.27
522.376	5360.34
522.743	5384.75
523.11	5474.23
523.477	5532.76
523.843	5571.41
524.21	5572.31
524.577	5597.17
524.943	5642.59
525.31	5663.83
525.676	5716.04
526.043	5793.32
526.409	5761.01
526.776	5828.58
527.142	5914.45
527.508	5921.45
527.874	5923.49
528.241	5952.41
528.607	5979.76
528.973	6068.12
529.339	6076.93
529.705	6153.31
530.071	6166.19
530.437	6137.72
530.803	6223.37
531.169	6274.44
531.535	6252.29
531.901	6249.81
532.267	6276.93
532.632	6378.39
532.998	6335.45
533.364	6396.92
533.73	6414.32
534.095	6498.61
534.461	6559.86
534.826	6552.62
535.192	6568.9
535.557	6625.39
535.923	6582.45
536.288	6643.47
536.653	6676.01
537.019	6630.36
537.384	6717.82
537.749	6735.22
538.114	6812.05
538.479	6804.6
538.845	6792.17
539.21	6819.06
539.575	6893.63
539.94	6849.79
540.305	6924.82
540.67	6897.47
541.034	6976.79
541.399	7015.66
541.764	7112.38
542.129	7076
542.494	7136.34
542.858	7145.15
543.223	7163
543.587	7200.29
543.952	7230.12
544.316	7228.31
544.681	7253.17
545.045	7345.37
545.41	7382.66
545.774	7360.29
546.138	7418.59
546.503	7423.56
546.867	7432.15
547.231	7551.69
547.595	7485.48
547.959	7574.29
548.324	7668.53
548.688	7643.9
549.052	7646.83
549.416	7719.15
549.779	7735.64
550.143	7777.68
550.507	7801.86
550.871	7922.31
551.235	7860.39
551.599	7963.89
551.962	8025.58
552.326	8011.34
552.689	8138.57
553.053	8096.99
553.417	8131.57
553.78	8284.56
554.143	8252.47
554.507	8307.83
554.87	8324.78
555.234	8405.91
555.597	8417.43
555.96	8427.6
556.323	8527.49
556.686	8546.92
557.05	8721.83
557.413	8647.03
557.776	8759.12
558.139	8838.89
558.502	8887.03
558.865	8943.07
559.228	9019
559.59	9083.86
559.953	9167.47
560.316	9190.75
560.679	9186.91
561.041	9288.82
561.404	9394.58
561.767	9465.54
562.129	9480.91
562.492	9592.09
562.854	9699.66
563.217	9719.77
563.579	9790.73
563.941	9877.06
564.304	9960.44
564.666	10120.67
565.028	10220.32
565.39	10278.85
565.753	10299.19
566.115	10522.24
566.477	10559.75
566.839	10581.9
567.201	10779.63
567.563	10810.82
567.925	10975.78
568.287	11087.65
568.648	11206.06
569.01	11238.83
569.372	11395.43
569.734	11545.26
570.095	11669.33
570.457	11775.54
570.819	11866.83
571.18	12030.22
571.542	12265.24
571.903	12368.29
572.265	12525.12
572.626	12626.59
572.987	12755.17
573.349	13005.11
573.71	13282.84
574.071	13381.82
574.432	13534.81
574.794	13768.03
575.155	13840.79
575.516	14022.03
575.877	14303.15
576.238	14503.38
576.599	14796.25
576.96	14915.79
577.32	15139.97
577.681	15355.78
578.042	15571.82
578.403	15849.56
578.763	16084.8
579.124	16356.89
579.485	16595.07
579.845	16936.76
580.206	17165.68
580.566	17452.45
580.927	17741.03
581.287	18094.02
581.648	18297.4
582.008	18609.48
582.368	18910.27
582.728	19255.34
583.089	19460.99
583.449	19975.55
583.809	20319.95
584.169	20562.2
584.529	20984.79
584.889	21455.96
585.249	21633.58
585.609	22027.02
585.969	22443.96
586.329	22765.98
586.688	23250.04
587.048	23571.39
587.408	23897.03
587.768	24363.68
588.127	24683
588.487	25080.95
588.846	25589.19
589.206	25918.89
589.565	26265.33
589.925	26790.96
590.284	27156.38
590.643	27649.24
591.003	28147.08
591.362	28585.49
591.721	28912.49
592.08	29462.53
592.44	30012.35
592.799	30365.56
593.158	30788.15
593.517	31229.04
593.876	31736.14
594.235	32152.63
594.593	32617.93
594.952	33103.56
595.311	33371.58
595.67	33901.96
596.029	34544.88
596.387	34942.16
596.746	35392.77
597.104	35625.53
597.463	36017.39
597.822	36711.38
598.18	36931.03
598.538	37337.8
598.897	37968.52
599.255	38166.26
599.613	39148.83
599.972	39239.45
600.33	39601.25
600.688	39780.68
601.046	40307.22
601.404	40872.63
601.762	41205.95
602.12	41713.28
602.478	42074.4
602.836	42541.96
603.194	42521.85
603.552	43036.18
603.91	43227.82
604.268	43737.18
604.625	44025.31
604.983	44457.16
605.341	44618.52
605.698	45153.87
606.056	45580.52
606.413	45617.13
606.771	45994.98
607.128	46363.1
607.485	46300.28
607.843	46734.62
608.2	47144.55
608.557	47433.81
608.914	47449.4
609.272	47964.87
609.629	48167.58
609.986	48467.45
610.343	48479.21
610.7	48870.61
611.057	49129.58
611.414	49193.31
611.771	49317.38
612.127	49691.38
612.484	49761.21
612.841	49975.66
613.198	50043.01
613.554	50075.1
613.911	50513.28
614.267	50563.9
614.624	50682.09
614.98	50820.16
615.337	51117.55
615.693	51081.4
616.05	51309.41
616.406	51554.83
616.762	51530.65
617.118	51572.46
617.475	51549.18
617.831	51777.88
618.187	51937.65
618.543	52065.78
618.899	52191.2
619.255	52070.98
619.611	52289.95
619.967	52503.51
620.323	52532.21
620.678	52411.08
621.034	52391.42
621.39	52514.13
621.746	52563.84
622.101	52933.55
622.457	52752.99
622.812	52746.21
623.168	52927
623.523	52995.92
623.879	53137.39
624.234	52929.94
624.589	53105.98
624.945	53164.73
625.3	53235.01
625.655	53188.69
626.01	53286.31
626.365	53329.25
626.72	53374.22
627.075	53298.06
627.43	53377.61
627.785	53359.98
628.14	53389.58
628.495	53449.92
628.85	53554.78
629.205	53407.89
629.559	53562.01
629.914	53499.86
630.269	53509.81
630.623	53469.13
630.978	53467.77
631.332	53546.87
631.687	53602.01
632.041	53446.08
632.396	53606.53
632.75	53513.88
633.104	53562.46
633.459	53432.75
633.813	53433.65
634.167	53443.37
634.521	53451.5
634.875	53589.13
635.229	53426.87
635.583	53363.37
635.937	53404.95
636.291	53430.94
636.645	53409.7
636.999	53362.47
637.352	53496.93
637.706	53268.01
638.06	53427.55
638.413	53307.78
638.767	53193.66
639.121	53290.38
639.474	53055.81
639.828	53159.31
640.181	53247.89
640.534	53191.85
640.888	53072.76
641.241	53056.94
641.594	53165.41
641.947	53130.16
642.301	53201.57
642.654	53188.23
643.007	53169.93
643.36	53192.75
643.713	53119.31
644.066	53233.88
644.419	52928.58
644.771	52912.08
645.124	52634.58
645.477	52519.55
645.83	52370.63
646.182	52287.24
646.535	52217.19
646.888	52220.35
647.24	52117.3
647.593	52209.28
647.945	52169.5
648.298	52052.44
648.65	51945.56
649.002	51939.68
649.355	52093.35
649.707	52027.13
650.059	52058.77
650.411	52555.26
650.763	52581.24
651.115	52803.39
651.467	52679.55
651.819	52726.55
652.171	52650.62
652.523	52672.77
652.875	52684.29
653.227	52571.3
653.578	52729.04
653.93	52699.89
654.282	52616.95
654.633	52550.28
654.985	52566.78
655.337	52540.79
655.688	52637.06
656.039	52699.89
656.391	52478.42
656.742	52488.37
657.094	52548.93
657.445	52627.12
657.796	52542.6
658.147	52477.74
658.498	52504.86
658.849	52562.94
659.2	52517.07
659.551	52488.37
659.902	52638.19
660.253	52541.92
660.604	52566.56
660.955	52482.94
661.306	52507.35
661.656	52509.61
662.007	52443.85
662.358	52557.06
662.708	52470.29
663.059	52417.41
663.409	52285.21
663.76	52516.39
664.11	52466.45
664.461	52568.14
664.811	52405.88
665.161	52441.14
665.511	52393.23
665.862	52422.38
666.212	52451.76
666.562	52487.24
666.912	52412.66
667.262	52369.05
667.612	52277.75
667.962	52317.3
668.312	52276.17
668.662	52520.46
669.011	52448.59
669.361	52306
669.711	52304.42
670.06	52209.28
670.41	52250.86
670.76	52129.51
671.109	52251.99
671.459	52209.28
671.808	52102.39
672.157	52223.29
672.507	51965.89
672.856	51916.4
673.205	51991.88
673.554	52095.61
673.904	52028.72
674.253	52201.14
674.602	51969.96
674.951	51536.75
675.3	51498.56
675.649	51918.21
675.998	51858.33
676.346	51941.71
676.695	51906.23
677.044	51566.13
677.393	51760.02
677.741	51775.16
678.09	51654.72
678.438	51703.98
678.787	51705.56
679.135	51656.07
679.484	51487.49
679.832	51543.76
680.181	51445.68
680.529	51575.85
680.877	51447.72
681.225	51411.56
681.573	51643.64
681.922	51295.4
682.27	51203.2
682.618	51284.33
682.966	51181.73
683.314	51238.68
683.661	51127.5
684.009	50975.64
684.357	50964.34
684.705	50893.83
685.053	50952.81
685.4	50915.3
685.748	50685.7
686.095	50667.62
686.443	50595.76
686.79	50511.24
687.138	50611.13
687.485	50607.51
687.832	50185.6
688.18	50550.79
688.527	50197.8
688.874	50177.01
689.221	49991.03
689.568	50013.63
689.915	49860.86
690.262	49965.27
690.609	49704.26
690.956	49712.39
691.303	49660.64
691.65	49455.45
691.997	49396.7
692.344	49248
692.69	49173.65
693.037	49373.87
693.383	48996.93
693.73	49158.06
694.077	48819.08
694.423	48757.16
694.769	48696.6
695.116	48782.02
695.462	48669.26
695.808	48479.43
696.155	48550.39
696.501	48256.39
696.847	48234.92
697.193	47947.02
697.539	48140.46
697.885	47910.63
698.231	47772.11
698.577	47829.96
698.923	47555.39
699.269	47502.28
699.614	47207.6
699.96	47316.75
700.306	47179.58
700.651	47071.11
700.997	46949.08
701.342	46893.48
701.688	46698.69
702.033	46682.42
702.379	46514.96
702.724	46420.5
703.069	46535.53
703.415	46060.51
703.76	46091.7
704.105	46105.26
704.45	45884.02
704.795	45782.78
705.14	45698.04
705.485	45663.23
705.83	45408.1
706.175	45568.55
706.52	45339.85
706.865	45170.82
707.209	45289.23
707.554	45066.87
707.899	45117.03
708.243	44801.11
708.588	44803.14
708.932	44632.53
709.277	44465.75
709.621	44534.45
709.966	44252.65
710.31	44329.48
710.654	44092.43
710.998	44064.63
711.342	44174.46
711.687	44015.59
712.031	43925.43
712.375	43712.1
712.719	43634.14
713.063	43657.41
713.407	43702.38
713.75	43498.32
714.094	43361.37
714.438	43213.36
714.782	43338.1
715.125	43163.19
715.469	43261.72
715.812	43033.47
716.156	42953.7
716.499	42809.75
716.843	42859.01
717.186	42605.24
717.53	42801.84
717.873	42647.27
718.216	42507.84
718.559	42470.32
718.902	42416.09
719.246	42412.02
719.589	42410.21
719.932	42173.38
720.275	42092.93
720.617	42205.92
720.96	42125.25
721.303	41963.44
721.646	41880.06
721.989	41801.87
722.331	41875.76
722.674	41834.63
723.016	41753.96
723.359	41645.94
723.701	41637.58
724.044	41524.81
724.386	41354.42
724.729	41476.9
725.071	41450.01
725.413	41234.42
725.755	41233.52
726.097	41077.14
726.439	40981.78
726.782	40987.43
727.124	41165.05
727.465	40857.26
727.807	40888.9
728.149	40841.89
728.491	40637.38
728.833	40829.01
729.175	40701.78
729.516	40601.22
729.858	40528.23
730.199	40627.43
730.541	40583.37
730.882	40395.12
731.224	40538.62
731.565	40335.24
731.906	40360.55
732.248	40465.18
732.589	40263.6
732.93	40174.11
733.271	40104.96
733.612	40212.76
733.953	40231.74
734.294	40036.26
734.635	39762.37
734.976	40058.86
735.317	39761.69
735.658	39740.45
735.999	39725.31
736.339	39741.58
736.68	39878.75
737.021	39681.7
737.361	39591.08
737.702	39662.04
738.042	39526.45
738.383	39450.97
738.723	39627.69
739.063	39371.2
739.404	39346.56
739.744	39350.63
740.084	39239.45
740.424	39315.83
740.764	39114.03
741.104	39278.32
741.444	39011.66
741.784	38973.47
742.124	39093.01
742.464	38994.94
742.804	38900.02
743.143	38787.03
743.483	38882.17
743.823	38743.19
744.162	38674.72
744.502	38765.34
744.841	38546.36
745.181	38774.38
745.52	38479.24
745.86	38629.07
746.199	38575.74
746.538	38436.76
746.877	38595.62
747.216	38467.72
747.556	38372.13
747.895	38435.18
748.234	38185.01
748.573	38158.57
748.911	38184.79
749.25	38220.94
749.589	37935.75
749.928	37966.94
750.267	38058.01
750.605	37904.12
750.944	37894.4
751.283	37741.86
751.621	37855.08
751.96	37638.59
752.298	37622.32
752.636	37653.05
752.975	37447.18
753.313	37350.91
753.651	37526.05
753.989	37275.88
754.327	37314.75
754.666	37149.79
755.004	37051.71
755.342	37057.58
755.679	37111.14
756.017	36824.14
756.355	36996.12
756.693	36709.8
757.031	36718.61
757.368	36543.7
757.706	36531.27
758.044	36383.25
758.381	36356.36
758.719	36322.91
759.056	36414.66
759.394	36122.47
