Data from orange_diffuse_book_FLMS001491_00063.txt Node
Date: Wed Feb 08 15:29:53 GMT 2017
User: dcchb
Spectrometer: FLMS00149
Trigger mode: 0
Integration Time (sec): 2.000000E-2
Scans to average: 10
Electric dark correction enabled: true
Nonlinearity correction enabled: false
Boxcar width: 0
XAxis mode: Wavelengths
Number of Pixels in Spectrum: 2048
>>>>>Begin Spectral Data<<<<<
341.393	-15.96
341.776	-15.96
342.16	-15.96
342.543	-68.61
342.927	-83.53
343.31	-87.6
343.693	-57.31
344.077	-55.96
344.46	-63.64
344.843	-55.06
345.226	-36.75
345.61	-7.6
345.993	-6.69
346.376	3.02
346.759	-2.63
347.142	25.17
347.525	39.63
347.908	50.48
348.291	76.47
348.674	80.53
349.057	97.94
349.44	124.15
349.823	135.45
350.206	174.32
350.588	199.85
350.971	224.26
351.354	251.15
351.737	236.01
352.119	247.99
352.502	255.67
352.884	306.29
353.267	302.68
353.65	311.94
354.032	307.2
354.414	303.58
354.797	319.4
355.179	345.61
355.562	322.34
355.944	328.44
356.326	350.81
356.709	337.7
357.091	362.11
357.473	351.04
357.855	338.61
358.238	350.81
358.62	351.04
359.002	355.78
359.384	343.13
359.766	346.52
360.148	351.04
360.53	356.69
360.912	343.35
361.294	351.71
361.676	334.77
362.057	355.33
362.439	347.42
362.821	345.16
363.203	318.27
363.584	345.61
363.966	326.4
364.348	346.06
364.729	334.99
365.111	334.77
365.493	318.27
365.874	330.92
366.256	332.96
366.637	337.03
367.019	343.35
367.4	329.79
367.781	330.7
368.163	325.27
368.544	319.17
368.925	333.86
369.306	335.22
369.688	325.5
370.069	333.18
370.45	323.69
370.831	332.28
371.212	316.69
371.593	350.58
371.974	327.53
372.355	330.02
372.736	341.77
373.117	319.62
373.498	332.73
373.879	337.7
374.26	329.79
374.641	316.23
375.021	329.57
375.402	334.99
375.783	328.89
376.163	346.06
376.544	340.64
376.925	351.26
377.305	326.18
377.686	347.87
378.066	337.93
378.447	354.43
378.827	347.65
379.208	346.06
379.588	344.03
379.968	348.1
380.349	358.04
380.729	342.22
381.109	340.41
381.489	347.65
381.87	365.95
382.25	360.98
382.63	342.22
383.01	359.85
383.39	355.56
383.77	363.92
384.15	366.85
384.53	361.66
384.91	364.82
385.29	363.01
385.67	333.86
386.049	362.34
386.429	362.11
386.809	359.4
387.189	363.47
387.568	345.16
387.948	353.3
388.328	372.28
388.707	387.87
389.087	372.28
389.466	361.43
389.846	381.77
390.225	385.16
390.605	380.64
390.984	379.96
391.363	382
391.743	384.03
392.122	363.69
392.501	396.46
392.881	380.19
393.26	363.24
393.639	374.31
394.018	383.8
394.397	391.49
394.776	388.55
395.155	407.76
395.534	396.46
395.913	414.09
396.292	424.93
396.671	404.59
397.05	417.7
397.429	411.6
397.808	405.72
398.186	416.8
398.565	412.28
398.944	408.21
399.323	422.45
399.701	417.93
400.08	410.02
400.458	416.12
400.837	417.02
401.215	430.36
401.594	422.45
401.972	438.72
402.351	404.82
402.729	441.66
403.107	416.34
403.486	425.16
403.864	428.77
404.242	444.37
404.62	432.84
404.999	441.88
405.377	427.42
405.755	438.49
406.133	427.64
406.511	459.06
406.889	437.59
407.267	450.24
407.645	451.15
408.023	442.56
408.401	458.15
408.779	447.76
409.156	480.3
409.534	461.77
409.912	505.16
410.29	478.94
410.667	472.39
411.045	485.5
411.422	471.94
411.8	476.68
412.178	487.76
412.555	512.39
412.933	492.05
413.31	511.48
413.687	494.08
414.065	513.52
414.442	512.61
414.819	519.62
415.197	520.98
415.574	501.54
415.951	520.3
416.328	530.01
416.705	544.25
417.082	535.21
417.46	517.59
417.837	535.89
418.214	528.21
418.591	539.51
418.967	549.67
419.344	561.43
419.721	550.13
420.098	553.29
420.475	552.16
420.852	539.73
421.228	559.84
421.605	584.48
421.982	584.93
422.358	555.55
422.735	574.53
423.111	592.16
423.488	589
423.864	590.35
424.241	615.21
424.617	640.75
424.994	618.37
425.37	603.23
425.746	604.36
426.123	608.43
426.499	620.18
426.875	635.55
427.251	613.4
427.627	626.06
428.003	639.62
428.379	640.29
428.756	630.58
429.132	645.27
429.507	673.51
429.883	664.93
430.259	671.03
430.635	675.77
431.011	680.52
431.387	679.61
431.763	692.72
432.138	697.69
432.514	701.76
432.89	690.69
433.265	718.03
433.641	710.12
434.016	718.26
434.392	752.83
434.767	747.18
435.143	738.82
435.518	746.05
435.894	756
436.269	741.53
436.644	753.06
437.02	778.6
437.395	756.68
437.77	789.22
438.145	780.86
438.52	798.03
438.895	800.29
439.271	794.19
439.646	805.71
440.021	823.57
440.395	823.79
440.77	821.53
441.145	798.71
441.52	834.64
441.895	820.4
442.27	846.84
442.645	835.09
443.019	829.22
443.394	858.37
443.769	832.83
444.143	834.87
444.518	859.5
444.892	842.1
445.267	867.63
445.641	856.11
446.016	878.93
446.39	876.22
446.764	903.11
447.139	877.8
447.513	894.07
447.887	888.42
448.262	872.83
448.636	883.23
449.01	914.64
449.384	915.99
449.758	922.77
450.132	925.71
450.506	924.81
450.88	916.44
451.254	907.18
451.628	928.42
452.002	943.11
452.376	939.72
452.75	952.38
453.123	952.38
453.497	959.61
453.871	970
454.244	977.23
454.618	995.99
454.992	984.69
455.365	1023.79
455.739	1029.66
456.112	1033.28
456.486	997.8
456.859	1021.3
457.232	1023.11
457.606	1059.04
457.979	1052.26
458.352	1041.41
458.725	1087.97
459.099	1092.26
459.472	1105.82
459.845	1090.9
460.218	1100.85
460.591	1109.43
460.964	1118.02
461.337	1125.03
461.71	1154.63
462.083	1147.4
462.456	1150.11
462.829	1149.89
463.201	1156.21
463.574	1170
463.947	1193.27
464.32	1181.52
464.692	1195.99
465.065	1221.75
465.438	1229.43
465.81	1224.01
466.183	1239.37
466.555	1264.23
466.928	1281.18
467.3	1293.61
467.672	1286.38
468.045	1295.87
468.417	1318.69
468.789	1299.26
469.161	1301.52
469.534	1341.52
469.906	1342.65
470.278	1354.4
470.65	1360.95
471.022	1405.7
471.394	1370.9
471.766	1415.87
472.138	1437.56
472.51	1449.31
472.882	1459.03
473.253	1479.14
473.625	1479.14
473.997	1513.49
474.369	1501.29
474.74	1531.57
475.112	1539.93
475.484	1562.3
475.855	1590.33
476.227	1610.44
476.598	1633.94
476.97	1642.08
477.341	1655.63
477.713	1716.2
478.084	1723.2
478.455	1769.3
478.827	1729.98
479.198	1787.61
479.569	1815.63
479.94	1878.91
480.311	1882.07
480.682	1868.96
481.053	1956.19
481.424	1935.63
481.795	1979.47
482.166	1989.64
482.537	2063.08
482.908	2080.26
483.279	2091.33
483.65	2118.67
484.021	2118.22
484.391	2148.05
484.762	2190.76
485.133	2171.78
485.503	2233.02
485.874	2280.02
486.244	2300.59
486.615	2367.48
486.985	2369.74
487.356	2421.26
487.726	2406.35
488.097	2479.12
488.467	2505.56
488.837	2546.23
489.207	2590.53
489.578	2630.98
489.948	2649.96
490.318	2656.06
490.688	2697.64
491.058	2712.1
491.428	2791.65
491.798	2804.76
492.168	2866.68
492.538	2936.96
492.908	2894.92
493.278	2995.26
493.648	2974.24
494.017	3049.5
494.387	3065.09
494.757	3089.27
495.126	3169.27
495.496	3124.3
495.866	3184.86
496.235	3231.41
496.605	3256.04
496.974	3289.94
497.344	3324.74
497.713	3363.61
498.082	3369.49
498.452	3479.54
498.821	3459.88
499.19	3492.87
499.559	3508.92
499.928	3530.61
500.298	3604.28
500.667	3662.81
501.036	3601.8
501.405	3669.14
501.774	3681.8
502.143	3723.6
502.512	3755.92
502.88	3752.3
503.249	3767.9
503.618	3837.95
503.987	3818.29
504.356	3900.1
504.724	3897.84
505.093	3919.53
505.462	3922.24
505.83	3992.07
506.199	4064.38
506.567	4093.08
506.936	4107.77
507.304	4150.26
507.672	4162.91
508.041	4202.01
508.409	4192.06
508.777	4197.04
509.145	4297.82
509.514	4302.8
509.882	4305.73
510.25	4335.79
510.618	4406.52
510.986	4408.33
511.354	4431.38
511.722	4516.58
512.09	4534.43
512.458	4495.33
512.826	4565.39
513.193	4587.31
513.561	4586.86
513.929	4664.37
514.297	4666.63
514.664	4710.24
515.032	4737.36
515.4	4807.87
515.767	4788.66
516.135	4826.17
516.502	4818.04
516.869	4924.7
517.237	4925.38
517.604	4920.86
517.972	4967.64
518.339	5029.78
518.706	5037.24
519.073	5107.07
519.44	5133.96
519.808	5153.4
520.175	5160.85
520.542	5234.75
520.909	5212.38
521.276	5234.98
521.643	5361.75
522.009	5332.15
522.376	5397.91
522.743	5422.09
523.11	5489.21
523.477	5532.14
523.843	5587.73
524.21	5580.5
524.577	5591.35
524.943	5682.87
525.31	5655.53
525.676	5761.74
526.043	5779.59
526.409	5793.15
526.776	5891
527.142	5862.53
527.508	5926.71
527.874	5982.98
528.241	5990.66
528.607	6019.14
528.973	6107.04
529.339	6064.78
529.705	6139.36
530.071	6158.79
530.437	6190.2
530.803	6182.97
531.169	6268.85
531.535	6267.72
531.901	6275.63
532.267	6350.43
532.632	6349.07
532.998	6358.34
533.364	6397.88
533.73	6454.83
534.095	6475.62
534.461	6483.98
534.826	6527.14
535.192	6570.31
535.557	6618.67
535.923	6658.44
536.288	6639.01
536.653	6675.62
537.019	6639.01
537.384	6695.28
537.749	6751.77
538.114	6807.59
538.479	6794.93
538.845	6860.92
539.21	6832
539.575	6872.22
539.94	6932.11
540.305	6991.09
540.67	6956.06
541.034	6984.08
541.399	7030.63
541.764	7058.66
542.129	7071.54
542.494	7127.13
542.858	7108.37
543.223	7196.28
543.587	7225.88
543.952	7214.36
544.316	7265.2
544.681	7269.72
545.045	7289.61
545.41	7319.21
545.774	7410.06
546.138	7366.9
546.503	7433.11
546.867	7457.06
547.231	7571.64
547.595	7590.62
547.959	7597.17
548.324	7614.12
548.688	7641.47
549.052	7617.29
549.416	7735.93
549.779	7731.18
550.143	7790.61
550.507	7885.53
550.871	7904.28
551.235	7860.44
551.599	7973.21
551.962	8057.27
552.326	8153.99
552.689	8093.66
553.053	8112.41
553.417	8135.92
553.78	8307.66
554.143	8265.86
554.507	8352.18
554.87	8379.75
555.234	8500.43
555.597	8444.61
555.96	8613.42
556.323	8581.78
556.686	8670.14
557.05	8698.16
557.413	8750.59
557.776	8795.33
558.139	8919.17
558.502	8930.25
558.865	8954.2
559.228	9071.03
559.59	9098.83
559.953	9120.3
560.316	9296.11
560.679	9310.12
561.041	9332.04
561.404	9519.16
561.767	9587.63
562.129	9590.79
562.492	9687.51
562.854	9735.87
563.217	9784.46
563.579	9909.88
563.941	9964.79
564.304	10169.08
564.666	10206.6
565.028	10371.34
565.39	10418.34
565.753	10503.09
566.115	10559.13
566.477	10661.05
566.839	10769.52
567.201	10893.13
567.563	11041.38
567.925	11134.71
568.287	11250.64
568.648	11296.51
569.01	11485.43
569.372	11615.15
569.734	11648.37
570.095	11847
570.457	12034.12
570.819	12019.88
571.18	12168.35
571.542	12451.51
571.903	12642.01
572.265	12800.88
572.626	12848.11
572.987	13113.41
573.349	13259.85
573.71	13480.63
574.071	13623.23
574.432	13828.65
574.794	14133.05
575.155	14261.18
575.516	14362.64
575.877	14667.04
576.238	14861.39
576.599	15112
576.96	15261.83
577.32	15512.45
577.681	15796.28
578.042	16013
578.403	16277.4
578.763	16578.86
579.124	16843.71
579.485	17213.19
579.845	17488.89
580.206	17803.01
580.566	18021.76
580.927	18342.43
581.287	18602.08
581.648	18944.67
582.008	19384.66
582.368	19565.67
582.728	19997.75
583.089	20266.67
583.449	20625.53
583.809	21038.63
584.169	21309.58
584.529	21693.75
584.889	22290.35
585.249	22503.9
585.609	22855.3
585.969	23360.15
586.329	23754.49
586.688	24143.18
587.048	24625.65
587.408	24901.58
587.768	25413.2
588.127	25814.55
588.487	26030.81
588.846	26757.8
589.206	27069.88
589.565	27445.01
589.925	27997.77
590.284	28365.21
590.643	28987.57
591.003	29394.57
591.362	29981.44
591.721	30336.24
592.08	30813.29
592.44	31413.95
592.799	31940.49
593.158	32302.06
593.517	32639
593.876	33214.8
594.235	33586.32
594.593	34230.15
594.952	34732.05
595.311	35014.08
595.67	35496.78
596.029	36385.12
596.387	36711.89
596.746	37165.44
597.104	37482.04
597.463	37980.33
597.822	38482.69
598.18	38755
598.538	39208.32
598.897	39923.55
599.255	40025.02
599.613	41001.72
599.972	41207.81
600.33	41639.22
600.688	41777.07
601.046	42401
601.404	42854.1
601.762	43233.75
602.12	43896.33
602.478	44067.63
602.836	44518.01
603.194	44682.07
603.552	45141.04
603.91	45333.58
604.268	45930.63
604.625	46082.71
604.983	46581.23
605.341	46615.36
605.698	47246.75
606.056	47412.17
606.413	47706.63
606.771	48114.3
607.128	48390
607.485	48459.6
607.843	48784.34
608.2	49084.44
608.557	49436.07
608.914	49489.18
609.272	49809.17
609.629	50191.53
609.986	50298.42
610.343	50360.57
610.7	50712.42
611.057	50853.44
611.414	50999.2
611.771	51194.22
612.127	51442.8
612.484	51481.67
612.841	51851.38
613.198	51748.1
613.554	51914.2
613.911	52250.91
614.267	52284.81
614.624	52416.33
614.98	52497.24
615.337	52765.03
615.693	52732.26
616.05	52969.09
616.406	53144.45
616.762	53153.04
617.118	53183.77
617.475	53336.54
617.831	53381.73
618.187	53503.54
618.543	53668.28
618.899	53858.78
619.255	53861.49
619.611	53849.74
619.967	54058.55
620.323	54114.37
620.678	54016.52
621.034	54051.54
621.39	54135.84
621.746	54221.26
622.101	54465.09
622.457	54286.79
622.812	54369.5
623.168	54469.16
623.523	54534.47
623.879	54586.45
624.234	54481.82
624.589	54648.37
624.945	54671.87
625.3	54692.66
625.655	54694.92
626.01	54758.87
626.365	54885.65
626.72	54844.74
627.075	54848.13
627.43	54906.21
627.785	54828.25
628.14	54951.86
628.495	55020.33
628.85	54955.02
629.205	54975.36
629.559	55157.73
629.914	55001.8
630.269	54981.92
630.623	55033.89
630.978	54952.54
631.332	55091.74
631.687	55238.18
632.041	54994.12
632.396	55077.73
632.75	54943.5
633.104	54992.09
633.459	54929.94
633.813	54958.64
634.167	55041.12
634.521	54967.68
634.875	54955.02
635.229	55008.36
635.583	54898.53
635.937	54857.85
636.291	54949.15
636.645	54904.4
636.999	54840.45
637.352	54927.68
637.706	54800
638.06	54946.89
638.413	54769.94
638.767	54776.72
639.121	54795.71
639.474	54658.31
639.828	54746.89
640.181	54680.91
640.534	54803.39
640.888	54630.96
641.241	54595.94
641.594	54652.66
641.947	54736.27
642.301	54665.31
642.654	54747.35
643.007	54768.36
643.36	54703.05
643.713	54595.49
644.066	54744.63
644.419	54575.6
644.771	54415.38
645.124	54137.87
645.477	54066.23
645.83	53913.7
646.182	53807.71
646.535	53779.91
646.888	53811.1
647.24	53740.82
647.593	53883.64
647.945	53822.62
648.298	53645.45
648.65	53635.28
649.002	53529.75
649.355	53728.39
649.707	53667.6
650.059	53773.59
650.411	54138.32
650.763	54109.17
651.115	54480.01
651.467	54326.11
651.819	54364.76
652.171	54289.96
652.523	54276.62
652.875	54179.45
653.227	54232.11
653.578	54433.23
653.93	54251.31
654.282	54201.6
654.633	54181.03
654.985	54148.94
655.337	54169.96
655.688	54190.3
656.039	54353.68
656.391	54028.95
656.742	54139.9
657.094	54115.27
657.445	54261.71
657.796	54122.96
658.147	54104.65
658.498	54112.79
658.849	54101.04
659.2	54164.99
659.551	54014.48
659.902	54154.59
660.253	54120.24
660.604	54151.2
660.955	53953.69
661.306	54094.48
661.656	54093.8
662.007	54056.06
662.358	54099.68
662.708	54040.25
663.059	54107.81
663.409	53907.82
663.76	54034.14
664.11	54103.75
664.461	54081.37
664.811	54100.81
665.161	54045.44
665.511	54023.07
665.862	54089.96
666.212	54116.63
666.562	54070.53
666.912	54052.45
667.262	54051.09
667.612	53946.69
667.962	53998.89
668.312	53867.59
668.662	54103.07
669.011	53947.82
669.361	53890.42
669.711	53844.09
670.06	53861.27
670.41	53728.39
670.76	53742.85
671.109	53827.37
671.459	53752.8
671.808	53730.42
672.157	53823.98
672.507	53683.64
672.856	53604.78
673.205	53707.37
673.554	53725.9
673.904	53575.63
674.253	53763.87
674.602	53588.05
674.951	53287.05
675.3	53065.13
675.649	53528.62
675.998	53548.28
676.346	53479.13
676.695	53641.39
677.044	53324.78
677.393	53394.61
677.741	53473.48
678.09	53335.18
678.438	53325.01
678.787	53411.79
679.135	53424.44
679.484	53157.56
679.832	53285.92
680.181	53151.91
680.529	53232.36
680.877	53152.81
681.225	53109.65
681.573	53225.35
681.922	53027.17
682.27	53011.35
682.618	52970.9
682.966	52952.59
683.314	52990.78
683.661	52868.98
684.009	52746.04
684.357	52715.08
684.705	52490.46
685.053	52689.55
685.4	52649.1
685.748	52559.83
686.095	52487.52
686.443	52275.77
686.79	52386.96
687.138	52357.58
687.485	52339.95
687.832	52223.57
688.18	52226.51
688.527	52086.85
688.874	52053.41
689.221	51957.14
689.568	51878.72
689.915	51793.98
690.262	51781.1
690.609	51697.03
690.956	51564.83
691.303	51616.81
691.65	51422.24
691.997	51363.03
692.344	51142.24
692.69	51142.02
693.037	51249.58
693.383	50978.18
693.73	50997.39
694.077	50826.09
694.423	50805.53
694.769	50770.28
695.116	50510.17
695.462	50640.11
695.808	50524.18
696.155	50428.36
696.501	50216.62
696.847	50215.04
697.193	49996.96
697.539	50166.68
697.885	49855.95
698.231	49659.57
698.577	49649.17
698.923	49657.08
699.269	49459.35
699.614	49293.25
699.96	49293.48
700.306	49309.75
700.651	49095.52
700.997	48864.56
701.342	48937.78
701.688	48899.36
702.033	48773.72
702.379	48696.66
702.724	48583.44
703.069	48659.82
703.415	48279.95
703.76	48241.75
704.105	48228.2
704.45	48131.02
704.795	47836.57
705.14	47762.9
705.485	47723.58
705.83	47589.34
706.175	47534.88
706.52	47496.91
706.865	47345.05
707.209	47283.81
707.554	47072.29
707.899	47107.32
708.243	46924.5
708.588	46861.45
708.932	46666.65
709.277	46724.96
709.621	46709.59
709.966	46321.13
710.31	46472.31
710.654	46079.1
710.998	46205.2
711.342	46309.15
711.687	46187.12
712.031	46049.95
712.375	45845.66
712.719	45970.4
713.063	45816.73
713.407	45803.4
713.75	45669.84
714.094	45606.57
714.438	45373.81
714.782	45358.44
715.125	45235.05
715.469	45384.88
715.812	45291.32
716.156	45026.7
716.499	45082.97
716.843	45115.28
717.186	44732.24
717.53	44938.56
717.873	44933.37
718.216	44712.36
718.559	44729.3
718.902	44430.33
719.246	44598.01
719.589	44374.51
719.932	44235.31
720.275	44226.27
720.617	44198.02
720.96	44096.1
721.303	44018.59
721.646	44111.69
721.989	43900.85
722.331	43958.02
722.674	43867.63
723.016	43817.24
723.359	43629.22
723.701	43724.81
724.044	43445.04
724.386	43392.84
724.729	43555.1
725.071	43459.28
725.413	43494.53
725.755	43300.42
726.097	43202.79
726.439	43106.97
726.782	43106.52
727.124	43315.78
727.465	43046.64
727.807	42935.9
728.149	42894.32
728.491	42749.92
728.833	43022.68
729.175	42773.88
729.516	42805.06
729.858	42701.11
730.199	42839.41
730.541	42621.11
730.882	42580.66
731.224	42587.67
731.565	42465.86
731.906	42504.5
732.248	42575.69
732.589	42220.9
732.93	42251.4
733.271	42217.73
733.612	42310.38
733.953	42354.23
734.294	42125.76
734.635	41983.39
734.976	42064.97
735.317	41827.23
735.658	41943.84
735.999	41860.68
736.339	41867.68
736.68	41861.13
737.021	41777.29
737.361	41639.67
737.702	41814.35
738.042	41700.01
738.383	41492.33
738.723	41632.66
739.063	41327.36
739.404	41535.72
739.744	41456.62
740.084	41446
740.424	41460.46
740.764	41249.4
741.104	41488.94
741.444	41189.06
741.784	41140.7
742.124	41166.46
742.464	41178.44
742.804	41071.55
743.143	40970.76
743.483	40989.06
743.823	40776.87
744.162	40884.21
744.502	41029.97
744.841	40736.19
745.181	40811.67
745.52	40595.4
745.86	40676.76
746.199	40527.15
746.538	40557.66
746.877	40552.46
747.216	40530.54
747.556	40411.68
747.895	40512.47
748.234	40314.5
748.573	40294.39
748.911	40299.14
749.25	40234.96
749.589	40008.52
749.928	40090.78
750.267	40160.16
750.605	39959.03
750.944	39898.47
751.283	39760.62
751.621	39812.37
751.96	39609.44
752.298	39748.42
752.636	39566.5
752.975	39454.87
753.313	39321.99
753.651	39593.62
753.989	39307.98
754.327	39183.46
754.666	38986.18
755.004	39223.69
755.342	39134.87
755.679	39098.04
756.017	38856.46
756.355	38891.94
756.693	38753.19
757.031	38933.3
757.368	38599.07
757.706	38548.22
758.044	38452.86
758.381	38549.58
758.719	38286.31
759.056	38385.06
759.394	38124.28
759.731	37951.86
