Data from orange_diffuse_book_FLMS001491_00007.txt Node
Date: Wed Feb 08 15:29:03 GMT 2017
User: dcchb
Spectrometer: FLMS00149
Trigger mode: 0
Integration Time (sec): 2.000000E-2
Scans to average: 10
Electric dark correction enabled: true
Nonlinearity correction enabled: false
Boxcar width: 0
XAxis mode: Wavelengths
Number of Pixels in Spectrum: 2048
>>>>>Begin Spectral Data<<<<<
341.393	-11.89
341.776	-11.89
342.16	-11.89
342.543	-58.22
342.927	-45.34
343.31	-68.39
343.693	-83.08
344.077	-77.43
344.46	-73.13
344.843	-67.71
345.226	-34.72
345.61	-20.71
345.993	-29.29
346.376	-3.98
346.759	18.39
347.142	38.95
347.525	63.81
347.908	47.09
348.291	69.01
348.674	96.58
349.057	124.6
349.44	125.05
349.823	146.97
350.206	160.98
350.588	200.08
350.971	225.16
351.354	244.15
351.737	257.25
352.119	264.71
352.502	272.39
352.884	274.88
353.267	293.64
353.65	320.98
354.032	341.54
354.414	328.89
354.797	328.89
355.179	361.21
355.562	333.41
355.944	346.97
356.326	358.04
356.709	341.32
357.091	346.29
357.473	359.85
357.855	366.85
358.238	348.1
358.62	363.01
359.002	353.75
359.384	352.84
359.766	365.05
360.148	372.05
360.53	357.59
360.912	342.67
361.294	355.56
361.676	356.91
362.057	364.82
362.439	343.58
362.821	343.8
363.203	358.95
363.584	351.26
363.966	351.94
364.348	329.34
364.729	352.39
365.111	338.15
365.493	330.92
365.874	331.6
366.256	343.58
366.637	329.79
367.019	334.77
367.4	342.45
367.781	324.14
368.163	326.4
368.544	332.73
368.925	315.1
369.306	339.51
369.688	332.73
370.069	358.04
370.45	344.26
370.831	336.35
371.212	345.61
371.593	346.52
371.974	322.11
372.355	333.86
372.736	344.03
373.117	341.77
373.498	347.19
373.879	351.71
374.26	338.83
374.641	342
375.021	344.93
375.402	338.38
375.783	343.13
376.163	355.78
376.544	354.88
376.925	346.29
377.305	338.38
377.686	355.1
378.066	351.94
378.447	331.15
378.827	365.72
379.208	352.39
379.588	364.82
379.968	375.44
380.349	358.04
380.729	379.51
381.109	352.17
381.489	363.92
381.87	364.37
382.25	360.08
382.63	347.19
383.01	337.25
383.39	378.15
383.77	363.69
384.15	354.88
384.53	342.9
384.91	361.66
385.29	370.92
385.67	366.63
386.049	368.44
386.429	388.32
386.809	360.53
387.189	367.98
387.568	372.73
387.948	367.53
388.328	389.23
388.707	389.68
389.087	394.65
389.466	372.96
389.846	379.06
390.225	393.75
390.605	390.58
390.984	377.7
391.363	397.14
391.743	394.42
392.122	377.48
392.501	397.59
392.881	400.75
393.26	399.62
393.639	377.93
394.018	401.88
394.397	406.18
394.776	405.5
395.155	399.17
395.534	403.01
395.913	389.68
396.292	426.29
396.671	424.25
397.05	416.8
397.429	400.3
397.808	428.32
398.186	381.54
398.565	413.86
398.944	428.77
399.323	425.61
399.701	410.47
400.08	433.97
400.458	418.6
400.837	423.8
401.215	430.13
401.594	429.68
401.972	451.6
402.351	424.03
402.729	415.89
403.107	441.43
403.486	436.91
403.864	440.98
404.242	434.2
404.62	420.64
404.999	445.5
405.377	436.91
405.755	456.12
406.133	438.27
406.511	465.84
406.889	477.13
407.267	478.94
407.645	457.93
408.023	485.95
408.401	472.84
408.779	477.36
409.156	476
409.534	478.72
409.912	476.91
410.29	478.72
410.667	497.7
411.045	493.63
411.422	518.49
411.8	512.61
412.178	501.77
412.555	480.3
412.933	514.65
413.31	508.32
413.687	533.63
414.065	531.6
414.442	523.69
414.819	524.59
415.197	549.67
415.574	520.07
415.951	554.19
416.328	566.4
416.705	535.66
417.082	550.35
417.46	544.93
417.837	581.99
418.214	539.05
418.591	544.48
418.967	557.58
419.344	572.05
419.721	561.2
420.098	580.63
420.475	574.76
420.852	590.8
421.228	593.06
421.605	592.16
421.982	608.66
422.358	590.35
422.735	600.07
423.111	588.77
423.488	596.91
423.864	607.75
424.241	629.67
424.617	629.45
424.994	615.66
425.37	630.12
425.746	615.66
426.123	620.18
426.499	659.73
426.875	655.21
427.251	666.06
427.627	675.1
428.003	691.37
428.379	660.63
428.756	671.93
429.132	672.16
429.507	688.88
429.883	675.32
430.259	711.03
430.635	703.12
431.011	703.34
431.387	712.61
431.763	729.56
432.138	715.77
432.514	726.85
432.89	719.39
433.265	770.23
433.641	750.57
434.016	760.29
434.392	751.03
434.767	788.76
435.143	767.97
435.518	790.12
435.894	797.58
436.269	795.77
436.644	803.45
437.02	796.67
437.395	796.9
437.77	810.91
438.145	839.38
438.52	832.38
438.895	836.67
439.271	844.13
439.646	857.46
440.021	864.69
440.395	856.56
440.77	867.41
441.145	851.14
441.52	855.2
441.895	853.4
442.27	896.78
442.645	879.16
443.019	915.77
443.394	894.75
443.769	890
444.143	890
444.518	899.5
444.892	885.49
445.267	912.83
445.641	932.49
446.016	916.22
446.39	932.94
446.764	937.46
447.139	913.73
447.513	925.71
447.887	913.96
448.262	951.7
448.636	949.21
449.01	939.95
449.384	959.83
449.758	966.61
450.132	984.24
450.506	982.43
450.88	1007.74
451.254	995.09
451.628	988.08
452.002	1014.97
452.376	983.79
452.75	1022.43
453.123	1013.17
453.497	1028.76
453.871	1023.11
454.244	1046.61
454.618	1066.27
454.992	1064.24
455.365	1040.96
455.739	1072.37
456.112	1108.53
456.486	1108.53
456.859	1134.74
457.232	1108.3
457.606	1113.95
457.979	1111.02
458.352	1157.79
458.725	1156.44
459.099	1164.57
459.472	1171.35
459.845	1204.57
460.218	1199.83
460.591	1205.25
460.964	1210.22
461.337	1212.93
461.71	1247.51
462.083	1212.26
462.456	1231.01
462.829	1239.6
463.201	1267.17
463.574	1294.97
463.947	1260.62
464.32	1298.81
464.692	1334.74
465.065	1292.93
465.438	1335.19
465.81	1337.68
466.183	1355.08
466.555	1381.29
466.928	1389.2
467.3	1376.77
467.672	1393.72
468.045	1434.62
468.417	1446.6
468.789	1429.43
469.161	1466.26
469.534	1487.73
469.906	1513.27
470.278	1522.76
470.65	1499.03
471.022	1540.38
471.394	1576.99
471.766	1534.51
472.138	1561.17
472.51	1568.18
472.882	1611.57
473.253	1608.63
473.625	1651.57
473.997	1686.82
474.369	1683.2
474.74	1682.53
475.112	1737.21
475.484	1747.61
475.855	1794.39
476.227	1748.74
476.598	1848.62
476.97	1867.38
477.341	1872.8
477.713	1877.32
478.084	1885.68
478.455	1937.43
478.827	1964.55
479.198	2010.65
479.569	2043.65
479.94	2047.94
480.311	2101.5
480.682	2122.51
481.053	2146.02
481.424	2173.81
481.795	2213.36
482.166	2209.29
482.537	2269.18
482.908	2279.8
483.279	2316.86
483.65	2381.49
484.021	2385.56
484.391	2455.61
484.762	2481.83
485.133	2501.71
485.503	2510.75
485.874	2597.53
486.244	2602.05
486.615	2600.47
486.985	2643.86
487.356	2749.39
487.726	2745.55
488.097	2786
488.467	2790.29
488.837	2853.34
489.207	2905.55
489.578	2949.84
489.948	2991.42
490.318	3023.51
490.688	3084.52
491.058	3103.05
491.428	3115.71
491.798	3137.18
492.168	3240.45
492.538	3227.8
492.908	3246.33
493.278	3339.88
493.648	3348.02
494.017	3379.2
494.387	3420.33
494.757	3445.42
495.126	3521.8
495.496	3542.36
495.866	3524.74
496.235	3582.82
496.605	3606.77
496.974	3665.53
497.344	3682.7
497.713	3761.12
498.082	3752.75
498.452	3793.66
498.821	3858.29
499.19	3819.42
499.559	3902.58
499.928	3943.03
500.298	3986.19
500.667	3991.62
501.036	4032.07
501.405	4059.41
501.774	4050.37
502.143	4128.11
502.512	4146.19
502.88	4240.43
503.249	4211.5
503.618	4233.87
503.987	4257.15
504.356	4312.97
504.724	4340.31
505.093	4345.28
505.462	4370.82
505.83	4410.82
506.199	4436.35
506.567	4533.75
506.936	4494.66
507.304	4555.45
507.672	4549.34
508.041	4566.74
508.409	4665.95
508.777	4740.98
509.145	4735.1
509.514	4748.66
509.882	4826.85
510.25	4804.48
510.618	4841.31
510.986	4888.09
511.354	4919.73
511.722	4955.21
512.09	5005.83
512.458	4973.06
512.826	5038.6
513.193	5089.44
513.561	5081.76
513.929	5158.59
514.297	5178.25
514.664	5210.8
515.032	5234.3
515.4	5323.33
515.767	5293.5
516.135	5391.13
516.502	5406.5
516.869	5424.35
517.237	5473.39
517.604	5480.84
517.972	5517.91
518.339	5597.23
518.706	5622.31
519.073	5626.15
519.44	5653.04
519.808	5704.57
520.175	5731.01
520.542	5806.26
520.909	5833.15
521.276	5843.77
521.643	5915.41
522.009	5913.6
522.376	6008.97
522.743	6056.42
523.11	6084.9
523.477	6120.38
523.843	6156.08
524.21	6158.79
524.577	6308.39
524.943	6355.62
525.31	6313.37
525.676	6394.04
526.043	6427.71
526.409	6472.91
526.776	6496.86
527.142	6568.95
527.508	6628.16
527.874	6623.87
528.241	6684.88
528.607	6725.11
528.973	6785.9
529.339	6779.12
529.705	6812.11
530.071	6887.81
530.437	6897.08
530.803	6942.5
531.169	7006.68
531.535	6954.03
531.901	6989.73
532.267	7039.9
532.632	7059.56
532.998	7185.88
533.364	7211.42
533.73	7198.09
534.095	7254.13
534.461	7295.03
534.826	7391.08
535.192	7326.45
535.557	7408.25
535.923	7361.93
536.288	7425.88
536.653	7476.05
537.019	7372.09
537.384	7544.75
537.749	7569.6
538.114	7518.98
538.479	7554.91
538.845	7643.73
539.21	7683.27
539.575	7697.28
539.94	7711.97
540.305	7702.48
540.67	7788.35
541.034	7815.25
541.399	7870.61
541.764	7829.03
542.129	7881.69
542.494	7939.99
542.858	7965.3
543.223	7960.33
543.587	8044.17
543.952	8083.94
544.316	8108.57
544.681	8188.57
545.045	8136.37
545.41	8231.96
545.774	8245.52
546.138	8236.48
546.503	8283.71
546.867	8278.51
547.231	8384.95
547.595	8426.76
547.959	8483.25
548.324	8480.31
548.688	8490.71
549.052	8571.61
549.416	8561.89
549.779	8673.53
550.143	8657.71
550.507	8769.57
550.871	8804.82
551.235	8818.61
551.599	8853.19
551.962	8878.04
552.326	8924.37
552.689	8917.36
553.053	8970.92
553.417	8970.02
553.78	9264.25
554.143	9078.26
554.507	9179.96
554.87	9226.28
555.234	9426.73
555.597	9332.72
555.96	9329.33
556.323	9454.98
556.686	9522.55
557.05	9610.23
557.413	9645.93
557.776	9668.98
558.139	9715.99
558.502	9800.51
558.865	9845.7
559.228	9882.99
559.59	9972.03
559.953	10038.46
560.316	10171.79
560.679	10181.29
561.041	10261.51
561.404	10354.84
561.767	10452.24
562.129	10447.27
562.492	10583.31
562.854	10678.9
563.217	10678.9
563.579	10712.8
563.941	10861.95
564.304	10952.57
564.666	11012
565.028	11154.14
565.39	11231.88
565.753	11311.2
566.115	11455.83
566.477	11524.98
566.839	11562.94
567.201	11716.39
567.563	11870.51
567.925	11979.43
568.287	12064.63
568.648	12267.56
569.01	12373.54
569.372	12465.52
569.734	12492.86
570.095	12663.93
570.457	12748.68
570.819	12935.79
571.18	13010.82
571.542	13136.91
571.903	13298.94
572.265	13517.92
572.626	13657.35
572.987	13783.68
573.349	13934.41
573.71	14090.79
574.071	14331.46
574.432	14558.35
574.794	14771.9
575.155	14898.68
575.516	14948.84
575.877	15120.59
576.238	15383.18
576.599	15660.69
576.96	15860.23
577.32	15964.64
577.681	16181.35
578.042	16499.54
578.403	16681.68
578.763	16963.93
579.124	17262.91
579.485	17628.77
579.845	17817.02
580.206	18031.02
580.566	18357.12
580.927	18603.44
581.287	18903.09
581.648	19118.45
582.008	19480.93
582.368	19689.51
582.728	20058.54
583.089	20256.95
583.449	20602.71
583.809	20947.78
584.169	21371.05
584.529	21603.36
584.889	22014.42
585.249	22285.15
585.609	22599.94
585.969	23025.47
586.329	23444.89
586.688	23872
587.048	24139.79
587.408	24525.09
587.768	24875.81
588.127	25214.79
588.487	25495.91
588.846	26144.71
589.206	26330.24
589.565	26829.21
589.925	27294.28
590.284	27604.56
590.643	28073.7
591.003	28516.17
591.362	28997.29
591.721	29377.39
592.08	29747.33
592.44	30336.69
592.799	30675.66
593.158	31115.2
593.517	31559.71
593.876	31889.19
594.235	32365.56
594.593	32744.99
594.952	33160.79
595.311	33607.11
595.67	34042.81
596.029	34706.97
596.387	35213.4
596.746	35685.93
597.104	35842.98
597.463	36313.48
597.822	36907.14
598.18	37056.29
598.538	37512.77
598.897	38144.17
599.255	38201.11
599.613	39070.24
599.972	39082.22
600.33	39761.3
600.688	39935.76
601.046	40440.15
601.404	40957.88
601.762	41206.46
602.12	41663.17
602.478	42090.28
602.836	42483.94
603.194	42635.12
603.552	43085.51
603.91	43345.16
604.268	43778.59
604.625	43893.62
604.983	44405.7
605.341	44497.22
605.698	45133.59
606.056	45342.17
606.413	45592.11
606.771	46004.07
607.128	46258.08
607.485	46338.08
607.843	46675.92
608.2	47040.88
608.557	47378.95
608.914	47403.13
609.272	47894.42
609.629	48078.37
609.986	48444.23
610.343	48399.26
610.7	48861.62
611.057	49043.77
611.414	49122.18
611.771	49268.85
612.127	49583.19
612.484	49715.61
612.841	49915.61
613.198	49997.19
613.554	50114.02
613.911	50481.24
614.267	50443.96
614.624	50681.01
614.98	50796.49
615.337	50912.64
615.693	51151.28
616.05	51167.33
616.406	51408.68
616.762	51317.38
617.118	51415.23
617.475	51530.48
617.831	51745.62
618.187	51782
618.543	52049.56
618.899	52231.03
619.255	52184.48
619.611	52224.93
619.967	52346.28
620.323	52440.97
620.678	52368.2
621.034	52475.32
621.39	52483.68
621.746	52479.16
622.101	52864.68
622.457	52602.09
622.812	52762.54
623.168	52884.8
623.523	52880.5
623.879	52999.82
624.234	52881.86
624.589	53027.39
624.945	53136.77
625.3	53248.85
625.655	53079.37
626.01	53233.94
626.365	53242.53
626.72	53249.08
627.075	53260.61
627.43	53327.27
627.785	53305.58
628.14	53379.47
628.495	53447.94
628.85	53347.38
629.205	53385.35
629.559	53575.17
629.914	53429.64
630.269	53499.92
630.623	53435.29
630.978	53335.63
631.332	53462.86
631.687	53451.11
632.041	53417.89
632.396	53472.8
632.75	53472.35
633.104	53439.36
633.459	53293.37
633.813	53447.04
634.167	53354.84
634.521	53346.93
634.875	53468.74
635.229	53407.04
635.583	53246.82
635.937	53368.85
636.291	53219.7
636.645	53294.95
636.999	53285.24
637.352	53385.35
637.706	53188.97
638.06	53359.59
638.413	53246.59
638.767	53161.4
639.121	53200.27
639.474	52979.71
639.828	53083.66
640.181	53251.34
640.534	53091.8
640.888	53107.39
641.241	52850.45
641.594	53032.59
641.947	53066.94
642.301	53114.62
642.654	53101.29
643.007	53094.28
643.36	53033.27
643.713	53014.06
644.066	53087.95
644.419	52885.02
644.771	52691.35
645.124	52474.19
645.477	52434.86
645.83	52259.05
646.182	52092.05
646.535	52087.98
646.888	52140.18
647.24	52024.48
647.593	52183.8
647.945	52115.55
648.298	52008.43
648.65	51900.19
649.002	51912.17
649.355	51990.36
649.707	51848.66
650.059	52093.63
650.411	52454.07
650.763	52461.98
651.115	52773.16
651.467	52771.8
651.819	52591.02
652.171	52629.44
652.523	52610
652.875	52578.82
653.227	52482.09
653.578	52615.2
653.93	52517.12
654.282	52488.65
654.633	52389.44
654.985	52473.73
655.337	52542.21
655.688	52490.46
656.039	52626.95
656.391	52410.01
656.742	52380.4
657.094	52531.36
657.445	52527.29
657.796	52454.3
658.147	52445.03
658.498	52390.35
658.849	52418.59
659.2	52421.98
659.551	52261.31
659.902	52414.3
660.253	52377.69
660.604	52485.26
660.955	52198.71
661.306	52489.1
661.656	52241.42
662.007	52366.17
662.358	52280.74
662.708	52376.79
663.059	52268.99
663.409	52136.57
663.76	52359.16
664.11	52396.9
664.461	52344.92
664.811	52352.15
665.161	52322.78
665.511	52141.54
665.862	52217.69
666.212	52397.13
666.562	52284.13
666.912	52247.07
667.262	52189.45
667.612	52317.35
667.962	52181.99
668.312	52168.66
668.662	52345.6
669.011	52208.88
669.361	52147.41
669.711	52189.45
670.06	52208.66
670.41	51996.46
670.76	52056.8
671.109	52117.81
671.459	52007.08
671.808	51951.04
672.157	52041.43
672.507	51876.23
672.856	51904.93
673.205	51897.7
673.554	51960.3
673.904	51842.34
674.253	51956.68
674.602	51866.52
674.951	51349.7
675.3	51299.53
675.649	51715.56
675.998	51720.08
676.346	51724.37
676.695	51839.63
677.044	51605.73
677.393	51695
677.741	51694.54
678.09	51565.51
678.438	51526.41
678.787	51640.53
679.135	51572.06
679.484	51336.36
679.832	51493.65
680.181	51414.33
680.529	51525.74
680.877	51305.63
681.225	51299.75
681.573	51530.93
681.922	51196.03
682.27	51152.19
682.618	51161
682.966	51047.56
683.314	51212.98
683.661	50994
684.009	50874.45
684.357	50788.35
684.705	50758.3
685.053	50825.64
685.4	50709.03
685.748	50548.13
686.095	50488.93
686.443	50408.7
686.79	50204.41
687.138	50505.88
687.485	50318.08
687.832	50262.94
688.18	50252.55
688.527	50025.21
688.874	50125.77
689.221	50052.1
689.568	49978.88
689.915	49734.37
690.262	49816.18
690.609	49745.67
690.956	49598.78
691.303	49546.8
691.65	49363.98
691.997	49422.51
692.344	49108.85
692.69	49105.01
693.037	49196.08
693.383	48893.04
693.73	49004.22
694.077	48633.38
694.423	48652.82
694.769	48551.12
695.116	48503.67
695.462	48516.78
695.808	48472.03
696.155	48481.3
696.501	48030.01
696.847	48076.56
697.193	47903.91
697.539	47980.97
697.885	47633.86
698.231	47576.91
698.577	47538.5
698.923	47435
699.269	47286.53
699.614	47079.75
699.96	47073.42
700.306	47132.63
700.651	46934.22
700.997	46641.12
701.342	46584.4
701.688	46572.19
702.033	46430.05
702.379	46400.22
702.724	46371.07
703.069	46422.14
703.415	46004.98
703.76	46016.5
704.105	45861.7
704.45	45821.93
704.795	45600.24
705.14	45517.98
705.485	45565.89
705.83	45306.46
706.175	45408.38
706.52	45138.11
706.865	45052.01
707.209	44900.37
707.554	44837.55
707.899	44905.57
708.243	44604.79
708.588	44639.81
708.932	44312.37
709.277	44231.92
709.621	44352.59
709.966	44063.56
710.31	44223.78
710.654	43879.61
710.998	43923.9
711.342	43922.55
711.687	43795.77
712.031	43574.76
712.375	43345.16
712.719	43490.01
713.063	43594.87
713.407	43650.24
713.75	43398.27
714.094	43352.62
714.438	43146.29
714.782	43060.87
715.125	42965.06
715.469	43065.85
715.812	42852.07
716.156	42745.18
716.499	42594.22
716.843	42792.41
717.186	42541.34
717.53	42698.17
717.873	42583.6
718.216	42474
718.559	42301.57
718.902	42095.7
719.246	42269.71
719.589	42094.35
719.932	41968.7
720.275	41939.32
720.617	41891.41
720.96	41855.48
721.303	41754.24
721.646	41868.14
721.989	41427.47
722.331	41829.49
722.674	41696.16
723.016	41457.3
723.359	41540.01
723.701	41471.99
724.044	41150.19
724.386	41012.11
724.729	41271.99
725.071	41121.94
725.413	41127.82
725.755	41086.24
726.097	40918.33
726.439	40756.98
726.782	40854.83
727.124	40886.24
727.465	40902.29
727.807	40714.27
728.149	40573.26
728.491	40676.98
728.833	40700.94
729.175	40529.64
729.516	40471.56
729.858	40507.95
730.199	40391.79
730.541	40249.2
730.882	40385.92
731.224	40322.41
731.565	40020.73
731.906	40075.64
732.248	40269.76
732.589	40113.38
732.93	39946.83
733.271	39855.99
733.612	39849.88
733.953	40005.36
734.294	39714.97
734.635	39688.76
734.976	39754.07
735.317	39543.23
735.658	39630.23
735.999	39633.39
736.339	39589.55
736.68	39692.6
737.021	39564.69
737.361	39255.32
737.702	39459.61
738.042	39314.53
738.383	39350.69
738.723	39336.45
739.063	39253.74
739.404	39271.37
739.744	39169.22
740.084	39025.73
740.424	39059.17
740.764	38987.53
741.104	39178.04
741.444	38989.79
741.784	38726.07
742.124	38944.6
742.464	38888.78
742.804	38805.17
743.143	38663.02
743.483	38772.17
743.823	38467.77
744.162	38463.93
744.502	38482.91
744.841	38386.87
745.181	38559.52
745.52	38449.7
745.86	38510.03
746.199	38213.77
746.538	38307.33
746.877	38429.36
747.216	38241.57
747.556	38188.01
747.895	38106.65
748.234	38033.66
748.573	37873.67
748.911	37920.44
749.25	37843.16
749.589	37745.08
749.928	37915.92
750.267	37839.32
750.605	37614.24
750.944	37604.75
751.283	37509.61
751.621	37701.69
751.96	37390.97
752.298	37461.92
752.636	37346
752.975	37116.85
753.313	37169.73
753.651	37359.33
753.989	37122.05
754.327	36998.89
754.666	36813.13
755.004	36971.09
755.342	36936.74
755.679	36848.61
756.017	36550.08
756.355	36680.48
756.693	36674.83
757.031	36523.87
757.368	36356.87
757.706	36193.48
758.044	36284.78
758.381	36259.92
758.719	36089.53
759.056	36103.09
759.394	35957.33
