Data from orange_diffuse_book_FLMS001491_00071.txt Node
Date: Wed Feb 08 15:30:01 GMT 2017
User: dcchb
Spectrometer: FLMS00149
Trigger mode: 0
Integration Time (sec): 2.000000E-2
Scans to average: 10
Electric dark correction enabled: true
Nonlinearity correction enabled: false
Boxcar width: 0
XAxis mode: Wavelengths
Number of Pixels in Spectrum: 2048
>>>>>Begin Spectral Data<<<<<
341.393	-4.38
341.776	-4.38
342.16	-4.38
342.543	-54.77
342.927	-59.74
343.31	-72.63
343.693	-101.1
344.077	-65.62
344.46	-66.07
344.843	-51.83
345.226	-27.88
345.61	-30.82
345.993	-6.41
346.376	7.82
346.759	8.73
347.142	12.8
347.525	48.5
347.908	52.34
348.291	69.97
348.674	102.51
349.057	119.69
349.44	110.42
349.823	155.39
350.206	168.72
350.588	182.96
350.971	249.63
351.354	242.39
351.737	245.78
352.119	250.98
352.502	283.3
352.884	281.72
353.267	303.18
353.65	296.18
354.032	330.75
354.414	321.04
354.797	286.91
355.179	327.36
355.562	351.32
355.944	340.25
356.326	359.91
356.709	369.4
357.091	344.54
357.473	345.67
357.855	354.93
358.238	344.31
358.62	353.13
359.002	349.51
359.384	360.81
359.766	361.49
360.148	354.71
360.53	356.97
360.912	322.84
361.294	360.36
361.676	353.13
362.057	345.44
362.439	357.19
362.821	348.15
363.203	343.64
363.584	364.43
363.966	347.48
364.348	324.88
364.729	334.37
365.111	339.79
365.493	340.92
365.874	334.14
366.256	320.36
366.637	342.73
367.019	334.6
367.4	321.71
367.781	324.65
368.163	335.95
368.544	348.61
368.925	340.47
369.306	347.7
369.688	325.1
370.069	303.86
370.45	348.38
370.831	314.94
371.212	343.86
371.593	327.59
371.974	342.05
372.355	319.68
372.736	331.88
373.117	333.69
373.498	345.67
373.879	342.28
374.26	332.34
374.641	337.08
375.021	337.53
375.402	317.65
375.783	342.96
376.163	332.56
376.544	334.37
376.925	340.47
377.305	355.61
377.686	342.51
378.066	321.71
378.447	352
378.827	332.79
379.208	355.84
379.588	356.74
379.968	346.12
380.349	334.37
380.729	339.12
381.109	377.98
381.489	357.19
381.87	344.99
382.25	361.04
382.63	375.05
383.01	370.08
383.39	378.44
383.77	372.56
384.15	358.78
384.53	357.87
384.91	361.94
385.29	377.98
385.67	364.65
386.049	383.18
386.429	359.91
386.809	376.4
387.189	394.26
387.568	381.15
387.948	387.93
388.328	385.22
388.707	371.66
389.087	370.53
389.466	378.89
389.846	383.41
390.225	380.02
390.605	382.96
390.984	388.83
391.363	372.11
391.743	377.53
392.122	392.45
392.501	391.77
392.881	399.23
393.26	373.46
393.639	398.77
394.018	395.39
394.397	393.13
394.776	401.71
395.155	392.22
395.534	390.19
395.913	393.13
396.292	392.45
396.671	429.73
397.05	402.16
397.429	407.36
397.808	415.72
398.186	411.66
398.565	421.15
398.944	404.88
399.323	418.44
399.701	426.34
400.08	414.37
400.458	429.73
400.837	415.05
401.215	423.41
401.594	434.25
401.972	406.91
402.351	422.28
402.729	462.05
403.107	417.31
403.486	422.5
403.864	417.31
404.242	420.7
404.62	442.62
404.999	438.1
405.377	440.58
405.755	440.58
406.133	460.92
406.511	464.99
406.889	454.37
407.267	473.58
407.645	471.32
408.023	465.21
408.401	462.28
408.779	456.85
409.156	483.97
409.534	476.29
409.912	482.16
410.29	500.24
410.667	484.65
411.045	490.98
411.422	497.53
411.8	475.16
412.178	490.75
412.555	491.43
412.933	504.99
413.31	505.66
413.687	501.6
414.065	507.25
414.442	522.16
414.819	513.35
415.197	512.22
415.574	544.08
415.951	529.17
416.328	543.63
416.705	528.71
417.082	543.18
417.46	524.42
417.837	540.01
418.214	549.96
418.591	538.66
418.967	550.64
419.344	552.9
419.721	564.87
420.098	544.53
420.475	561.48
420.852	552.44
421.228	562.61
421.605	580.24
421.982	580.92
422.358	578.88
422.735	569.62
423.111	596.06
423.488	602.39
423.864	598.09
424.241	614.14
424.617	603.97
424.994	614.14
425.37	599.22
425.746	610.75
426.123	619.11
426.499	632.22
426.875	628.37
427.251	612.1
427.627	647.81
428.003	661.59
428.379	652.78
428.756	661.14
429.132	661.82
429.507	654.36
429.883	675.38
430.259	673.8
430.635	691.42
431.011	697.98
431.387	683.97
431.763	712.21
432.138	703.17
432.514	725.32
432.89	698.88
433.265	710.18
433.641	717.64
434.016	730.29
434.392	756.05
434.767	763.74
435.143	738.43
435.518	728.26
435.894	768.93
436.269	733.68
436.644	779.56
437.02	766.67
437.395	789.27
437.77	785.21
438.145	795.15
438.52	801.48
438.895	816.62
439.271	760.12
439.646	833.11
440.021	845.54
440.395	814.13
440.77	819.55
441.145	824.98
441.52	834.92
441.895	831.08
442.27	860.23
442.645	846.67
443.019	859.1
443.394	849.61
443.769	853.45
444.143	847.12
444.518	860.23
444.892	869.72
445.267	856.84
445.641	872.66
446.016	871.98
446.39	883.51
446.764	877.63
447.139	903.17
447.513	904.98
447.887	893.45
448.262	888.03
448.636	903.62
449.01	901.59
449.384	914.02
449.758	908.37
450.132	961.02
450.506	920.12
450.88	935.03
451.254	924.64
451.628	955.6
452.002	953.56
452.376	952.43
452.75	926.67
453.123	954.47
453.497	977.29
453.871	953.34
454.244	999.21
454.618	1006.44
454.992	997.4
455.365	1007.35
455.739	1010.28
456.112	1017.29
456.486	1031.98
456.859	1026.78
457.232	1044.86
457.606	1060.45
457.979	1067.23
458.352	1069.49
458.725	1067.68
459.099	1076.5
459.472	1090.73
459.845	1088.47
460.218	1094.12
460.591	1107
460.964	1140.22
461.337	1119.43
461.71	1162.82
462.083	1161.92
462.456	1146.55
462.829	1142.71
463.201	1134.12
463.574	1185.87
463.947	1179.77
464.32	1186.78
464.692	1202.37
465.065	1211.86
465.438	1223.84
465.81	1223.84
466.183	1248.47
466.555	1252.09
466.928	1280.79
467.3	1265.64
467.672	1243.27
468.045	1271.29
468.417	1303.84
468.789	1297.96
469.161	1326.66
469.534	1310.62
469.906	1325.76
470.278	1335.93
470.65	1343.61
471.022	1376.83
471.394	1388.58
471.766	1414.12
472.138	1407.79
472.51	1449.59
472.882	1456.83
473.253	1449.82
473.625	1498.63
473.997	1514.68
474.369	1512.19
474.74	1535.02
475.112	1536.6
475.484	1579.99
475.855	1611.85
476.227	1623.38
476.598	1612.75
476.97	1648.69
477.341	1667.44
477.713	1689.81
478.084	1700.89
478.455	1716.25
478.827	1739.98
479.198	1797.38
479.569	1781.34
479.94	1813.2
480.311	1833.31
480.682	1858.4
481.053	1907.89
481.424	1922.12
481.795	1979.75
482.166	1983.14
482.537	1996.7
482.908	2039.86
483.279	2070.14
483.65	2086.64
484.021	2142.23
484.391	2177.94
484.762	2161.44
485.133	2207.99
485.503	2237.82
485.874	2269.91
486.244	2324.6
486.615	2356.92
486.985	2337.03
487.356	2395.56
487.726	2401.21
488.097	2445.95
488.467	2466.52
488.837	2535.67
489.207	2521.66
489.578	2612.05
489.948	2625.16
490.318	2690.24
490.688	2666.06
491.058	2704.02
491.428	2748.09
491.798	2822.89
492.168	2838.03
492.538	2859.73
492.908	2919.84
493.278	2958.71
493.648	2962.78
494.017	3003.23
494.387	3065.6
494.757	3078.93
495.126	3081.19
495.496	3149.66
495.866	3159.61
496.235	3196.22
496.605	3290.22
496.974	3275.08
497.344	3297.23
497.713	3343.1
498.082	3380.17
498.452	3397.79
498.821	3419.26
499.19	3483.44
499.559	3537.45
499.928	3505.36
500.298	3564.79
500.667	3638.69
501.036	3603.66
501.405	3675.75
501.774	3664.9
502.143	3715.75
502.512	3709.87
502.88	3762.53
503.249	3784.9
503.618	3816.31
503.987	3865.35
504.356	3858.57
504.724	3900.38
505.093	3921.39
505.462	3954.39
505.83	3993.03
506.199	4067.38
506.567	4109.86
506.936	4094.04
507.304	4189.86
507.672	4194.61
508.041	4221.05
508.409	4234.38
508.777	4256.53
509.145	4330.87
509.514	4268.96
509.882	4387.6
510.25	4390.76
510.618	4401.38
510.986	4407.03
511.354	4489.29
511.722	4457.88
512.09	4534.71
512.458	4569.29
512.826	4589.17
513.193	4636.63
513.561	4633.92
513.929	4678.66
514.297	4755.04
514.664	4802.5
515.032	4787.36
515.4	4843.63
515.767	4858.77
516.135	4913.68
516.502	4900.8
516.869	4982.38
517.237	4963.85
517.604	4992.1
517.972	5028.94
518.339	5063.51
518.706	5080.01
519.073	5093.11
519.44	5184.41
519.808	5225.09
520.175	5238.42
520.542	5289.72
520.909	5284.97
521.276	5350.06
521.643	5341.24
522.009	5445.2
522.376	5473.67
522.743	5534.23
523.11	5533.56
523.477	5621.91
523.843	5587.79
524.21	5671.86
524.577	5713.89
524.943	5751.85
525.31	5807.22
525.676	5801.34
526.043	5885.41
526.409	5908.23
526.776	5900.55
527.142	5933.77
527.508	6007.67
527.874	6040.89
528.241	6043.37
528.607	6058.96
528.973	6150.94
529.339	6175.12
529.705	6252.86
530.071	6319.52
530.437	6249.02
530.803	6322.91
531.169	6380.99
531.535	6344.16
531.901	6308.22
532.267	6422.35
532.632	6440.65
532.998	6424.15
533.364	6527.88
533.73	6497.15
534.095	6536.92
534.461	6586.18
534.826	6639.51
535.192	6683.58
535.557	6668.67
535.923	6721.32
536.288	6762.9
536.653	6775.56
537.019	6752.05
537.384	6797.25
537.749	6830.47
538.114	6874.31
538.479	6882.67
538.845	6922.67
539.21	6924.03
539.575	6946.85
539.94	6968.55
540.305	7045.83
540.67	7020.97
541.034	7045.83
541.399	7119.5
541.764	7098.94
542.129	7174.19
542.494	7183.46
542.858	7230.01
543.223	7215.77
543.587	7327.86
543.952	7311.36
544.316	7331.93
544.681	7357.69
545.045	7426.61
545.41	7521.07
545.774	7454.86
546.138	7529.43
546.503	7497.57
546.867	7569.89
547.231	7612.37
547.595	7665.7
547.959	7724.23
548.324	7627.96
548.688	7668.41
549.052	7730.33
549.416	7809.43
549.779	7864.34
550.143	7901.63
550.507	7941.63
550.871	7982.98
551.235	7923.32
551.599	8115.63
551.962	8057.56
552.326	8115.41
552.689	8191.79
553.053	8133.03
553.417	8239.47
553.78	8365.35
554.143	8338.45
554.507	8356.31
554.87	8491.67
555.234	8584.32
555.597	8554.72
555.96	8640.82
556.323	8632.23
556.686	8638.33
557.05	8789.51
557.413	8816.63
557.776	8868.16
558.139	8954.71
558.502	8916.06
558.865	8975.27
559.228	9104.31
559.59	9126.91
559.953	9188.83
560.316	9347.01
560.679	9381.14
561.041	9528.25
561.404	9532.55
561.767	9680.56
562.129	9589.95
562.492	9805.53
562.854	9795.14
563.217	9896.6
563.579	9946.32
563.941	10026.32
564.304	10186.31
564.666	10236.93
565.028	10327.33
565.39	10364.39
565.753	10512.41
566.115	10594.21
566.477	10668.56
566.839	10836.24
567.201	10917.59
567.563	10996.91
567.925	11156.91
568.287	11282.33
568.648	11301.54
569.01	11450.91
569.372	11666.73
569.734	11779.27
570.095	11873.28
570.457	12059.71
570.819	12210.89
571.18	12229.88
571.542	12475.29
571.903	12550.32
572.265	12714.16
572.626	12902.17
572.987	13005.67
573.349	13299
573.71	13475.49
574.071	13618.31
574.432	13882.04
574.794	14023.28
575.155	14178.3
575.516	14355.02
575.877	14671.39
576.238	14833.42
576.599	15133.53
576.96	15393.63
577.32	15570.35
577.681	15750.91
578.042	15949.1
578.403	16285.81
578.763	16456.88
579.124	16884.9
579.485	17031.11
579.845	17387.93
580.206	17736.17
580.566	18001.93
580.927	18180.91
581.287	18658.86
581.648	18850.72
582.008	19259.3
582.368	19576.8
582.728	19945.15
583.089	20102.89
583.449	20615.64
583.809	20950.32
584.169	21343.31
584.529	21658.33
584.889	22134.47
585.249	22340.34
585.609	22681.8
585.969	23343.93
586.329	23652.17
586.688	24034.09
587.048	24396.79
587.408	24835.87
587.768	25153.15
588.127	25689.86
588.487	25982.96
588.846	26543.62
589.206	26804.86
589.565	27356.94
589.925	27904.27
590.284	28291.6
590.643	28737.46
591.003	29287.51
591.362	29769.3
591.721	30181.72
592.08	30663.74
592.44	31073.45
592.799	31603.15
593.158	32145.51
593.517	32553.41
593.876	33048.09
594.235	33402.2
594.593	33803.77
594.952	34482.85
595.311	34791.32
595.67	35373.45
596.029	35963.26
596.387	36360.09
596.746	36784.26
597.104	37226.51
597.463	37582.2
597.822	38149.65
598.18	38408.62
598.538	38915.73
598.897	39473
599.255	39577.86
599.613	40486.31
599.972	40784.83
600.33	41252.39
600.688	41485.83
601.046	41982.77
601.404	42506.59
601.762	42727.83
602.12	43315.16
602.478	43710.18
602.836	44086.21
603.194	44150.39
603.552	44691.62
603.91	44866.31
604.268	45528.21
604.625	45663.12
604.983	46180.85
605.341	46308.3
605.698	46804.56
606.056	47036.19
606.413	47326.81
606.771	47622.62
607.128	47943.51
607.485	48023.06
607.843	48294.46
608.2	48676.6
608.557	49034.78
608.914	49003.6
609.272	49386.19
609.629	49683.13
609.986	50035.21
610.343	49862.11
610.7	50472.49
611.057	50369.66
611.414	50588.19
611.771	50816.66
612.127	51047.39
612.484	51109.76
612.841	51399.92
613.198	51454.38
613.554	51500.26
613.911	51724.43
614.267	51960.81
614.624	52027.47
614.98	52131.2
615.337	52424.98
615.693	52518.08
616.05	52581.13
616.406	52760.34
616.762	52808.02
617.118	52875.36
617.475	52956.04
617.831	53027
618.187	53203.49
618.543	53315.8
618.899	53423.14
619.255	53497.04
619.611	53510.6
619.967	53723.47
620.323	53856.58
620.678	53655.23
621.034	53629.47
621.39	53806.41
621.746	53778.84
622.101	54105.84
622.457	53944.94
622.812	54065.84
623.168	54239.85
623.523	54159.62
623.879	54360.29
624.234	54165.27
624.589	54189.9
624.945	54484.81
625.3	54403.91
625.655	54410.46
626.01	54458.6
626.365	54544.92
626.72	54442.1
627.075	54523.45
627.43	54507.86
627.785	54480.52
628.14	54612.94
628.495	54661.53
628.85	54696.33
629.205	54616.78
629.559	54795.99
629.914	54650.23
630.269	54698.82
630.623	54628.99
630.978	54612.94
631.332	54826.95
631.687	54820.85
632.041	54699.49
632.396	54745.59
632.75	54636.44
633.104	54780.4
633.459	54578.37
633.813	54666.95
634.167	54670.12
634.521	54645.26
634.875	54719.15
635.229	54652.94
635.583	54524.13
635.937	54604.58
636.291	54591.93
636.645	54597.12
636.999	54478.26
637.352	54641.87
637.706	54419.28
638.06	54521.19
638.413	54522.1
638.767	54400.52
639.121	54501.76
639.474	54294.31
639.828	54390.58
640.181	54410.24
640.534	54370.46
640.888	54419.73
641.241	54213.18
641.594	54278.04
641.947	54394.87
642.301	54337.92
642.654	54342.67
643.007	54332.95
643.36	54302.67
643.713	54330.01
644.066	54413.85
644.419	54181.77
644.771	54080.08
645.124	53746.52
645.477	53694.55
645.83	53603.93
646.182	53420.88
646.535	53371.39
646.888	53531.16
647.24	53352.18
647.593	53586.75
647.945	53422.47
648.298	53378.62
648.65	53231.74
649.002	53285.75
649.355	53295.46
649.707	53260.89
650.059	53457.49
650.411	53764.38
650.763	53824.94
651.115	54087.53
651.467	54033.3
651.819	53997.14
652.171	53937.25
652.523	53945.62
652.875	53878.05
653.227	53796.01
653.578	53933.64
653.93	53854.54
654.282	53775.22
654.633	53707.88
654.985	53817.26
655.337	53828.33
655.688	53852.74
656.039	53887.54
656.391	53686.87
656.742	53784.49
657.094	53717.37
657.445	53806.18
657.796	53863.81
658.147	53750.14
658.498	53730.93
658.849	53839.86
659.2	53692.06
659.551	53601.22
659.902	53769.12
660.253	53745.39
660.604	53770.48
660.955	53630.82
661.306	53755.56
661.656	53721.89
662.007	53667.66
662.358	53666.53
662.708	53574.33
663.059	53668.33
663.409	53459.98
663.76	53666.98
664.11	53623.82
664.461	53655.91
664.811	53715.34
665.161	53589.01
665.511	53563.93
665.862	53604.61
666.212	53668.79
666.562	53772.51
666.912	53603.25
667.262	53598.05
667.612	53617.26
667.962	53482.35
668.312	53464.5
668.662	53542.46
669.011	53487.55
669.361	53518.28
669.711	53428.79
670.06	53473.76
670.41	53441
670.76	53331.17
671.109	53405.97
671.459	53387.89
671.808	53314.45
672.157	53408.45
672.507	53238.29
672.856	53154.68
673.205	53229.93
673.554	53305.63
673.904	53201.91
674.253	53312.19
674.602	53201.23
674.951	52796.49
675.3	52589.04
675.649	53092.08
675.998	53063.15
676.346	53103.83
676.695	53188.8
677.044	52968.92
677.393	52936.6
677.741	52953.33
678.09	52848.7
678.438	52812.54
678.787	52995.58
679.135	52989.48
679.484	52830.16
679.832	52856.6
680.181	52685.08
680.529	52801.92
680.877	52708.59
681.225	52741.58
681.573	52938.86
681.922	52629.94
682.27	52606.44
682.618	52549.49
682.966	52516.5
683.314	52612.54
683.661	52374.58
684.009	52275.15
684.357	52199.67
684.705	52195.38
685.053	52258.88
685.4	52217.3
685.748	52049.17
686.095	51963.97
686.443	51820.25
686.79	51883.52
687.138	51914.48
687.485	51912.9
687.832	51653.47
688.18	51761.49
688.527	51574.38
688.874	51453.03
689.221	51556.53
689.568	51358.56
689.915	51277.66
690.262	51229.53
690.609	51248.29
690.956	51015.3
691.303	51168.74
691.65	50909.76
691.997	50920.38
692.344	50662.31
692.69	50668.87
693.037	50683.33
693.383	50372.15
693.73	50622.54
694.077	50348.65
694.423	50317.46
694.769	50233.85
695.116	50083.57
695.462	50074.53
695.808	49920.64
696.155	50003.57
696.501	49773.75
696.847	49785.95
697.193	49452.85
697.539	49584.15
697.885	49282.01
698.231	49177.83
698.577	49224.16
698.923	49037.04
699.269	48808.58
699.614	48755.7
699.96	48694.45
700.306	48851.06
700.651	48453.1
700.997	48357.06
701.342	48390.73
701.688	48326.55
702.033	48226.44
702.379	48041.14
702.724	47914.81
703.069	48101.02
703.415	47643.86
703.76	47737.42
704.105	47605.67
704.45	47525.45
704.795	47355.73
705.14	47165.91
705.485	47221.72
705.83	47152.8
706.175	47067.83
706.52	46946.48
706.865	46853.37
707.209	46732.02
707.554	46640.04
707.899	46659.93
708.243	46392.59
708.588	46336.1
708.932	46092.49
709.277	46033.96
709.621	46036.67
709.966	45790.58
710.31	45935.88
710.654	45576.34
710.998	45682.33
711.342	45666.29
711.687	45524.14
712.031	45295.9
712.375	45205.28
712.719	45335.67
713.063	45264.71
713.407	45408.44
713.75	45089.8
714.094	45077.6
714.438	44758.29
714.782	44887.32
715.125	44647.33
715.469	44862.92
715.812	44532.53
716.156	44404.85
716.499	44518.74
716.843	44492.53
717.186	44304.06
717.53	44355.81
717.873	44305.19
718.216	44290.5
718.559	44004.86
718.902	43889.16
719.246	43809.61
719.589	43749.27
719.932	43759.22
720.275	43723.96
720.617	43640.8
720.96	43649.16
721.303	43586.11
721.646	43537.75
721.989	43256.4
722.331	43399
722.674	43228.61
723.016	43349.96
723.359	43340.7
723.701	43363.97
724.044	42847.38
724.386	42845.57
724.729	42989.97
725.071	42975.28
725.413	42907.04
725.755	42876.08
726.097	42694.16
726.439	42549.53
726.782	42436.31
727.124	42601.05
727.465	42473.6
727.807	42473.15
728.149	42378.91
728.491	42342.98
728.833	42388.41
729.175	42157.9
729.516	42072.93
729.858	42085.14
730.199	42213.49
730.541	41957.68
730.882	42053.5
731.224	42105.7
731.565	41785.48
731.906	41931.69
732.248	42013.95
732.589	41794.97
732.93	41535.09
733.271	41659.38
733.612	41644.92
733.953	41612.83
734.294	41601.08
734.635	41356.57
734.976	41486.28
735.317	41163.35
735.658	41381.65
735.999	41300.07
736.339	41284.03
736.68	41327.19
737.021	41083.81
737.361	41022.57
737.702	41224.14
738.042	40959.29
738.383	41039.29
738.723	41144.82
739.063	40861.21
739.404	40962.23
739.744	40810.59
740.084	40773.08
740.424	40828.9
740.764	40623.25
741.104	40727.43
741.444	40455.35
741.784	40568.79
742.124	40637.04
742.464	40562.92
742.804	40495.8
743.143	40384.62
743.483	40342.36
743.823	40180.1
744.162	40223.26
744.502	40267.11
744.841	40125.19
745.181	40172.42
745.52	39908.24
745.86	40154.79
746.199	39948.02
746.538	39949.6
746.877	39983.27
747.216	40028.47
747.556	39847.46
747.895	39875.48
748.234	39731.07
748.573	39745.31
748.911	39588.7
749.25	39574.24
749.589	39470.06
749.928	39504.41
750.267	39600.91
750.605	39436.39
750.944	39343.51
751.283	39317.98
751.621	39392.78
751.96	39110.98
752.298	39153.46
752.636	39089.73
752.975	38895.16
753.313	38810.42
753.651	39047.7
753.989	38685.23
754.327	38687.03
754.666	38426.93
755.004	38632.12
755.342	38664.89
755.679	38457.66
756.017	38390.32
756.355	38327.72
756.693	38248.85
757.031	38261.51
757.368	38002.31
757.706	38064
758.044	37757.34
758.381	37843.89
758.719	37663.11
759.056	37869.88
