Data from orange_diffuse_book_FLMS001491_00090.txt Node
Date: Wed Feb 08 15:30:11 GMT 2017
User: dcchb
Spectrometer: FLMS00149
Trigger mode: 0
Integration Time (sec): 2.000000E-2
Scans to average: 10
Electric dark correction enabled: true
Nonlinearity correction enabled: false
Boxcar width: 0
XAxis mode: Wavelengths
Number of Pixels in Spectrum: 2048
>>>>>Begin Spectral Data<<<<<
341.393	3.94
341.776	3.94
342.16	3.94
342.543	-49.84
342.927	-81.93
343.31	-59.79
343.693	-80.8
344.077	-70.41
344.46	-79.45
344.843	-57.3
345.226	-49.84
345.61	-43.29
345.993	5.52
346.376	-2.16
346.759	10.95
347.142	48.46
347.525	53.43
347.908	63.15
348.291	84.84
348.674	74.45
349.057	102.24
349.44	143.82
349.823	122.13
350.206	151.96
350.588	168.91
350.971	226.31
351.354	216.59
351.737	262.46
352.119	265.85
352.502	283.93
352.884	317.83
353.267	297.72
353.65	315.12
354.032	307.21
354.414	340.65
354.797	320.09
355.179	339.3
355.562	342.46
355.944	345.63
356.326	348.56
356.709	327.32
357.091	347.66
357.473	374.33
357.855	383.37
358.238	351.28
358.62	352.86
359.002	339.52
359.384	341.78
359.766	365.51
360.148	327.1
360.53	354.44
360.912	364.61
361.294	361.22
361.676	339.07
362.057	364.16
362.439	350.37
362.821	354.21
363.203	357.83
363.584	327.55
363.966	353.31
364.348	341.78
364.729	337.72
365.111	344.04
365.493	341.78
365.874	329.81
366.256	311.28
366.637	343.82
367.019	328.23
367.4	331.62
367.781	328.45
368.163	332.97
368.544	327.77
368.925	340.65
369.306	338.85
369.688	327.77
370.069	329.81
370.45	321.22
370.831	315.34
371.212	328.23
371.593	342.46
371.974	332.75
372.355	353.76
372.736	329.58
373.117	341.78
373.498	344.5
373.879	322.12
374.26	316.02
374.641	323.25
375.021	340.88
375.402	313.31
375.783	336.59
376.163	349.24
376.544	360.77
376.925	340.88
377.305	333.88
377.686	341.11
378.066	356.02
378.447	342.46
378.827	344.27
379.208	349.92
379.588	351.73
379.968	355.57
380.349	347.66
380.729	362.58
381.109	334.1
381.489	346.08
381.87	355.8
382.25	346.3
382.63	357.38
383.01	370.03
383.39	344.95
383.77	364.16
384.15	355.34
384.53	356.7
384.91	360.54
385.29	377.49
385.67	368.22
386.049	366.64
386.429	382.91
386.809	359.64
387.189	362.8
387.568	365.29
387.948	363.93
388.328	378.62
388.707	383.14
389.087	379.52
389.466	363.48
389.846	369.35
390.225	376.81
390.605	406.64
390.984	391.28
391.363	380.2
391.743	384.5
392.122	383.59
392.501	390.15
392.881	389.47
393.26	403.03
393.639	401.67
394.018	392.86
394.397	397.38
394.776	384.95
395.155	390.82
395.534	394.21
395.913	422.91
396.292	407.77
396.671	402.12
397.05	405.96
397.429	394.21
397.808	419.07
398.186	401.44
398.565	411.16
398.944	388.79
399.323	414.55
399.701	424.04
400.08	411.61
400.458	423.82
400.837	409.81
401.215	428.34
401.594	425.62
401.972	430.37
402.351	452.52
402.729	421.33
403.107	426.98
403.486	438.51
403.864	424.72
404.242	461.78
404.62	428.56
404.999	439.41
405.377	448.45
405.755	427.88
406.133	436.7
406.511	454.1
406.889	446.64
407.267	452.74
407.645	455.91
408.023	450.26
408.401	475.57
408.779	474.21
409.156	484.61
409.534	457.71
409.912	469.92
410.29	484.61
410.667	466.08
411.045	464.27
411.422	481.44
411.8	481.67
412.178	494.55
412.555	514.21
412.933	504.27
413.31	499.97
413.687	493.65
414.065	523.93
414.442	505.62
414.819	520.76
415.197	504.49
415.574	502.23
415.951	520.99
416.328	494.32
416.705	543.36
417.082	520.76
417.46	527.77
417.837	540.2
418.214	526.64
418.591	534.55
418.967	520.76
419.344	543.81
419.721	551.27
420.098	562.8
420.475	591.5
420.852	589.91
421.228	571.16
421.605	571.16
421.982	568.67
422.358	578.16
422.735	579.97
423.111	577.03
423.488	586.07
423.864	581.78
424.241	592.17
424.617	596.69
424.994	606.86
425.37	612.96
425.746	578.39
426.123	587.43
426.499	613.64
426.875	606.86
427.251	621.33
427.627	614.55
428.003	641.21
428.379	633.98
428.756	646.41
429.132	664.94
429.507	656.8
429.883	629.91
430.259	671.95
430.635	657.71
431.011	678.05
431.387	674.43
431.763	677.14
432.138	689.57
432.514	709.23
432.89	701.55
433.265	708.33
433.641	710.81
434.016	699.74
434.392	723.92
434.767	732.73
435.143	756.46
435.518	741.1
435.894	746.07
436.269	760.53
436.644	741.55
437.02	760.76
437.395	763.47
437.77	767.99
438.145	767.99
438.52	814.09
438.895	791.72
439.271	768.44
439.646	805.5
440.021	804.37
440.395	828.1
440.77	807.54
441.145	819.29
441.52	805.5
441.895	829
442.27	821.55
442.645	837.14
443.019	821.77
443.394	839.4
443.769	846.86
444.143	866.97
444.518	851.38
444.892	864.93
445.267	868.78
445.641	862.9
446.016	839.4
446.39	851.83
446.764	886.18
447.139	895.89
447.513	852.73
447.887	888.44
448.262	883.92
448.636	885.27
449.01	901.32
449.384	897.02
449.758	909.68
450.132	923.92
450.506	916.46
450.88	903.8
451.254	909.23
451.628	918.94
452.002	942
452.376	941.32
452.75	951.94
453.123	951.26
453.497	939.06
453.871	983.12
454.244	982.22
454.618	983.58
454.992	978.15
455.365	960.75
455.739	986.97
456.112	1017.7
456.486	1018.83
456.859	1016.34
457.232	1026.96
457.606	1047.08
457.979	1052.5
458.352	1055.21
458.725	1035.78
459.099	1055.66
459.472	1088.43
459.845	1101.54
460.218	1092.95
460.591	1078.26
460.964	1100.41
461.337	1124.14
461.71	1127.07
462.083	1154.19
462.456	1133.63
462.829	1172.95
463.201	1169.11
463.574	1152.61
463.947	1142.22
464.32	1202.33
464.692	1205.04
465.065	1228.77
465.438	1218.6
465.81	1245.72
466.183	1232.83
466.555	1252.04
466.928	1259.5
467.3	1233.74
467.672	1271.93
468.045	1294.98
468.417	1278.26
468.789	1322.55
469.161	1331.14
469.534	1336.79
469.906	1331.36
470.278	1370.23
470.65	1380.18
471.022	1372.27
471.394	1389.21
471.766	1404.13
472.138	1441.19
472.51	1433.28
472.882	1468.31
473.253	1468.08
473.625	1475.54
473.997	1505.37
474.369	1512.15
474.74	1547.85
475.112	1541.3
475.484	1554.63
475.855	1630.56
476.227	1627.63
476.598	1633.05
476.97	1665.82
477.341	1692.03
477.713	1688.64
478.084	1706.72
478.455	1713.05
478.827	1741.75
479.198	1779.94
479.569	1814.06
479.94	1845.25
480.311	1854.51
480.682	1901.97
481.053	1894.51
481.424	1962.53
481.795	1968.86
482.166	1980.84
482.537	2013.15
482.908	2072.59
483.279	2036.2
483.65	2101.06
484.021	2113.72
484.391	2165.69
484.762	2188.97
485.133	2209.53
485.503	2225.58
485.874	2284.56
486.244	2275.75
486.615	2335.4
486.985	2342.18
487.356	2396.65
487.726	2438.45
488.097	2467.6
488.467	2506.47
488.837	2512.58
489.207	2550.31
489.578	2618.56
489.948	2639.35
490.318	2667.37
490.688	2727.48
491.058	2726.35
491.428	2738.11
491.798	2813.58
492.168	2839.57
492.538	2866.01
492.908	2903.98
493.278	2966.57
493.648	2979.46
494.017	2960.92
494.387	3017.42
494.757	3077.76
495.126	3087.93
495.496	3118.21
495.866	3177.64
496.235	3178.77
496.605	3264.87
496.974	3254.93
497.344	3306.45
497.713	3343.97
498.082	3306.68
498.452	3391.87
498.821	3414.47
499.19	3446.79
499.559	3449.95
499.928	3534.92
500.298	3506.45
500.667	3573.56
501.036	3577.18
501.405	3643.17
501.774	3615.6
502.143	3625.09
502.512	3683.62
502.88	3722.94
503.249	3757.06
503.618	3770.17
503.987	3785.54
504.356	3828.02
504.724	3802.03
505.093	3933.78
505.462	3899.21
505.83	3927.91
506.199	3972.88
506.567	4025.98
506.936	4025.53
507.304	4077.51
507.672	4069.14
508.041	4107.56
508.409	4147.56
508.777	4204.73
509.145	4229.14
509.514	4227.33
509.882	4246.09
510.25	4251.06
510.618	4296.48
510.986	4362.02
511.354	4409.7
511.722	4419.87
512.09	4479.98
512.458	4456.7
512.826	4475.01
513.193	4511.39
513.561	4538.74
513.929	4587.1
514.297	4633.65
514.664	4663.93
515.032	4682.24
515.4	4715
515.767	4738.51
516.135	4778.73
516.502	4773.08
516.869	4856.69
517.237	4853.08
517.604	4832.06
517.972	4869.58
518.339	4949.57
518.706	4995.9
519.073	4995.67
519.44	5042.45
519.808	5138.27
520.175	5104.37
520.542	5154.09
520.909	5224.59
521.276	5190.92
521.643	5251.49
522.009	5312.28
522.376	5359.51
522.743	5352.05
523.11	5435.89
523.477	5414.87
523.843	5477.24
524.21	5517.69
524.577	5565.15
524.943	5584.13
525.31	5626.17
525.676	5635.2
526.043	5704.36
526.409	5735.09
526.776	5741.87
527.142	5760.17
527.508	5872.03
527.874	5901.64
528.241	5898.7
528.607	5884.46
528.973	5994.74
529.339	5973.28
529.705	6019.83
530.071	6090.11
530.437	6120.84
530.803	6114.74
531.169	6159.94
531.535	6181.18
531.901	6187.73
532.267	6192.7
532.632	6234.96
532.998	6318.58
533.364	6322.42
533.73	6364.45
534.095	6388.86
534.461	6376.2
534.826	6469.31
535.192	6464.56
535.557	6540.27
535.923	6506.59
536.288	6554.95
536.653	6590.21
537.019	6545.69
537.384	6625.69
537.749	6611
538.114	6692.13
538.479	6713.59
538.845	6716.98
539.21	6752.92
539.575	6754.27
539.94	6779.13
540.305	6850.09
540.67	6873.36
541.034	6844.66
541.399	6871.1
541.764	6919.69
542.129	6936.87
542.494	6971.89
542.858	7032
543.223	6996.53
543.587	7040.14
543.952	7112.68
544.316	7126.47
544.681	7161.94
545.045	7209.85
545.41	7249.17
545.774	7244.43
546.138	7248.5
546.503	7339.57
546.867	7359
547.231	7376.18
547.595	7435.61
547.959	7458.43
548.324	7492.11
548.688	7541.6
549.052	7517.87
549.416	7608.94
549.779	7602.61
550.143	7644.42
550.507	7717.18
550.871	7743.62
551.235	7790.4
551.599	7862.27
551.962	7877.41
552.326	7980.45
552.689	8033.33
553.053	7969.83
553.417	8037.85
553.78	8187
554.143	8158.53
554.507	8195.36
554.87	8249.83
555.234	8321.24
555.597	8247.57
555.96	8402.82
556.323	8464.96
556.686	8465.41
557.05	8515.58
557.413	8622.25
557.776	8732.3
558.139	8721.45
558.502	8738.85
558.865	8822.24
559.228	8885.06
559.59	8946.98
559.953	9016.58
560.316	9100.88
560.679	9114.44
561.041	9270.36
561.404	9270.59
561.767	9378.16
562.129	9409.12
562.492	9637.81
562.854	9637.59
563.217	9744.25
563.579	9804.13
563.941	9927.97
564.304	9941.76
564.666	10091.81
565.028	10150.79
565.39	10224.69
565.753	10351.01
566.115	10397.11
566.477	10494.06
566.839	10664
567.201	10735.41
567.563	10786.71
567.925	11003.43
568.287	11093.59
568.648	11098.56
569.01	11344.89
569.372	11451.1
569.734	11472.79
570.095	11640.24
570.457	11836.62
570.819	11952.1
571.18	12140.8
571.542	12248.14
571.903	12424.18
572.265	12546.44
572.626	12778.07
572.987	12941.45
573.349	13102.35
573.71	13261.67
574.071	13420.54
574.432	13668.21
574.794	13847.42
575.155	14016.45
575.516	14171.03
575.877	14457.8
576.238	14664.57
576.599	14904.79
576.96	15038.35
577.32	15268.62
577.681	15625.68
578.042	15917.87
578.403	16143.18
578.763	16396.5
579.124	16709.72
579.485	16998.97
579.845	17350.15
580.206	17492.07
580.566	17840.08
580.927	18190.36
581.287	18528.65
581.648	18730.68
582.008	19179.93
582.368	19419.48
582.728	19767.49
583.089	20186.69
583.449	20462.39
583.809	20780.12
584.169	21244.51
584.529	21590.04
584.889	22107.09
585.249	22361.09
585.609	22727.86
585.969	23284.23
586.329	23573.94
586.688	23949.75
587.048	24305.22
587.408	24777.3
587.768	25310.85
588.127	25552.65
588.487	25991.96
588.846	26596.69
589.206	26908.77
589.565	27401.41
589.925	28030.55
590.284	28350.31
590.643	28876.4
591.003	29244.98
591.362	29871.86
591.721	30155.24
592.08	30731.49
592.44	31137.13
592.799	31700.28
593.158	32140.27
593.517	32564.67
593.876	33129.17
594.235	33473.57
594.593	33966.66
594.952	34545.86
595.311	35022.91
595.67	35506.96
596.029	36073.05
596.387	36530.21
596.746	37144.21
597.104	37432.33
597.463	37746.9
597.822	38366.55
598.18	38698.74
598.538	39118.17
598.897	39845.6
599.255	39830.46
599.613	40859.14
599.972	41018
600.33	41414.15
600.688	41694.82
601.046	42435.37
601.404	42800.78
601.762	43091.4
602.12	43692.28
602.478	44078.71
602.836	44196.45
603.194	44554.18
603.552	44972.7
603.91	45228.06
604.268	45848.16
604.625	45958.66
604.983	46457.63
605.341	46677.52
605.698	46990.95
606.056	47515.91
606.413	47594.1
606.771	47977.14
607.128	48302.33
607.485	48386.85
607.843	48565.38
608.2	49005.59
608.557	49341.85
608.914	49498.68
609.272	49856.19
609.629	50046.92
609.986	50253.47
610.343	50312
610.7	50701.82
611.057	50849.16
611.414	51030.4
611.771	51233.55
612.127	51421.8
612.484	51467.22
612.841	51732.07
613.198	51815.01
613.554	51834.89
613.911	52174.09
614.267	52229.46
614.624	52377.7
614.98	52493.86
615.337	52816.56
615.693	52797.35
616.05	52862.66
616.406	53113.05
616.762	53115.31
617.118	53190.34
617.475	53177.23
617.831	53471.91
618.187	53593.72
618.543	53622.87
618.899	53852.47
619.255	53784.9
619.611	53929.53
619.967	53989.41
620.323	54160.93
620.678	54033.25
621.034	54097.43
621.39	54089.98
621.746	54135.85
622.101	54487.48
622.457	54292.68
622.812	54407.71
623.168	54549.4
623.523	54539.23
623.879	54685.44
624.234	54565.67
624.589	54612.45
624.945	54751.43
625.3	54746
625.655	54838.2
626.01	54761.6
626.365	54863.97
626.72	54829.17
627.075	54856.74
627.43	54835.72
627.785	54855.38
628.14	54983.74
628.495	54988.94
628.85	54973.34
629.205	54912.33
629.559	55155.48
629.914	54934.47
630.269	55014.7
630.623	55052.66
630.978	54893.34
631.332	55079.78
631.687	55194.13
632.041	54995.49
632.396	55117.97
632.75	55027.13
633.104	55022.61
633.459	54898.09
633.813	55000.69
634.167	54956.17
634.521	55039.33
634.875	55081.59
635.229	55007.92
635.583	54965.66
635.937	54990.07
636.291	54784.87
636.645	54891.08
636.999	54887.02
637.352	54948.71
637.706	54792.56
638.06	54856.06
638.413	54828.94
638.767	54783.97
639.121	54851.76
639.474	54693.12
639.828	54671.43
640.181	54768.83
640.534	54715.95
640.888	54735.16
641.241	54612.45
641.594	54722.73
641.947	54797.53
642.301	54717.76
642.654	54720.24
643.007	54728.15
643.36	54806.57
643.713	54667.59
644.066	54729.06
644.419	54497.42
644.771	54362.29
645.124	54160.03
645.477	54059.92
645.83	53988.74
646.182	53844.33
646.535	53715.52
646.888	53912.35
647.24	53757.33
647.593	53916.2
647.945	53857.67
648.298	53654.28
648.65	53686.14
649.002	53656.77
649.355	53730.89
649.707	53618.35
650.059	53805.01
650.411	54188.05
650.763	54180.37
651.115	54488.16
651.467	54339.91
651.819	54296.75
652.171	54334.26
652.523	54239.58
652.875	54275.06
653.227	54143.53
653.578	54301.04
653.93	54291.1
654.282	54102.41
654.633	54125.91
654.985	54214.27
655.337	54244.32
655.688	54187.83
656.039	54244.32
656.391	54053.59
656.742	54089.07
657.094	54141.5
657.445	54234.38
657.796	54098.34
658.147	54104.44
658.498	54079.13
658.849	54154.16
659.2	54109.64
659.551	53997.78
659.902	54182.18
660.253	54100.6
660.604	54228.05
660.955	54046.81
661.306	54171.1
661.656	53996.87
662.007	54080.26
662.358	54055.17
662.708	54043.65
663.059	54101.95
663.409	53819.93
663.76	54175.85
664.11	54070.32
664.461	54152.8
664.811	54164.55
665.161	54112.8
665.511	53973.37
665.862	53982.18
666.212	54071.45
666.562	54066.93
666.912	54018.57
667.262	53998.45
667.612	53966.82
667.962	53978.57
668.312	53934.95
668.662	54017.66
669.011	53975.4
669.361	53940.38
669.711	53913.48
670.06	53832.36
670.41	53750.55
670.76	53746.71
671.109	53855.41
671.459	53754.62
671.808	53681.63
672.157	53794.39
672.507	53588.07
672.856	53597.56
673.205	53649.54
673.554	53743.77
673.904	53617.22
674.253	53736.31
674.602	53606.37
674.951	53195.99
675.3	53050
675.649	53540.39
675.998	53491.57
676.346	53542.19
676.695	53572.25
677.044	53306.04
677.393	53519.6
677.741	53542.19
678.09	53425.81
678.438	53330.9
678.787	53373.38
679.135	53395.53
679.484	53173.16
679.832	53368.87
680.181	53106.5
680.529	53340.84
680.877	53173.84
681.225	53029.66
681.573	53246.61
681.922	53001.87
682.27	53009.55
682.618	53033.05
682.966	52950.12
683.314	52930.46
683.661	52874.41
684.009	52732.95
684.357	52673.97
684.705	52587.64
685.053	52627.64
685.4	52633.74
685.748	52500.19
686.095	52422.22
686.443	52321.89
686.79	52354.2
687.138	52377.7
687.485	52285.96
687.832	52193.53
688.18	52194.21
688.527	52049.8
688.874	52068.11
689.221	51914.21
689.568	51842.8
689.915	51790.38
690.262	51714.9
690.609	51688.23
690.956	51568.69
691.303	51552.87
691.65	51438.75
691.997	51405.75
692.344	51202.82
692.69	51166.89
693.037	51158.75
693.383	50973.22
693.73	51034.24
694.077	50758.31
694.423	50820.23
694.769	50636.06
695.116	50619.78
695.462	50488.71
695.808	50418.89
696.155	50410.07
696.501	50077.43
696.847	50205.33
697.193	50004.43
697.539	50020.03
697.885	49796.98
698.231	49745.01
698.577	49700.49
698.923	49604.67
699.269	49411.91
699.614	49283.32
699.96	49204.68
700.306	49175.3
700.651	49075.42
700.997	48931.92
701.342	48877.91
701.688	48774.64
702.033	48667.29
702.379	48689.21
702.724	48410.13
703.069	48581.87
703.415	48148.89
703.76	48219.62
704.105	48344.82
704.45	48113.64
704.795	47851.95
705.14	47839.07
705.485	47609.69
705.83	47585.97
706.175	47684.49
706.52	47570.37
706.865	47308.46
707.209	47463.03
707.554	47100.1
707.899	47192.53
708.243	46951.41
708.588	46900.56
708.932	46675.71
709.277	46496.96
709.621	46665.54
709.966	46344.64
710.31	46441.36
710.654	46115.72
710.998	46176.96
711.342	46267.81
711.687	46114.14
712.031	45921.83
712.375	45692.46
712.719	45913.24
713.063	45774.04
713.407	45989.4
713.75	45762.74
714.094	45681.84
714.438	45417.44
714.782	45437.32
715.125	45260.83
715.469	45400.94
715.812	45192.36
716.156	44972.48
716.499	45026.26
716.843	45043.43
717.186	44709.21
717.53	45067.84
717.873	44899.94
718.216	44694.52
718.559	44678.92
718.902	44254.08
719.246	44385.37
719.589	44313.06
719.932	44235.55
720.275	44329.33
720.617	44061.54
720.96	44013.18
721.303	44186.73
721.646	44096.34
721.989	43909
722.331	44005.04
722.674	43839.4
723.016	43838.49
723.359	43710.36
723.701	43702.68
724.044	43549.91
724.386	43457.94
724.729	43649.57
725.071	43415.68
725.413	43383.36
725.755	43311.5
726.097	43161.45
726.439	43031.96
726.782	43097.5
727.124	43231.96
727.465	42969.14
727.807	42960.1
728.149	42963.94
728.491	42866.09
728.833	42898.41
729.175	42667.23
729.516	42576.61
729.858	42700.22
730.199	42813.89
730.541	42757.62
730.882	42493.67
731.224	42593.33
731.565	42387.68
731.906	42456.38
732.248	42409.83
732.589	42275.37
732.93	41988.83
733.271	42161.93
733.612	42174.81
733.953	42409.38
734.294	41995.83
734.635	42023.17
734.976	42002.84
735.317	41935.04
735.658	41906.57
735.999	41859.11
736.339	41866.57
736.68	41892.33
737.021	41687.59
737.361	41470.65
737.702	41704.77
738.042	41650.98
738.383	41540.02
738.723	41649.4
739.063	41410.99
739.404	41455.73
739.744	41356.53
740.084	41260.93
740.424	41265.45
740.764	41222.97
741.104	41387.49
741.444	41162.86
741.784	41009.19
742.124	41257.77
742.464	41138.9
742.804	40881.28
743.143	40864.79
743.483	40868.4
743.823	40721.74
744.162	40739.37
744.502	40796.31
744.841	40655.98
745.181	40821.85
745.52	40649.65
745.86	40622.31
746.199	40516.1
746.538	40542.54
746.877	40498.92
747.216	40540.73
747.556	40382.54
747.895	40352.26
748.234	40227.74
748.573	40254.63
748.911	40187.29
749.25	40117.24
749.589	39968.09
749.928	40104.58
750.267	40128.99
750.605	39980.06
750.944	39841.76
751.283	39742.1
751.621	39838.15
751.96	39625.27
752.298	39618.94
752.636	39392.06
752.975	39308.9
753.313	39348.67
753.651	39458.04
753.989	39245.85
754.327	39254.89
754.666	38934.67
755.004	39079.98
755.342	39118.62
755.679	38917.49
756.017	38815.12
756.355	39013.99
756.693	38600.21
757.031	38630.72
757.368	38659.2
757.706	38549.82
758.044	38320
758.381	38441.57
758.719	38305.76
759.056	38127.68
759.394	38100.11
759.731	37873.45
