Data from orange_diffuse_book_FLMS001491_00073.txt Node
Date: Wed Feb 08 15:30:01 GMT 2017
User: dcchb
Spectrometer: FLMS00149
Trigger mode: 0
Integration Time (sec): 2.000000E-2
Scans to average: 10
Electric dark correction enabled: true
Nonlinearity correction enabled: false
Boxcar width: 0
XAxis mode: Wavelengths
Number of Pixels in Spectrum: 2048
>>>>>Begin Spectral Data<<<<<
341.393	-12.37
341.776	-12.37
342.16	-12.37
342.543	-51.02
342.927	-79.49
343.31	-55.08
343.693	-53.95
344.077	-77.46
344.46	-76.1
344.843	-66.83
345.226	-35.65
345.61	-41.98
345.993	-12.6
346.376	4.12
346.759	10
347.142	45.48
347.525	41.64
347.908	49.77
348.291	87.74
348.674	82.77
349.057	98.13
349.44	133.16
349.823	153.72
350.206	141.75
350.588	216.32
350.971	206.15
351.354	224.91
351.737	267.17
352.119	253.61
352.502	277.56
352.884	286.15
353.267	304.23
353.65	307.39
354.032	307.39
354.414	296.77
354.797	310.78
355.179	342.87
355.562	345.36
355.944	331.12
356.326	336.54
356.709	343.1
357.091	341.97
357.473	343.32
357.855	365.7
358.238	342.42
358.62	339.48
359.002	350.1
359.384	367.28
359.766	361.85
360.148	360.27
360.53	364.11
360.912	356.21
361.294	323.44
361.676	329.31
362.057	357.79
362.439	338.35
362.821	363.44
363.203	330.44
363.584	325.47
363.966	329.09
364.348	344.23
364.729	335.19
365.111	337
365.493	339.26
365.874	305.36
366.256	320.73
366.637	316.21
367.019	326.38
367.4	348.97
367.781	328.86
368.163	304.23
368.544	317.79
368.925	332.48
369.306	311.01
369.688	310.1
370.069	316.66
370.45	334.06
370.831	337.45
371.212	325.92
371.593	338.58
371.974	335.87
372.355	313.95
372.736	341.29
373.117	331.8
373.498	335.41
373.879	328.86
374.26	324.79
374.641	337.45
375.021	331.12
375.402	319.6
375.783	320.05
376.163	324.34
376.544	333.83
376.925	331.12
377.305	342.87
377.686	346.49
378.066	333.83
378.447	354.62
378.827	341.06
379.208	334.06
379.588	334.96
379.968	342.87
380.349	349.43
380.729	349.88
381.109	348.3
381.489	334.74
381.87	362.98
382.25	350.78
382.63	360.72
383.01	359.37
383.39	359.14
383.77	353.95
384.15	354.85
384.53	361.4
384.91	349.43
385.29	333.16
385.67	359.6
386.049	378.13
386.429	367.28
386.809	373.61
387.189	364.57
387.568	359.82
387.948	379.26
388.328	369.54
388.707	360.5
389.087	379.48
389.466	402.08
389.846	377.45
390.225	366.37
390.605	393.27
390.984	388.29
391.363	388.52
391.743	365.24
392.122	360.5
392.501	384.45
392.881	403.44
393.26	390.78
393.639	404.79
394.018	389.88
394.397	391.01
394.776	391.01
395.155	386.26
395.534	406.15
395.913	405.02
396.292	411.8
396.671	420.16
397.05	399.59
397.429	413.15
397.808	393.49
398.186	397.79
398.565	390.33
398.944	410.44
399.323	416.54
399.701	411.57
400.08	425.58
400.458	412.25
400.837	407.5
401.215	422.64
401.594	427.39
401.972	409.31
402.351	421.51
402.729	421.74
403.107	431.68
403.486	455.41
403.864	429.88
404.242	451.34
404.62	420.84
404.999	440.04
405.377	435.98
405.755	435.07
406.133	448.18
406.511	468.07
406.889	443.43
407.267	438.46
407.645	453.38
408.023	459.93
408.401	456.54
408.779	461.06
409.156	469.87
409.534	466.94
409.912	456.99
410.29	506.48
410.667	471
411.045	465.58
411.422	467.84
411.8	462.64
412.178	496.09
412.555	493.15
412.933	487.28
413.31	510.33
413.687	494.28
414.065	508.52
414.442	493.38
414.819	511
415.197	506.71
415.574	524.79
415.951	502.19
416.328	537.44
416.705	528.18
417.082	511.46
417.46	555.3
417.837	541.74
418.214	537.22
418.591	544.45
418.967	548.97
419.344	550.78
419.721	563.21
420.098	543.32
420.475	545.13
420.852	553.04
421.228	574.5
421.605	603.43
421.982	580.83
422.358	613.6
422.735	586.71
423.111	572.92
423.488	574.28
423.864	598.91
424.241	586.71
424.617	604.56
424.994	614.73
425.37	594.84
425.746	604.33
426.123	601.4
426.499	614.05
426.875	627.61
427.251	639.36
427.627	653.37
428.003	651.34
428.379	629.19
428.756	670.32
429.132	622.41
429.507	666.93
429.883	648.4
430.259	670.32
430.635	698.8
431.011	691.79
431.387	695.63
431.763	697.67
432.138	680.94
432.514	696.08
432.89	696.76
433.265	707.16
433.641	733.82
434.016	731.79
434.392	722.3
434.767	741.28
435.143	749.42
435.518	755.06
435.894	743.31
436.269	739.02
436.644	760.26
437.02	791
437.395	781.28
437.77	777.89
438.145	806.36
438.52	803.88
438.895	787.83
439.271	816.08
439.646	812.92
440.021	803.2
440.395	812.46
440.77	812.92
441.145	815.18
441.52	826.93
441.895	827.15
442.27	828.96
442.645	831.22
443.019	847.49
443.394	841.39
443.769	865.57
444.143	841.16
444.518	863.54
444.892	872.8
445.267	852.46
445.641	859.69
446.016	842.75
446.39	877.55
446.764	878.45
447.139	854.95
447.513	886.81
447.887	889.75
448.262	899.69
448.636	876.19
449.01	893.82
449.384	918
449.758	896.53
450.132	916.64
450.506	958.22
450.88	924.33
451.254	941.27
451.628	922.07
452.002	931.78
452.376	964.32
452.75	942.18
453.123	941.27
453.497	949.41
453.871	974.49
454.244	981.27
454.618	971.78
454.992	995.28
455.365	1003.19
455.739	985.34
456.112	1020.37
456.486	1018.56
456.859	1061.72
457.232	1069.18
457.606	1037.77
457.979	1027.15
458.352	1054.94
458.725	1066.02
459.099	1044.1
459.472	1059.01
459.845	1102.17
460.218	1101.04
460.591	1094.94
460.964	1099.24
461.337	1150.99
461.71	1143.3
462.083	1153.47
462.456	1140.82
462.829	1140.82
463.201	1174.04
463.574	1166.13
463.947	1157.31
464.32	1225.34
464.692	1223.75
465.065	1177.2
465.438	1236.41
465.81	1212.68
466.183	1243.41
466.555	1272.79
466.928	1242.51
467.3	1287.71
467.672	1287.03
468.045	1266.69
468.417	1286.58
468.789	1284.54
469.161	1302.62
469.534	1332.45
469.906	1358.89
470.278	1361.6
470.65	1360.02
471.022	1366.8
471.394	1397.99
471.766	1394.6
472.138	1416.52
472.51	1436.4
472.882	1474.82
473.253	1451.54
473.625	1481.15
473.997	1513.24
474.369	1531.77
474.74	1524.08
475.112	1540.13
475.484	1564.99
475.855	1586.91
476.227	1600.47
476.598	1652.89
476.97	1627.13
477.341	1685.44
477.713	1688.6
478.084	1695.38
478.455	1753.23
478.827	1769.73
479.198	1800.24
479.569	1775.38
479.94	1820.12
480.311	1855.6
480.682	1908.93
481.053	1891.98
481.424	1942.6
481.795	1947.8
482.166	1948.25
482.537	2011.76
482.908	2018.31
483.279	2088.59
483.65	2080
484.021	2135.37
484.391	2164.07
484.762	2131.53
485.133	2183.28
485.503	2218.08
485.874	2273.22
486.244	2311.18
486.615	2348.7
486.985	2341.69
487.356	2396.6
487.726	2432.76
488.097	2462.82
488.467	2456.04
488.837	2515.7
489.207	2565.19
489.578	2617.84
489.948	2657.84
490.318	2667.56
490.688	2704.84
491.058	2747.33
491.428	2771.96
491.798	2839.08
492.168	2821.45
492.538	2861.68
492.908	2915.91
493.278	2922.24
493.648	2976.25
494.017	2979.41
494.387	3045.17
494.757	3079.52
495.126	3157.94
495.496	3159.07
495.866	3140.09
496.235	3196.13
496.605	3271.38
496.974	3298.5
497.344	3282.23
497.713	3347.09
498.082	3371.27
498.452	3440.42
498.821	3446.75
499.19	3460.53
499.559	3523.81
499.928	3550.47
500.298	3561.32
500.667	3633.86
501.036	3592.05
501.405	3677.93
501.774	3645.61
502.143	3677.25
502.512	3746.17
502.88	3777.13
503.249	3807.19
503.618	3843.8
503.987	3882.21
504.356	3898.71
504.724	3905.49
505.093	3927.64
505.462	3984.58
505.83	3980.06
506.199	4001.08
506.567	4096.9
506.936	4108.42
507.304	4138.25
507.672	4183
508.041	4210.57
508.409	4269.1
508.777	4273.84
509.145	4350
509.514	4259.15
509.882	4321.52
510.25	4366.95
510.618	4394.29
510.986	4413.73
511.354	4433.84
511.722	4530.33
512.09	4533.72
512.458	4550.9
512.826	4623.66
513.193	4597
513.561	4652.82
513.929	4745.02
514.297	4718.12
514.664	4773.72
515.032	4750.89
515.4	4849.19
515.767	4838.35
516.135	4881.51
516.502	4880.83
516.869	4929.87
517.237	5006.48
517.604	5022.52
517.972	5069.3
518.339	5095.52
518.706	5125.57
519.073	5134.61
519.44	5196.98
519.808	5262.97
520.175	5257.77
520.542	5220.48
520.909	5345.9
521.276	5301.84
521.643	5388.84
522.009	5453.47
522.376	5498.44
522.743	5420.93
523.11	5570.31
523.477	5584.32
523.843	5607.37
524.21	5678.78
524.577	5743.86
524.943	5806.46
525.31	5725.1
525.676	5820.02
526.043	5860.24
526.409	5915.61
526.776	5911.09
527.142	5960.58
527.508	6027.47
527.874	6002.84
528.241	6045.55
528.607	6057.98
528.973	6172.55
529.339	6172.1
529.705	6197.86
530.071	6218.42
530.437	6254.58
530.803	6342.26
531.169	6328.93
531.535	6280.8
531.901	6367.35
532.267	6373.9
532.632	6417.74
532.998	6470.39
533.364	6506.1
533.73	6540.9
534.095	6554.23
534.461	6632.65
534.826	6614.12
535.192	6641.01
535.557	6677.4
535.923	6730.5
536.288	6682.14
536.653	6803.04
537.019	6776.38
537.384	6783.83
537.749	6824.28
538.114	6834.23
538.479	6905.19
538.845	6921.91
539.21	6939.99
539.575	6912.64
539.94	6969.82
540.305	7000.1
540.67	7055.01
541.034	7130.04
541.399	7064.28
541.764	7117.16
542.129	7096.82
542.494	7197.38
542.858	7166.65
543.223	7207.78
543.587	7300.43
543.952	7288.9
544.316	7363.7
544.681	7348.34
545.045	7399.18
545.41	7414.32
545.774	7522.34
546.138	7457.26
546.503	7544.72
546.867	7511.5
547.231	7593.3
547.595	7699.74
547.959	7661.1
548.324	7668.33
548.688	7739.74
549.052	7700.64
549.416	7779.96
549.779	7834.43
550.143	7893.63
550.507	7937.93
550.871	7976.34
551.235	8005.27
551.599	8080.52
551.962	8072.16
552.326	8105.38
552.689	8174.98
553.053	8168.2
553.417	8240.07
553.78	8311.93
554.143	8291.82
554.507	8398.93
554.87	8457.01
555.234	8554.18
555.597	8506.73
555.96	8577.68
556.323	8603.9
556.686	8661.98
557.05	8753.72
557.413	8773.39
557.776	8834.17
558.139	8969.09
558.502	8925.47
558.865	8998.01
559.228	9109.2
559.59	9201.17
559.953	9192.81
560.316	9362.52
560.679	9376.76
561.041	9463.31
561.404	9568.39
561.767	9609.07
562.129	9644.55
562.492	9761.16
562.854	9861.72
563.217	9925.22
563.579	9935.61
563.941	10086.8
564.304	10122.95
564.666	10198.66
565.028	10314.81
565.39	10414.47
565.753	10456.96
566.115	10620.34
566.477	10703.5
566.839	10864.86
567.201	10954.57
567.563	10980.78
567.925	11145.3
568.287	11248.12
568.648	11387.33
569.01	11466.42
569.372	11663.03
569.734	11817.37
570.095	11832.74
570.457	12103.24
570.819	12137.36
571.18	12322.67
571.542	12529.22
571.903	12602.89
572.265	12763.11
572.626	12885.37
572.987	13062.76
573.349	13190.44
573.71	13507.5
574.071	13639.7
574.432	13870.88
574.794	14068.84
575.155	14272.68
575.516	14381.6
575.877	14661.82
576.238	14875.15
576.599	15107
576.96	15274.23
577.32	15470.16
577.681	15678.29
578.042	15949.02
578.403	16222.23
578.763	16518.72
579.124	16714.42
579.485	17159.83
579.845	17479.14
580.206	17671.46
580.566	17921.62
580.927	18243.19
581.287	18631.88
581.648	18872.78
582.008	19257.4
582.368	19540.79
582.728	19943.26
583.089	20273.87
583.449	20519.52
583.809	20947.08
584.169	21394.07
584.529	21602.88
584.889	22199.47
585.249	22296.42
585.609	22817.31
585.969	23266.56
586.329	23534.13
586.688	23988.13
587.048	24381.79
587.408	24840.53
587.768	25238.49
588.127	25684.35
588.487	26044.12
588.846	26608.62
589.206	26753.48
589.565	27310.52
589.925	27922.26
590.284	28291.52
590.643	28767.66
591.003	29116.81
591.362	29687.41
591.721	30085.82
592.08	30645.58
592.44	31106.36
592.799	31596.29
593.158	31962.15
593.517	32483.04
593.876	33088.68
594.235	33324.83
594.593	33865.83
594.952	34407.29
595.311	34806.82
595.67	35336.53
596.029	35941.03
596.387	36462.6
596.746	36938.75
597.104	37182.36
597.463	37531.05
597.822	38257.58
598.18	38407.41
598.538	38835.42
598.897	39476.31
599.255	39512.69
599.613	40481.7
599.972	40687.8
600.33	41304.73
600.688	41516.03
601.046	42033.98
601.404	42499.05
601.762	42914.86
602.12	43355.98
602.478	43668.96
602.836	44046.36
603.194	44226.46
603.552	44691.08
603.91	44865.77
604.268	45432.53
604.625	45670.04
604.983	46202.68
605.341	46220.54
605.698	46706.85
606.056	47086.73
606.413	47186.84
606.771	47722.19
607.128	47886.26
607.485	47968.51
607.843	48245.12
608.2	48719.45
608.557	48948.37
608.914	49036.51
609.272	49499.32
609.629	49732.76
609.986	49961
610.343	49984.73
610.7	50314.21
611.057	50546.3
611.414	50613.41
611.771	50794.43
612.127	51056.79
612.484	51096.34
612.841	51487.74
613.198	51445.03
613.554	51534.75
613.911	51872.36
614.267	51943.78
614.624	52071
614.98	52124.56
615.337	52541.05
615.693	52451.33
616.05	52552.8
616.406	52795.73
616.762	52742.4
617.118	52889.97
617.475	52913.92
617.831	53135.83
618.187	53195.72
618.543	53274.59
618.899	53494.92
619.255	53536.5
619.611	53507.8
619.967	53642.94
620.323	53790.73
620.678	53681.13
621.034	53695.14
621.39	53740.79
621.746	53828.02
622.101	54222.81
622.457	53908.24
622.812	54055.36
623.168	54187.11
623.523	54285.63
623.879	54366.99
624.234	54129.25
624.589	54302.13
624.945	54385.75
625.3	54404.95
625.655	54341.68
626.01	54500.77
626.365	54474.33
626.72	54536.93
627.075	54503.26
627.43	54453.54
627.785	54519.3
628.14	54585.74
628.495	54657.6
628.85	54678.39
629.205	54592.52
629.559	54778.05
629.914	54664.83
630.269	54732.63
630.623	54680.43
630.978	54679.52
631.332	54730.14
631.687	54837.48
632.041	54714.78
632.396	54788.22
632.75	54730.37
633.104	54739.18
633.459	54657.15
633.813	54647.21
634.167	54602.91
634.521	54690.82
634.875	54679.75
635.229	54705.28
635.583	54601.33
635.937	54571.73
636.291	54526.08
636.645	54638.85
636.999	54455.8
637.352	54619.19
637.706	54433.2
638.06	54572.41
638.413	54468
638.767	54433.88
639.121	54526.98
639.474	54441.11
639.828	54329.25
640.181	54482.69
640.534	54486.08
640.888	54362.24
641.241	54221.23
641.594	54251.51
641.947	54451.05
642.301	54323.6
642.654	54397.5
643.007	54398.17
643.36	54371.73
643.713	54328.8
644.066	54451.51
644.419	54148.01
644.771	54007.68
645.124	53711.86
645.477	53680.23
645.83	53480.01
646.182	53450.85
646.535	53461.7
646.888	53519.55
647.24	53371.76
647.593	53580.12
647.945	53413.12
648.298	53372.66
648.65	53235.04
649.002	53250.63
649.355	53346.68
649.707	53229.39
650.059	53456.28
650.411	53746.21
650.763	53862.82
651.115	54154.56
651.467	53966.32
651.819	54030.05
652.171	53847
652.523	53942.59
652.875	53887.91
653.227	53762.03
653.578	53983.72
653.93	53956.6
654.282	53787.57
654.633	53737.4
654.985	53887.68
655.337	53881.8
655.688	53854.01
656.039	53959.99
656.391	53737.85
656.742	53826.44
657.094	53758.19
657.445	53861.69
657.796	53808.13
658.147	53724.52
658.498	53810.62
658.849	53787.34
659.2	53762.48
659.551	53689.27
659.902	53816.49
660.253	53743.28
660.604	53772.65
660.955	53637.29
661.306	53758.42
661.656	53666.22
662.007	53734.69
662.358	53676.61
662.708	53699.44
663.059	53710.28
663.409	53534.24
663.76	53626.44
664.11	53734.24
664.461	53659.89
664.811	53737.85
665.161	53594.35
665.511	53586.9
665.862	53609.49
666.212	53702.37
666.562	53667.12
666.912	53525.65
667.262	53544.41
667.612	53445.43
667.962	53573.79
668.312	53536.73
668.662	53590.51
669.011	53500.57
669.361	53534.02
669.711	53496.05
670.06	53439.33
670.41	53366.79
670.76	53392.78
671.109	53384.64
671.459	53332.89
671.808	53287.92
672.157	53357.52
672.507	53178.77
672.856	53120.92
673.205	53256.96
673.554	53333.57
673.904	53127.93
674.253	53345.55
674.602	53235.27
674.951	52768.84
675.3	52654.49
675.649	53054.03
675.998	53130.64
676.346	53184.42
676.695	53116.17
677.044	52965.67
677.393	53015.84
677.741	53033.24
678.09	52960.7
678.438	52926.12
678.787	52963.41
679.135	52954.82
679.484	52772.23
679.832	52908.27
680.181	52712.12
680.529	52790.53
680.877	52623.31
681.225	52621.95
681.573	52893.58
681.922	52686.35
682.27	52506.25
682.618	52603.42
682.966	52453.14
683.314	52551.67
683.661	52480.03
684.009	52169.98
684.357	52301.51
684.705	52266.48
685.053	52247.95
685.4	52099.93
685.748	52085.24
686.095	51963.89
686.443	51934.96
686.79	51895.87
687.138	51876.66
687.485	51848.86
687.832	51744.91
688.18	51780.39
688.527	51544.01
688.874	51571.13
689.221	51558.25
689.568	51400.74
689.915	51338.59
690.262	51293.85
690.609	51191.7
690.956	51059.96
691.303	51018.6
691.65	50952.84
691.997	50847.08
692.344	50721.89
692.69	50673.53
693.037	50820.19
693.383	50514.66
693.73	50546.52
694.077	50263.37
694.423	50364.16
694.769	50320.32
695.116	50244.61
695.462	50112.41
695.808	49843.04
696.155	50000.55
696.501	49716.72
696.847	49713.1
697.193	49427.23
697.539	49629.94
697.885	49282.15
698.231	49227.69
698.577	49274.69
698.923	49132.55
699.269	48984.98
699.614	48744.31
699.96	48773.46
700.306	48811.2
700.651	48406.92
700.997	48383.87
701.342	48307.71
701.688	48381.38
702.033	48228.62
702.379	48168.28
702.724	47911.11
703.069	48093.48
703.415	47597.22
703.76	47586.38
704.105	47679.71
704.45	47530.11
704.795	47238.59
705.14	47312.94
705.485	47228.65
705.83	47134.64
706.175	47212.6
706.52	47087.86
706.865	46821.2
707.209	46718.38
707.554	46663.24
707.899	46719.28
708.243	46477.93
708.588	46418.95
708.932	46143.25
709.277	46226.64
709.621	46072.52
709.966	45835.69
710.31	46001.11
710.654	45498.3
710.998	45745.75
711.342	45763.82
711.687	45566.32
712.031	45415.81
712.375	45216.04
712.719	45409.48
713.063	45355.47
713.407	45447.68
713.75	45234.8
714.094	45143.28
714.438	44943.51
714.782	45032.09
715.125	44740.58
715.469	44788.03
715.812	44587.13
716.156	44430.53
716.499	44499.23
716.843	44476.4
717.186	44299.46
717.53	44549.85
717.873	44362.96
718.216	44301.26
718.559	44117.99
718.902	43877.55
719.246	43906.25
719.589	43845.91
719.932	43640.72
720.275	43737.89
720.617	43710.09
720.96	43602.98
721.303	43558.23
721.646	43570.89
721.989	43314.17
722.331	43472.36
722.674	43255.19
723.016	43417.45
723.359	43278.01
723.701	43156.66
724.044	42974.07
724.386	42901.75
724.729	42970
725.071	42825.37
725.413	42802.77
725.755	42812.72
726.097	42706.73
726.439	42392.39
726.782	42521.2
727.124	42689.78
727.465	42452.95
727.807	42407.08
728.149	42403.46
728.491	42285.05
728.833	42351.03
729.175	42140.64
729.516	42182.22
729.858	42111.27
730.199	42131.83
730.541	41954.66
730.882	41979.74
731.224	42169.57
731.565	41664.27
731.906	41967.31
732.248	41961.21
732.589	41675.12
732.93	41690.49
733.271	41530.49
733.612	41714.21
733.953	41725.74
734.294	41458.63
734.635	41459.76
734.976	41632.63
735.317	41344.05
735.658	41321.46
735.999	41326.43
736.339	41274.68
736.68	41339.08
737.021	41159.2
737.361	41210.72
737.702	41240.1
738.042	41184.96
738.383	40884.18
738.723	41197.62
739.063	40821.13
739.404	40988.36
739.744	40916.72
740.084	40707.91
740.424	40848.7
740.764	40662.26
741.104	40889.38
741.444	40582.72
741.784	40489.16
742.124	40561.48
742.464	40608.03
742.804	40440.12
743.143	40474.7
743.483	40339.79
743.823	40045.56
744.162	40199
744.502	40255.5
744.841	40148.15
745.181	40339.11
745.52	40035.39
745.86	40116.97
746.199	40015.5
746.538	40002.85
746.877	39999.46
747.216	39965.56
747.556	39886.47
747.895	39883.98
748.234	39716.3
748.573	39621.16
748.911	39705.23
749.25	39542.29
749.589	39540.26
749.928	39604.21
750.267	39624.33
750.605	39386.37
750.944	39373.94
751.283	39170.78
751.621	39509.3
751.96	39187.27
752.298	39097.56
752.636	39106.6
752.975	38887.85
753.313	38756.78
753.651	38916.77
753.989	38779.83
754.327	38719.26
754.666	38462.32
755.004	38509.33
755.342	38568.99
755.679	38389.1
756.017	38240.63
756.355	38447.86
756.693	38307.52
757.031	38330.12
757.368	37931.26
757.706	37890.59
758.044	37864.82
758.381	37861.21
758.719	37753.19
759.056	37759.29
759.394	37724.49
759.731	37278.4
760.068	37259.42
