Data from orange_diffuse_book_FLMS001491_00026.txt Node
Date: Wed Feb 08 15:29:20 GMT 2017
User: dcchb
Spectrometer: FLMS00149
Trigger mode: 0
Integration Time (sec): 2.000000E-2
Scans to average: 10
Electric dark correction enabled: true
Nonlinearity correction enabled: false
Boxcar width: 0
XAxis mode: Wavelengths
Number of Pixels in Spectrum: 2048
>>>>>Begin Spectral Data<<<<<
341.393	5.89
341.776	5.89
342.16	5.89
342.543	-77.5
342.927	-63.71
343.31	-65.07
343.693	-79.76
344.077	-72.75
344.46	-65.97
344.843	-42.02
345.226	-48.8
345.61	-41.79
345.993	-28.23
346.376	-27.1
346.759	25.32
347.142	40.01
347.525	43.85
347.908	64.19
348.291	85.66
348.674	98.32
349.057	114.14
349.44	136.73
349.823	132.44
350.206	151.2
350.588	208.37
350.971	210.4
351.354	232.32
351.737	254.02
352.119	257.18
352.502	289.72
352.884	315.49
353.267	294.92
353.65	299.67
354.032	312.55
354.414	313.9
354.797	335.82
355.179	344.64
355.562	354.36
355.944	341.25
356.326	328.14
356.709	360.68
357.091	355.49
357.473	359.55
357.855	352.1
358.238	349.16
358.62	364.75
359.002	374.47
359.384	351.87
359.766	345.99
360.148	367.46
360.53	342.38
360.912	353.9
361.294	367.91
361.676	346.9
362.057	352.55
362.439	341.93
362.821	344.41
363.203	344.86
363.584	329.05
363.966	339.21
364.348	341.25
364.729	343.28
365.111	318.65
365.493	338.31
365.874	336.95
366.256	329.05
366.637	315.49
367.019	345.09
367.4	314.81
367.781	345.32
368.163	312.55
368.544	333.79
368.925	347.12
369.306	341.93
369.688	324.53
370.069	332.21
370.45	343.51
370.831	324.3
371.212	343.73
371.593	346.67
371.974	338.76
372.355	331.08
372.736	333.11
373.117	320.23
373.498	340.57
373.879	321.14
374.26	338.99
374.641	326.33
375.021	329.27
375.402	354.36
375.783	340.12
376.163	347.12
376.544	338.08
376.925	346.67
377.305	334.02
377.686	330.85
378.066	326.11
378.447	323.17
378.827	338.76
379.208	325.2
379.588	352.32
379.968	356.16
380.349	349.84
380.729	355.26
381.109	357.52
381.489	348.93
381.87	356.61
382.25	346.9
382.63	360
383.01	361.36
383.39	359.78
383.77	361.13
384.15	370.85
384.53	364.07
384.91	362.94
385.29	367.69
385.67	352.55
386.049	344.86
386.429	385.77
386.809	372.43
387.189	369.95
387.568	403.17
387.948	378.08
388.328	370.85
388.707	383.05
389.087	374.02
389.466	393.22
389.846	382.83
390.225	385.09
390.605	372.66
390.984	379.89
391.363	379.89
391.743	388.03
392.122	374.92
392.501	376.95
392.881	390.74
393.26	379.21
393.639	377.41
394.018	401.59
394.397	401.81
394.776	402.26
395.155	388.25
395.534	392.55
395.913	403.39
396.292	390.29
396.671	398.2
397.05	398.87
397.429	422.15
397.808	412.88
398.186	426.9
398.565	412.43
398.944	397.07
399.323	403.85
399.701	411.98
400.08	427.57
400.458	420.79
400.837	422.83
401.215	425.31
401.594	408.82
401.972	409.95
402.351	415.82
402.729	437.97
403.107	420.34
403.486	439.1
403.864	435.03
404.242	439.55
404.62	459.44
404.999	422.83
405.377	430.29
405.755	467.57
406.133	447.23
406.511	446.1
406.889	445.43
407.267	454.69
407.645	464.18
408.023	451.53
408.401	431.87
408.779	463.05
409.156	473.22
409.534	473.22
409.912	457.63
410.29	489.27
410.667	465.09
411.045	492.43
411.422	480.45
411.8	463.5
412.178	475.71
412.555	494.69
412.933	487.23
413.31	495.37
413.687	484.3
414.065	502.15
414.442	512.54
414.819	517.06
415.197	535.14
415.574	547.57
415.951	547.8
416.328	525.42
416.705	524.52
417.082	533.11
417.46	540.11
417.837	552.54
418.214	544.18
418.591	570.17
418.967	540.11
419.344	558.64
419.721	549.38
420.098	553.9
420.475	536.05
420.852	571.98
421.228	563.39
421.605	555.71
421.982	575.82
422.358	586.67
422.735	594.8
423.111	587.8
423.488	604.29
423.864	612.2
424.241	598.87
424.617	596.38
424.994	609.26
425.37	607.23
425.746	628.92
426.123	617.85
426.499	609.49
426.875	634.35
427.251	641.13
427.627	628.7
428.003	639.55
428.379	669.15
428.756	662.6
429.132	663.5
429.507	649.94
429.883	656.49
430.259	681.8
430.635	687.68
431.011	682.26
431.387	664.18
431.763	700.56
432.138	676.83
432.514	723.38
432.89	717.51
433.265	722.48
433.641	730.16
434.016	734.46
434.392	729.03
434.767	726.32
435.143	731.29
435.518	774.91
435.894	760.9
436.269	755.02
436.644	778.3
437.02	771.97
437.395	761.58
437.77	792.54
438.145	810.61
438.52	806.09
438.895	811.07
439.271	807.22
439.646	831.63
440.021	856.26
440.395	846.55
440.77	807.68
441.145	868.47
441.52	842.93
441.895	835.7
442.27	835.47
442.645	838.18
443.019	823.27
443.394	840.22
443.769	861.23
444.143	836.83
444.518	885.64
444.892	869.37
445.267	871.18
445.641	865.75
446.016	860.78
446.39	878.86
446.764	877.96
447.139	888.58
447.513	889.26
447.887	893.78
448.262	923.83
448.636	914.79
449.01	939.2
449.384	907.11
449.758	918.86
450.132	941.01
450.506	931.52
450.88	940.78
451.254	954.79
451.628	946.2
452.002	953.66
452.376	943.27
452.75	960.67
453.123	965.86
453.497	992.98
453.871	995.69
454.244	1006.54
454.618	994.34
454.992	998.41
455.365	1036.15
455.739	1026.88
456.112	1015.58
456.486	1046.77
456.859	1049.7
457.232	1048.35
457.606	1053.55
457.979	1085.64
458.352	1100.55
458.725	1107.33
459.099	1079.99
459.472	1109.82
459.845	1124.73
460.218	1121.11
460.591	1131.06
460.964	1124.05
461.337	1139.42
461.71	1157.5
462.083	1195.24
462.456	1178.29
462.829	1194.11
463.201	1172.86
463.574	1187.55
463.947	1218.97
464.32	1226.2
464.692	1216.03
465.065	1206.08
465.438	1250.38
465.81	1262.81
466.183	1257.16
466.555	1278.4
466.928	1283.6
467.3	1299.19
467.672	1318.62
468.045	1337.61
468.417	1333.76
468.789	1346.42
469.161	1379.19
469.534	1389.13
469.906	1399.53
470.278	1378.28
470.65	1406.08
471.022	1433.65
471.394	1451.5
471.766	1446.53
472.138	1440.88
472.51	1512.29
472.882	1503.7
473.253	1546.41
473.625	1553.19
473.997	1551.84
474.369	1578.73
474.74	1564.27
475.112	1609.01
475.484	1616.24
475.855	1648.78
476.227	1657.6
476.598	1684.26
476.97	1698.73
477.341	1724.26
477.713	1766.97
478.084	1768.78
478.455	1809.68
478.827	1799.97
479.198	1832.06
479.569	1830.02
479.94	1898.95
480.311	1919.51
480.682	1956.35
481.053	1965.84
481.424	2021.43
481.795	2033.18
482.166	2059.85
482.537	2099.17
482.908	2098.72
483.279	2147.08
483.65	2138.26
484.021	2219.62
484.391	2256.9
484.762	2259.16
485.133	2260.97
485.503	2330.12
485.874	2356.56
486.244	2375.54
486.615	2434.3
486.985	2469.55
487.356	2471.81
487.726	2515.2
488.097	2561.75
488.467	2597.69
488.837	2635.2
489.207	2673.84
489.578	2745.48
489.948	2700.51
490.318	2803.1
490.688	2786.83
491.058	2849.66
491.428	2869.54
491.798	2901.86
492.168	2947.06
492.538	2982.53
492.908	2994.51
493.278	3059.59
493.648	3092.81
494.017	3126.94
494.387	3211
494.757	3195.64
495.126	3226.14
495.496	3246.48
495.866	3309.31
496.235	3339.59
496.605	3344.78
496.974	3418
497.344	3430.88
497.713	3431.34
498.082	3483.99
498.452	3470.21
498.821	3540.94
499.19	3581.84
499.559	3632.01
499.928	3638.11
500.298	3767.37
500.667	3728.73
501.036	3757.2
501.405	3773.02
501.774	3777.54
502.143	3829.97
502.512	3881.04
502.88	3861.38
503.249	3898.44
503.618	3934.6
503.987	3976.18
504.356	3968.27
504.724	4006.01
505.093	4048.04
505.462	4055.05
505.83	4095.05
506.199	4169.4
506.567	4185.67
506.936	4223.41
507.304	4253.69
507.672	4254.37
508.041	4304.99
508.409	4297.08
508.777	4337.08
509.145	4383.85
509.514	4399.22
509.882	4437.86
510.25	4511.53
510.618	4535.04
510.986	4490.52
511.354	4556.5
511.722	4598.99
512.09	4634.02
512.458	4632.89
512.826	4665.2
513.193	4708.14
513.561	4742.94
513.929	4760.11
514.297	4821.36
514.664	4874.91
515.032	4903.39
515.4	4942.48
515.767	4968.02
516.135	4995.36
516.502	4970.73
516.869	5062.93
517.237	5077.17
517.604	5074.68
517.972	5132.08
518.339	5182.93
518.706	5136.38
519.073	5236.26
519.44	5267.45
519.808	5280.1
520.175	5335.24
520.542	5399.65
520.909	5383.15
521.276	5394.67
521.643	5520.55
522.009	5567.33
522.376	5568.91
522.743	5578.62
523.11	5691.16
523.477	5706.53
523.843	5744.95
524.21	5772.29
524.577	5854.55
524.943	5805.96
525.31	5847.54
525.676	5909.92
526.043	5952.4
526.409	5979.07
526.776	6038.95
527.142	6075.56
527.508	6150.36
527.874	6155.33
528.241	6164.37
528.607	6172.28
528.973	6224.48
529.339	6245.05
529.705	6278.04
530.071	6353.97
530.437	6381.99
530.803	6426.29
531.169	6452.73
531.535	6460.64
531.901	6505.15
532.267	6498.6
532.632	6587.19
532.998	6586.96
533.364	6612.5
533.73	6604.81
534.095	6665.6
534.461	6740.18
534.826	6773.85
535.192	6759.38
535.557	6796.22
535.923	6861.98
536.288	6851.59
536.653	6874.64
537.019	6848.65
537.384	6918.02
537.749	6935.88
538.114	6961.86
538.479	6956.22
538.845	6996.89
539.21	7033.73
539.575	7037.12
539.94	7086.61
540.305	7078.92
540.67	7184.91
541.034	7220.62
541.399	7287.05
541.764	7276.66
542.129	7296.55
542.494	7338.8
542.858	7388.29
543.223	7323.44
543.587	7414.96
543.952	7436.65
544.316	7493.6
544.681	7462.19
545.045	7581.96
545.41	7578.12
545.774	7643.88
546.138	7570.66
546.503	7721.62
546.867	7662.19
547.231	7785.57
547.595	7770.66
547.959	7830.99
548.324	7728.62
548.688	7856.08
549.052	7904.67
549.416	7951.67
549.779	7960.48
550.143	7982.18
550.507	8037.09
550.871	8092.91
551.235	8133.36
551.599	8131.55
551.962	8322.96
552.326	8258.1
552.689	8292
553.053	8354.82
553.417	8407.93
553.78	8484.76
554.143	8504.2
554.507	8560.92
554.87	8579
555.234	8692.44
555.597	8691.54
555.96	8792.78
556.323	8794.81
556.686	8891.08
557.05	8965.65
557.413	8980.79
557.776	8980.12
558.139	9077.97
558.502	9223.27
558.865	9207.46
559.228	9227.57
559.59	9378.75
559.953	9341.24
560.316	9542.81
560.679	9559.99
561.041	9674.56
561.404	9724.73
561.767	9866.2
562.129	9849.92
562.492	9973.76
562.854	10059.64
563.217	10131.5
563.579	10184.15
563.941	10253.3
564.304	10340.76
564.666	10446.52
565.028	10545.05
565.39	10652.62
565.753	10736.91
566.115	10842.89
566.477	10959.05
566.839	11082.66
567.201	11145.03
567.563	11198.36
567.925	11398.13
568.287	11461.18
568.648	11636.77
569.01	11783.89
569.372	11932.13
569.734	11979.13
570.095	12086.02
570.457	12333.25
570.819	12477.88
571.18	12551.1
571.542	12773.69
571.903	12842.84
572.265	13060.01
572.626	13273.11
572.987	13407.8
573.349	13532.77
573.71	13746.77
574.071	13928.69
574.432	14115.35
574.794	14378.39
575.155	14591.95
575.516	14713.53
575.877	14987.19
576.238	15211.59
576.599	15419.72
576.96	15625.59
577.32	15923.21
577.681	16057.67
578.042	16351
578.403	16717.54
578.763	16916.86
579.124	17229.39
579.485	17506.67
579.845	17847.91
580.206	18033.89
580.566	18243.6
580.927	18640.43
581.287	19078.83
581.648	19254.65
582.008	19735.77
582.368	19989.55
582.728	20356.77
583.089	20593.6
583.449	20989.52
583.809	21344.09
584.169	21829.95
584.529	22027.68
584.889	22710.6
585.249	22833.09
585.609	23278.27
585.969	23734.98
586.329	24114.41
586.688	24623.1
587.048	24980.37
587.408	25424.88
587.768	25812.67
588.127	26274.13
588.487	26558.64
588.846	27122.69
589.206	27400.42
589.565	27960.41
589.925	28610.56
590.284	28880.61
590.643	29334.16
591.003	29837.42
591.362	30365.09
591.721	30748.81
592.08	31223.83
592.44	31803.92
592.799	32194.2
593.158	32706.72
593.517	33180.61
593.876	33743.99
594.235	34167.7
594.593	34630.29
594.952	35258.07
595.311	35497.61
595.67	35914.55
596.029	36617.58
596.387	37131.92
596.746	37578.91
597.104	37984.55
597.463	38506.8
597.822	38968.93
598.18	39247.34
598.538	39686.43
598.897	40310.14
599.255	40440.76
599.613	41298.82
599.972	41545.81
600.33	41989.19
600.688	42316.64
601.046	42826.91
601.404	43457.4
601.762	43710.5
602.12	44287.89
602.478	44628.22
602.836	44989.57
603.194	45132.16
603.552	45614.41
603.91	45670.23
604.268	46311.11
604.625	46534.61
604.983	47009.17
605.341	46985.9
605.698	47677.63
606.056	47991.07
606.413	48104.51
606.771	48376.82
607.128	48806.64
607.485	48816.13
607.843	49195.56
608.2	49651.14
608.557	49926.38
608.914	49967.74
609.272	50228.52
609.629	50436.2
609.986	50777.21
610.343	50782.63
610.7	51205
611.057	51261.49
611.414	51465.33
611.771	51539.45
612.127	51832.1
612.484	51988.25
612.841	52142.6
613.198	52183.5
613.554	52330.39
613.911	52637.05
614.267	52656.71
614.624	52790.94
614.98	52923.59
615.337	53157.26
615.693	53240.42
616.05	53245.39
616.406	53602.9
616.762	53507.99
617.118	53560.41
617.475	53635.67
617.831	53788.88
618.187	53896.9
618.543	53980.97
618.899	54185.93
619.255	54187.29
619.611	54250.79
619.967	54488.3
620.323	54523.78
620.678	54384.8
621.034	54485.59
621.39	54549.09
621.746	54496.21
622.101	54861.4
622.457	54693.27
622.812	54803.09
623.168	54821.4
623.523	54912.69
623.879	55097.32
624.234	54828.85
624.589	55014.61
624.945	55099.13
625.3	55106.59
625.655	55188.85
626.01	55158.56
626.365	55166.47
626.72	55231.78
627.075	55260.71
627.43	55242.4
627.785	55213.48
628.14	55345.23
628.495	55369.18
628.85	55394.26
629.205	55299.8
629.559	55488.5
629.914	55398.56
630.269	55444.88
630.623	55383.42
630.978	55314.49
631.332	55493.02
631.687	55431.32
632.041	55356.52
632.396	55449.63
632.75	55410.53
633.104	55435.62
633.459	55314.49
633.813	55323.53
634.167	55328.95
634.521	55455.28
634.875	55397.88
635.229	55343.64
635.583	55301.84
635.937	55319.69
636.291	55338.45
636.645	55314.72
636.999	55164.89
637.352	55320.14
637.706	55071.33
638.06	55283.53
638.413	55187.49
638.767	55200.82
639.121	55246.7
639.474	55014.61
639.828	55089.19
640.181	55207.15
640.534	55163.76
640.888	55120.37
641.241	54991.56
641.594	55017.1
641.947	55133.48
642.301	55136.87
642.654	55091.22
643.007	55185.23
643.36	55130.54
643.713	55003.77
644.066	55085.8
644.419	54917.21
644.771	54820.04
645.124	54480.62
645.477	54457.11
645.83	54298.93
646.182	54295.76
646.535	54159.72
646.888	54263.22
647.24	54170.57
647.593	54308.64
647.945	54268.64
648.298	54121.98
648.65	54037.46
649.002	53999.95
649.355	54165.6
649.707	53965.15
650.059	54263.67
650.411	54527.85
650.763	54592.7
651.115	54795.86
651.467	54698.01
651.819	54688.29
652.171	54699.59
652.523	54644.68
652.875	54653.94
653.227	54598.8
653.578	54763.32
653.93	54641.74
654.282	54613.72
654.633	54502.54
654.985	54620.95
655.337	54626.15
655.688	54599.26
656.039	54669.99
656.391	54422.99
656.742	54495.98
657.094	54483.33
657.445	54616.43
657.796	54614.4
658.147	54472.93
658.498	54484.68
658.849	54582.76
659.2	54449.88
659.551	54406.95
659.902	54507.06
660.253	54488.98
660.604	54593.38
660.955	54344.35
661.306	54552.48
661.656	54471.8
662.007	54458.7
662.358	54463.67
662.708	54440.62
663.059	54383.89
663.409	54259.83
663.76	54466.15
664.11	54462.99
664.461	54499.6
664.811	54370.56
665.161	54388.64
665.511	54361.52
665.862	54423.44
666.212	54471.58
666.562	54412.14
666.912	54430.22
667.262	54309.09
667.612	54318.36
667.962	54391.13
668.312	54302.54
668.662	54357.45
669.011	54356.78
669.361	54279.26
669.711	54260.28
670.06	54265.03
670.41	54197.46
670.76	54159.72
671.109	54166.27
671.459	54181.41
671.808	54135.54
672.157	54158.82
672.507	53914.3
672.856	53996.11
673.205	54059.84
673.554	54150
673.904	54032.27
674.253	54131.02
674.602	54025.71
674.951	53681.09
675.3	53505.73
675.649	53907.07
675.998	53850.58
676.346	54008.76
676.695	53973.28
677.044	53728.09
677.393	53862.55
677.741	53916.79
678.09	53805.15
678.438	53786.4
678.787	53840.18
679.135	53830.24
679.484	53576.23
679.832	53676.57
680.181	53622.11
680.529	53583.46
680.877	53482
681.225	53554.54
681.573	53631.6
681.922	53408.55
682.27	53385.73
682.618	53426.41
682.966	53227.32
683.314	53246.3
683.661	53192.29
684.009	53076.13
684.357	53011.73
684.705	53049.01
685.053	53032.52
685.4	53035.91
685.748	52901.9
686.095	52827.78
686.443	52738.74
686.79	52660.55
687.138	52772.86
687.485	52647.67
687.832	52548.01
688.18	52574
688.527	52467.11
688.874	52454.45
689.221	52329.26
689.568	52224.86
689.915	52152.99
690.262	52241.35
690.609	51977.4
690.956	52092.43
691.303	51967.01
691.65	51827.58
691.997	51755.04
692.344	51476.17
692.69	51594.82
693.037	51675.27
693.383	51316.86
693.73	51465.33
694.077	51295.61
694.423	51213.13
694.769	51063.76
695.116	51073.7
695.462	51136.3
695.808	50875.51
696.155	50895.17
696.501	50592.13
696.847	50613.6
697.193	50365.7
697.539	50508.52
697.885	50278.24
698.231	50115.98
698.577	50186.27
698.923	50010
699.269	49984.46
699.614	49752.6
699.96	49775.88
700.306	49742.44
700.651	49570.01
700.997	49346.74
701.342	49255.89
701.688	49442.33
702.033	49138.84
702.379	49079.18
702.724	48999.4
703.069	49066.29
703.415	48634.89
703.76	48659.53
704.105	48701.11
704.45	48510.15
704.795	48375.92
705.14	48236.03
705.485	48314.68
705.83	48034.68
706.175	48147.45
706.52	47910.84
706.865	47847.34
707.209	47693.45
707.554	47590.18
707.899	47656.39
708.243	47476.28
708.588	47364.87
708.932	47197.64
709.277	47194.93
709.621	47293.69
709.966	46795.62
710.31	47004.88
710.654	46716.75
710.998	46733.7
711.342	46762.63
711.687	46634.27
712.031	46283.09
712.375	46293.26
712.719	46422.75
713.063	46332.13
713.407	46513.59
713.75	46227.5
714.094	46269.31
714.438	45900.05
714.782	45934.4
715.125	45830
715.469	45867.06
715.812	45629.32
716.156	45448.99
716.499	45474.07
716.843	45464.36
717.186	45371.7
717.53	45561.98
717.873	45366.28
718.216	45209.9
718.559	45138.26
718.902	44942.56
719.246	45049
719.589	44901.43
719.932	44790.02
720.275	44771.72
720.617	44749.8
720.96	44630.48
721.303	44643.81
721.646	44597.26
721.989	44425.74
722.331	44558.16
722.674	44374.44
723.016	44539.86
723.359	44206.31
723.701	44300.32
724.044	44067.33
724.386	43771.52
724.729	43924.28
725.071	43989.14
725.413	43949.59
725.755	43959.54
726.097	43786.21
726.439	43583.73
726.782	43528.36
727.124	43837.05
727.465	43544.41
727.807	43510.51
728.149	43490.62
728.491	43368.82
728.833	43623.73
729.175	43330.63
729.516	43287.46
729.858	43325.65
730.199	43187.58
730.541	43181.93
730.882	43119.11
731.224	43166.79
731.565	42778.32
731.906	42986
732.248	43030.75
732.589	42823.75
732.93	42686.35
733.271	42884.31
733.612	42813.8
733.953	42772
734.294	42638.89
734.635	42428.96
734.976	42581.95
735.317	42348.05
735.658	42429.86
735.999	42364.32
736.339	42247.26
736.68	42280.48
737.021	42328.39
737.361	42094.5
737.702	42321.84
738.042	42118
738.383	42048.17
738.723	42140.38
739.063	41854.73
739.404	42038
739.744	41914.84
740.084	41806.15
740.424	41808.18
740.764	41772.02
741.104	41784.68
741.444	41731.12
741.784	41484.57
742.124	41737
742.464	41657.9
742.804	41553.05
743.143	41449.32
743.483	41481.18
743.823	41286.61
744.162	41194.64
744.502	41368.64
744.841	41151.02
745.181	41399.38
745.52	41256.1
745.86	41276.89
746.199	40997.13
746.538	41068.54
746.877	41157.58
747.216	41024.92
747.556	41051.36
747.895	41042.32
748.234	40721.66
748.573	40693.86
748.911	40649.57
749.25	40607.31
749.589	40522.56
749.928	40697.25
750.267	40655.89
750.605	40592.62
750.944	40464.03
751.283	40276.7
751.621	40426.75
751.96	40190.6
752.298	40160.77
752.636	40174.33
752.975	39929.36
753.313	39836.48
753.651	39979.53
753.989	39734.56
754.327	39725.98
754.666	39516.49
755.004	39602.14
755.342	39484.63
755.679	39564.17
756.017	39330.05
756.355	39447.11
756.693	39313.33
757.031	39341.8
757.368	39047.35
757.706	39114.69
758.044	38919.22
758.381	38947.69
758.719	38703.63
759.056	38836.06
759.394	38648.04
759.731	38455.27
760.068	38432.22
