Data from orange_diffuse_book_FLMS001491_00087.txt Node
Date: Wed Feb 08 15:30:10 GMT 2017
User: dcchb
Spectrometer: FLMS00149
Trigger mode: 0
Integration Time (sec): 2.000000E-2
Scans to average: 10
Electric dark correction enabled: true
Nonlinearity correction enabled: false
Boxcar width: 0
XAxis mode: Wavelengths
Number of Pixels in Spectrum: 2048
>>>>>Begin Spectral Data<<<<<
341.393	-12.23
341.776	-12.23
342.16	-12.23
342.543	-37.77
342.927	-67.82
343.31	-60.82
343.693	-73.7
344.077	-58.11
344.46	-73.02
344.843	-66.69
345.226	-28.95
345.61	-31.67
345.993	-5.45
346.376	-7.26
346.759	7.2
347.142	31.16
347.525	24.83
347.908	67.54
348.291	80.87
348.674	85.85
349.057	108.22
349.44	130.36
349.823	146.41
350.206	180.53
350.588	192.74
350.971	235.67
351.354	247.42
351.737	260.76
352.119	272.28
352.502	290.36
352.884	297.37
353.267	299.4
353.65	307.99
354.032	314.77
354.414	334.65
354.797	347.99
355.179	335.78
355.562	344.37
355.944	359.28
356.326	366.29
356.709	364.71
357.091	348.44
357.473	353.41
357.855	357.25
358.238	342.11
358.62	365.16
359.002	352.5
359.384	347.31
359.766	342.56
360.148	358.15
360.53	345.27
360.912	369.68
361.294	344.82
361.676	342.11
362.057	343.01
362.439	349.57
362.821	344.82
363.203	346.4
363.584	333.75
363.966	333.3
364.348	343.92
364.729	338.27
365.111	332.62
365.493	351.6
365.874	346.4
366.256	344.6
366.637	338.04
367.019	333.97
367.4	355.89
367.781	332.84
368.163	345.27
368.544	332.84
368.925	322.9
369.306	327.19
369.688	334.2
370.069	347.08
370.45	335.78
370.831	336.46
371.212	322.22
371.593	336.01
371.974	338.04
372.355	336.46
372.736	344.6
373.117	334.43
373.498	343.69
373.879	343.92
374.26	329.45
374.641	334.65
375.021	336.69
375.402	342.34
375.783	345.27
376.163	341.43
376.544	355.67
376.925	352.96
377.305	346.18
377.686	343.47
378.066	349.79
378.447	344.14
378.827	365.61
379.208	349.34
379.588	342.11
379.968	350.92
380.349	359.51
380.729	347.31
381.109	362.9
381.489	357.02
381.87	345.73
382.25	368.1
382.63	366.06
383.01	360.64
383.39	374.65
383.77	363.58
384.15	359.96
384.53	360.87
384.91	363.13
385.29	348.89
385.67	352.28
386.049	368.78
386.429	371.49
386.809	378.04
387.189	372.39
387.568	374.2
387.948	345.05
388.328	389.79
388.707	383.46
389.087	371.71
389.466	370.36
389.846	373.97
390.225	373.07
390.605	390.24
390.984	398.61
391.363	386.4
391.743	380.3
392.122	382.56
392.501	386.18
392.881	387.53
393.26	389.11
393.639	397.48
394.018	396.8
394.397	387.53
394.776	404.48
395.155	392.73
395.534	393.63
395.913	400.87
396.292	385.05
396.671	416.91
397.05	414.65
397.429	404.03
397.808	394.09
398.186	411.26
398.565	404.03
398.944	422.56
399.323	412.39
399.701	421.43
400.08	416.23
400.458	408.32
400.837	438.15
401.215	404.03
401.594	421.88
401.972	427.08
402.351	416.46
402.729	416.46
403.107	431.37
403.486	422.56
403.864	418.27
404.242	421.66
404.62	431.6
404.999	439.51
405.377	445.84
405.755	441.99
406.133	448.55
406.511	444.48
406.889	459.17
407.267	434.76
407.645	475.67
408.023	438.6
408.401	444.25
408.779	478.6
409.156	463.24
409.534	467.3
409.912	487.64
410.29	487.87
410.667	486.96
411.045	499.85
411.422	495.55
411.8	481.99
412.178	503.91
412.555	512.73
412.933	472.73
413.31	513.86
413.687	513.18
414.065	509.34
414.442	492.61
414.819	512.05
415.197	518.83
415.574	521.77
415.951	519.28
416.328	524.48
416.705	514.31
417.082	531.26
417.46	521.77
417.837	532.84
418.214	535.55
418.591	528.09
418.967	548.88
419.344	571.71
419.721	559.51
420.098	553.18
420.475	550.92
420.852	547.75
421.228	564.7
421.605	575.32
421.982	588.88
422.358	572.61
422.735	573.97
423.111	575.55
423.488	593.4
423.864	589.56
424.241	617.36
424.617	596.34
424.994	593.18
425.37	587.75
425.746	602.44
426.123	621.42
426.499	625.27
426.875	640.86
427.251	625.72
427.627	624.59
428.003	626.62
428.379	658.26
428.756	620.97
429.132	633.18
429.507	638.83
429.883	644.93
430.259	669.33
430.635	647.86
431.011	674.76
431.387	681.76
431.763	680.18
432.138	675.89
432.514	677.24
432.89	714.76
433.265	711.82
433.641	724.7
434.016	706.62
434.392	736
434.767	738.48
435.143	740.29
435.518	762.66
435.894	747.3
436.269	772.15
436.644	783.23
437.02	776.9
437.395	749.56
437.77	784.58
438.145	781.87
438.52	783.23
438.895	780.06
439.271	805.83
439.646	787.52
440.021	806.5
440.395	819.61
440.77	817.58
441.145	827.29
441.52	833.17
441.895	837.46
442.27	843.79
442.645	858.93
443.019	869.78
443.394	839.05
443.769	849.67
444.143	865.71
444.518	859.38
444.892	840.85
445.267	862.55
445.641	864.13
446.016	861.42
446.39	858.25
446.764	881.08
447.139	891.25
447.513	870.01
447.887	874.75
448.262	912.72
448.636	904.13
449.01	881.98
449.384	898.03
449.758	894.41
450.132	913.85
450.506	918.14
450.88	891.7
451.254	896.9
451.628	915.88
452.002	941.64
452.376	899.84
452.75	932.83
453.123	940.74
453.497	961.75
453.871	970.57
454.244	958.82
454.618	982.32
454.992	989.1
455.365	989.32
455.739	1012.83
456.112	1011.92
456.486	1023.45
456.859	1030.23
457.232	1032.26
457.606	1055.99
457.979	1033.39
458.352	1072.71
458.725	1090.34
459.099	1045.82
459.472	1113.39
459.845	1093.28
460.218	1104.8
460.591	1089.43
460.964	1099.83
461.337	1154.29
461.71	1148.87
462.083	1128.3
462.456	1139.38
462.829	1149.09
463.201	1164.69
463.574	1189.32
463.947	1192.48
464.32	1169.88
464.692	1174.86
465.065	1206.49
465.438	1241.97
465.81	1229.77
466.183	1235.65
466.555	1267.51
466.928	1241.52
467.3	1242.65
467.672	1267.28
468.045	1323.55
468.417	1306.83
468.789	1304.34
469.161	1321.29
469.534	1299.15
469.906	1366.94
470.278	1359.48
470.65	1373.04
471.022	1413.95
471.394	1426.15
471.766	1430.22
472.138	1414.17
472.51	1447.39
472.882	1476.54
473.253	1477.9
473.625	1474.06
473.997	1507.05
474.369	1543.66
474.74	1537.33
475.112	1544.34
475.484	1546.37
475.855	1589.76
476.227	1615.97
476.598	1631.57
476.97	1640.15
477.341	1677.22
477.713	1709.76
478.084	1702.3
478.455	1757.44
478.827	1759.25
479.198	1786.59
479.569	1822.52
479.94	1851.9
480.311	1876.76
480.682	1881.96
481.053	1900.26
481.424	1967.83
481.795	1973.71
482.166	2040.37
482.537	2010.54
482.908	2040.6
483.279	2067.49
483.65	2107.49
484.021	2146.36
484.391	2160.14
484.762	2180.48
485.133	2197.65
485.503	2215.28
485.874	2296.86
486.244	2312.91
486.615	2362.17
486.985	2344.99
487.356	2388.38
487.726	2390.42
488.097	2458.66
488.467	2489.62
488.837	2540.24
489.207	2585.21
489.578	2597.64
489.948	2640.35
490.318	2663.86
490.688	2717.87
491.058	2726.23
491.428	2778.2
491.798	2822.72
492.168	2871.31
492.538	2886.68
492.908	2901.82
493.278	2973.68
493.648	2949.05
494.017	2993.57
494.387	3069.72
494.757	3049.84
495.126	3081.25
495.496	3115.37
495.866	3128.7
496.235	3204.18
496.605	3219.77
496.974	3241.69
497.344	3269.94
497.713	3302.03
498.082	3373.67
498.452	3388.81
498.821	3408.7
499.19	3436.72
499.559	3519.43
499.928	3516.26
500.298	3525.3
500.667	3560.1
501.036	3605.75
501.405	3609.14
501.774	3636.94
502.143	3689.37
502.512	3702.25
502.88	3727.78
503.249	3704.28
503.618	3737.27
503.987	3790.38
504.356	3840.77
504.724	3849.81
505.093	3870.15
505.462	3888.01
505.83	3932.52
506.199	3987.66
506.567	4005.74
506.936	4038.28
507.304	4079.19
507.672	4109.69
508.041	4085.74
508.409	4151.28
508.777	4153.53
509.145	4224.49
509.514	4220.65
509.882	4254.78
510.25	4299.07
510.618	4308.11
510.986	4300.88
511.354	4367.31
511.722	4449.35
512.09	4474.2
512.458	4440.53
512.826	4496.12
513.193	4500.42
513.561	4542.45
513.929	4585.16
514.297	4635.33
514.664	4704.25
515.032	4666.97
515.4	4688.89
515.767	4753.75
516.135	4775.44
516.502	4788.77
516.869	4826.96
517.237	4816.12
517.604	4851.6
517.972	4959.39
518.339	4982.44
518.706	4969.56
519.073	5016.34
519.44	5053.85
519.808	5092.95
520.175	5116.45
520.542	5168.2
520.909	5217.69
521.276	5227.4
521.643	5247.52
522.009	5282.54
522.376	5332.49
522.743	5330.45
523.11	5401.41
523.477	5418.36
523.843	5527.28
524.21	5522.99
524.577	5587.62
524.943	5605.25
525.31	5606.15
525.676	5693.38
526.043	5735.41
526.409	5749.88
526.776	5771.12
527.142	5852.47
527.508	5840.27
527.874	5871.91
528.241	5908.74
528.607	5949.65
528.973	5993.94
529.339	5985.13
529.705	6020.83
530.071	6076.42
530.437	6088.63
530.803	6174.05
531.169	6180.6
531.535	6209.98
531.901	6225.57
532.267	6195.97
532.632	6257.21
532.998	6291.56
533.364	6414.72
533.73	6344.66
534.095	6411.1
534.461	6416.98
534.826	6412.46
535.192	6457.2
535.557	6545.79
535.923	6482.97
536.288	6542.4
536.653	6614.49
537.019	6561.16
537.384	6619.91
537.749	6649.06
538.114	6684.32
538.479	6715.73
538.845	6734.26
539.21	6746.24
539.575	6778.78
539.94	6768.61
540.305	6858.55
540.67	6811.77
541.034	6851.77
541.399	6892.45
541.764	6974.03
542.129	6959.56
542.494	6985.1
542.858	6965.21
543.223	7084.53
543.587	7092.21
543.952	7067.36
544.316	7121.82
544.681	7187.58
545.045	7252.66
545.41	7275.49
545.774	7248.37
546.138	7274.13
546.503	7353.45
546.867	7359.1
547.231	7437.06
547.595	7375.37
547.959	7450.62
548.324	7461.24
548.688	7482.26
549.052	7588.47
549.416	7595.7
549.779	7644.06
550.143	7612.65
550.507	7786.89
550.871	7761.8
551.235	7785.76
551.599	7815.36
551.962	7889.48
552.326	7973.32
552.689	8002.02
553.053	7936.03
553.417	8046.77
553.78	8147.78
554.143	8167.21
554.507	8211.51
554.87	8203.6
555.234	8378.73
555.597	8316.36
555.96	8352.52
556.323	8444.72
556.686	8508
557.05	8555.23
557.413	8637.26
557.776	8594.55
558.139	8757.93
558.502	8730.14
558.865	8825.28
559.228	8880.19
559.59	8959.74
559.953	8985.27
560.316	9187.53
560.679	9182.56
561.041	9319.95
561.404	9343.68
561.767	9423.23
562.129	9452.6
562.492	9510
562.854	9665.03
563.217	9631.36
563.579	9733.95
563.941	9858.47
564.304	9894.85
564.666	10080.61
565.028	10141.85
565.39	10204.9
565.753	10344.33
566.115	10395.86
566.477	10485.8
566.839	10599.69
567.201	10726.7
567.563	10826.81
567.925	10958.78
568.287	11077.65
568.648	11171.66
569.01	11255.95
569.372	11420.91
569.734	11493.23
570.095	11674.92
570.457	11805.76
570.819	11968.02
571.18	12050.95
571.542	12239.42
571.903	12446.65
572.265	12597.15
572.626	12718.28
572.987	12968.67
573.349	13034.21
573.71	13234.65
574.071	13406.17
574.432	13612.5
574.794	13903.33
575.155	13975.2
575.516	14149.43
575.877	14423.32
576.238	14722.52
576.599	14897.66
576.96	15127.94
577.32	15379.68
577.681	15640.01
578.042	15834.58
578.403	16081.13
578.763	16356.83
579.124	16643.15
579.485	16957.49
579.845	17380.76
580.206	17530.13
580.566	17844.7
580.927	18162.21
581.287	18470.9
581.648	18752.7
582.008	19179.13
582.368	19452.79
582.728	19845.1
583.089	20118.76
583.449	20473.11
583.809	20840.78
584.169	21291.39
584.529	21572.96
584.889	22058.15
585.249	22355.54
585.609	22676.21
585.969	23242.98
586.329	23608.84
586.688	24049.96
587.048	24430.52
587.408	24825.53
587.768	25147.56
588.127	25807.88
588.487	25993.41
588.846	26653.28
589.206	26985.25
589.565	27407.61
589.925	27854.61
590.284	28278.78
590.643	28830.4
591.003	29256.6
591.362	29727.33
591.721	30316.91
592.08	30720.29
592.44	31299.71
592.799	31581.74
593.158	32175.62
593.517	32691.09
593.876	33174.47
594.235	33491.97
594.593	34025.52
594.952	34636.58
595.311	34887.19
595.67	35352.04
596.029	36056.65
596.387	36529.18
596.746	36972.78
597.104	37260.01
597.463	37736.38
597.822	38428.34
598.18	38631.72
598.538	39088.66
598.897	39791.02
599.255	39903.1
599.613	40765.91
599.972	41098.33
600.33	41505.32
600.688	41764.98
601.046	42300.33
601.404	42822.12
601.762	43042
602.12	43726.05
602.478	44084.91
602.836	44395.64
603.194	44534.85
603.552	45025.23
603.91	45292.79
604.268	45776.4
604.625	45940.91
604.983	46527.34
605.341	46711.96
605.698	47098.62
606.056	47363.25
606.413	47633.52
606.771	47890.69
607.128	48288.42
607.485	48367.51
607.843	48641.63
608.2	49026.93
608.557	49457.43
608.914	49495.85
609.272	49773.35
609.629	50035.04
609.986	50307.12
610.343	50314.13
610.7	50769.71
611.057	50839.54
611.414	50959.76
611.771	51134.45
612.127	51436.81
612.484	51571.05
612.841	51713.19
613.198	51717.93
613.554	51830.7
613.911	52121.77
614.267	52369.67
614.624	52417.35
614.98	52424.36
615.337	52813.05
615.693	52767.62
616.05	52906.15
616.406	53256.65
616.762	53162.87
617.118	53146.37
617.475	53274.5
617.831	53433.14
618.187	53481.73
618.543	53625
618.899	53885.56
619.255	53781.38
619.611	53799.69
619.967	54073.8
620.323	54115.84
620.678	54118.1
621.034	54013.92
621.39	54115.39
621.746	54167.14
622.101	54503.4
622.457	54303.18
622.812	54434.92
623.168	54494.36
623.523	54483.06
623.879	54671.08
624.234	54481.03
624.589	54669.49
624.945	54736.84
625.3	54802.37
625.655	54739.78
626.01	54823.39
626.365	54896.38
626.72	54760.57
627.075	54848.25
627.43	54895.03
627.785	54895.03
628.14	54931.41
628.495	55041.46
628.85	55007.11
629.205	54954.01
629.559	55156.26
629.914	55038.07
630.269	55041.91
630.623	54931.18
630.978	54896.16
631.332	55057.06
631.687	55109.26
632.041	55039.65
632.396	55098.41
632.75	55067.68
633.104	55027.68
633.459	54917.62
633.813	54973.22
634.167	55067.9
634.521	54980.22
634.875	55027.68
635.229	55038.07
635.583	54875.59
635.937	54879.43
636.291	54845.54
636.645	54906.55
636.999	54856.38
637.352	54921.01
637.706	54833.56
638.06	54891.41
638.413	54771.86
638.767	54810.28
639.121	54908.13
639.474	54653.9
639.828	54760.34
640.181	54791.07
640.534	54765.54
640.888	54719.66
641.241	54629.04
641.594	54669.27
641.947	54785.88
642.301	54711.08
642.654	54724.18
643.007	54705.88
643.36	54730.06
643.713	54605.54
644.066	54780.9
644.419	54619.33
644.771	54340.69
645.124	54066.8
645.477	54110.87
645.83	53910.64
646.182	53891.89
646.535	53783.19
646.888	53964.65
647.24	53659.58
647.593	53875.39
647.945	53865.22
648.298	53649.63
648.65	53695.28
649.002	53650.31
649.355	53767.6
649.707	53628.62
650.059	53795.85
650.411	54175.04
650.763	54239
651.115	54438.77
651.467	54371.65
651.819	54379.11
652.171	54281.48
652.523	54330.29
652.875	54231.31
653.227	54141.82
653.578	54358.54
653.93	54271.09
654.282	54206.46
654.633	54115.39
654.985	54268.83
655.337	54256.62
655.688	54156.29
656.039	54371.88
656.391	54085.1
656.742	54068.83
657.094	54133.24
657.445	54294.82
657.796	54220.47
658.147	54076.06
658.498	54142.5
658.849	54188.15
659.2	54169.85
659.551	54053.69
659.902	54202.84
660.253	54164.65
660.604	54087.14
660.955	53969.17
661.306	54241.48
661.656	54088.49
662.007	54143.18
662.358	54006.24
662.708	54044.65
663.059	54058.21
663.409	53822.96
663.76	54111.54
664.11	54112.22
664.461	54096.85
664.811	54069.96
665.161	54102.96
665.511	53956.75
665.862	53996.52
666.212	54073.58
666.562	54091.88
666.912	54017.76
667.262	53905.22
667.612	53956.29
667.962	53995.16
668.312	53829.06
668.662	54066.8
669.011	53941.6
669.361	53913.58
669.711	53939.8
670.06	53820.7
670.41	53800.14
670.76	53736.86
671.109	53841.04
671.459	53926.69
671.808	53735.73
672.157	53783.87
672.507	53586.36
672.856	53607.38
673.205	53626.13
673.554	53809.4
673.904	53636.98
674.253	53816.41
674.602	53632.01
674.951	53196.99
675.3	53050.33
675.649	53568.28
675.998	53492.12
676.346	53593.36
676.695	53595.17
677.044	53373.94
677.393	53467.04
677.741	53556.3
678.09	53391.11
678.438	53330.55
678.787	53351.79
679.135	53365.35
679.484	53199.7
679.832	53394.05
680.181	53183.21
680.529	53226.14
680.877	53163.32
681.225	53046.94
681.573	53261.17
681.922	53016.43
682.27	52870.67
682.618	52983.66
682.966	52834.74
683.314	52942.31
683.661	52820.28
684.009	52670
684.357	52697.12
684.705	52588.19
685.053	52635.2
685.4	52564.47
685.748	52498.93
686.095	52471.36
686.443	52382.55
686.79	52247.19
687.138	52317.01
687.485	52234.3
687.832	52185.27
688.18	52192.72
688.527	51970.36
688.874	52042.67
689.221	51903.47
689.568	51850.81
689.915	51744.15
690.262	51678.61
690.609	51603.59
690.956	51561.33
691.303	51503.02
691.65	51439.3
691.997	51328.11
692.344	51064.17
692.69	51049.48
693.037	51192.98
693.383	50819.65
693.73	51020.33
694.077	50781.69
694.423	50736.26
694.769	50655.59
695.116	50621.47
695.462	50519.77
695.808	50457.85
696.155	50503.05
696.501	50170.18
696.847	50248.59
697.193	49882.73
697.539	50076.62
697.885	49824.42
698.231	49658.78
698.577	49701.04
698.923	49515.28
699.269	49466.02
699.614	49186.93
699.96	49271.44
700.306	49206.59
700.651	48943.77
700.997	48998.01
701.342	48883.88
701.688	48809.99
702.033	48691.8
702.379	48677.11
702.724	48515.08
703.069	48635.53
703.415	48219.04
703.76	48260.85
704.105	48236.22
704.45	48082.78
704.795	47911.25
705.14	47818.38
705.485	47718.27
705.83	47524.82
706.175	47606.86
706.52	47405.73
706.865	47292.51
707.209	47316.02
707.554	47124.83
707.899	47136.81
708.243	47020.66
708.588	46953.77
708.932	46652.76
709.277	46477.39
709.621	46653.89
709.966	46354.23
710.31	46472.2
710.654	46246.67
710.998	46319.88
711.342	46213.22
711.687	46124.18
712.031	45863.4
712.375	45810.97
712.719	45796.06
713.063	45787.47
713.407	45946.79
713.75	45665.66
714.094	45602.61
714.438	45455.5
714.782	45331.44
715.125	45323.75
715.469	45266.35
715.812	45095.06
716.156	45016.87
716.499	44955.63
716.843	45107.03
717.186	44764.67
717.53	44958.11
717.873	44999.24
718.216	44706.14
718.559	44556.54
718.902	44434.96
719.246	44499.59
719.589	44325.13
719.932	44197.23
720.275	44236.1
720.617	44165.14
720.96	44019.83
721.303	44067.29
721.646	43994.3
721.989	43691.93
722.331	43929.44
722.674	44006.5
723.016	43851.7
723.359	43713.62
723.701	43667.07
724.044	43564.25
724.386	43357.7
724.729	43653.51
725.071	43327.87
725.413	43327.87
725.755	43337.82
726.097	43260.53
726.439	43060.76
726.782	43049.69
727.124	43102.12
727.465	42931.27
727.807	42996.36
728.149	42982.34
728.491	42910.71
728.833	42850.14
729.175	42831.39
729.516	42710.94
729.858	42643.82
730.199	42870.71
730.541	42609.25
730.882	42663.48
731.224	42795.23
731.565	42368.12
731.906	42467.78
732.248	42398.86
732.589	42309.82
732.93	42245.19
733.271	42140.11
733.612	42108.7
733.953	42317.05
734.294	42122.03
734.635	41985.08
734.976	42103.5
735.317	41864.63
735.658	41870.96
735.999	41868.02
736.339	41771.75
736.68	41980.34
737.021	41750.29
737.361	41586.9
737.702	41816.73
738.042	41578.09
738.383	41530.41
738.723	41466.9
739.063	41414.25
739.404	41618.31
739.744	41379.22
740.084	41340.35
740.424	41282.28
740.764	41204.54
741.104	41238.21
741.444	41029.4
741.784	41046.58
742.124	41112.79
742.464	41141.26
742.804	41035.5
743.143	40894.94
743.483	40897.43
743.823	40724.55
744.162	40749.18
744.502	40709.18
744.841	40651.56
745.181	40798.45
745.52	40573.82
745.86	40724.32
746.199	40572.46
746.538	40637.32
746.877	40584.89
747.216	40630.77
747.556	40500.38
747.895	40234.62
748.234	40274.39
748.573	40189.65
748.911	40204.34
749.25	40075.98
749.589	40084.57
749.928	39917.79
750.267	40095.87
750.605	39870.11
750.944	39871.69
751.283	39734.97
751.621	39772.26
751.96	39634.86
752.298	39567.97
752.636	39605.71
752.975	39362.78
753.313	39308.77
753.651	39466.05
753.989	39118.27
754.327	39154.42
754.666	39043.92
755.004	39058.38
755.342	39039.85
755.679	38883.7
756.017	38802.34
756.355	38866.75
756.693	38643.93
757.031	38703.81
757.368	38443.25
757.706	38405.29
758.044	38256.37
758.381	38364.61
758.719	38209.36
759.056	38243.71
759.394	38023.38
