Data from orange_diffuse_book_FLMS001491_00032.txt Node
Date: Wed Feb 08 15:29:27 GMT 2017
User: dcchb
Spectrometer: FLMS00149
Trigger mode: 0
Integration Time (sec): 2.000000E-2
Scans to average: 10
Electric dark correction enabled: true
Nonlinearity correction enabled: false
Boxcar width: 0
XAxis mode: Wavelengths
Number of Pixels in Spectrum: 2048
>>>>>Begin Spectral Data<<<<<
341.393	-28.63
341.776	-28.63
342.16	-28.63
342.543	-53.71
342.927	-69.08
343.31	-84.45
343.693	-93.26
344.077	-67.95
344.46	-50.55
344.843	-51.91
345.226	-36.54
345.61	-24.11
345.993	-18.01
346.376	-18.46
346.759	-0.16
347.142	19.28
347.525	39.17
347.908	60.18
348.291	92.72
348.674	116.45
349.057	117.58
349.44	138.37
349.823	152.38
350.206	162.33
350.588	186.05
350.971	221.08
351.354	233.06
351.737	240.97
352.119	262.21
352.502	270.8
352.884	290.01
353.267	297.92
353.65	297.46
354.032	311.02
354.414	305.37
354.797	318.48
355.179	326.16
355.562	324.58
355.944	342.66
356.326	350.8
356.709	340.85
357.091	343.79
357.473	364.58
357.855	360.51
358.238	349.44
358.62	342.43
359.002	358.93
359.384	377.69
359.766	369.33
360.148	371.59
360.53	366.39
360.912	357.12
361.294	341.3
361.676	352.38
362.057	347.86
362.439	356.67
362.821	325.49
363.203	308.31
363.584	354.86
363.966	342.66
364.348	353.06
364.729	345.37
365.111	333.85
365.493	339.5
365.874	336.33
366.256	329.1
366.637	353.51
367.019	318.93
367.4	331.36
367.781	326.84
368.163	326.84
368.544	339.72
368.925	341.53
369.306	346.05
369.688	340.17
370.069	329.78
370.45	332.72
370.831	323.45
371.212	326.39
371.593	334.98
371.974	326.16
372.355	330.23
372.736	350.57
373.117	329.33
373.498	343.11
373.879	321.19
374.26	325.26
374.641	330.91
375.021	339.72
375.402	340.4
375.783	332.04
376.163	344.69
376.544	343.11
376.925	334.98
377.305	358.48
377.686	334.53
378.066	337.01
378.447	335.2
378.827	341.76
379.208	356.45
379.588	361.19
379.968	359.61
380.349	340.17
380.729	344.47
381.109	332.72
381.489	363.68
381.87	363.9
382.25	349.21
382.63	345.6
383.01	379.04
383.39	354.19
383.77	372.49
384.15	339.04
384.53	353.28
384.91	365.94
385.29	400.96
385.67	369.78
386.049	390.34
386.429	382.43
386.809	368.42
387.189	371.81
387.568	365.48
387.948	363.45
388.328	379.27
388.707	369.55
389.087	391.25
389.466	384.24
389.846	395.77
390.225	374.07
390.605	382.89
390.984	388.99
391.363	402.32
391.743	400.29
392.122	398.7
392.501	384.24
392.881	407.52
393.26	410.91
393.639	404.81
394.018	396.9
394.397	405.26
394.776	401.64
395.155	402.09
395.534	420.62
395.913	415.43
396.292	416.56
396.671	399.61
397.05	434.18
397.429	417.23
397.808	431.47
398.186	433.28
398.565	421.98
398.944	425.14
399.323	427.4
399.701	407.29
400.08	422.66
400.458	438.48
400.837	431.92
401.215	450.45
401.594	446.39
401.972	425.82
402.351	427.63
402.729	446.16
403.107	429.21
403.486	457.01
403.864	456.78
404.242	459.27
404.62	453.62
404.999	456.1
405.377	465.6
405.755	450.68
406.133	456.1
406.511	454.97
406.889	474.18
407.267	462.66
407.645	499.27
408.023	471.92
408.401	468.76
408.779	483.22
409.156	498.14
409.534	509.89
409.912	491.81
410.29	501.3
410.667	490.45
411.045	512.6
411.422	519.83
411.8	520.06
412.178	543.33
412.555	537.01
412.933	543.33
413.31	551.47
413.687	544.46
414.065	556.44
414.442	519.6
414.819	577.23
415.197	560.73
415.574	562.32
415.951	556.67
416.328	580.17
416.705	571.36
417.082	560.96
417.46	586.5
417.837	574.74
418.214	593.28
418.591	598.25
418.967	599.6
419.344	604.57
419.721	589.66
420.098	587.17
420.475	631.24
420.852	623.11
421.228	614.74
421.605	624.91
421.982	625.14
422.358	639.38
422.735	636.89
423.111	640.05
423.488	632.82
423.864	656.32
424.241	645.48
424.617	650.67
424.994	694.06
425.37	668.98
425.746	657.91
426.123	679.83
426.499	669.88
426.875	687.74
427.251	675.99
427.627	690
428.003	687.28
428.379	717.34
428.756	708.53
429.132	710.79
429.507	734.74
429.883	740.16
430.259	753.95
430.635	749.43
431.011	768.86
431.387	771.8
431.763	790.11
432.138	787.17
432.514	779.03
432.89	769.32
433.265	807.73
433.641	816.55
434.016	801.63
434.392	807.28
434.767	821.52
435.143	821.97
435.518	843.44
435.894	840.73
436.269	839.14
436.644	849.77
437.02	864.91
437.395	869.43
437.77	878.24
438.145	913.72
438.52	893.15
438.895	885.02
439.271	901.29
439.646	919.82
440.021	904.68
440.395	896.32
440.77	919.59
441.145	935.87
441.52	937
441.895	923.66
442.27	968.18
442.645	948.97
443.019	943.55
443.394	934.51
443.769	962.53
444.143	946.94
444.518	964.79
444.892	973.38
445.267	1002.98
445.641	995.52
446.016	978.35
446.39	995.98
446.764	995.75
447.139	998.24
447.513	1001.17
447.887	1011.8
448.262	1004.79
448.636	1033.94
449.01	1013.83
449.384	1033.94
449.758	1049.76
450.132	1060.61
450.506	1065.35
450.88	1046.82
451.254	1051.12
451.628	1074.84
452.002	1071.45
452.376	1073.49
452.75	1095.86
453.123	1104.9
453.497	1135.18
453.871	1104
454.244	1130.21
454.618	1144
454.992	1191.9
455.365	1179.02
455.739	1193.71
456.112	1201.85
456.486	1226.71
456.859	1218.12
457.232	1205.01
457.606	1203.65
457.979	1215.63
458.352	1268.29
458.725	1260.6
459.099	1288.17
459.472	1303.31
459.845	1301.96
460.218	1298.57
460.591	1309.41
460.964	1301.28
461.337	1338.57
461.71	1374.05
462.083	1373.37
462.456	1371.11
462.829	1369.98
463.201	1398
463.574	1387.38
463.947	1428.96
464.32	1430.32
464.692	1423.31
465.065	1460.6
465.438	1453.82
465.81	1465.12
466.183	1518.22
466.555	1515.74
466.928	1510.31
467.3	1509.64
467.672	1566.58
468.045	1555.74
468.417	1599.8
468.789	1576.98
469.161	1617.2
469.534	1614.94
469.906	1612.91
470.278	1655.17
470.65	1640.03
471.022	1686.58
471.394	1700.36
471.766	1749.86
472.138	1760.93
472.51	1781.72
472.882	1792.57
473.253	1827.14
473.625	1826.69
473.997	1869.85
474.369	1866.24
474.74	1892.68
475.112	1923.86
475.484	1972.67
475.855	1960.25
476.227	2008.61
476.598	2023.97
476.97	2046.8
477.341	2102.84
477.713	2113.01
478.084	2099.9
478.455	2163.86
478.827	2226.45
479.198	2246.11
479.569	2255.6
479.94	2290.41
480.311	2320.91
480.682	2387.58
481.053	2404.08
481.424	2465.54
481.795	2451.53
482.166	2475.71
482.537	2539.66
482.908	2557.07
483.279	2601.13
483.65	2677.06
484.021	2675.25
484.391	2726.78
484.762	2786.44
485.133	2785.08
485.503	2828.47
485.874	2861.69
486.244	2925.19
486.615	2986.88
486.985	3015.36
487.356	3057.17
487.726	3070.95
488.097	3155.24
488.467	3174.68
488.837	3241.34
489.207	3245.18
489.578	3258.52
489.948	3373.09
490.318	3375.8
490.688	3460.09
491.058	3446.31
491.428	3518.62
491.798	3561.33
492.168	3636.13
492.538	3665.74
492.908	3732.63
493.278	3747.54
493.648	3752.97
494.017	3839.97
494.387	3847.43
494.757	3891.04
495.126	3916.13
495.496	3988.89
495.866	3988.89
496.235	4008.1
496.605	4082
496.974	4163.35
497.344	4153.86
497.713	4246.74
498.082	4254.87
498.452	4319.73
498.821	4317.92
499.19	4345.95
499.559	4387.53
499.928	4439.05
500.298	4456.22
500.667	4505.71
501.036	4514.53
501.405	4561.76
501.774	4563.34
502.143	4712.72
502.512	4700.74
502.88	4783.67
503.249	4785.03
503.618	4810.11
503.987	4853.73
504.356	4870.45
504.724	4902.31
505.093	4922.65
505.462	4994.29
505.83	4964.01
506.199	5065.7
506.567	5161.29
506.936	5111.8
507.304	5174.17
507.672	5201.97
508.041	5225.02
508.409	5254.4
508.777	5335.07
509.145	5391.34
509.514	5357.67
509.882	5455.75
510.25	5439.93
510.618	5520.83
510.986	5533.48
511.354	5556.76
511.722	5627.27
512.09	5670.2
512.458	5711.78
512.826	5720.82
513.193	5747.26
513.561	5766.02
513.929	5804.66
514.297	5871.55
514.664	5959.69
515.032	5970.76
515.4	5993.81
515.767	6054.37
516.135	6048.73
516.502	6084.43
516.869	6198.78
517.237	6195.39
517.604	6227.25
517.972	6295.72
518.339	6320.81
518.706	6345.44
519.073	6339.56
519.44	6493.46
519.808	6521.03
520.175	6444.19
520.542	6594.47
520.909	6616.62
521.276	6610.52
521.643	6695.71
522.009	6709.5
522.376	6767.58
522.743	6843.28
523.11	6923.73
523.477	6951.3
523.843	6995.59
524.21	7076.04
524.577	7128.02
524.943	7165.08
525.31	7175.02
525.676	7215.93
526.043	7293.44
526.409	7374.79
526.776	7452.08
527.142	7438.75
527.508	7501.57
527.874	7530.27
528.241	7604.84
528.607	7605.29
528.973	7710.6
529.339	7704.95
529.705	7766.87
530.071	7774.78
530.437	7840.32
530.803	7898.62
531.169	7925.51
531.535	8015.23
531.901	8007.32
532.267	8062.91
532.632	8113.08
532.998	8158.73
533.364	8255.45
533.73	8131.38
534.095	8269.91
534.461	8292.06
534.826	8330.7
535.192	8407.53
535.557	8418.38
535.923	8433.07
536.288	8496.12
536.653	8519.17
537.019	8553.29
537.384	8579.73
537.749	8669.67
538.114	8624.7
538.479	8629
538.845	8694.08
539.21	8732.5
539.575	8750.8
539.94	8784.47
540.305	8892.72
540.67	8855.43
541.034	8927.07
541.399	8980.85
541.764	8979.27
542.129	9006.61
542.494	9035.54
542.858	9070.34
543.223	9106.27
543.587	9208.87
543.952	9207.06
544.316	9196.44
544.681	9257.91
545.045	9280.05
545.41	9383.55
545.774	9412.03
546.138	9433.27
546.503	9435.98
546.867	9505.58
547.231	9585.81
547.595	9666.71
547.959	9674.17
548.324	9635.98
548.688	9683.43
549.052	9758.91
549.416	9791.68
549.779	9852.24
550.143	9935.4
550.507	9938.11
550.871	10025.12
551.235	9965.46
551.599	10048.62
551.962	10064.44
552.326	10232.57
552.689	10202.74
553.053	10206.36
553.417	10264.43
553.78	10438.44
554.143	10390.08
554.507	10449.74
554.87	10572.22
555.234	10629.85
555.597	10675.04
555.96	10762.5
556.323	10785.1
556.686	10844.31
557.05	10924.08
557.413	10955.26
557.776	11052.44
558.139	11108.03
558.502	11127.24
558.865	11195.71
559.228	11348.92
559.59	11314.58
559.953	11450.84
560.316	11615.36
560.679	11666.43
561.041	11741.46
561.404	11825.75
561.767	11925.18
562.129	11852.41
562.492	12018.51
562.854	12186.19
563.217	12212.63
563.579	12243.82
563.941	12432.51
564.304	12508.67
564.666	12644.71
565.028	12698.49
565.39	12788.89
565.753	12870.69
566.115	13070.24
566.477	13160.4
566.839	13249.67
567.201	13403.79
567.563	13437.01
567.925	13672.03
568.287	13723.1
568.648	13802.65
569.01	14021.62
569.372	14189.53
569.734	14223.43
570.095	14442.63
570.457	14575.05
570.819	14689.4
571.18	14789.51
571.542	14989.96
571.903	15151.08
572.265	15222.95
572.626	15496.84
572.987	15587.46
573.349	15790.16
573.71	15966.88
574.071	16135.24
574.432	16397.61
574.794	16733.64
575.155	16812.51
575.516	16979.74
575.877	17262.89
576.238	17396.22
576.599	17647.74
576.96	17855.87
577.32	18121.85
577.681	18317.1
578.042	18633.25
578.403	18831.89
578.763	19029.85
579.124	19321.14
579.485	19677.07
579.845	19868.02
580.206	20251.06
580.566	20587.1
580.927	20742.12
581.287	21178.95
581.648	21352.05
582.008	21735.32
582.368	22115.87
582.728	22374.62
583.089	22764.67
583.449	22966.47
583.809	23342.06
584.169	23810.52
584.529	24034.01
584.889	24582.25
585.249	24801.23
585.609	25128.22
585.969	25684.59
586.329	25895.66
586.688	26505.36
587.048	26731.8
587.408	27126.81
587.768	27536.97
588.127	27796.85
588.487	28260.12
588.846	28916.6
589.206	29221.22
589.565	29669.35
589.925	30135.32
590.284	30413.51
590.643	30924.91
591.003	31505.23
591.362	31929.4
591.721	32271.31
592.08	32768.7
592.44	33276.71
592.799	33811.84
593.158	34065.84
593.517	34569.78
593.876	35001.86
594.235	35443.66
594.593	35906.25
594.952	36476.63
595.311	36786.22
595.67	37151.64
596.029	37997.72
596.387	38446.52
596.746	38841.08
597.104	39057.12
597.463	39416.66
597.822	40191.56
598.18	40406.47
598.538	40736.4
598.897	41422.94
599.255	41433.33
599.613	42433.08
599.972	42558.05
600.33	43013.4
600.688	43178.14
601.046	43840.95
601.404	44362.07
601.762	44565.45
602.12	45124.31
602.478	45464.41
602.836	45763.61
603.194	45921.58
603.552	46189.14
603.91	46483.37
604.268	47122.9
604.625	47188.66
604.983	47633.39
605.341	47751.13
605.698	47991.35
606.056	48519.47
606.413	48701.39
606.771	49056.41
607.128	49272.67
607.485	49307.93
607.843	49682.83
608.2	49939.77
608.557	50290.27
608.914	50349.93
609.272	50678.29
609.629	50810.03
609.986	51075.79
610.343	51115.79
610.7	51542.44
611.057	51530.24
611.414	51737.02
611.771	51896.56
612.127	52136.33
612.484	52221.52
612.841	52456.09
613.198	52362.31
613.554	52657.9
613.911	52833.48
614.267	52847.95
614.624	52927.94
614.98	53098.79
615.337	53491.32
615.693	53348.95
616.05	53462.39
616.406	53697.19
616.762	53706
617.118	53775.61
617.475	53836.17
617.831	54016.05
618.187	54126.33
618.543	54158.65
618.899	54306.44
619.255	54358.87
619.611	54424.4
619.967	54522.7
620.323	54761.34
620.678	54646.09
621.034	54671.4
621.39	54640.44
621.746	54654.68
622.101	55009.25
622.457	54770.61
622.812	54895.58
623.168	55002.01
623.523	55040.88
623.879	55186.42
624.234	55019.64
624.589	55076.81
624.945	55165.85
625.3	55205.85
625.655	55197.49
626.01	55282.01
626.365	55345.06
626.72	55309.35
627.075	55356.81
627.43	55343.47
627.785	55374.89
628.14	55422.79
628.495	55460.31
628.85	55461.89
629.205	55399.74
629.559	55589.8
629.914	55472.51
630.269	55455.11
630.623	55429.8
630.978	55423.47
631.332	55579.85
631.687	55561.1
632.041	55425.73
632.396	55526.75
632.75	55422.34
633.104	55461.44
633.459	55465.96
633.813	55390.48
634.167	55463.7
634.521	55443.13
634.875	55495.56
635.229	55423.25
635.583	55348.45
635.937	55359.29
636.291	55363.13
636.645	55364.94
636.999	55246.75
637.352	55361.78
637.706	55238.84
638.06	55347.77
638.413	55255.34
638.767	55277.26
639.121	55351.16
639.474	55146.19
639.828	55244.49
640.181	55291.27
640.534	55299.18
640.888	55044.72
641.241	55075.68
641.594	55096.93
641.947	55213.76
642.301	55154.78
642.654	55199.07
643.007	55233.42
643.36	55140.32
643.713	55148.9
644.066	55237.71
644.419	55025.06
644.771	54767.22
645.124	54533.1
645.477	54585.53
645.83	54411.3
646.182	54261.24
646.535	54302.15
646.888	54319.09
647.24	54138.31
647.593	54367.91
647.945	54272.09
648.298	54124.3
648.65	54111.42
649.002	54015.6
649.355	54211.53
649.707	54105.09
650.059	54331.98
650.411	54553.44
650.763	54662.59
651.115	54901
651.467	54810.15
651.819	54801.34
652.171	54747.78
652.523	54647.22
652.875	54697.16
653.227	54666.2
653.578	54806.77
653.93	54729.93
654.282	54674.57
654.633	54643.38
654.985	54666.43
655.337	54678.41
655.688	54604.06
656.039	54706.2
656.391	54512.54
656.742	54593.44
657.094	54561.57
657.445	54640.67
657.796	54591.4
658.147	54597.05
658.498	54608.8
658.849	54596.38
659.2	54570.61
659.551	54480.67
659.902	54613.1
660.253	54544.17
660.604	54633.21
660.955	54425.76
661.306	54569.71
661.656	54474.57
662.007	54480.9
662.358	54539.65
662.708	54536.04
663.059	54454.23
663.409	54260.56
663.76	54632.08
664.11	54510.95
664.461	54583.95
664.811	54418.3
665.161	54470.5
665.511	54373.78
665.862	54423.05
666.212	54448.81
666.562	54472.08
666.912	54392.76
667.262	54329.49
667.612	54392.99
667.962	54404.97
668.312	54342.14
668.662	54414.01
669.011	54417.17
669.361	54375.82
669.711	54322.03
670.06	54282.94
670.41	54186.44
670.76	54168.36
671.109	54312.31
671.459	54243.62
671.808	54120.68
672.157	54240.9
672.507	54013.79
672.856	54044.3
673.205	54093.34
673.554	54181.7
673.904	54067.12
674.253	54237.29
674.602	54141.7
674.951	53661.71
675.3	53458.78
675.649	53986.67
675.998	53982.61
676.346	53983.28
676.695	54077.07
677.044	53778.09
677.393	53868.03
677.741	53895.83
678.09	53743.06
678.438	53752.56
678.787	53872.33
679.135	53770.86
679.484	53530.87
679.832	53705.55
680.181	53538.1
680.529	53710.07
680.877	53598.21
681.225	53575.61
681.573	53735.61
681.922	53436.86
682.27	53435.5
682.618	53425.78
682.966	53372.23
683.314	53410.42
683.661	53272.57
684.009	53157.09
684.357	53075.06
684.705	53071.22
685.053	53138.79
685.4	53066.92
685.748	52947.38
686.095	52941.5
686.443	52771.34
686.79	52872.8
687.138	52780.15
687.485	52767.27
687.832	52643.88
688.18	52717.33
688.527	52484.11
688.874	52554.85
689.221	52473.72
689.568	52348.3
689.915	52177.91
690.262	52213.84
690.609	52083.45
690.956	51995.99
691.303	52049.1
691.65	51795.09
691.997	51885.49
692.344	51571.6
692.69	51532.73
693.037	51653.18
693.383	51358.49
693.73	51488.43
694.077	51189.01
694.423	51331.83
694.769	51226.07
695.116	51125.28
695.462	51055
695.808	50884.38
696.155	51013.87
696.501	50694.56
696.847	50647.55
697.193	50549.7
697.539	50557.16
697.885	50404.4
698.231	50437.39
698.577	50230.61
698.923	50073.78
699.269	50109.26
699.614	49762.38
699.96	49786.33
700.306	49801.7
700.651	49578.2
700.997	49607.35
701.342	49492.33
701.688	49447.13
702.033	49302.5
702.379	49281.49
702.724	49147.93
703.069	49273.8
703.415	48684.67
703.76	48804.21
704.105	48771.22
704.45	48640.83
704.795	48568.51
705.14	48387.27
705.485	48293.26
705.83	48157
706.175	48211.23
706.52	47954.97
706.865	47926.72
707.209	47842.2
707.554	47698.93
707.899	47773.73
708.243	47484.92
708.588	47481.08
708.932	47277.92
709.277	47283.12
709.621	47313.18
709.966	46973.75
710.31	47148.89
710.654	46739.18
710.998	46866.63
711.342	46813.3
711.687	46724.04
712.031	46542.35
712.375	46377.16
712.719	46526.3
713.063	46514.78
713.407	46531.28
713.75	46207.67
714.094	46279.08
714.438	46022.82
714.782	46108.69
715.125	45845.19
715.469	45992.53
715.812	45766.55
716.156	45671.86
716.499	45723.84
716.843	45746.21
717.186	45458.76
717.53	45525.88
717.873	45548.03
718.216	45317.98
718.559	45196.85
718.902	45097.19
719.246	45179.9
719.589	45044.76
719.932	44868.27
720.275	44942.62
720.617	44818.1
720.96	44816.29
721.303	44753.92
721.646	44734.26
721.989	44455.17
722.331	44518.9
722.674	44583.53
723.016	44692
723.359	44581.27
723.701	44498.79
724.044	44194.16
724.386	44135.18
724.729	44245.23
725.071	44171.34
725.413	44031.91
725.755	44059.93
726.097	43855.87
726.439	43650.9
726.782	43730.9
727.124	43843.89
727.465	43635.99
727.807	43628.53
728.149	43637.34
728.491	43354.18
728.833	43451.13
729.175	43384.69
729.516	43410.23
729.858	43351.02
730.199	43281.19
730.541	43273.28
730.882	43273.74
731.224	43298.37
731.565	42929.11
731.906	43167.07
732.248	43137.24
732.589	42859.06
732.93	42674.2
733.271	42871.49
733.612	42683.47
733.953	42846.18
734.294	42666.75
734.635	42627.2
734.976	42648.21
735.317	42493.42
735.658	42490.03
735.999	42492.96
736.339	42495.68
736.68	42491.83
737.021	42365.74
737.361	42136.82
737.702	42344.04
738.042	42138.85
738.383	42161
738.723	42195.35
739.063	42083.94
739.404	42187.66
739.744	41963.26
740.084	41941.79
740.424	42001.23
740.764	41862.25
741.104	42034.22
741.444	41749.48
741.784	41689.6
742.124	41795.13
742.464	41752.42
742.804	41738.18
743.143	41410.06
743.483	41583.16
743.823	41389.94
744.162	41351.07
744.502	41424.52
744.841	41146.33
745.181	41346.1
745.52	41257.97
745.86	41340.45
746.199	41148.14
746.538	41184.98
746.877	41164.41
747.216	41104.53
747.556	40977.07
747.895	41056.17
748.234	40830.64
748.573	40834.7
748.911	40849.84
749.25	40789.28
749.589	40676.29
749.928	40642.62
750.267	40669.28
750.605	40599
750.944	40552.22
751.283	40440.14
751.621	40476.29
751.96	40200.82
752.298	40323.3
752.636	40160.6
752.975	39934.39
753.313	39986.36
753.651	40107.72
753.989	39837.67
754.327	39817.33
754.666	39607.62
755.004	39722.64
755.342	39642.87
755.679	39586.15
756.017	39412.59
756.355	39558.8
756.693	39280.85
757.031	39317.45
757.368	39172.37
757.706	39009.67
758.044	38877.92
758.381	39013.06
758.719	38881.99
