Data from orange_diffuse_book_FLMS001491_00025.txt Node
Date: Wed Feb 08 15:29:20 GMT 2017
User: dcchb
Spectrometer: FLMS00149
Trigger mode: 0
Integration Time (sec): 2.000000E-2
Scans to average: 10
Electric dark correction enabled: true
Nonlinearity correction enabled: false
Boxcar width: 0
XAxis mode: Wavelengths
Number of Pixels in Spectrum: 2048
>>>>>Begin Spectral Data<<<<<
341.393	0.27
341.776	0.27
342.16	0.27
342.543	-62.78
342.927	-88.77
343.31	-84.7
343.693	-69.56
344.077	-69.33
344.46	-66.17
344.843	-55.55
345.226	-45.83
345.61	-23.69
345.993	-27.3
346.376	2.3
346.759	2.75
347.142	13.6
347.525	55.86
347.908	54.28
348.291	83.88
348.674	108.97
349.057	120.49
349.44	107.84
349.823	136.54
350.206	158.91
350.588	193.26
350.971	204.78
351.354	232.35
351.737	277.32
352.119	261.05
352.502	268.74
352.884	273.26
353.267	286.81
353.65	305.35
354.032	305.8
354.414	320.94
354.797	296.98
355.179	331.33
355.562	338.11
355.944	334.5
356.326	331.56
356.709	352.12
357.091	340.37
357.473	364.33
357.855	353.71
358.238	360.03
358.62	347.83
359.002	334.27
359.384	352.8
359.766	349.41
360.148	363.2
360.53	354.84
360.912	343.99
361.294	342.86
361.676	332.46
362.057	328.4
362.439	350.54
362.821	339.47
363.203	362.97
363.584	348.06
363.966	334.72
364.348	353.71
364.729	327.27
365.111	358.23
365.493	334.72
365.874	343.99
366.256	328.62
366.637	305.57
367.019	320.03
367.4	332.91
367.781	304.89
368.163	303.76
368.544	327.04
368.925	337.21
369.306	338.34
369.688	336.53
370.069	326.81
370.45	323.65
370.831	310.77
371.212	327.72
371.593	344.44
371.974	327.72
372.355	308.28
372.736	316.87
373.117	327.49
373.498	315.74
373.879	324.78
374.26	336.98
374.641	360.26
375.021	333.59
375.402	327.04
375.783	344.44
376.163	331.33
376.544	352.35
376.925	338.79
377.305	345.34
377.686	330.88
378.066	348.73
378.447	348.28
378.827	353.03
379.208	337.43
379.588	349.19
379.968	343.31
380.349	352.12
380.729	355.97
381.109	354.61
381.489	368.39
381.87	343.54
382.25	364.78
382.63	349.19
383.01	347.15
383.39	359.81
383.77	346.02
384.15	345.57
384.53	361.84
384.91	351.45
385.29	355.74
385.67	357.77
386.049	367.04
386.429	370.43
386.809	359.81
387.189	367.26
387.568	378.11
387.948	367.26
388.328	380.15
388.707	370.2
389.087	367.26
389.466	368.62
389.846	344.67
390.225	382.86
390.605	385.57
390.984	389.18
391.363	377.21
391.743	377.66
392.122	385.34
392.501	366.13
392.881	395.06
393.26	377.21
393.639	387.83
394.018	385.34
394.397	395.06
394.776	387.83
395.155	386.02
395.534	399.58
395.913	379.92
396.292	405.46
396.671	387.83
397.05	399.58
397.429	420.14
397.808	412.69
398.186	396.42
398.565	396.87
398.944	419.47
399.323	408.62
399.701	415.4
400.08	411.33
400.458	417.21
400.837	420.82
401.215	414.04
401.594	448.17
401.972	443.19
402.351	414.95
402.729	401.84
403.107	419.24
403.486	416.3
403.864	443.19
404.242	446.13
404.62	443.65
404.999	426.92
405.377	435.29
405.755	459.24
406.133	449.07
406.511	450.88
406.889	453.82
407.267	457.66
407.645	440.03
408.023	436.42
408.401	454.49
408.779	459.92
409.156	469.41
409.534	479.8
409.912	472.8
410.29	468.28
410.667	484.32
411.045	487.71
411.422	482.52
411.8	492.01
412.178	492.23
412.555	490.42
412.933	509.41
413.31	501.95
413.687	509.63
414.065	484.55
414.442	492.91
414.819	512.57
415.197	538.11
415.574	516.41
415.951	525
416.328	544.21
416.705	512.35
417.082	527.26
417.46	515.51
417.837	566.58
418.214	519.8
418.591	548.73
418.967	536.3
419.344	548.05
419.721	562.29
420.098	545.79
420.475	553.02
420.852	564.1
421.228	575.39
421.605	568.61
421.982	555.51
422.358	571.55
422.735	586.47
423.111	591.21
423.488	610.65
423.864	593.7
424.241	621.04
424.617	616.07
424.994	610.87
425.37	590.54
425.746	629.63
426.123	619.46
426.499	612.46
426.875	614.26
427.251	654.26
427.627	637.77
428.003	670.08
428.379	666.01
428.756	638.9
429.132	647.03
429.507	630.08
429.883	649.52
430.259	658.33
430.635	673.92
431.011	690.65
431.387	666.01
431.763	698.33
432.138	715.28
432.514	703.53
432.89	713.92
433.265	699.91
433.641	719.57
434.016	736.52
434.392	733.81
434.767	732.23
435.143	729.74
435.518	769.51
435.894	747.82
436.269	775.62
436.644	768.16
437.02	781.94
437.395	787.59
437.77	803.19
438.145	788.27
438.52	801.6
438.895	820.13
439.271	801.15
439.646	829.63
440.021	819.68
440.395	809.96
440.77	803.86
441.145	837.08
441.52	848.16
441.895	827.14
442.27	855.39
442.645	832.79
443.019	852.22
443.394	828.27
443.769	857.65
444.143	840.25
444.518	863.75
444.892	860.36
445.267	869.17
445.641	867.82
446.016	862.84
446.39	865.78
446.764	896.97
447.139	873.24
447.513	892.22
447.887	875.27
448.262	921.83
448.636	885.89
449.01	893.8
449.384	915.27
449.758	915.27
450.132	951.43
450.506	942.39
450.88	932.67
451.254	932.9
451.628	928.15
452.002	921.37
452.376	951.43
452.75	942.84
453.123	985.1
453.497	968.38
453.871	989.62
454.244	996.17
454.618	1013.8
454.992	1015.61
455.365	1012.67
455.739	1018.77
456.112	1017.64
456.486	1030.07
456.859	1019.45
457.232	1063.74
457.606	1065.33
457.979	1079.56
458.352	1090.64
458.725	1067.81
459.099	1085.66
459.472	1138.32
459.845	1143.52
460.218	1102.16
460.591	1120.24
460.964	1120.92
461.337	1134.7
461.71	1145.32
462.083	1214.93
462.456	1181.93
462.829	1182.84
463.201	1213.12
463.574	1210.41
463.947	1220.58
464.32	1210.86
464.692	1233.46
465.065	1217.64
465.438	1258.99
465.81	1235.04
466.183	1265.77
466.555	1295.38
466.928	1277.75
467.3	1285.43
467.672	1309.39
468.045	1335.15
468.417	1335.6
468.789	1327.69
469.161	1369.72
469.534	1382.83
469.906	1385.32
470.278	1414.02
470.65	1411.98
471.022	1446.56
471.394	1449.72
471.766	1445.2
472.138	1442.72
472.51	1475.94
472.882	1486.33
473.253	1501.02
473.625	1545.76
473.997	1531.3
474.369	1548.48
474.74	1590.06
475.112	1616.72
475.484	1619.43
475.855	1647.68
476.227	1678.42
476.598	1686.55
476.97	1694.46
477.341	1741.01
477.713	1745.08
478.084	1777.62
478.455	1814.46
478.827	1801.58
479.198	1855.81
479.569	1856.94
479.94	1905.53
480.311	1924.51
480.682	1964.06
481.053	1983.95
481.424	1990.72
481.795	2032.08
482.166	2040.21
482.537	2089.7
482.908	2080.21
483.279	2115.92
483.65	2160.66
484.021	2232.3
484.391	2254.45
484.762	2257.61
485.133	2295.58
485.503	2328.57
485.874	2363.37
486.244	2362.69
486.615	2458.28
486.985	2460.32
487.356	2502.8
487.726	2507.32
488.097	2572.4
488.467	2613.98
488.837	2629.35
489.207	2656.24
489.578	2725.85
489.948	2741.67
490.318	2785.05
490.688	2809.69
491.058	2808.1
491.428	2839.29
491.798	2931.26
492.168	2921.1
492.538	2981.21
492.908	3002
493.278	3055.56
493.648	3123.35
494.017	3131.94
494.387	3187.76
494.757	3187.98
495.126	3234.76
495.496	3226.4
495.866	3307.07
496.235	3332.16
496.605	3321.76
496.974	3365.15
497.344	3421.42
497.713	3481.08
498.082	3444.92
498.452	3516.56
498.821	3527.18
499.19	3554.07
499.559	3584.35
499.928	3640.4
500.298	3693.28
500.667	3696.44
501.036	3730.57
501.405	3764.46
501.774	3797.91
502.143	3809.66
502.512	3865.25
502.88	3914.29
503.249	3877.45
503.618	3952.93
503.987	3918.58
504.356	4013.04
504.724	4032.25
505.093	4051.46
505.462	4098.01
505.83	4085.81
506.199	4131.46
506.567	4203.77
506.936	4219.82
507.304	4229.08
507.672	4225.24
508.041	4281.06
508.409	4290.78
508.777	4378.91
509.145	4402.64
509.514	4411.23
509.882	4482.64
510.25	4488.29
510.618	4507.72
510.986	4509.75
511.354	4590.43
511.722	4632.01
512.09	4648.06
512.458	4657.32
512.826	4672.91
513.193	4716.53
513.561	4762.18
513.929	4774.15
514.297	4818.22
514.664	4872
515.032	4896.18
515.4	4932.12
515.767	4964.43
516.135	4999.68
516.502	4973.47
516.869	5040.14
517.237	5124.2
517.604	5091.43
517.972	5133.47
518.339	5197.19
518.706	5179.57
519.073	5222.73
519.44	5239.9
519.808	5323.97
520.175	5336.17
520.542	5357.42
520.909	5388.83
521.276	5429.5
521.643	5507.92
522.009	5499.33
522.376	5548.15
522.743	5608.71
523.11	5590.18
523.477	5709.04
523.843	5749.04
524.21	5757.86
524.577	5843.05
524.943	5818.65
525.31	5819.1
525.676	5920.11
526.043	5955.59
526.409	5985.87
526.776	6030.84
527.142	6053.22
527.508	6095.25
527.874	6112.42
528.241	6164.17
528.607	6199.88
528.973	6258.86
529.339	6277.84
529.705	6316.94
530.071	6353.32
530.437	6401.68
530.803	6425.86
531.169	6452.08
531.535	6454.79
531.901	6467.67
532.267	6545.63
532.632	6560.32
532.998	6589.02
533.364	6633.09
533.73	6582.02
534.095	6686.65
534.461	6662.69
534.826	6747.21
535.192	6750.83
535.557	6805.97
535.923	6831.95
536.288	6834.66
536.653	6877.15
537.019	6838.51
537.384	6880.77
537.749	6948.33
538.114	6901.33
538.479	6947.88
538.845	7047.77
539.21	7022.23
539.575	7079.18
539.94	7064.26
540.305	7193.75
540.67	7137.93
541.034	7223.81
541.399	7193.07
541.764	7242.11
542.129	7297.25
542.494	7291.6
542.858	7352.17
543.223	7379.96
543.587	7395.78
543.952	7437.13
544.316	7490.92
544.681	7504.03
545.045	7511.71
545.41	7571.59
545.774	7560.52
546.138	7589.22
546.503	7706.05
546.867	7688.65
547.231	7769.33
547.595	7770.23
547.959	7798.71
548.324	7919.38
548.688	7900.63
549.052	7931.36
549.416	7939.27
549.779	7998.93
550.143	8011.13
550.507	8083.67
550.871	8069.43
551.235	8173.16
551.599	8200.5
551.962	8217.45
552.326	8357.34
552.689	8360.95
553.053	8333.16
553.417	8352.37
553.78	8544.68
554.143	8435.07
554.507	8526.37
554.87	8651.57
555.234	8690.44
555.597	8651.79
555.96	8823.77
556.323	8767.5
556.686	8829.19
557.05	8896.08
557.413	9041.39
557.776	8990.09
558.139	9118.45
558.502	9209.74
558.865	9249.29
559.228	9291.55
559.59	9357.54
559.953	9342.62
560.316	9486.35
560.679	9539
561.041	9689.05
561.404	9736.51
561.767	9865.55
562.129	9846.11
562.492	10018.08
562.854	9984.86
563.217	10036.16
563.579	10229.83
563.941	10228.25
564.304	10373.55
564.666	10406.1
565.028	10531.52
565.39	10545.98
565.753	10757.05
566.115	10852.86
566.477	10981
566.839	11023.48
567.201	11146.19
567.563	11278.62
567.925	11440.65
568.287	11524.94
568.648	11593.41
569.01	11749.34
569.372	11908.43
569.734	12017.81
570.095	12180.06
570.457	12334.41
570.819	12417.57
571.18	12605.36
571.542	12736.43
571.903	12844
572.265	13079.02
572.626	13209.86
572.987	13340.93
573.349	13554.04
573.71	13712.22
574.071	13958.77
574.432	14208.93
574.794	14395.6
575.155	14555.37
575.516	14824.06
575.877	14962.13
576.238	15133.88
576.599	15318.51
576.96	15653.19
577.32	15809.34
577.681	16091.14
578.042	16388.09
578.403	16641.86
578.763	16866.04
579.124	17165.01
579.485	17545.8
579.845	17858.56
580.206	18052.68
580.566	18373.34
580.927	18697.86
581.287	19136.04
581.648	19265.98
582.008	19712.29
582.368	19945.05
582.728	20336
583.089	20676.79
583.449	21003.11
583.809	21349.54
584.169	21883.08
584.529	22050.31
584.889	22713.8
585.249	22779.56
585.609	23286.21
585.969	23712.19
586.329	24058.84
586.688	24559.85
587.048	25012.49
587.408	25275.54
587.768	25749.65
588.127	26096.76
588.487	26627.36
588.846	27210.4
589.206	27473.9
589.565	27933.09
589.925	28533.98
590.284	28796.8
590.643	29424.35
591.003	29784.34
591.362	30377.32
591.721	30806.01
592.08	31165.55
592.44	31791.97
592.799	32242.81
593.158	32602.12
593.517	33036.46
593.876	33714.18
594.235	34052.48
594.593	34608.62
594.952	35175.84
595.311	35468.71
595.67	36046.1
596.029	36783.93
596.387	37086.3
596.746	37500.3
597.104	37849.22
597.463	38488.75
597.822	38926.93
598.18	39291.89
598.538	39695.72
598.897	40353.78
599.255	40366.66
599.613	41318.5
599.972	41583.81
600.33	42039.84
600.688	42255.43
601.046	42757.34
601.404	43410.88
601.762	43654.04
602.12	44227.81
602.478	44666.89
602.836	45010.61
603.194	45176.71
603.552	45561.78
603.91	45688.56
604.268	46295.1
604.625	46566.05
604.983	46982.99
605.341	47095.53
605.698	47593.82
606.056	47999.01
606.413	48251.88
606.771	48473.12
607.128	48776.39
607.485	48889.6
607.843	49135.02
608.2	49495.46
608.557	49835.34
608.914	49897.04
609.272	50301.09
609.629	50351.26
609.986	50881.87
610.343	50830.57
610.7	51204.12
611.057	51345.58
611.414	51475.07
611.771	51601.62
612.127	51944.89
612.484	51921.16
612.841	52102.85
613.198	52174.72
613.554	52308.05
613.911	52622.61
614.267	52734.93
614.624	52739.45
614.98	52829.16
615.337	53123.39
615.693	53178.31
616.05	53197.97
616.406	53651.96
616.762	53531.52
617.118	53548.92
617.475	53669.59
617.831	53811.28
618.187	53911.85
618.543	53937.38
618.899	54135.79
619.255	54255.56
619.611	54233.19
619.967	54467.54
620.323	54575.1
620.678	54480.64
621.034	54431.15
621.39	54439.97
621.746	54581.88
622.101	54818.04
622.457	54587.08
622.812	54723.35
623.168	54932.84
623.523	54893.74
623.879	55038.82
624.234	54924.7
624.589	55036.34
624.945	55060.29
625.3	55100.29
625.655	55073.62
626.01	55124.24
626.365	55196.33
626.72	55184.81
627.075	55229.78
627.43	55265.48
627.785	55217.35
628.14	55290.57
628.495	55317.46
628.85	55373.5
629.205	55254.86
629.559	55492.14
629.914	55394.97
630.269	55387.06
630.623	55330.79
630.978	55408.53
631.332	55430.9
631.687	55499.37
632.041	55401.3
632.396	55465.7
632.75	55397.91
633.104	55477.45
633.459	55313.84
633.813	55312.49
634.167	55315.65
634.521	55379.6
634.875	55376.67
635.229	55384.12
635.583	55241.75
635.937	55265.48
636.291	55264.8
636.645	55248.31
636.999	55214.64
637.352	55303.45
637.706	55100.51
638.06	55250.12
638.413	55271.13
638.767	55202.43
639.121	55208.31
639.474	55034.75
639.828	55157.69
640.181	55113.4
640.534	55131.25
640.888	55178.7
641.241	54981.42
641.594	55044.24
641.947	55208.31
642.301	55074.3
642.654	55033.4
643.007	55069.33
643.36	55001.76
643.713	54999.05
644.066	55101.19
644.419	54919.73
644.771	54681.99
645.124	54521.09
645.477	54447.2
645.83	54346.64
646.182	54291.5
646.535	54197.94
646.888	54261.67
647.24	54125.85
647.593	54312.51
647.945	54103.25
648.298	54099.41
648.65	54085.85
649.002	54056.7
649.355	54146.42
649.707	54049.24
650.059	54146.87
650.411	54501.43
650.763	54522
651.115	54866.85
651.467	54813.74
651.819	54696.46
652.171	54698.72
652.523	54660.75
652.875	54644.93
653.227	54531.04
653.578	54772.61
653.93	54656.91
654.282	54528.33
654.633	54531.72
654.985	54602.45
655.337	54591.15
655.688	54554.09
656.039	54673.41
656.391	54478.61
656.742	54528.55
657.094	54566.97
657.445	54646.06
657.796	54548.66
658.147	54552.28
658.498	54506.41
658.849	54506.41
659.2	54497.82
659.551	54437.26
659.902	54580.98
660.253	54478.61
660.604	54540.76
660.955	54392.51
661.306	54521.55
661.656	54454.2
662.007	54430.93
662.358	54424.6
662.708	54433.87
663.059	54436.35
663.409	54224.61
663.76	54448.55
664.11	54398.84
664.461	54471.83
664.811	54426.18
665.161	54397.26
665.511	54337.14
665.862	54419.4
666.212	54437.71
666.562	54509.8
666.912	54365.62
667.262	54354.55
667.612	54316.13
667.962	54355.22
668.312	54354.55
668.662	54511.83
669.011	54309.8
669.361	54284.26
669.711	54327.43
670.06	54188.9
670.41	54193.65
670.76	54176.47
671.109	54246.3
671.459	54155.45
671.808	54097.38
672.157	54230.25
672.507	54027.55
672.856	53956.14
673.205	54049.02
673.554	54103.7
673.904	54022.58
674.253	54184.15
674.602	54038.17
674.951	53618.75
675.3	53440.45
675.649	53911.17
675.998	53896.25
676.346	53853.32
676.695	54041.11
677.044	53800.21
677.393	53761.11
677.741	53806.99
678.09	53730.16
678.438	53815.8
678.787	53762.02
679.135	53826.42
679.484	53595.7
679.832	53682.25
680.181	53513.89
680.529	53670.95
680.877	53519.31
681.225	53557.96
681.573	53770.61
681.922	53395.47
682.27	53365.64
682.618	53398.41
682.966	53312.09
683.314	53441.12
683.661	53248.13
684.009	53051.75
684.357	53012.43
684.705	53040.46
685.053	53132.88
685.4	53015.37
685.748	52871.19
686.095	52817.41
686.443	52764.3
686.79	52808.82
687.138	52852.21
687.485	52724.08
687.832	52597.98
688.18	52644.99
688.527	52401.38
688.874	52417.65
689.221	52410.87
689.568	52341.04
689.915	52114.83
690.262	52174.04
690.609	52109.86
690.956	51977.21
691.303	51953.03
691.65	51836.65
691.997	51790.77
692.344	51546.26
692.69	51578.8
693.037	51531.34
693.383	51353.27
693.73	51534.73
694.077	51134.07
694.423	51308.3
694.769	51076.44
695.116	51057.91
695.462	51096.1
695.808	50827.63
696.155	50954.41
696.501	50630.8
696.847	50608.2
697.193	50479.17
697.539	50517.81
697.885	50151.27
698.231	50230.59
698.577	50073.75
698.923	50108.33
699.269	49898.84
699.614	49751.5
699.96	49803.25
700.306	49677.83
700.651	49595.35
700.997	49383.38
701.342	49452.75
701.688	49222.02
702.033	49163.5
702.379	49187.68
702.724	48987.23
703.069	49132.76
703.415	48652.32
703.76	48689.16
704.105	48597.18
704.45	48585.43
704.795	48302.5
705.14	48195.16
705.485	48210.07
705.83	48073.58
706.175	48076.52
706.52	47961.04
706.865	47811.89
707.209	47597.66
707.554	47670.88
707.899	47681.27
708.243	47455.52
708.588	47482.86
708.932	47206.26
709.277	47230.66
709.621	47168.97
709.966	46990.9
710.31	46952.93
710.654	46598.82
710.998	46791.13
711.342	46720.62
711.687	46579.83
712.031	46396.79
712.375	46331.93
712.719	46392.49
713.063	46256.91
713.407	46443.11
713.75	46023.24
714.094	46003.58
714.438	45880.19
714.782	45933.3
715.125	45712.51
715.469	45955.67
715.812	45659.86
716.156	45505.51
716.499	45606.3
716.843	45537.83
717.186	45217.38
717.53	45480.88
717.873	45324.95
718.216	45263.03
718.559	45185.07
718.902	44832.54
719.246	45001.57
719.589	44878.86
719.932	44760.67
720.275	44690.39
720.617	44795.25
720.96	44622.82
721.303	44561.36
721.646	44639.32
721.989	44325.66
722.331	44405.43
722.674	44391.42
723.016	44312.78
723.359	44153.68
723.701	44244.08
724.044	44101.26
724.386	43816.97
724.729	44041.37
725.071	43974.93
725.413	44037.98
725.755	43762.73
726.097	43877.31
726.439	43418.11
726.782	43507.15
727.124	43735.39
727.465	43486.58
727.807	43486.81
728.149	43383.08
728.491	43391.67
728.833	43406.36
729.175	43247.04
729.516	43294.72
729.858	43257.89
730.199	43293.37
730.541	43102.64
730.882	43054.96
731.224	43098.8
731.565	42919.37
731.906	43062.64
732.248	43031.68
732.589	42776.32
732.93	42670.78
733.271	42632.14
733.612	42806.83
733.953	42785.36
734.294	42548.98
734.635	42413.62
734.976	42469.43
735.317	42378.36
735.658	42363.22
735.999	42341.3
736.339	42316.9
736.68	42381.98
737.021	42284.13
737.361	42075.77
737.702	42332.04
738.042	42168.65
738.383	42102.21
738.723	42195.09
739.063	41978.6
739.404	42035.32
739.744	42023.34
740.084	41927.08
740.424	41820.19
740.764	41796.68
741.104	41935.66
741.444	41623.35
741.784	41662.45
742.124	41607.31
742.464	41529.57
742.804	41492.74
743.143	41593.52
743.483	41550.59
743.823	41388.56
744.162	41377.94
744.502	41221.56
744.841	41279.86
745.181	41441.66
745.52	41149.69
745.86	41259.97
746.199	41113.76
746.538	41225.17
746.877	41091.17
747.216	41186.53
747.556	40946.08
747.895	40970.49
748.234	40770.04
748.573	40741.34
748.911	40694.57
749.25	40837.61
749.589	40514.68
749.928	40657.05
750.267	40636.71
750.605	40537.28
750.944	40410.73
751.283	40352.43
751.621	40336.38
751.96	40167.35
752.298	40123.73
752.636	40076.05
752.975	39985.66
753.313	39839.67
753.651	40023.85
753.989	39806.68
754.327	39692.11
754.666	39592
755.004	39699.79
755.342	39566.69
755.679	39574.14
756.017	39394.94
756.355	39507.25
756.693	39150.2
757.031	39228.39
757.368	39081.73
757.706	39045.8
758.044	38948.85
758.381	38936.19
758.719	38800.15
759.056	38806.25
759.394	38704.11
