Data from orange_diffuse_book_FLMS001491_00076.txt Node
Date: Wed Feb 08 15:30:02 GMT 2017
User: dcchb
Spectrometer: FLMS00149
Trigger mode: 0
Integration Time (sec): 2.000000E-2
Scans to average: 10
Electric dark correction enabled: true
Nonlinearity correction enabled: false
Boxcar width: 0
XAxis mode: Wavelengths
Number of Pixels in Spectrum: 2048
>>>>>Begin Spectral Data<<<<<
341.393	-23.3
341.776	-23.3
342.16	-23.3
342.543	-52.91
342.927	-82.74
343.31	-68.73
343.693	-70.31
344.077	-72.79
344.46	-67.82
344.843	-56.52
345.226	-44.32
345.61	-29.41
345.993	-8.39
346.376	-5.23
346.759	6.98
347.142	15.34
347.525	40.87
347.908	71.16
348.291	79.74
348.674	87.88
349.057	121.55
349.44	134.88
349.823	139.63
350.206	144.15
350.588	193.41
350.971	205.39
351.354	241.1
351.737	256.91
352.119	253.3
352.502	271.15
352.884	271.6
353.267	278.16
353.65	293.75
354.032	291.04
354.414	336.46
354.797	322.45
355.179	327.42
355.562	334.65
355.944	336.23
356.326	337.59
356.709	353.63
357.091	351.15
357.473	346.86
357.855	343.92
358.238	350.92
358.62	357.48
359.002	368.55
359.384	367.65
359.766	357.25
360.148	327.42
360.53	356.12
360.912	345.5
361.294	342.79
361.676	335.33
362.057	356.57
362.439	343.92
362.821	335.33
363.203	323.81
363.584	350.02
363.966	327.19
364.348	347.76
364.729	331.94
365.111	344.37
365.493	328.55
365.874	313.86
366.256	330.13
366.637	335.56
367.019	337.82
367.4	324.26
367.781	334.88
368.163	310.25
368.544	347.53
368.925	331.94
369.306	338.95
369.688	356.57
370.069	329.45
370.45	325.16
370.831	329.68
371.212	334.43
371.593	317.03
371.974	335.56
372.355	331.71
372.736	355.67
373.117	323.58
373.498	324.03
373.879	331.94
374.26	318.16
374.641	322.45
375.021	325.61
375.402	324.93
375.783	331.71
376.163	328.32
376.544	324.93
376.925	344.14
377.305	343.69
377.686	346.86
378.066	341.21
378.447	364.93
378.827	362.67
379.208	347.31
379.588	338.95
379.968	353.41
380.349	331.26
380.729	335.33
381.109	358.61
381.489	353.18
381.87	355.22
382.25	339.17
382.63	360.19
383.01	355.89
383.39	342.11
383.77	364.26
384.15	359.51
384.53	357.48
384.91	347.08
385.29	344.6
385.67	375.56
386.049	369.45
386.429	361.77
386.809	381.88
387.189	355.22
387.568	356.35
387.948	372.62
388.328	363.13
388.707	387.98
389.087	363.35
389.466	365.84
389.846	400.19
390.225	362.45
390.605	392.28
390.984	388.44
391.363	386.63
391.743	383.46
392.122	365.16
392.501	399.06
392.881	374.65
393.26	384.14
393.639	397.7
394.018	382.79
394.397	379.85
394.776	386.85
395.155	420.3
395.534	402
395.913	394.54
396.292	399.74
396.671	402.45
397.05	385.95
397.429	406.06
397.808	423.01
398.186	405.38
398.565	397.7
398.944	380.3
399.323	407.64
399.701	421.88
400.08	420.07
400.458	417.81
400.837	431.37
401.215	417.36
401.594	434.31
401.972	418.49
402.351	431.6
402.729	434.54
403.107	438.83
403.486	426.63
403.864	436.57
404.242	455.1
404.62	447.19
404.999	454.2
405.377	438.38
405.755	440.64
406.133	441.77
406.511	435.67
406.889	460.75
407.267	435.89
407.645	452.84
408.023	466.63
408.401	451.94
408.779	469.34
409.156	459.62
409.534	451.94
409.912	462.11
410.29	493.74
410.667	469.34
411.045	481.99
411.422	502.56
411.8	502.11
412.178	481.54
412.555	498.94
412.933	497.36
413.31	475.89
413.687	496.23
414.065	502.78
414.442	505.5
414.819	525.16
415.197	520.41
415.574	516.57
415.951	521.54
416.328	530.13
416.705	501.43
417.082	523.12
417.46	504.14
417.837	520.64
418.214	545.04
418.591	538.94
418.967	526.29
419.344	550.47
419.721	571.93
420.098	539.39
420.475	540.97
420.852	554.99
421.228	546.62
421.605	553.86
421.982	562.22
422.358	581.65
422.735	589.11
423.111	560.86
423.488	583.46
423.864	581.43
424.241	604.7
424.617	610.35
424.994	592.27
425.37	595.44
425.746	615.32
426.123	620.29
426.499	619.84
426.875	627.3
427.251	631.59
427.627	627.75
428.003	622.33
428.379	639.5
428.756	641.76
429.132	663.68
429.507	649.45
429.883	663.23
430.259	676.11
430.635	670.01
431.011	670.24
431.387	669.78
431.763	714.08
432.138	713.63
432.514	674.76
432.89	672.72
433.265	707.75
433.641	712.95
434.016	725.38
434.392	717.69
434.767	740.74
435.143	735.09
435.518	732.16
435.894	745.49
436.269	779.16
436.644	755.43
437.02	747.97
437.395	750.01
437.77	769.67
438.145	782.1
438.52	781.19
438.895	789.33
439.271	814.19
439.646	810.8
440.021	800.63
440.395	812.61
440.77	819.84
441.145	823.68
441.52	828.42
441.895	840.4
442.27	841.76
442.645	805.83
443.019	848.99
443.394	851.25
443.769	866.39
444.143	845.37
444.518	863.45
444.892	853.96
445.267	879.27
445.641	860.74
446.016	865.71
446.39	877.91
446.764	884.02
447.139	851.25
447.513	891.25
447.887	894.19
448.262	902.09
448.636	906.39
449.01	888.99
449.384	908.42
449.758	903
450.132	917.24
450.506	915.65
450.88	919.27
451.254	928.76
451.628	921.98
452.002	947.74
452.376	955.43
452.75	928.76
453.123	963.34
453.497	966.73
453.871	969.44
454.244	997.01
454.618	995.65
454.992	997.23
455.365	1014.18
455.739	1013.96
456.112	1004.92
456.486	1013.96
456.859	1036.55
457.232	1073.62
457.606	1016.89
457.979	1047.4
458.352	1044.24
458.725	1081.53
459.099	1104.12
459.472	1088.08
459.845	1114.07
460.218	1101.86
460.591	1108.64
460.964	1077.01
461.337	1102.09
461.71	1153.39
462.083	1118.13
462.456	1150
462.829	1170.56
463.201	1181.64
463.574	1183.22
463.947	1141.86
464.32	1198.13
464.692	1219.15
465.065	1189.09
465.438	1230.22
465.81	1224.57
466.183	1231.58
466.555	1239.26
466.928	1266.83
467.3	1264.8
467.672	1281.29
468.045	1307.06
468.417	1322.87
468.789	1263.89
469.161	1300.28
469.534	1346.15
469.906	1342.31
470.278	1361.74
470.65	1338.24
471.022	1399.26
471.394	1397.22
471.766	1423.44
472.138	1448.3
472.51	1426.6
472.882	1460.5
473.253	1447.84
473.625	1508.63
473.997	1492.81
474.369	1506.82
474.74	1507.73
475.112	1521.97
475.484	1561.74
475.855	1578.69
476.227	1589.08
476.598	1616.43
476.97	1608.74
477.341	1678.57
477.713	1654.39
478.084	1685.13
478.455	1703.43
478.827	1734.84
479.198	1803.31
479.569	1765.58
479.94	1789.98
480.311	1860.04
480.682	1878.79
481.053	1903.65
481.424	1923.99
481.795	1979.81
482.166	1978
482.537	2020.48
482.908	2064.1
483.279	2058.45
483.65	2083.31
484.021	2097.09
484.391	2174.15
484.762	2208.28
485.133	2188.16
485.503	2235.85
485.874	2273.81
486.244	2295.96
486.615	2322.62
486.985	2361.04
487.356	2401.94
487.726	2414.15
488.097	2493.47
488.467	2468.83
488.837	2526.68
489.207	2533.01
489.578	2645.55
489.948	2616.17
490.318	2677.64
490.688	2696.62
491.058	2730.97
491.428	2765.1
491.798	2807.58
492.168	2877.64
492.538	2864.53
492.908	2887.81
493.278	2956.05
493.648	2985.43
494.017	3039.44
494.387	3043.28
494.757	3103.17
495.126	3123.51
495.496	3145.43
495.866	3179.78
496.235	3194.92
496.605	3256.84
496.974	3285.31
497.344	3283.28
497.713	3342.26
498.082	3301.58
498.452	3390.62
498.821	3422.71
499.19	3489.6
499.559	3475.81
499.928	3529.6
500.298	3548.58
500.667	3576.37
501.036	3603.72
501.405	3688.24
501.774	3675.13
502.143	3700.89
502.512	3770.72
502.88	3794
503.249	3785.18
503.618	3804.17
503.987	3892.52
504.356	3892.3
504.724	3866.76
505.093	3952.18
505.462	3987.44
505.83	3978.17
506.199	4031.5
506.567	4080.09
506.936	4111.05
507.304	4182.46
507.672	4187.21
508.041	4156.02
508.409	4225.17
508.777	4259.52
509.145	4299.07
509.514	4370.03
509.882	4367.54
510.25	4360.08
510.618	4412.74
510.986	4384.49
511.354	4468.33
511.722	4544.03
512.09	4544.94
512.458	4562.11
512.826	4604.37
513.193	4667.87
513.561	4662.22
513.929	4717.81
514.297	4745.38
514.664	4765.95
515.032	4766.85
515.4	4870.35
515.767	4862.22
516.135	4938.37
516.502	4886.85
516.869	4914.64
517.237	5017.01
517.604	5026.96
517.972	5019.5
518.339	5070.57
518.706	5110.57
519.073	5158.03
519.44	5148.54
519.808	5190.12
520.175	5289.32
520.542	5306.72
520.909	5297.23
521.276	5353.5
521.643	5402.99
522.009	5432.6
522.376	5459.49
522.743	5462.65
523.11	5522.31
523.477	5570.67
523.843	5659.03
524.21	5675.53
524.577	5707.62
524.943	5793.27
525.31	5743.55
525.676	5801.85
526.043	5823.1
526.409	5894.73
526.776	5894.51
527.142	5961.17
527.508	6038.91
527.874	6065.8
528.241	6095.86
528.607	6142.18
528.973	6128.62
529.339	6147.15
529.705	6215.85
530.071	6247.72
530.437	6292.46
530.803	6279.13
531.169	6296.08
531.535	6351.44
531.901	6346.7
532.267	6380.82
532.632	6384.89
532.998	6434.6
533.364	6481.84
533.73	6509.86
534.095	6541.72
534.461	6589.4
534.826	6646.58
535.192	6647.25
535.557	6691.77
535.923	6703.52
536.288	6726.57
536.653	6771.55
537.019	6790.3
537.384	6847.02
537.749	6853.12
538.114	6834.37
538.479	6855.16
538.845	6874.82
539.21	6910.07
539.575	6925.21
539.94	6977.19
540.305	7057.19
540.67	7011.76
541.034	7117.3
541.399	7096.96
541.764	7092.44
542.129	7140.12
542.494	7145.09
542.858	7223.96
543.223	7192.33
543.587	7268.26
543.952	7273.45
544.316	7349.61
544.681	7339.67
545.045	7375.15
545.41	7485.65
545.774	7454.01
546.138	7523.62
546.503	7567.23
546.867	7556.84
547.231	7567.46
547.595	7663.5
547.959	7639.77
548.324	7666.89
548.688	7745.08
549.052	7740.79
549.416	7814.46
549.779	7825.53
550.143	7858.07
550.507	7943.94
550.871	7991.63
551.235	8006.31
551.599	8141.9
551.962	8003.6
552.326	8092.87
552.689	8247.89
553.053	8172.86
553.417	8230.26
553.78	8344.61
554.143	8334.44
554.507	8394.55
554.87	8384.61
555.234	8523.14
555.597	8520.43
555.96	8573.08
556.323	8644.72
556.686	8667.99
557.05	8805.39
557.413	8848.33
557.776	8881.09
558.139	8948.21
558.502	8969.45
558.865	9035.89
559.228	9118.83
559.59	9203.35
559.953	9246.51
560.316	9215.77
560.679	9331.93
561.041	9439.95
561.404	9588.42
561.767	9639.04
562.129	9645.14
562.492	9813.27
562.854	9852.14
563.217	9863.89
563.579	9984.57
563.941	10052.14
564.304	10189.99
564.666	10227.27
565.028	10288.51
565.39	10437.89
565.753	10562.63
566.115	10599.02
566.477	10774.38
566.839	10754.27
567.201	10907.48
567.563	11024.09
567.925	11197.42
568.287	11258.21
568.648	11385.66
569.01	11446
569.372	11661.36
569.734	11679.44
570.095	11836.5
570.457	12114.68
570.819	12162.14
571.18	12277.62
571.542	12505.41
571.903	12619.98
572.265	12671.5
572.626	12855.68
572.987	13109.68
573.349	13285.27
573.71	13560.29
574.071	13689.1
574.432	13865.14
574.794	14032.15
575.155	14193.72
575.516	14305.81
575.877	14640.72
576.238	14815.85
576.599	15057.2
576.96	15261.49
577.32	15488.83
577.681	15768.14
578.042	16050.17
578.403	16306.89
578.763	16425.75
579.124	16844.27
579.485	17154.55
579.845	17438.61
580.206	17699.62
580.566	17992.72
580.927	18261.86
581.287	18591.57
581.648	18865.01
582.008	19183.2
582.368	19591.32
582.728	19968.71
583.089	20235.15
583.449	20550.84
583.809	20968.69
584.169	21246.19
584.529	21734.32
584.889	22111.25
585.249	22442.32
585.609	22734.29
585.969	23183.54
586.329	23502.18
586.688	24093.8
587.048	24481.14
587.408	24807.68
587.768	25176.71
588.127	25600.43
588.487	26106.18
588.846	26605.6
589.206	26923.78
589.565	27242.19
589.925	27872.91
590.284	28179.12
590.643	28634.7
591.003	29154.69
591.362	29746.08
591.721	30165.28
592.08	30515.33
592.44	31004.13
592.799	31600.5
593.158	32052.69
593.517	32486.58
593.876	32980.12
594.235	33363.16
594.593	33853.09
594.952	34422.12
595.311	34821.43
595.67	35254.64
596.029	35978.46
596.387	36342.07
596.746	36800.59
597.104	37109.05
597.463	37516.95
597.822	38105.18
598.18	38475.57
598.538	38887.54
598.897	39500.85
599.255	39513.96
599.613	40657.21
599.972	40624.21
600.33	41191.43
600.688	41502.38
601.046	42024.4
601.404	42449.93
601.762	42724.05
602.12	43357.25
602.478	43662.78
602.836	44019.83
603.194	44267.51
603.552	44807.38
603.91	44963.99
604.268	45479.23
604.625	45624.76
604.983	46062.72
605.341	46347
605.698	46760.1
606.056	47043.48
606.413	47310.59
606.771	47685.5
607.128	47886.4
607.485	47964.59
607.843	48337.91
608.2	48572.93
608.557	48893.15
608.914	49017.89
609.272	49445.23
609.629	49664.2
609.986	50004.98
610.343	49980.35
610.7	50303.28
611.057	50500.79
611.414	50609.49
611.771	50769.26
612.127	51052.64
612.484	51153.2
612.841	51404.27
613.198	51425.06
613.554	51576.92
613.911	51947.98
614.267	51886.97
614.624	52082.9
614.98	52193.85
615.337	52401.31
615.693	52530.34
616.05	52471.36
616.406	52796.1
616.762	52726.04
617.118	52849.2
617.475	52932.82
617.831	53036.32
618.187	53175.07
618.543	53262.75
618.899	53464.78
619.255	53498.23
619.611	53450.32
619.967	53741.38
620.323	53836.3
620.678	53683.53
621.034	53684.44
621.39	53841.95
621.746	53733.25
622.101	54088.04
622.457	53956.29
622.812	54070.41
623.168	54249.39
623.523	54236.29
623.879	54362.84
624.234	54160.58
624.589	54370.97
624.945	54366
625.3	54453.46
625.655	54389.73
626.01	54464.53
626.365	54468.6
626.72	54514.7
627.075	54498.88
627.43	54615.03
627.785	54590.63
628.14	54635.37
628.495	54689.16
628.85	54677.4
629.205	54616.16
629.559	54765.09
629.914	54620.46
630.269	54726.67
630.623	54643.96
630.978	54689.61
631.332	54742.71
631.687	54777.29
632.041	54716.5
632.396	54708.59
632.75	54680.57
633.104	54684.18
633.459	54652.77
633.813	54580.23
634.167	54689.83
634.521	54595.37
634.875	54699.55
635.229	54704.07
635.583	54610.51
635.937	54582.94
636.291	54580.23
636.645	54509.27
636.999	54473.34
637.352	54643.51
637.706	54480.8
638.06	54540.23
638.413	54555.37
638.767	54457.75
639.121	54545.2
639.474	54344.76
639.828	54398.32
640.181	54382.04
640.534	54429.28
640.888	54370.75
641.241	54271.77
641.594	54419.78
641.947	54388.37
642.301	54219.11
642.654	54438.77
643.007	54358.99
643.36	54371.65
643.713	54280.13
644.066	54384.53
644.419	54143.63
644.771	54062.05
645.124	53752.23
645.477	53693.48
645.83	53493.25
646.182	53533.03
646.535	53476.53
646.888	53577.77
647.24	53396.99
647.593	53420.71
647.945	53474.72
648.298	53355.86
648.65	53314.28
649.002	53214.84
649.355	53336.42
649.707	53255.07
650.059	53366.93
650.411	53775.73
650.763	53807.82
651.115	54127.14
651.467	53939.34
651.819	54022.28
652.171	53992
652.523	53902.96
652.875	53896.41
653.227	53830.42
653.578	53987.93
653.93	53940.7
654.282	53789.29
654.633	53738.67
654.985	53900.48
655.337	53917.88
655.688	53839.46
656.039	53949.29
656.391	53655.74
656.742	53765.34
657.094	53716.53
657.445	53874.26
657.796	53723.98
658.147	53678.56
658.498	53809.18
658.849	53804.21
659.2	53690.31
659.551	53656.64
659.902	53815.05
660.253	53676.53
660.604	53808.95
660.955	53716.75
661.306	53709.75
661.656	53713.36
662.007	53643.31
662.358	53708.16
662.708	53664.1
663.059	53589.75
663.409	53418.68
663.76	53773.93
664.11	53694.83
664.461	53779.8
664.811	53711.55
665.161	53681.05
665.511	53540.94
665.862	53647.83
666.212	53656.41
666.562	53730.76
666.912	53587.26
667.262	53624.55
667.612	53544.78
667.962	53591.11
668.312	53517.21
668.662	53613.7
669.011	53494.84
669.361	53528.28
669.711	53451.9
670.06	53504.78
670.41	53456.19
670.76	53376.42
671.109	53396.31
671.459	53322.41
671.808	53281.96
672.157	53433.6
672.507	53194.96
672.856	53203.32
673.205	53260.72
673.554	53307.95
673.904	53140.5
674.253	53422.75
674.602	53274.96
674.951	52744.57
675.3	52554.75
675.649	53158.12
675.998	53042.87
676.346	53072.7
676.695	53189.08
677.044	52971.91
677.393	52962.19
677.741	53023.21
678.09	52963.32
678.438	52956.32
678.787	52993.83
679.135	53023.21
679.484	52696.44
679.832	52825.02
680.181	52697.8
680.529	52808.53
680.877	52726.04
681.225	52604.24
681.573	52943.21
681.922	52714.74
682.27	52529.21
682.618	52517.46
682.966	52496.9
683.314	52609.44
683.661	52387.75
684.009	52285.15
684.357	52190.46
684.705	52215.1
685.053	52196.34
685.4	52251.71
685.748	52022.11
686.095	52047.87
686.443	51860.76
686.79	51820.76
687.138	51898.27
687.485	51917.93
687.832	51698.95
688.18	51826.41
688.527	51595.45
688.874	51624.83
689.221	51490.14
689.568	51435.91
689.915	51359.98
690.262	51291.73
690.609	51289.92
690.956	51091.74
691.303	51044.05
691.65	50981
691.997	50830.73
692.344	50638.19
692.69	50672.31
693.037	50730.62
693.383	50523.39
693.73	50549.38
694.077	50384.18
694.423	50404.3
694.769	50208.82
695.116	50235.71
695.462	50144.42
695.808	50020.8
696.155	50001.59
696.501	49730.19
696.847	49776.29
697.193	49516.41
697.539	49730.19
697.885	49367.71
698.231	49277.32
698.577	49208.4
698.923	49202.75
699.269	48992.36
699.614	48778.12
699.96	48759.82
700.306	48660.84
700.651	48464.91
700.997	48347.18
701.342	48315.54
701.688	48393.05
702.033	48181.53
702.379	48169.33
702.724	48072.61
703.069	48050.23
703.415	47663.8
703.76	47728.89
704.105	47592.17
704.45	47591.49
704.795	47280.31
705.14	47240.76
705.485	47281.44
705.83	47034.67
706.175	47082.8
706.52	47008.91
706.865	46841
707.209	46692.53
707.554	46659.99
707.899	46699.08
708.243	46431.75
708.588	46456.15
708.932	46110.85
709.277	46171.41
709.621	46191.07
709.966	45774.81
710.31	45994.24
710.654	45655.49
710.998	45681.26
711.342	45681.71
711.687	45544.31
712.031	45411.66
712.375	45268.16
712.719	45332.79
713.063	45271.55
713.407	45342.28
713.75	45087.37
714.094	45060.93
714.438	44883.54
714.782	44743.43
715.125	44581.85
715.469	44804.67
715.812	44585.01
716.156	44351.8
716.499	44534.17
716.843	44404.23
717.186	44101.64
717.53	44378.24
717.873	44430.89
718.216	44159.71
718.559	44143.9
718.902	43880.63
719.246	43991.13
719.589	43881.08
719.932	43595.21
720.275	43663
720.617	43581.2
720.96	43568.54
721.303	43530.58
721.646	43589.79
721.989	43316.8
722.331	43409.45
722.674	43242.68
723.016	43383.92
723.359	43195.9
723.701	43126.07
724.044	43017.37
724.386	42818.28
724.729	43081.55
725.071	42960.65
725.413	42879.3
725.755	42857.83
726.097	42724.95
726.439	42566.76
726.782	42503.71
727.124	42632.3
727.465	42398.63
727.807	42555.69
728.149	42253.1
728.491	42331.06
728.833	42397.95
729.175	42214.91
729.516	42175.59
729.858	42140.78
730.199	42067.57
730.541	42090.84
730.882	41911.86
731.224	42164.29
731.565	41804.07
731.906	41873
732.248	41827.35
732.589	41684.53
732.93	41638.65
733.271	41668.03
733.612	41676.84
733.953	41761.36
734.294	41515.04
734.635	41379.22
734.976	41619.22
735.317	41380.58
735.658	41246.8
735.999	41403.85
736.339	41245.44
736.68	41325.21
737.021	41228.72
737.361	41095.84
737.702	41159.12
738.042	40945.11
738.383	41022.4
738.723	41075.5
739.063	40944.66
739.404	40890.65
739.744	40898.56
740.084	40733.14
740.424	40837.99
740.764	40725.45
741.104	40913.25
741.444	40593.03
741.784	40511.22
742.124	40553.71
742.464	40518.91
742.804	40489.98
743.143	40504.22
743.483	40358.46
743.823	40145.36
744.162	40223.77
744.502	40320.04
744.841	40221.74
745.181	40259.93
745.52	40136.54
745.86	40081.4
746.199	39872.82
746.538	39973.16
746.877	40067.84
747.216	39991.01
747.556	39895.42
747.895	39791.69
748.234	39774.75
748.573	39693.17
748.911	39711.92
749.25	39475.09
749.589	39615.43
749.928	39600.29
750.267	39492.72
750.605	39526.39
750.944	39372.95
751.283	39300.86
751.621	39319.39
751.96	39098.15
752.298	39020.41
752.636	38956.69
752.975	39110.36
753.313	38833.07
753.651	39132.28
753.989	38771.61
754.327	38793.98
754.666	38548.34
755.004	38628.56
755.342	38673.76
755.679	38498.62
756.017	38401
756.355	38468.79
756.693	38164.39
757.031	38240.77
757.368	37996.26
757.706	38035.13
758.044	37870.16
758.381	37984.96
758.719	37691.86
759.056	37756.72
759.394	37529.38
