Data from orange_diffuse_book_FLMS001491_00056.txt Node
Date: Wed Feb 08 15:29:45 GMT 2017
User: dcchb
Spectrometer: FLMS00149
Trigger mode: 0
Integration Time (sec): 2.000000E-2
Scans to average: 10
Electric dark correction enabled: true
Nonlinearity correction enabled: false
Boxcar width: 0
XAxis mode: Wavelengths
Number of Pixels in Spectrum: 2048
>>>>>Begin Spectral Data<<<<<
341.393	-14.43
341.776	-14.43
342.16	-14.43
342.543	-49.91
342.927	-59.41
343.31	-99.63
343.693	-65.96
344.077	-73.19
344.46	-53.3
344.843	-49.91
345.226	-42
345.61	-34.1
345.993	-22.8
346.376	-5.4
346.759	18.56
347.142	18.11
347.525	43.42
347.908	59.91
348.291	64.89
348.674	114.83
349.057	126.58
349.44	121.16
349.823	141.04
350.206	154.15
350.588	204.09
350.971	204.99
351.354	217.42
351.737	270.3
352.119	267.37
352.502	270.53
352.884	285.9
353.267	309.4
353.65	308.72
354.032	314.37
354.414	315.95
354.797	327.7
355.179	326.12
355.562	341.94
355.944	330.87
356.326	347.82
356.709	332.9
357.091	336.74
357.473	345.1
357.855	360.02
358.238	349.4
358.62	360.24
359.002	353.24
359.384	341.49
359.766	334.03
360.148	353.69
360.53	353.01
360.912	368.15
361.294	374.03
361.676	340.36
362.057	334.71
362.439	335.84
362.821	349.17
363.203	343.52
363.584	329.06
363.966	323.86
364.348	312.79
364.729	311.88
365.111	318.66
365.493	321.83
365.874	341.26
366.256	324.99
366.637	309.62
367.019	321.15
367.4	329.51
367.781	323.86
368.163	326.8
368.544	321.38
368.925	329.29
369.306	325.67
369.688	323.18
370.069	310.98
370.45	321.83
370.831	329.29
371.212	323.86
371.593	334.26
371.974	331.32
372.355	318.21
372.736	310.53
373.117	315.95
373.498	319.79
373.879	328.16
374.26	339.45
374.641	321.83
375.021	351.21
375.402	329.29
375.783	339.91
376.163	337.87
376.544	330.19
376.925	322.73
377.305	346.23
377.686	321.6
378.066	327.7
378.447	332.9
378.827	327.48
379.208	355.5
379.588	327.93
379.968	347.36
380.349	345.56
380.729	352.34
381.109	346.91
381.489	343.52
381.87	339.23
382.25	327.25
382.63	348.04
383.01	353.24
383.39	361.15
383.77	359.57
384.15	344.88
384.53	347.36
384.91	340.81
385.29	374.71
385.67	360.02
386.049	357.98
386.429	351.21
386.809	367.7
387.189	367.02
387.568	343.3
387.948	334.48
388.328	373.8
388.707	360.7
389.087	368.83
389.466	369.74
389.846	389.4
390.225	362.05
390.605	373.58
390.984	359.79
391.363	357.98
391.743	375.16
392.122	376.74
392.501	377.19
392.881	411.54
393.26	379
393.639	385.55
394.018	389.17
394.397	382.39
394.776	398.21
395.155	394.14
395.534	375.61
395.913	386.68
396.292	407.02
396.671	397.31
397.05	382.62
397.429	414.93
397.808	398.21
398.186	402.05
398.565	399.57
398.944	410.19
399.323	390.75
399.701	391.43
400.08	391.2
400.458	416.97
400.837	423.29
401.215	424.65
401.594	392.33
401.972	426.46
402.351	397.08
402.729	421.49
403.107	430.75
403.486	409.51
403.864	435.72
404.242	427.36
404.62	421.49
404.999	431.66
405.377	439.79
405.755	437.3
406.133	445.67
406.511	441.15
406.889	437.98
407.267	451.77
407.645	440.24
408.023	454.71
408.401	448.38
408.779	456.06
409.156	452.67
409.534	463.74
409.912	463.52
410.29	485.44
410.667	480.47
411.045	478.43
411.422	484.31
411.8	490.18
412.178	485.67
412.555	464.87
412.933	497.42
413.31	496.29
413.687	470.75
414.065	524.31
414.442	513.46
414.819	510.3
415.197	482.95
415.574	506.91
415.951	489.96
416.328	518.88
416.705	512.78
417.082	508.49
417.46	534.03
417.837	529.28
418.214	513.69
418.591	537.19
418.967	543.29
419.344	538.32
419.721	509.17
420.098	541.71
420.475	543.74
420.852	555.95
421.228	559.11
421.605	557.53
421.982	536.96
422.358	553.91
422.735	570.86
423.111	563.4
423.488	558.43
423.864	578.77
424.241	597.98
424.617	564.76
424.994	581.71
425.37	588.94
425.746	604.98
426.123	610.41
426.499	593.68
426.875	601.14
427.251	620.12
427.627	636.62
428.003	639.11
428.379	617.64
428.756	624.19
429.132	625.77
429.507	638.43
429.883	635.72
430.259	640.46
430.635	651.08
431.011	642.05
431.387	661.03
431.763	662.16
432.138	670.52
432.514	659.67
432.89	683.4
433.265	679.56
433.641	701.03
434.016	710.52
434.392	737.86
434.767	705.32
435.143	705.77
435.518	706.68
435.894	732.21
436.269	728.6
436.644	736.51
437.02	752.32
437.395	749.16
437.77	775.15
438.145	768.14
438.52	757.75
438.895	766.11
439.271	761.14
439.646	795.71
440.021	785.32
440.395	808.14
440.77	783.74
441.145	790.52
441.52	804.98
441.895	784.41
442.27	790.52
442.645	826.67
443.019	782.61
443.394	826.45
443.769	818.09
444.143	826.45
444.518	841.81
444.892	831.64
445.267	829.16
445.641	842.27
446.016	865.77
446.39	851.08
446.764	846.56
447.139	847.46
447.513	858.99
447.887	865.54
448.262	878.42
448.636	872.32
449.01	858.08
449.384	883.39
449.758	882.72
450.132	880.68
450.506	895.37
450.88	892.66
451.254	912.55
451.628	906.9
452.002	929.27
452.376	922.49
452.75	932.43
453.123	923.39
453.497	952.32
453.871	963.17
454.244	962.04
454.618	977.86
454.992	976.95
455.365	994.13
455.739	984.64
456.112	1005.2
456.486	992.32
456.859	999.1
457.232	1026.22
457.606	1032.32
457.979	1023.28
458.352	1032.32
458.725	1014.92
459.099	1038.65
459.472	1073.22
459.845	1061.92
460.218	1061.24
460.591	1103.73
460.964	1080.45
461.337	1095.59
461.71	1140.79
462.083	1156.61
462.456	1103.95
462.829	1134.69
463.201	1131.98
463.574	1142.15
463.947	1159.32
464.32	1178.08
464.692	1171.07
465.065	1212.2
465.438	1186.66
465.81	1197.96
466.183	1211.52
466.555	1249.03
466.928	1255.36
467.3	1259.2
467.672	1258.07
468.045	1269.6
468.417	1251.52
468.789	1289.71
469.161	1278.64
469.534	1297.62
469.906	1364.06
470.278	1345.3
470.65	1331.74
471.022	1353.44
471.394	1377.39
471.766	1379.2
472.138	1437.05
472.51	1403.38
472.882	1454.45
473.253	1469.82
473.625	1470.27
473.997	1513.43
474.369	1461.01
474.74	1509.14
475.112	1567.44
475.484	1564.05
475.855	1565.64
476.227	1569.93
476.598	1600.89
476.97	1639.76
477.341	1647.44
477.713	1687.67
478.084	1719.53
478.455	1709.59
478.827	1760.21
479.198	1756.59
479.569	1795.24
479.94	1801.56
480.311	1829.58
480.682	1865.06
481.053	1886.76
481.424	1923.82
481.795	1931.73
482.166	1960.88
482.537	1997.04
482.908	2010.37
483.279	2049.01
483.65	2076.81
484.021	2122.91
484.391	2139.86
484.762	2165.62
485.133	2190.25
485.503	2240.2
485.874	2262.12
486.244	2245.62
486.615	2308.44
486.985	2355.45
487.356	2400.87
487.726	2369.91
488.097	2447.2
488.467	2459.4
488.837	2484.71
489.207	2568.32
489.578	2580.53
489.948	2571.94
490.318	2642.22
490.688	2645.38
491.058	2673.4
491.428	2724.48
491.798	2745.94
492.168	2793.63
492.538	2821.2
492.908	2875.66
493.278	2879.95
493.648	2921.08
494.017	2962.89
494.387	2993.62
494.757	3021.42
495.126	3038.37
495.496	3064.13
495.866	3093.28
496.235	3127.18
496.605	3185.26
496.974	3208.53
497.344	3261.41
497.713	3256.89
498.082	3316.1
498.452	3299.6
498.821	3353.39
499.19	3365.59
499.559	3419.6
499.928	3419.83
500.298	3454.4
500.667	3495.98
501.036	3493.27
501.405	3557.45
501.774	3589.09
502.143	3570.56
502.512	3643.1
502.88	3669.99
503.249	3659.59
503.618	3694.85
503.987	3721.06
504.356	3774.62
504.724	3787.95
505.093	3780.72
505.462	3853.03
505.83	3895.75
506.199	3875.63
506.567	3904.33
506.936	3916.08
507.304	4001.96
507.672	3980.26
508.041	4041.96
508.409	4050.32
508.777	4073.14
509.145	4122.18
509.514	4160.37
509.882	4162.18
510.25	4178.9
510.618	4207.6
510.986	4219.58
511.354	4292.8
511.722	4324.66
512.09	4327.6
512.458	4331.89
512.826	4425.22
513.193	4477.2
513.561	4437.2
513.929	4511.32
514.297	4530.98
514.664	4606.23
515.032	4597.42
515.4	4626.12
515.767	4652.56
516.135	4649.17
516.502	4644.43
516.869	4731.43
517.237	4798.77
517.604	4764.87
517.972	4841.03
518.339	4855.27
518.706	4852.1
519.073	4920.12
519.44	4923.74
519.808	4994.25
520.175	4942.27
520.542	5026.11
520.909	5046.9
521.276	5040.35
521.643	5107.24
522.009	5162.6
522.376	5179.1
522.743	5213.45
523.11	5251.19
523.477	5316.72
523.843	5349.27
524.21	5413.9
524.577	5441.47
524.943	5477.17
525.31	5513.1
525.676	5543.61
526.043	5572.99
526.409	5582.71
526.776	5647.34
527.142	5666.77
527.508	5700.9
527.874	5742.93
528.241	5754.91
528.607	5826.09
528.973	5834.68
529.339	5822.7
529.705	5923.26
530.071	5944.28
530.437	5943.83
530.803	5932.98
531.169	6035.58
531.535	6032.19
531.901	6043.94
532.267	6069.02
532.632	6144.5
532.998	6177.04
533.364	6167.32
533.73	6170.26
534.095	6247.1
534.461	6287.77
534.826	6293.87
535.192	6313.76
535.557	6343.59
535.923	6396.92
536.288	6356.02
536.653	6434.21
537.019	6418.39
537.384	6471.72
537.749	6467.65
538.114	6507.65
538.479	6535.9
538.845	6582.68
539.21	6581.1
539.575	6573.64
539.94	6607.09
540.305	6662.9
540.67	6672.62
541.034	6739.51
541.399	6749
541.764	6745.16
542.129	6863.12
542.494	6825.84
542.858	6846.63
543.223	6895.44
543.587	6922.11
543.952	6965.72
544.316	6932.5
544.681	6988.09
545.045	7036.45
545.41	7087.3
545.774	7128.88
546.138	7178.37
546.503	7173.17
546.867	7225.83
547.231	7274.19
547.595	7309.89
547.959	7313.73
548.324	7372.94
548.688	7326.84
549.052	7428.53
549.416	7398.48
549.779	7413.84
550.143	7504.24
550.507	7516.67
550.871	7563.45
551.235	7611.81
551.599	7636.44
551.962	7663.78
552.326	7792.37
552.689	7790.11
553.053	7773.16
553.417	7865.36
553.78	7973.83
554.143	7916.66
554.507	7984.9
554.87	8061.96
555.234	8155.29
555.597	8112.13
555.96	8201.62
556.323	8224.22
556.686	8263.54
557.05	8372.24
557.413	8437.09
557.776	8436.19
558.139	8522.97
558.502	8532.01
558.865	8624.89
559.228	8643.42
559.59	8816.07
559.953	8769.06
560.316	8856.52
560.679	8967.93
561.041	9028.04
561.404	9114.14
561.767	9218.09
562.129	9265.55
562.492	9378.09
562.854	9409.95
563.217	9475.49
563.579	9511.42
563.941	9605.2
564.304	9664.18
564.666	9827.11
565.028	9884.74
565.39	10024.17
565.753	10098.75
566.115	10177.16
566.477	10263.71
566.839	10383.26
567.201	10475.46
567.563	10571.73
567.925	10692.63
568.287	10766.98
568.648	10963.36
569.01	11099.4
569.372	11164.03
569.734	11305.72
570.095	11469.78
570.457	11615.09
570.819	11712.04
571.18	11866.61
571.542	11960.39
571.903	12204.91
572.265	12336.2
572.626	12415.75
572.987	12688.28
573.349	12832.01
573.71	12965.56
574.071	13184.31
574.432	13367.36
574.794	13622.04
575.155	13762.83
575.516	13949.72
575.877	14101.58
576.238	14380.67
576.599	14586.54
576.96	14740.88
577.32	15000.54
577.681	15259.97
578.042	15540.64
578.403	15774.08
578.763	16057.01
579.124	16402.76
579.485	16615.18
579.845	16974.72
580.206	17169.29
580.566	17524.31
580.927	17753.91
581.287	18048.37
581.648	18402.03
582.008	18703.04
582.368	19121.56
582.728	19434.77
583.089	19764.03
583.449	20091.03
583.809	20365.14
584.169	20880.38
584.529	21118.12
584.889	21692.34
585.249	21943.63
585.609	22225.43
585.969	22907.67
586.329	23107.9
586.688	23538.62
587.048	23889.8
587.408	24237.58
587.768	24878.7
588.127	25119.37
588.487	25520.49
588.846	26149.85
589.206	26441.37
589.565	26950.73
589.925	27555.01
590.284	27848.56
590.643	28275.44
591.003	28803.56
591.362	29296.89
591.721	29677.21
592.08	30216.63
592.44	30620.92
592.799	31169.6
593.158	31649.59
593.517	32044.84
593.876	32542.45
594.235	32939.73
594.593	33449.32
594.952	34085.46
595.311	34304.89
595.67	34818.55
596.029	35511.18
596.387	36023.26
596.746	36382.12
597.104	36862.79
597.463	37295.54
597.822	37885.13
598.18	38090.55
598.538	38609.18
598.897	39176.17
599.255	39298.66
599.613	40241.91
599.972	40391.96
600.33	40897.71
600.688	41167.31
601.046	41767.74
601.404	42268.52
601.762	42494.05
602.12	43069.4
602.478	43383.07
602.836	43770.18
603.194	43847.69
603.552	44371.06
603.91	44657.16
604.268	45290.14
604.625	45497.36
604.983	45833.17
605.341	46080.17
605.698	46426.15
606.056	46902.07
606.413	47175.51
606.771	47391.1
607.128	47726.68
607.485	47963.74
607.843	48177.29
608.2	48606.21
608.557	48920.55
608.914	48858.4
609.272	49311.27
609.629	49596.69
609.986	49873.97
610.343	49907.87
610.7	50251.59
611.057	50416.33
611.414	50457.91
611.771	50672.82
612.127	51044.79
612.484	51068.97
612.841	51395.74
613.198	51362.29
613.554	51495.17
613.911	51770.42
614.267	51818.1
614.624	51881.6
614.98	52040.02
615.337	52361.14
615.693	52362.27
616.05	52494.02
616.406	52733.1
616.762	52731.3
617.118	52843.38
617.475	52898.98
617.831	53116.37
618.187	53092.87
618.543	53236.59
618.899	53450.37
619.255	53477.04
619.611	53594.55
619.967	53751.61
620.323	53809.69
620.678	53761.1
621.034	53770.59
621.39	53727.43
621.746	53764.94
622.101	54133.97
622.457	53924.94
622.812	54073.41
623.168	54187.76
623.523	54156.12
623.879	54325.15
624.234	54142.79
624.589	54286.28
624.945	54354.31
625.3	54443.34
625.655	54477.69
626.01	54453.29
626.365	54491.7
626.72	54495.32
627.075	54479.5
627.43	54527.86
627.785	54500.97
628.14	54652.6
628.495	54681.3
628.85	54631.81
629.205	54589.33
629.559	54795.2
629.914	54627.74
630.269	54702.32
630.623	54691.7
630.978	54640.4
631.332	54759.94
631.687	54766.95
632.041	54719.27
632.396	54727.63
632.75	54719.72
633.104	54704.13
633.459	54628.42
633.813	54640.4
634.167	54634.98
634.521	54658.48
634.875	54637.24
635.229	54697.8
635.583	54592.72
635.937	54640.4
636.291	54578.25
636.645	54612.6
636.999	54482.21
637.352	54618.25
637.706	54532.38
638.06	54597.01
638.413	54542.32
638.767	54401.76
639.121	54434.98
639.474	54322.44
639.828	54409.22
640.181	54449.44
640.534	54453.51
640.888	54450.35
641.241	54229.79
641.594	54312.95
641.947	54392.72
642.301	54369.9
642.654	54364.25
643.007	54354.76
643.36	54400.63
643.713	54329.45
644.066	54465.71
644.419	54212.39
644.771	54016.69
645.124	53763.81
645.477	53721.33
645.83	53609.92
646.182	53447.66
646.535	53447.66
646.888	53478.62
647.24	53375.12
647.593	53500.32
647.945	53441.33
648.298	53356.82
648.65	53334.22
649.002	53214.45
649.355	53443.14
649.707	53241.34
650.059	53437.72
650.411	53799.07
650.763	53720.65
651.115	54162.67
651.467	54042
651.819	53958.61
652.171	53861.44
652.523	53856.69
652.875	53926.75
653.227	53760.2
653.578	54049.68
653.93	53833.87
654.282	53809.01
654.633	53759.74
654.985	53871.38
655.337	53826.64
655.688	53867.31
656.039	53935.56
656.391	53685.62
656.742	53732.4
657.094	53808.33
657.445	53921.1
657.796	53828.22
658.147	53778.73
658.498	53734.43
658.849	53781.66
659.2	53745.28
659.551	53691.05
659.902	53771.95
660.253	53733.76
660.604	53781.89
660.955	53613.53
661.306	53700.76
661.656	53683.36
662.007	53679.52
662.358	53746.19
662.708	53769.01
663.059	53674.55
663.409	53496.02
663.76	53781.66
664.11	53745.96
664.461	53731.27
664.811	53709.58
665.161	53689.46
665.511	53598.17
665.862	53613.31
666.212	53649.24
666.562	53661.44
666.912	53683.59
667.262	53569.24
667.612	53557.26
667.962	53620.99
668.312	53604.95
668.662	53616.47
669.011	53602.69
669.361	53450.83
669.711	53612.63
670.06	53400.43
670.41	53378.74
670.76	53393.88
671.109	53543.25
671.459	53388.91
671.808	53402.01
672.157	53434.33
672.507	53273.88
672.856	53267.33
673.205	53366.53
673.554	53354.11
673.904	53303.94
674.253	53351.85
674.602	53315.91
674.951	52804.97
675.3	52632.99
675.649	53166.77
675.998	53084.28
676.346	53162.02
676.695	53289.7
677.044	53016.49
677.393	53095.36
677.741	53150.04
678.09	52979.2
678.438	53011.52
678.787	53129.93
679.135	53054.68
679.484	52772.43
679.832	52889.03
680.181	52787.11
680.529	52844.29
680.877	52774.23
681.225	52764.97
681.573	52814.91
681.922	52621.24
682.27	52585.99
682.618	52592.54
682.966	52512.32
683.314	52593.45
683.661	52445.65
684.009	52216.28
684.357	52253.57
684.705	52223.29
685.053	52375.37
685.4	52203.4
685.748	52071.2
686.095	52001.15
686.443	51936.06
686.79	51861.26
687.138	51981.03
687.485	51915.5
687.832	51768.16
688.18	51816.97
688.527	51656.98
688.874	51543.98
689.221	51552.57
689.568	51491.78
689.915	51384.44
690.262	51392.58
690.609	51138.57
690.956	51099.02
691.303	51112.81
691.65	50950.1
691.997	50892.7
692.344	50720.05
692.69	50677.11
693.037	50643.67
693.383	50410.68
693.73	50543.78
694.077	50252.94
694.423	50367.29
694.769	50272.83
695.116	50202.78
695.462	50134.3
695.808	49967.08
696.155	50038.03
696.501	49689.57
696.847	49745.61
697.193	49482.34
697.539	49573.41
697.885	49304.95
698.231	49273.08
698.577	49320.99
698.923	49177.94
699.269	48894.11
699.614	48867.67
699.96	48711.06
700.306	48748.13
700.651	48566.89
700.997	48433.33
701.342	48494.12
701.688	48361.92
702.033	48208.48
702.379	48248.93
702.724	48047.13
703.069	48098.42
703.415	47681.71
703.76	47751.77
704.105	47688.72
704.45	47665.22
704.795	47268.16
705.14	47321.72
705.485	47234.94
705.83	47043.31
706.175	47143.42
706.52	47034.72
706.865	46701.85
707.209	46772.13
707.554	46628.86
707.899	46702.53
708.243	46562.65
708.588	46286.95
708.932	46158.81
709.277	46132.37
709.621	46067.74
709.966	45778.03
710.31	45909.1
710.654	45569.68
710.998	45657.13
711.342	45754.53
711.687	45562.45
712.031	45336.01
712.375	45253.08
712.719	45326.75
713.063	45242.23
713.407	45328.78
713.75	45077.49
714.094	45108.45
714.438	44853.31
714.782	44854.22
715.125	44741.45
715.469	44876.36
715.812	44591.17
716.156	44478.18
716.499	44392.99
716.843	44486.54
717.186	44225.76
717.53	44368.35
717.873	44369.03
718.216	44237.96
718.559	44096.27
718.902	43855.6
719.246	43958.65
719.589	43769.95
719.932	43707.13
720.275	43651.08
720.617	43599.56
720.96	43622.61
721.303	43523.18
721.646	43559.11
721.989	43296.97
722.331	43482.27
722.674	43365.22
723.016	43213.36
723.359	43275.73
723.701	43224.88
724.044	43037.31
724.386	42831.67
724.729	43013.36
725.071	42898.11
725.413	42939.01
725.755	42793.93
726.097	42697.66
726.439	42657.44
726.782	42462.64
727.124	42785.8
727.465	42522.98
727.807	42421.29
728.149	42448.18
728.491	42364.11
728.833	42415.64
729.175	42146.49
729.516	42201.63
729.858	42222.87
730.199	42119.6
730.541	42150.33
730.882	42059.94
731.224	42162.76
731.565	41913.73
731.906	41830.11
732.248	41949.21
732.589	41861.98
732.93	41736.56
733.271	41634.41
733.612	41666.05
733.953	41682.55
734.294	41549.22
734.635	41571.36
734.976	41508.32
735.317	41310.35
735.658	41261.32
735.999	41353.74
736.339	41183.35
736.68	41294.99
737.021	41237.59
737.361	41113.3
737.702	41246.63
738.042	41153.52
738.383	41047.76
738.723	41076.69
739.063	40879.63
739.404	41048.21
739.744	40817.71
740.084	40751.73
740.424	40864.04
740.764	40649.58
741.104	40860.2
741.444	40573.2
741.784	40563.71
742.124	40637.38
742.464	40543.37
742.804	40462.47
743.143	40342.02
743.483	40501.56
743.823	40352.87
744.162	40282.13
744.502	40264.73
744.841	40044.17
745.181	40375.01
745.52	40105.19
745.86	40091.63
746.199	40080.78
746.538	40162.14
746.877	40043.27
747.216	39985.42
747.556	39999.88
747.895	39873.1
748.234	39865.65
748.573	39687.12
748.911	39674.69
749.25	39646.44
749.589	39496.84
749.928	39639.21
750.267	39486.9
750.605	39527.8
750.944	39340.24
751.283	39298.2
751.621	39561.25
751.96	38924.2
752.298	39163.29
752.636	39020.7
752.975	38896.18
753.313	38720.82
753.651	38912.45
753.989	38651.22
754.327	38680.14
754.666	38540.03
755.004	38412.58
755.342	38628.84
755.679	38468.17
756.017	38351.11
756.355	38540.03
756.693	38129.2
757.031	38148.18
757.368	38039.48
757.706	37971.91
758.044	37809.88
758.381	37914.29
758.719	37780.05
759.056	37732.37
759.394	37632.26
