Data from orange_diffuse_book_FLMS001491_00077.txt Node
Date: Wed Feb 08 15:30:02 GMT 2017
User: dcchb
Spectrometer: FLMS00149
Trigger mode: 0
Integration Time (sec): 2.000000E-2
Scans to average: 10
Electric dark correction enabled: true
Nonlinearity correction enabled: false
Boxcar width: 0
XAxis mode: Wavelengths
Number of Pixels in Spectrum: 2048
>>>>>Begin Spectral Data<<<<<
341.393	-4.66
341.776	-4.66
342.16	-4.66
342.543	-61.61
342.927	-54.83
343.31	-55.73
343.693	-70.65
344.077	-60.25
344.46	-66.35
344.843	-38.33
345.226	-61.16
345.61	-17.54
345.993	-19.35
346.376	-8.28
346.759	8.22
347.142	39.63
347.525	38.73
347.908	56.35
348.291	62.68
348.674	85.96
349.057	106.07
349.44	136.8
349.823	143.36
350.206	150.14
350.588	194.88
350.971	209.12
351.354	240.76
351.737	243.69
352.119	262.9
352.502	265.16
352.884	289.34
353.267	295.22
353.65	297.25
354.032	319.4
354.414	306.74
354.797	325.27
355.179	338.38
355.562	325.5
355.944	335.67
356.326	334.54
356.709	331.15
357.091	351.71
357.473	365.05
357.855	365.95
358.238	360.98
358.62	348.1
359.002	348.55
359.384	355.33
359.766	368.44
360.148	366.85
360.53	359.17
360.912	344.26
361.294	361.88
361.676	340.87
362.057	379.06
362.439	339.51
362.821	340.87
363.203	345.16
363.584	339.74
363.966	348.55
364.348	347.87
364.729	321.43
365.111	331.38
365.493	330.47
365.874	336.8
366.256	332.96
366.637	352.62
367.019	345.39
367.4	315.56
367.781	334.54
368.163	321.66
368.544	291.15
368.925	348.1
369.306	350.81
369.688	328.89
370.069	328.21
370.45	306.74
370.831	332.28
371.212	320.75
371.593	338.83
371.974	329.12
372.355	324.82
372.736	345.16
373.117	345.39
373.498	304.48
373.879	321.43
374.26	327.08
374.641	329.12
375.021	327.08
375.402	335.22
375.783	353.07
376.163	321.66
376.544	337.7
376.925	330.25
377.305	353.3
377.686	345.39
378.066	330.92
378.447	346.97
378.827	346.29
379.208	357.59
379.588	349
379.968	357.82
380.349	336.12
380.729	318.04
381.109	345.16
381.489	356.46
381.87	377.7
382.25	336.35
382.63	353.52
383.01	367.53
383.39	369.79
383.77	361.88
384.15	370.47
384.53	365.5
384.91	357.14
385.29	355.33
385.67	385.39
386.049	372.28
386.429	373.41
386.809	372.73
387.189	380.87
387.568	355.1
387.948	356.69
388.328	381.09
388.707	371.6
389.087	386.06
389.466	369.11
389.846	365.05
390.225	394.42
390.605	367.53
390.984	384.71
391.363	383.35
391.743	383.58
392.122	379.74
392.501	380.64
392.881	401.43
393.26	403.24
393.639	386.97
394.018	391.71
394.397	419.51
394.776	405.27
395.155	413.41
395.534	408.44
395.913	382
396.292	407.31
396.671	401.88
397.05	403.24
397.429	406.63
397.808	406.4
398.186	395.1
398.565	421.77
398.944	417.25
399.323	401.43
399.701	417.25
400.08	430.36
400.458	416.12
400.837	422.9
401.215	396.01
401.594	409.79
401.972	435.55
402.351	396.01
402.729	427.87
403.107	426.74
403.486	421.09
403.864	438.94
404.242	433.07
404.62	419.06
404.999	428.1
405.377	450.02
405.755	444.82
406.133	447.3
406.511	455.44
406.889	455.21
407.267	461.32
407.645	446.4
408.023	470.81
408.401	458.15
408.779	452.95
409.156	467.42
409.534	456.8
409.912	487.08
410.29	480.3
410.667	490.69
411.045	475.78
411.422	495.44
411.8	481.43
412.178	509
412.555	487.98
412.933	480.98
413.31	508.77
413.687	487.3
414.065	511.48
414.442	502.67
414.819	534.99
415.197	517.81
415.574	521.43
415.951	522.33
416.328	530.24
416.705	528.66
417.082	515.33
417.46	537.02
417.837	544.48
418.214	541.54
418.591	529.34
418.967	568.43
419.344	541.77
419.721	558.26
420.098	561.88
420.475	561.43
420.852	568.66
421.228	557.58
421.605	544.7
421.982	569.11
422.358	576.79
422.735	566.4
423.111	579.96
423.488	575.21
423.864	589.9
424.241	595.55
424.617	605.27
424.994	601.88
425.37	605.27
425.746	593.74
426.123	633.97
426.499	627.64
426.875	642.55
427.251	626.73
427.627	631.48
428.003	652.5
428.379	670.8
428.756	675.77
429.132	645.72
429.507	670.35
429.883	640.29
430.259	672.38
430.635	654.53
431.011	688.65
431.387	695.89
431.763	715.09
432.138	683.23
432.514	717.35
432.89	707.41
433.265	716.45
433.641	717.81
434.016	714.64
434.392	748.31
434.767	730.46
435.143	741.53
435.518	707.18
435.894	720.52
436.269	756.45
436.644	759.39
437.02	774.53
437.395	767.3
437.77	792.15
438.145	766.17
438.52	827.86
438.895	813.85
439.271	807.97
439.646	791.25
440.021	816.56
440.395	815.66
440.77	814.98
441.145	824.7
441.52	835.32
441.895	813.85
442.27	847.29
442.645	833.51
443.019	838.71
443.394	847.07
443.769	857.24
444.143	845.94
444.518	860.4
444.892	861.53
445.267	880.06
445.641	861.76
446.016	873.73
446.39	898.14
446.764	891.59
447.139	865.37
447.513	874.64
447.887	890.68
448.262	861.31
448.636	878.93
449.01	897.69
449.384	918.7
449.758	911.7
450.132	905.37
450.506	941.3
450.88	929.1
451.254	931.36
451.628	922.09
452.002	941.98
452.376	961.19
452.75	938.37
453.123	945.6
453.497	957.8
453.871	978.36
454.244	983.79
454.618	979.72
454.992	984.24
455.365	986.27
455.739	1000.96
456.112	1026.27
456.486	1031.24
456.859	1017.01
457.232	1040.06
457.606	1051.13
457.979	1018.36
458.352	1082.32
458.725	1061.98
459.099	1087.06
459.472	1076.21
459.845	1078.47
460.218	1120.06
460.591	1099.04
460.964	1110.34
461.337	1136.1
461.71	1128.64
462.083	1140.85
462.456	1134.97
462.829	1141.75
463.201	1174.07
463.574	1171.58
463.947	1173.16
464.32	1203.44
464.692	1206.83
465.065	1240.73
465.438	1233.05
465.81	1236.44
466.183	1236.44
466.555	1247.96
466.928	1242.31
467.3	1248.19
467.672	1272.82
468.045	1281.86
468.417	1291.12
468.789	1282.76
469.161	1303.1
469.534	1342.42
469.906	1327.51
470.278	1352.37
470.65	1357.79
471.022	1413.15
471.394	1383.1
471.766	1391.46
472.138	1417.45
472.51	1455.64
472.882	1442.08
473.253	1449.09
473.625	1487.96
473.997	1513.72
474.369	1520.5
474.74	1521.17
475.112	1559.14
475.484	1574.51
475.855	1577.67
476.227	1578.8
476.598	1612.92
476.97	1626.03
477.341	1641.85
477.713	1691.34
478.084	1678.01
478.455	1718.68
478.827	1747.61
479.198	1779.47
479.569	1792.35
479.94	1827.83
480.311	1863.09
480.682	1880.71
481.053	1915.74
481.424	1951.45
481.795	1937.66
482.166	1970.65
482.537	1981.73
482.908	2022.18
483.279	2040.71
483.65	2085.45
484.021	2170.65
484.391	2143.31
484.762	2157.54
485.133	2175.62
485.503	2165.9
485.874	2260.82
486.244	2307.59
486.615	2336.97
486.985	2330.42
487.356	2389.63
487.726	2441.38
488.097	2470.98
488.467	2502.39
488.837	2526.12
489.207	2589.85
489.578	2616.97
489.948	2607.7
490.318	2661.71
490.688	2705.78
491.058	2738.77
491.428	2791.2
491.798	2789.62
492.168	2859.22
492.538	2904.64
492.908	2909.84
493.278	2913.23
493.648	2971.53
494.017	2993.9
494.387	3044.75
494.757	3112.77
495.126	3127.46
495.496	3140.79
495.866	3217.85
496.235	3204.29
496.605	3279.09
496.974	3286.78
497.344	3303.27
497.713	3350.96
498.082	3366.32
498.452	3413.1
498.821	3411.52
499.19	3489.94
499.559	3517.28
499.928	3551.63
500.298	3571.06
500.667	3586.66
501.036	3606.54
501.405	3633.44
501.774	3678.86
502.143	3739.87
502.512	3719.08
502.88	3741.46
503.249	3816.48
503.618	3786.65
503.987	3826.42
504.356	3909.81
504.724	3918.4
505.093	3960.21
505.462	3926.99
505.83	3965.4
506.199	4027.32
506.567	4122.24
506.936	4116.36
507.304	4182.57
507.672	4192.97
508.041	4210.82
508.409	4242.69
508.777	4268
509.145	4304.6
509.514	4302.12
509.882	4353.64
510.25	4379.86
510.618	4406.3
510.986	4435.67
511.354	4464.6
511.722	4544.15
512.09	4506.86
512.458	4552.73
512.826	4607.42
513.193	4590.92
513.561	4631.6
513.929	4679.51
514.297	4729.45
514.664	4773.52
515.032	4783.46
515.4	4856.45
515.767	4855.1
516.135	4853.97
516.502	4845.83
516.869	4958.82
517.237	4987.07
517.604	5006.51
517.972	5051.25
518.339	5114.98
518.706	5144.81
519.073	5135.32
519.44	5097.35
519.808	5247.18
520.175	5248.31
520.542	5308.19
520.909	5359.72
521.276	5317.69
521.643	5373.05
522.009	5411.92
522.376	5415.08
522.743	5477.23
523.11	5528.75
523.477	5624.12
523.843	5616.21
524.21	5646.72
524.577	5698.92
524.943	5790.21
525.31	5756.77
525.676	5883.32
526.043	5823.66
526.409	5916.54
526.776	5944.56
527.142	5958.12
527.508	5972.58
527.874	6049.19
528.241	6032.69
528.607	6048.74
528.973	6174.61
529.339	6115.63
529.705	6187.94
530.071	6227.72
530.437	6308.62
530.803	6316.3
531.169	6333.48
531.535	6345.23
531.901	6349.3
532.267	6419.58
532.632	6446.47
532.998	6463.87
533.364	6573.02
533.73	6541.61
534.095	6553.36
534.461	6594.71
534.826	6652.57
535.192	6607.82
535.557	6703.41
535.923	6721.72
536.288	6702.96
536.653	6737.99
537.019	6736.18
537.384	6790.41
537.749	6835.84
538.114	6871.77
538.479	6881.03
538.845	6922.61
539.21	6939.34
539.575	6946.57
539.94	7027.92
540.305	7007.81
540.67	7034.25
541.034	7049.39
541.399	7089.16
541.764	7118.09
542.129	7137.75
542.494	7194.25
542.858	7247.8
543.223	7268.14
543.587	7287.58
543.952	7300.01
544.316	7282.15
544.681	7351.3
545.045	7456.39
545.41	7470.17
545.774	7453.45
546.138	7507.46
546.503	7545.65
546.867	7601.47
547.231	7651.41
547.595	7587.46
547.959	7660.22
548.324	7706.1
548.688	7727.11
549.052	7788.35
549.416	7813.44
549.779	7801.46
550.143	7854.79
550.507	7925.75
550.871	7945.86
551.235	8017.05
551.599	8077.61
551.962	8116.03
552.326	8090.95
552.689	8224.73
553.053	8166.88
553.417	8232.41
553.78	8260.43
554.143	8371.62
554.507	8419.52
554.87	8459.98
555.234	8545.85
555.597	8557.6
555.96	8636.02
556.323	8674.88
556.686	8685.73
557.05	8721.21
557.413	8789.91
557.776	8822
558.139	8960.98
558.502	9006.85
558.865	8946.74
559.228	9075.33
559.59	9149
559.953	9165.95
560.316	9364.36
560.679	9372.49
561.041	9426.73
561.404	9578.36
561.767	9587.86
562.129	9591.92
562.492	9775.42
562.854	9851.58
563.217	9874.18
563.579	9965.47
563.941	10036.43
564.304	10109.2
564.666	10268.29
565.028	10322.53
565.39	10383.09
565.753	10553.93
566.115	10616.75
566.477	10669.86
566.839	10841.61
567.201	10916.63
567.563	11051.55
567.925	11192.33
568.287	11214.71
568.648	11349.84
569.01	11456.28
569.372	11658.99
569.734	11651.3
570.095	11830.73
570.457	12013.1
570.819	12118.64
571.18	12258.75
571.542	12442.24
571.903	12663.03
572.265	12729.92
572.626	12915.23
572.987	13110.47
573.349	13181.43
573.71	13438.6
574.071	13557.47
574.432	13827.52
574.794	14040.39
575.155	14276.32
575.516	14326.04
575.877	14614.62
576.238	14843.99
576.599	15199.91
576.96	15219.35
577.32	15539.34
577.681	15802.38
578.042	16018.19
578.403	16297.51
578.763	16526.43
579.124	16870.83
579.485	17118.28
579.845	17365.05
580.206	17631.71
580.566	17955.77
580.927	18307.17
581.287	18640.27
581.648	18806.6
582.008	19179.02
582.368	19501.04
582.728	19933.12
583.089	20105.77
583.449	20478.87
583.809	20872.76
584.169	21338.96
584.529	21735.56
584.889	22201.76
585.249	22471.36
585.609	22817.79
585.969	23288.06
586.329	23542.52
586.688	24087.81
587.048	24304.53
587.408	24843.5
587.768	25220.21
588.127	25568.23
588.487	25968.44
588.846	26621.31
589.206	26811.13
589.565	27335.86
589.925	27914.61
590.284	28153.02
590.643	28691.31
591.003	29167.23
591.362	29675.69
591.721	30087.66
592.08	30661.88
592.44	31173.05
592.799	31622.3
593.158	31880.83
593.517	32460.25
593.876	32832.22
594.235	33354.46
594.593	33909.93
594.952	34452.29
595.311	34785.61
595.67	35264.69
596.029	35802.31
596.387	36462.63
596.746	36855.84
597.104	37101.26
597.463	37554.35
597.822	38125.18
598.18	38384.39
598.538	38921.32
598.897	39329.22
599.255	39551.81
599.613	40560.83
599.972	40704.33
600.33	41250.3
600.688	41470.18
601.046	41962.15
601.404	42524.39
601.762	42755.34
602.12	43361.66
602.478	43560.07
602.836	43998.48
603.194	44306.72
603.552	44652.92
603.91	44918
604.268	45452.45
604.625	45651.77
604.983	46202.94
605.341	46332.43
605.698	46793.43
606.056	47058.06
606.413	47385.05
606.771	47591.38
607.128	47973.74
607.485	48071.59
607.843	48222.09
608.2	48683.32
608.557	48995.63
608.914	49085.12
609.272	49453.47
609.629	49610.08
609.986	49935.95
610.343	49955.38
610.7	50448.02
611.057	50510.17
611.414	50660.22
611.771	50807.34
612.127	51102.7
612.484	51073.32
612.841	51398.73
613.198	51351.73
613.554	51496.81
613.911	51926.63
614.267	51871.49
614.624	52077.36
614.98	52138.15
615.337	52421.08
615.693	52485.48
616.05	52581.53
616.406	52770.22
616.762	52816.32
617.118	52827.4
617.475	53002.98
617.831	53130.89
618.187	53141.29
618.543	53236.88
618.899	53515.51
619.255	53483.42
619.611	53528.85
619.967	53715.06
620.323	53809.97
620.678	53708.05
621.034	53643.65
621.39	53766.13
621.746	53748.05
622.101	54166.12
622.457	53928.61
622.812	54087.02
623.168	54180.13
623.523	54232.11
623.879	54402.5
624.234	54195.72
624.589	54341.03
624.945	54373.57
625.3	54426.9
625.655	54410.18
626.01	54489.05
626.365	54455.15
626.72	54496.96
627.075	54442.27
627.43	54510.52
627.785	54507.58
628.14	54649.95
628.495	54642.72
628.85	54621.7
629.205	54569.27
629.559	54794.12
629.914	54614.02
630.269	54679.78
630.623	54647.01
630.978	54623.06
631.332	54799.55
631.687	54785.31
632.041	54701.47
632.396	54790.28
632.75	54647.46
633.104	54681.58
633.459	54574.69
633.813	54609.72
634.167	54598.42
634.521	54656.5
634.875	54640.91
635.229	54648.14
635.583	54503.51
635.937	54591.19
636.291	54586.67
636.645	54641.81
636.999	54467.81
637.352	54691.3
637.706	54373.57
638.06	54583.51
638.413	54496.73
638.767	54449.05
639.121	54567.92
639.474	54379.9
639.828	54422.16
640.181	54408.15
640.534	54517.3
640.888	54368.15
641.241	54264.19
641.594	54283.4
641.947	54440.01
642.301	54278.21
642.654	54297.64
643.007	54411.08
643.36	54317.75
643.713	54307.58
644.066	54393
644.419	54190.98
644.771	54059.91
645.124	53767.71
645.477	53709.86
645.83	53484.55
646.182	53497.89
646.535	53385.57
646.888	53493.37
647.24	53355.97
647.593	53514.16
647.945	53502.86
648.298	53320.49
648.65	53341.51
649.002	53262.87
649.355	53428.74
649.707	53258.57
650.059	53422.18
650.411	53756.86
650.763	53748.5
651.115	54111.2
651.467	53999.79
651.819	53960.47
652.171	53904.2
652.523	53889.97
652.875	53939.46
653.227	53795.73
653.578	53945.11
653.93	53932.9
654.282	53889.74
654.633	53774.94
654.985	53872.34
655.337	53905.56
655.688	53850.19
656.039	53886.13
656.391	53739.01
656.742	53809.52
657.094	53746.92
657.445	53879.35
657.796	53872.11
658.147	53709.18
658.498	53737.2
658.849	53847.71
659.2	53795.28
659.551	53597.09
659.902	53761.61
660.253	53700.14
660.604	53819.23
660.955	53685.23
661.306	53737.2
661.656	53709.86
662.007	53692.01
662.358	53707.6
662.708	53660.82
663.059	53660.82
663.409	53466.25
663.76	53666.92
664.11	53674.15
664.461	53704.66
664.811	53743.98
665.161	53677.77
665.511	53511.9
665.862	53583.31
666.212	53692.68
666.562	53621.5
666.912	53643.87
667.262	53548.28
667.612	53565.68
667.962	53554.83
668.312	53522.75
668.662	53595.74
669.011	53600.71
669.361	53476.42
669.711	53507.15
670.06	53356.87
670.41	53416.99
670.76	53355.74
671.109	53418.12
671.459	53367.72
671.808	53333.82
672.157	53464.89
672.507	53182.42
672.856	53245.01
673.205	53246.14
673.554	53334.28
673.904	53273.49
674.253	53322.98
674.602	53166.37
674.951	52801.41
675.3	52600.74
675.649	53105.81
675.998	53056.32
676.346	53028.75
676.695	53217.22
677.044	52934.29
677.393	52999.6
677.741	52968.18
678.09	52998.47
678.438	52867.62
678.787	52904.91
679.135	52985.13
679.484	52758.47
679.832	52879.15
680.181	52675.08
680.529	52884.57
680.877	52679.6
681.225	52713.05
681.573	52937.22
681.922	52547.18
682.27	52528.42
682.618	52541.08
682.966	52497.91
683.314	52472.6
683.661	52448.2
684.009	52273.29
684.357	52237.81
684.705	52219.5
685.053	52216.11
685.4	52230.35
685.748	51952.39
686.095	52004.37
686.443	51892.28
686.79	51921.43
687.138	51916.46
687.485	51942
687.832	51723.24
688.18	51690.25
688.527	51567.09
688.874	51567.32
689.221	51443.7
689.568	51286.65
689.915	51340.66
690.262	51209.13
690.609	51161
690.956	51082.58
691.303	51040.1
691.65	50885.75
691.997	50929.37
692.344	50670.62
692.69	50699.77
693.037	50733.67
693.383	50461.36
693.73	50477.85
694.077	50308.14
694.423	50401.92
694.769	50317.41
695.116	50250.74
695.462	50090.52
695.808	49982.5
696.155	50018.66
696.501	49758.1
696.847	49877.64
697.193	49490.31
697.539	49653.92
697.885	49279.92
698.231	49262.29
698.577	49268.62
698.923	49102.75
699.269	48921.06
699.614	48807.16
699.96	48861.62
700.306	48806.03
700.651	48470.9
700.997	48438.36
701.342	48531.01
701.688	48285.37
702.033	48188.2
702.379	48242.66
702.724	48033.4
703.069	48151.36
703.415	47628.89
703.76	47630.92
704.105	47702.79
704.45	47485.16
704.795	47339.18
705.14	47308.67
705.485	47269.35
705.83	47152.29
706.175	47047.44
706.52	47087.43
706.865	46809.02
707.209	46814.9
707.554	46581.46
707.899	46651.97
708.243	46423.95
708.588	46513.66
708.932	46106.44
709.277	46173.33
709.621	46176.95
709.966	45737.41
710.31	45993.9
710.654	45598.43
710.998	45699.45
711.342	45737.19
711.687	45527.48
712.031	45464.43
712.375	45240.03
712.719	45304.88
713.063	45322.28
713.407	45367.03
713.75	45148.95
714.094	45064.21
714.438	44888.85
714.782	44885.68
715.125	44777.66
715.469	44839.13
715.812	44602.53
716.156	44375.19
716.499	44429.43
716.843	44459.48
717.186	44227.85
717.53	44433.27
717.873	44303.33
718.216	44297.45
718.559	44140.62
718.902	43781.76
719.246	43961.64
719.589	43746.51
719.932	43608.66
720.275	43667.19
720.617	43716.9
720.96	43581.09
721.303	43478.94
721.646	43412.95
721.989	43322.11
722.331	43458.38
722.674	43431.03
723.016	43266.97
723.359	43139.74
723.701	43272.62
724.044	42998.28
724.386	42943.14
724.729	43020.65
725.071	42965.73
725.413	42972.06
725.755	42792.86
726.097	42543.15
726.439	42383.83
726.782	42544.28
727.124	42601.68
727.465	42484.62
727.807	42505.63
728.149	42314
728.491	42295.7
728.833	42337.5
729.175	42243.49
729.516	42130.73
729.858	42094.35
730.199	42041.69
730.541	42102.25
730.882	42019.54
731.224	42140.45
731.565	41808.7
731.906	42000.56
732.248	41821.81
732.589	41638.54
732.93	41627.69
733.271	41605.09
733.612	41742.49
733.953	41624.3
734.294	41545.89
734.635	41341.37
734.976	41575.71
735.317	41339.56
735.658	41424.98
735.999	41295.5
736.339	41329.39
736.68	41399.9
737.021	41243.52
737.361	41109.74
737.702	41309.73
738.042	41080.36
738.383	41066.58
738.723	41125.78
739.063	40877.2
739.404	40952.91
739.744	40908.61
740.084	40831.55
740.424	40840.37
740.764	40757.43
741.104	40714.72
741.444	40608.73
741.784	40573.26
742.124	40684.66
742.464	40557.21
742.804	40518.34
743.143	40356.31
743.483	40376.65
743.823	40168.07
744.162	40276.54
744.502	40301.17
744.841	40068.41
745.181	40194.73
745.52	40029.54
745.86	40048.3
746.199	40037.22
746.538	39926.27
746.877	40075.87
747.216	39948.86
747.556	39781.86
747.895	39868.64
748.234	39726.95
748.573	39511.81
748.911	39602.21
749.25	39656.9
749.589	39516.79
749.928	39622.77
750.267	39573.28
750.605	39386.62
750.944	39475.2
751.283	39301.42
751.621	39491.93
751.96	39160.41
752.298	39154.31
752.636	39049.23
752.975	39013.52
753.313	38855.11
753.651	38987.08
753.989	38857.37
754.327	38646.53
754.666	38534.21
755.004	38626.87
755.342	38652.63
755.679	38518.62
756.017	38420.77
756.355	38360.66
756.693	38205.41
757.031	38244.28
757.368	37996.37
757.706	37983.94
758.044	37809.49
758.381	37800.22
758.719	37848.58
759.056	37698.3
759.394	37646.1
759.731	37339.22
