Data from orange_diffuse_book_FLMS001491_00100.txt Node
Date: Wed Feb 08 15:30:20 GMT 2017
User: dcchb
Spectrometer: FLMS00149
Trigger mode: 0
Integration Time (sec): 2.000000E-2
Scans to average: 10
Electric dark correction enabled: true
Nonlinearity correction enabled: false
Boxcar width: 0
XAxis mode: Wavelengths
Number of Pixels in Spectrum: 2048
>>>>>Begin Spectral Data<<<<<
341.393	-9.46
341.776	-9.46
342.16	-9.46
342.543	-38.61
342.927	-68.67
343.31	-52.85
343.693	-69.12
344.077	-67.99
344.46	-72.06
344.843	-51.27
345.226	-38.61
345.61	-32.51
345.993	-11.5
346.376	-16.24
346.759	8.16
347.142	21.5
347.525	47.48
347.908	57.43
348.291	65.56
348.674	99.46
349.057	112.57
349.44	138.56
349.823	172
350.206	159.57
350.588	207.48
350.971	237.54
351.354	234.37
351.737	246.58
352.119	276.41
352.502	277.31
352.884	285.9
353.267	298.55
353.65	296.07
354.032	346.91
354.414	332.67
354.797	364.09
355.179	347.59
355.562	334.03
355.944	339.91
356.326	343.52
356.709	368.61
357.091	353.01
357.473	346.23
357.855	362.73
358.238	369.51
358.62	356.63
359.002	352.79
359.384	350.3
359.766	355.95
360.148	362.28
360.53	358.44
360.912	362.96
361.294	364.31
361.676	350.3
362.057	327.48
362.439	353.47
362.821	341.94
363.203	344.65
363.584	352.34
363.966	354.37
364.348	361.37
364.729	367.93
365.111	340.13
365.493	331.77
365.874	329.51
366.256	353.47
366.637	331.54
367.019	328.16
367.4	332.67
367.781	322.51
368.163	331.54
368.544	331.32
368.925	319.12
369.306	327.48
369.688	346.01
370.069	328.61
370.45	330.64
370.831	337.65
371.212	330.19
371.593	319.12
371.974	353.69
372.355	343.3
372.736	339.45
373.117	332
373.498	309.4
373.879	334.71
374.26	334.03
374.641	321.6
375.021	329.74
375.402	345.78
375.783	366.12
376.163	354.37
376.544	362.73
376.925	358.44
377.305	350.98
377.686	342.62
378.066	325.67
378.447	355.73
378.827	354.37
379.208	363.63
379.588	344.2
379.968	368.61
380.349	366.35
380.729	357.08
381.109	353.01
381.489	349.4
381.87	361.15
382.25	362.28
382.63	355.5
383.01	379.68
383.39	348.95
383.77	369.74
384.15	378.1
384.53	381.26
384.91	360.92
385.29	361.15
385.67	358.66
386.049	362.73
386.429	382.17
386.809	380.36
387.189	378.78
387.568	398.66
387.948	385.78
388.328	366.8
388.707	378.32
389.087	371.32
389.466	367.25
389.846	382.17
390.225	387.36
390.605	392.11
390.984	394.82
391.363	409.51
391.743	425.55
392.122	392.56
392.501	388.94
392.881	389.85
393.26	402.96
393.639	406.57
394.018	403.63
394.397	416.74
394.776	395.72
395.155	409.06
395.534	395.27
395.913	396.63
396.292	409.06
396.671	419.23
397.05	410.86
397.429	427.14
397.808	410.41
398.186	421.49
398.565	419.68
398.944	413.58
399.323	426.23
399.701	418.55
400.08	431.2
400.458	427.59
400.837	444.08
401.215	422.16
401.594	435.27
401.972	446.57
402.351	431.43
402.729	444.99
403.107	452.9
403.486	432.56
403.864	427.81
404.242	458.77
404.62	463.74
404.999	459.68
405.377	459.9
405.755	448.83
406.133	456.74
406.511	455.38
406.889	475.72
407.267	466.91
407.645	482.95
408.023	473.01
408.401	467.81
408.779	484.08
409.156	479.79
409.534	471.43
409.912	484.08
410.29	478.43
410.667	514.14
411.045	515.04
411.422	495.38
411.8	511.43
412.178	511.2
412.555	510.75
412.933	540.58
413.31	514.59
413.687	528.15
414.065	524.31
414.442	529.51
414.819	541.03
415.197	526.34
415.574	544.87
415.951	545.1
416.328	544.65
416.705	562.73
417.082	566.12
417.46	558.66
417.837	560.92
418.214	558.66
418.591	562.27
418.967	562.5
419.344	561.6
419.721	586.91
420.098	583.06
420.475	581.93
420.852	557.3
421.228	632.55
421.605	599.11
421.982	596.4
422.358	596.62
422.735	615.61
423.111	616.74
423.488	642.5
423.864	616.51
424.241	630.07
424.617	626.23
424.994	618.54
425.37	639.79
425.746	647.24
426.123	641.37
426.499	646.56
426.875	642.27
427.251	659.22
427.627	674.13
428.003	665.1
428.379	673.23
428.756	681.59
429.132	697.64
429.507	686.79
429.883	690.18
430.259	709.39
430.635	717.52
431.011	713
431.387	723.63
431.763	740.12
432.138	742.16
432.514	755.04
432.89	748.48
433.265	773.57
433.641	771.31
434.016	769.5
434.392	768.6
434.767	781.93
435.143	791.87
435.518	795.26
435.894	800.01
436.269	799.78
436.644	798.65
437.02	823.74
437.395	817.63
437.77	828.03
438.145	840.23
438.52	840.23
438.895	863.73
439.271	850.85
439.646	873.9
440.021	868.25
440.395	854.47
440.77	858.99
441.145	897.41
441.52	887.91
441.895	870.97
442.27	894.69
442.645	905.77
443.019	937.63
443.394	910.51
443.769	901.25
444.143	892.66
444.518	907.8
444.892	896.5
445.267	937.18
445.641	939.44
446.016	922.04
446.39	939.44
446.764	934.69
447.139	976.73
447.513	948.48
447.887	922.72
448.262	950.51
448.636	931.98
449.01	966.33
449.384	985.54
449.758	972.66
450.132	988.25
450.506	965.43
450.88	994.58
451.254	1009.04
451.628	1003.39
452.002	989.38
452.376	995.48
452.75	1013.33
453.123	1036.16
453.497	1014.46
453.871	1054.92
454.244	1039.32
454.618	1049.94
454.992	1065.54
455.365	1071.64
455.739	1075.71
456.112	1112.54
456.486	1077.97
456.859	1103.5
457.232	1109.38
457.606	1123.39
457.979	1153.44
458.352	1143.73
458.725	1160
459.099	1155.03
459.472	1182.82
459.845	1159.32
460.218	1176.72
460.591	1175.59
460.964	1195.48
461.337	1172.65
461.71	1213.56
462.083	1218.98
462.456	1236.15
462.829	1223.27
463.201	1236.83
463.574	1256.72
463.947	1288.58
464.32	1252.42
464.692	1270.05
465.065	1262.14
465.438	1319.32
465.81	1362.93
466.183	1322.25
466.555	1343.72
466.928	1358.64
467.3	1353.89
467.672	1364.74
468.045	1391.4
468.417	1380.78
468.789	1394.79
469.161	1395.7
469.534	1388.92
469.906	1437.28
470.278	1475.24
470.65	1449.26
471.022	1476.83
471.394	1503.49
471.766	1491.29
472.138	1511.63
472.51	1564.51
472.882	1575.35
473.253	1585.75
473.625	1575.13
473.997	1647.22
474.369	1613.55
474.74	1626.2
475.112	1651.74
475.484	1700.77
475.855	1706.42
476.227	1710.94
476.598	1678.85
476.97	1753.88
477.341	1769.25
477.713	1802.47
478.084	1814.67
478.455	1827.32
478.827	1863.71
479.198	1907.1
479.569	1921.11
479.94	1972.41
480.311	1965.63
480.682	1998.62
481.053	2032.52
481.424	2043.36
481.795	2070.26
482.166	2119.29
482.537	2148.9
482.908	2187.54
483.279	2230.48
483.65	2277.48
484.021	2259.63
484.391	2273.87
484.762	2303.47
485.133	2349.8
485.503	2383.24
485.874	2411.49
486.244	2424.6
486.615	2460.3
486.985	2516.35
487.356	2554.76
487.726	2559.28
488.097	2605.84
488.467	2627.98
488.837	2701.2
489.207	2710.01
489.578	2773.29
489.948	2801.08
490.318	2848.77
490.688	2868.43
491.058	2888.77
491.428	2913.85
491.798	2974.19
492.168	3057.35
492.538	3049.44
492.908	3088.53
493.278	3148.65
493.648	3151.58
494.017	3159.72
494.387	3220.96
494.757	3266.16
495.126	3287.63
495.496	3299.83
495.866	3353.61
496.235	3425.47
496.605	3403.33
496.974	3424.12
497.344	3474.51
497.713	3540.5
498.082	3575.98
498.452	3538.92
498.821	3595.19
499.19	3646.94
499.559	3660.05
499.928	3746.37
500.298	3749.99
500.667	3764.45
501.036	3794.73
501.405	3843.09
501.774	3860.27
502.143	3907.5
502.512	3891
502.88	3945.01
503.249	3933.48
503.618	4010.09
503.987	4046.7
504.356	4021.62
504.724	4108.39
505.093	4115.17
505.462	4152.01
505.83	4196.75
506.199	4247.15
506.567	4283.08
506.936	4259.8
507.304	4326.69
507.672	4320.82
508.041	4372.57
508.409	4403.98
508.777	4432.91
509.145	4460.48
509.514	4493.92
509.882	4498.44
510.25	4553.35
510.618	4583.41
510.986	4599
511.354	4641.04
511.722	4673.13
512.09	4761.03
512.458	4730.75
512.826	4749.96
513.193	4803.29
513.561	4828.15
513.929	4863.86
514.297	4929.16
514.664	4915.15
515.032	4972.78
515.4	5030.86
515.767	5060.91
516.135	5076.73
516.502	5061.14
516.869	5114.02
517.237	5167.12
517.604	5170.51
517.972	5193.11
518.339	5244.41
518.706	5278.99
519.073	5276.5
519.44	5371.19
519.808	5392.65
520.175	5433.33
520.542	5438.76
520.909	5507.68
521.276	5516.04
521.643	5577.06
522.009	5599.88
522.376	5627.68
522.743	5647.11
523.11	5726.88
523.477	5774.79
523.843	5826.09
524.21	5830.38
524.577	5912.64
524.943	5920.1
525.31	5986.31
525.676	6019.76
526.043	6021.11
526.409	6038.74
526.776	6177.49
527.142	6169.58
527.508	6174.1
527.874	6199.41
528.241	6276.93
528.607	6287.55
528.973	6301.56
529.339	6325.74
529.705	6406.64
530.071	6444.15
530.437	6473.53
530.803	6502.46
531.169	6563.47
531.535	6520.76
531.901	6577.93
532.267	6597.37
532.632	6619.52
532.998	6637.14
533.364	6655.67
533.73	6771.38
534.095	6779.74
534.461	6770.92
534.826	6838.27
535.192	6873.75
535.557	6905.38
535.923	6881.88
536.288	6934.31
536.653	6973.86
537.019	7003.23
537.384	7076.9
537.749	7003.91
538.114	7097.92
538.479	7172.72
538.845	7115.77
539.21	7149.67
539.575	7247.52
539.94	7170.46
540.305	7259.95
540.67	7299.5
541.034	7345.37
541.399	7403.22
541.764	7411.81
542.129	7397.57
542.494	7489.1
542.858	7415.43
543.223	7509.89
543.587	7553.5
543.952	7528.19
544.316	7564.12
544.681	7591.47
545.045	7620.84
545.41	7742.42
545.774	7766.38
546.138	7797.56
546.503	7832.59
546.867	7801.18
547.231	7882.08
547.595	7893.38
547.959	7947.84
548.324	7997.11
548.688	8035.52
549.052	8088.4
549.416	8080.72
549.779	8066.03
550.143	8128.85
550.507	8229.42
550.871	8285.46
551.235	8253.14
551.599	8362.07
551.962	8408.17
552.326	8426.02
552.689	8478
553.053	8472.12
553.417	8573.14
553.78	8663.76
554.143	8576.07
554.507	8661.72
554.87	8761.38
555.234	8842.28
555.597	8800.47
555.96	8924.31
556.323	8977.65
556.686	8938.78
557.05	9023.52
557.413	9141.48
557.776	9163.4
558.139	9212.67
558.502	9263.51
558.865	9416.05
559.228	9409.95
559.59	9503.28
559.953	9506.44
560.316	9659.66
560.679	9704.86
561.041	9812.88
561.404	9802.03
561.767	9971.74
562.129	9917.96
562.492	10152.08
562.854	10149.82
563.217	10196.37
563.579	10318.85
563.941	10419.87
564.304	10438.85
564.666	10589.13
565.028	10677.49
565.39	10755.23
565.753	10849.46
566.115	10989.34
566.477	10988.21
566.839	11205.16
567.201	11293.97
567.563	11365.83
567.925	11636.78
568.287	11640.17
568.648	11738.48
569.01	11838.36
569.372	12053.5
569.734	12105.25
570.095	12231.8
570.457	12405.35
570.819	12616.65
571.18	12623.43
571.542	12833.14
571.903	12952.68
572.265	13199.46
572.626	13385.89
572.987	13499.33
573.349	13700.46
573.71	13827.91
574.071	13989.26
574.432	14192.42
574.794	14523.04
575.155	14701.11
575.516	14760.09
575.877	15030.59
576.238	15245.28
576.599	15549.22
576.96	15710.8
577.32	15815.43
577.681	16240.28
578.042	16427.84
578.403	16742.86
578.763	16955.29
579.124	17232.8
579.485	17602.96
579.845	18030.97
580.206	18224.86
580.566	18481.8
580.927	18832.75
581.287	19140.99
581.648	19372.17
582.008	19788.43
582.368	20021.42
582.728	20372.83
583.089	20690.11
583.449	21137.55
583.809	21466.13
584.169	21917.64
584.529	22158.99
584.889	22762.37
585.249	22982.25
585.609	23349.92
585.969	23855.45
586.329	24255.66
586.688	24684.12
587.048	25105.81
587.408	25564.1
587.768	25861.5
588.127	26372.67
588.487	26658.54
588.846	27369.7
589.206	27549.13
589.565	28036.81
589.925	28743.45
590.284	29019.83
590.643	29429.76
591.003	30029.52
591.362	30559
591.721	30905.43
592.08	31494.34
592.44	32005.97
592.799	32375.22
593.158	32852.72
593.517	33283.67
593.876	33972.24
594.235	34303.53
594.593	34758.44
594.952	35330.4
595.311	35763.61
595.67	36276.14
596.029	36898.04
596.387	37416.22
596.746	37822.76
597.104	38119.25
597.463	38575.96
597.822	39259.33
598.18	39438.99
598.538	39895.93
598.897	40609.36
599.255	40529.36
599.613	41575.43
599.972	41750.79
600.33	42195.3
600.688	42501.06
601.046	43155.28
601.404	43715.94
601.762	43849.04
602.12	44557.05
602.478	44895.57
602.836	45121.1
603.194	45363.13
603.552	45890.35
603.91	46079.49
604.268	46581.63
604.625	46674.51
604.983	47147.72
605.341	47390.42
605.698	47871.99
606.056	48008.26
606.413	48368.7
606.771	48719.65
607.128	48996.03
607.485	49030.15
607.843	49368.9
608.2	49815.22
608.557	49960.75
608.914	50230.35
609.272	50565.7
609.629	50688.64
609.986	50895.19
610.343	51020.16
610.7	51422.63
611.057	51522.06
611.414	51595.96
611.771	51750.31
612.127	51966.57
612.484	52057.87
612.841	52345.09
613.198	52315.26
613.554	52455.37
613.911	52692.43
614.267	52786.21
614.624	52969.26
614.98	53000.89
615.337	53341.68
615.693	53363.82
616.05	53444.72
616.406	53682.23
616.762	53665.96
617.118	53712.74
617.475	53775.11
617.831	53927.65
618.187	53985.28
618.543	54113.86
618.899	54416.68
619.255	54390.46
619.611	54397.69
619.967	54495.54
620.323	54617.35
620.678	54625.94
621.034	54599.5
621.39	54610.8
621.746	54672.71
622.101	54957.68
622.457	54845.59
622.812	54944.8
623.168	54987.06
623.523	55029.54
623.879	55177.33
624.234	55001.29
624.589	55087.17
624.945	55194.06
625.3	55216.88
625.655	55201.29
626.01	55326.94
626.365	55323.09
626.72	55330.55
627.075	55311.79
627.43	55366.71
627.785	55291
628.14	55490.55
628.495	55527.16
628.85	55461.17
629.205	55451
629.559	55559.92
629.914	55487.61
630.269	55478.12
630.623	55457.1
630.978	55410.1
631.332	55551.56
631.687	55627.27
632.041	55563.99
632.396	55586.14
632.75	55496.42
633.104	55606.7
633.459	55399.93
633.813	55476.99
634.167	55452.13
634.521	55460.72
634.875	55573.93
635.229	55474.95
635.583	55314.51
635.937	55362.41
636.291	55422.75
636.645	55380.49
636.999	55352.02
637.352	55389.98
637.706	55314.51
638.06	55439.02
638.413	55325.81
638.767	55257.11
639.121	55366.48
639.474	55167.62
639.828	55293.72
640.181	55373.26
640.534	55256.2
640.888	55279.7
641.241	55087.85
641.594	55210.33
641.947	55201.29
642.301	55199.25
642.654	55263.89
643.007	55201.97
643.36	55158.13
643.713	55135.75
644.066	55229.99
644.419	55040.39
644.771	54891.24
645.124	54596.78
645.477	54537.35
645.83	54473.85
646.182	54312.72
646.535	54391.37
646.888	54360.86
647.24	54201.54
647.593	54448.31
647.945	54390.01
648.298	54148.21
648.65	54225.04
649.002	54101.88
649.355	54275.89
649.707	54166.51
650.059	54260.52
650.411	54629.78
650.763	54742.77
651.115	55008.3
651.467	54918.58
651.819	54856.44
652.171	54801.07
652.523	54761.07
652.875	54788.64
653.227	54703.22
653.578	54893.27
653.93	54783.45
654.282	54686.5
654.633	54591.14
654.985	54747.52
655.337	54763.33
655.688	54745.03
656.039	54815.31
656.391	54519.27
656.742	54636.11
657.094	54629.78
657.445	54712.94
657.796	54684.69
658.147	54700.96
658.498	54650.34
658.849	54670
659.2	54682.43
659.551	54575.09
659.902	54728.31
660.253	54606.28
660.604	54672.94
660.955	54577.35
661.306	54666.39
661.656	54596.78
662.007	54643.56
662.358	54597.69
662.708	54599.95
663.059	54629.1
663.409	54410.12
663.76	54645.37
664.11	54658.93
664.461	54694.18
664.811	54573.28
665.161	54589.1
665.511	54528.99
665.862	54512.27
666.212	54617.58
666.562	54587.75
666.912	54498.48
667.262	54467.52
667.612	54497.58
667.962	54522.21
668.312	54385.72
668.662	54593.4
669.011	54480.86
669.361	54422.33
669.711	54455.32
670.06	54363.34
670.41	54476.79
670.76	54279.28
671.109	54429.78
671.459	54317.02
671.808	54237.25
672.157	54301.2
672.507	54133.07
672.856	54234.31
673.205	54115.44
673.554	54285.61
673.904	54095.33
674.253	54281.54
674.602	54194.54
674.951	53723.81
675.3	53558.62
675.649	54100.07
675.998	54033.41
676.346	54079.06
676.695	54106.4
677.044	53954.77
677.393	53985.73
677.741	54014.43
678.09	53966.74
678.438	53855.56
678.787	53936.24
679.135	53943.24
679.484	53706.64
679.832	53889.46
680.181	53641.1
680.529	53757.03
680.877	53580.54
681.225	53569.92
681.573	53801.78
681.922	53519.3
682.27	53553.2
682.618	53461.67
682.966	53482.69
683.314	53379.87
683.661	53411.05
684.009	53141.46
684.357	53231.62
684.705	53146.2
685.053	53155.47
685.4	53081.34
685.748	52964.74
686.095	52987.11
686.443	52927
686.79	52876.83
687.138	52856.27
687.485	52876.6
687.832	52734.69
688.18	52790.73
688.527	52601.36
688.874	52573.34
689.221	52497.18
689.568	52501.02
689.915	52363.85
690.262	52340.12
690.609	52205.66
690.956	52222.16
691.303	52169.05
691.65	51928.61
691.997	51982.39
692.344	51668.27
692.69	51694.94
693.037	51807.71
693.383	51432.12
693.73	51580.82
694.077	51407.26
694.423	51398.68
694.769	51378.79
695.116	51216.53
695.462	51221.51
695.808	50965.47
696.155	51090.21
696.501	50807.73
696.847	50751.91
697.193	50653.61
697.539	50633.95
697.885	50279.16
698.231	50350.12
698.577	50343.34
698.923	50138.14
699.269	50052.95
699.614	49926.63
699.96	49867.64
700.306	49897.93
700.651	49763.01
700.997	49575.45
701.342	49519.4
701.688	49471.72
702.033	49293.2
702.379	49323.93
702.724	49230.82
703.069	49286.42
703.415	48825.19
703.76	48814.34
704.105	48835.58
704.45	48800.33
704.795	48409.6
705.14	48233.56
705.485	48341.36
705.83	48262.49
706.175	48235.14
706.52	48052.1
706.865	48111.53
707.209	47954.93
707.554	47647.36
707.899	47864.08
708.243	47606.46
708.588	47512.68
708.932	47333.7
709.277	47359.46
709.621	47374.38
709.966	47139.35
710.31	47070.43
710.654	46858.46
710.998	47015.06
711.342	47032.24
711.687	46708.63
712.031	46631.57
712.375	46469.99
712.719	46702.08
713.063	46536.43
713.407	46624.57
713.75	46401.29
714.094	46314.74
714.438	46159.27
714.782	46145.71
715.125	46080.85
715.469	46166.72
715.812	45897.13
716.156	45687.87
716.499	45649.68
716.843	45764.93
717.186	45432.96
717.53	45757.02
717.873	45623.91
718.216	45498.27
718.559	45330.81
718.902	45021.9
719.246	45159.74
719.589	45097.37
719.932	44936.25
720.275	44940.99
720.617	44879.98
720.96	44896.02
721.303	44767.89
721.646	44721.34
721.989	44551.85
722.331	44668.46
722.674	44616.03
723.016	44614.22
723.359	44609.93
723.701	44368.81
724.044	44245.19
724.386	44058.76
724.729	44260.56
725.071	44229.15
725.413	44087
725.755	44047.01
726.097	43986.22
726.439	43781.93
726.782	43852.43
727.124	43874.81
727.465	43805.2
727.807	43749.84
728.149	43748.03
728.491	43639.11
728.833	43720.46
729.175	43412.67
729.516	43462.61
729.858	43362.5
730.199	43405.44
730.541	43423.97
730.882	43277.76
731.224	43356.63
731.565	43154.83
731.906	43225.33
732.248	43233.92
732.589	42983.08
732.93	42942.4
733.271	42850.65
733.612	42931.1
733.953	42861.27
734.294	42928.39
734.635	42736.76
734.976	42808.17
735.317	42585.12
735.658	42621.51
735.999	42671.22
736.339	42494.28
736.68	42526.37
737.021	42434.39
737.361	42197.79
737.702	42485.24
738.042	42430.33
738.383	42534.73
738.723	42419.7
739.063	42111.24
739.404	42355.07
739.744	42375.19
740.084	42101.07
740.424	42162.54
740.764	42045.48
741.104	42222.19
741.444	41999.15
741.784	41816.33
742.124	41887.74
742.464	41765.94
742.804	41884.35
743.143	41584.47
743.483	41813.17
743.823	41514.87
744.162	41568.88
744.502	41567.75
744.841	41341.31
745.181	41567.75
745.52	41330.92
745.86	41410.24
746.199	41219.74
746.538	41343.57
746.877	41388.54
747.216	41273.29
747.556	41101.09
747.895	41088.21
748.234	40927.54
748.573	40858.61
748.911	40900.87
749.25	41025.39
749.589	40903.81
749.928	40858.61
750.267	40709.69
750.605	40660.65
750.944	40563.26
751.283	40384.73
751.621	40555.57
751.96	40440.55
752.298	40385.41
752.636	40296.6
752.975	40158.07
753.313	40122.59
753.651	40273.77
753.989	39991.29
754.327	40087.56
754.666	39785.87
755.004	39789.94
755.342	39773.67
755.679	39887.34
756.017	39568.48
756.355	39662.04
756.693	39386.34
757.031	39405.09
757.368	39252.56
757.706	39254.36
758.044	39159.22
758.381	39182.05
758.719	39035.39
759.056	39165.78
759.394	38871.55
