Data from orange_diffuse_book_FLMS001491_00036.txt Node
Date: Wed Feb 08 15:29:28 GMT 2017
User: dcchb
Spectrometer: FLMS00149
Trigger mode: 0
Integration Time (sec): 2.000000E-2
Scans to average: 10
Electric dark correction enabled: true
Nonlinearity correction enabled: false
Boxcar width: 0
XAxis mode: Wavelengths
Number of Pixels in Spectrum: 2048
>>>>>Begin Spectral Data<<<<<
341.393	-4.76
341.776	-4.76
342.16	-4.76
342.543	-89.96
342.927	-69.62
343.31	-68.94
343.693	-63.74
344.077	-56.96
344.46	-57.19
344.843	-46.57
345.226	-42.72
345.61	-11.77
345.993	-17.19
346.376	-10.18
346.759	-5.21
347.142	4.05
347.525	44.5
347.908	49.7
348.291	94.45
348.674	96.71
349.057	91.06
349.44	114.33
349.823	131.96
350.206	164.73
350.588	237.27
350.971	234.78
351.354	223.93
351.737	251.96
352.119	252.63
352.502	297.38
352.884	293.31
353.267	276.59
353.65	312.07
354.032	333.31
354.414	338.06
354.797	300.09
355.179	332.41
355.562	346.64
355.944	352.52
356.326	353.65
356.709	348.9
357.091	346.87
357.473	353.2
357.855	348.45
358.238	352.07
358.62	352.97
359.002	349.36
359.384	378.96
359.766	358.85
360.148	368.56
360.53	359.52
360.912	370.82
361.294	352.29
361.676	333.99
362.057	341.45
362.439	366.3
362.821	337.6
363.203	346.87
363.584	345.74
363.966	348
364.348	351.16
364.729	339.86
365.111	329.47
365.493	364.04
365.874	348
366.256	343.03
366.637	314.78
367.019	350.03
367.4	319.98
367.781	338.73
368.163	332.18
368.544	344.61
368.925	338.96
369.306	330.15
369.688	343.48
370.069	319.3
370.45	321.33
370.831	319.07
371.212	340.32
371.593	325.85
371.974	321.56
372.355	306.87
372.736	356.81
373.117	344.38
373.498	323.59
373.879	352.74
374.26	358.39
374.641	337.15
375.021	329.92
375.402	349.58
375.783	348.45
376.163	345.29
376.544	342.8
376.925	349.13
377.305	336.02
377.686	350.03
378.066	346.42
378.447	366.76
378.827	335.57
379.208	375.12
379.588	367.66
379.968	353.42
380.349	361.78
380.729	365.63
381.109	377.6
381.489	364.04
381.87	356.59
382.25	363.37
382.63	356.13
383.01	352.07
383.39	358.62
383.77	355.46
384.15	359.3
384.53	360.2
384.91	372.41
385.29	368.11
385.67	374.44
386.049	383.25
386.429	381.9
386.809	397.26
387.189	406.3
387.568	396.13
387.948	360.2
388.328	358.17
388.707	385.74
389.087	388
389.466	376.25
389.846	404.5
390.225	385.06
390.605	372.63
390.984	400.2
391.363	388.22
391.743	397.94
392.122	386.64
392.501	400.88
392.881	403.82
393.26	395.68
393.639	411.5
394.018	420.09
394.397	404.04
394.776	397.49
395.155	408.34
395.534	418.51
395.913	412.86
396.292	422.57
396.671	421.9
397.05	423.48
397.429	409.69
397.808	423.93
398.186	437.71
398.565	433.65
398.944	420.77
399.323	430.48
399.701	429.35
400.08	416.25
400.458	457.37
400.837	404.5
401.215	438.84
401.594	455.57
401.972	432.74
402.351	430.26
402.729	440.88
403.107	446.53
403.486	468.22
403.864	464.61
404.242	453.76
404.62	445.85
404.999	449.92
405.377	472.06
405.755	466.64
406.133	471.61
406.511	481.56
406.889	480.43
407.267	491.27
407.645	488.56
408.023	494.66
408.401	508
408.779	482.46
409.156	503.48
409.534	513.42
409.912	503.48
410.29	504.15
410.667	510.71
411.045	498.28
411.422	522.23
411.8	530.14
412.178	523.14
412.555	523.81
412.933	513.64
413.31	498.28
413.687	541.67
414.065	549.12
414.442	544.15
414.819	528.79
415.197	567.43
415.574	561.55
415.951	568.78
416.328	567.43
416.705	566.75
417.082	572.85
417.46	574.66
417.837	593.87
418.214	576.47
418.591	566.52
418.967	611.95
419.344	617.6
419.721	608.33
420.098	587.99
420.475	622.34
420.852	595
421.228	639.29
421.605	633.19
421.982	613.53
422.358	644.71
422.735	607.65
423.111	642.91
423.488	639.74
423.864	648.78
424.241	681.78
424.617	684.71
424.994	656.47
425.37	673.87
425.746	665.73
426.123	682
426.499	667.99
426.875	687.43
427.251	691.49
427.627	691.95
428.003	681.32
428.379	696.01
428.756	725.62
429.132	724.26
429.507	715.22
429.883	741.66
430.259	728.55
430.635	743.92
431.011	750.93
431.387	759.29
431.763	763.36
432.138	759.29
432.514	808.55
432.89	784.82
433.265	805.84
433.641	780.3
434.016	795.45
434.392	824.14
434.767	815.78
435.143	815.78
435.518	850.58
435.894	851.04
436.269	864.82
436.644	845.61
437.02	849
437.395	865.5
437.77	899.62
438.145	895.1
438.52	890.58
438.895	868.89
439.271	910.02
439.646	905.72
440.021	908.89
440.395	928.1
440.77	916.12
441.145	911.83
441.52	931.03
441.895	944.37
442.27	963.35
442.645	940.75
443.019	946.63
443.394	944.59
443.769	959.73
444.143	957.25
444.518	979.17
444.892	989.34
445.267	982.78
445.641	1011.26
446.016	1005.38
446.39	967.19
446.764	992.28
447.139	998.83
447.513	1030.92
447.887	1028.43
448.262	1007.64
448.636	1035.89
449.01	1043.12
449.384	1038.38
449.758	1064.59
450.132	1056.46
450.506	1060.75
450.88	1057.36
451.254	1051.71
451.628	1100.3
452.002	1074.76
452.376	1079.96
452.75	1109.34
453.123	1125.15
453.497	1130.58
453.871	1119.5
454.244	1150.01
454.618	1123.35
454.992	1166.51
455.365	1146.85
455.739	1201.31
456.112	1196.34
456.486	1198.37
456.859	1205.83
457.232	1217.35
457.606	1213.06
457.979	1215.1
458.352	1243.12
458.725	1280.63
459.099	1259.61
459.472	1269.33
459.845	1314.08
460.218	1326.28
460.591	1345.26
460.964	1297.13
461.337	1339.84
461.71	1359.05
462.083	1368.31
462.456	1379.84
462.829	1377.12
463.201	1367.18
463.574	1413.73
463.947	1428.87
464.32	1415.54
464.692	1444.02
465.065	1433.62
465.438	1486.27
465.81	1478.59
466.183	1475.88
466.555	1536.22
466.928	1530.57
467.3	1513.84
467.672	1583.22
468.045	1576.89
468.417	1574.41
468.789	1582.32
469.161	1581.19
469.534	1589.1
469.906	1642.65
470.278	1658.93
470.65	1695.99
471.022	1669.55
471.394	1720.84
471.766	1751.8
472.138	1730.79
472.51	1785.7
472.882	1802.88
473.253	1824.8
473.625	1828.41
473.997	1857.34
474.369	1877.68
474.74	1872.25
475.112	1936.21
475.484	1940.27
475.855	1980.05
476.227	1987.96
476.598	2020.27
476.97	2048.75
477.341	2076.09
477.713	2101.4
478.084	2155.18
478.455	2171.68
478.827	2184.56
479.198	2274.05
479.569	2242.64
479.94	2329.64
480.311	2324.67
480.682	2379.81
481.053	2439.24
481.424	2435.18
481.795	2516.3
482.166	2535.29
482.537	2540.03
482.908	2615.06
483.279	2630.2
483.65	2670.42
484.021	2679.01
484.391	2736.41
484.762	2755.62
485.133	2778.67
485.503	2843.3
485.874	2887.37
486.244	2933.02
486.615	2971.43
486.985	2991.55
487.356	3070.64
487.726	3103.63
488.097	3143.41
488.467	3173.69
488.837	3250.75
489.207	3243.06
489.578	3334.81
489.948	3350.86
490.318	3412.1
490.688	3410.97
491.058	3503.4
491.428	3530.29
491.798	3582.49
492.168	3577.52
492.538	3640.12
492.908	3690.96
493.278	3741.13
493.648	3741.13
494.017	3820.22
494.387	3880.34
494.757	3919.2
495.126	3928.24
495.496	3942.71
495.866	4017.28
496.235	4057.73
496.605	4107.9
496.974	4112.65
497.344	4135.7
497.713	4214.34
498.082	4251.4
498.452	4273.32
498.821	4334.56
499.19	4334.11
499.559	4405.07
499.928	4428.57
500.298	4475.35
500.667	4507.89
501.036	4490.72
501.405	4587.89
501.774	4630.15
502.143	4616.81
502.512	4686.87
502.88	4738.39
503.249	4762.35
503.618	4752.4
503.987	4822.91
504.356	4872.4
504.724	4909.46
505.093	4933.19
505.462	4939.29
505.83	4998.05
506.199	5085.95
506.567	5091.15
506.936	5116.69
507.304	5123.02
507.672	5197.82
508.041	5253.63
508.409	5288.21
508.777	5346.06
509.145	5327.53
509.514	5383.35
509.882	5403.01
510.25	5459.28
510.618	5500.86
510.986	5502.44
511.354	5570.01
511.722	5622.44
512.09	5650.01
512.458	5695.43
512.826	5802.55
513.193	5747.18
513.561	5804.13
513.929	5847.52
514.297	5912.15
514.664	5938.81
515.032	5943.56
515.4	6049.54
515.767	6003.9
516.135	6080.73
516.502	6041.18
516.869	6218.13
517.237	6209.31
517.604	6180.39
517.972	6276.43
518.339	6315.98
518.706	6330.21
519.073	6386.71
519.44	6383.09
519.808	6530.44
520.175	6471
520.542	6579.93
520.909	6625.57
521.276	6607.27
521.643	6721.39
522.009	6751.22
522.376	6824.67
522.743	6844.55
523.11	6937.43
523.477	6968.84
523.843	7004.1
524.21	7052.68
524.577	7100.14
524.943	7201.15
525.31	7224.43
525.676	7282.51
526.043	7348.04
526.409	7386.01
526.776	7402.96
527.142	7488.6
527.508	7478.89
527.874	7560.01
528.241	7551.2
528.607	7601.82
528.973	7658.32
529.339	7734.25
529.705	7727.69
530.071	7813.11
530.437	7824.86
530.803	7874.81
531.169	7905.77
531.535	7941.02
531.901	7907.12
532.267	8073.9
532.632	8111.64
532.998	8110.06
533.364	8171.07
533.73	8189.83
534.095	8208.13
534.461	8295.13
534.826	8287
535.192	8397.96
535.557	8419.43
535.923	8450.61
536.288	8402.25
536.653	8531.74
537.019	8479.08
537.384	8595.47
537.749	8589.36
538.114	8663.94
538.479	8674.33
538.845	8727.67
539.21	8713.43
539.575	8735.12
539.94	8811.73
540.305	8855.35
540.67	8862.8
541.034	8928.11
541.399	8932.18
541.764	8983.25
542.129	9023.48
542.494	9030.03
542.858	9082.68
543.223	9105.74
543.587	9213.3
543.952	9213.3
544.316	9308.89
544.681	9249.69
545.045	9300.53
545.41	9371.26
545.774	9421.89
546.138	9410.81
546.503	9431.38
546.867	9436.12
547.231	9622.11
547.595	9550.7
547.959	9682.44
548.324	9629.56
548.688	9783.91
549.052	9712.5
549.416	9811.25
549.779	9779.84
550.143	9845.6
550.507	9950.23
550.871	10001.08
551.235	9998.82
551.599	10140.96
551.962	10161.07
552.326	10172.15
552.689	10246.27
553.053	10178.25
553.417	10303.9
553.78	10400.62
554.143	10443.1
554.507	10469.77
554.87	10520.61
555.234	10636.77
555.597	10671.8
555.96	10709.76
556.323	10800.83
556.686	10851.68
557.05	10961.28
557.413	10999.47
557.776	10995.4
558.139	11078.79
558.502	11136.19
558.865	11185.45
559.228	11329.41
559.59	11351.55
559.953	11435.62
560.316	11554.71
560.679	11611.88
561.041	11721.26
561.404	11790.64
561.767	11904.98
562.129	11916.51
562.492	12071.08
562.854	12166.22
563.217	12213.68
563.579	12283.96
563.941	12396.27
564.304	12511.75
564.666	12618.41
565.028	12693.66
565.39	12791.74
565.753	12839.42
566.115	13048.23
566.477	13129.81
566.839	13238.73
567.201	13434.89
567.563	13515.34
567.925	13621.55
568.287	13629.23
568.648	13824.71
569.01	13961.65
569.372	14139.28
569.734	14233.51
570.095	14433.5
570.457	14464.46
570.819	14635.53
571.18	14839.14
571.542	15026.94
571.903	15158.91
572.265	15281.17
572.626	15490.2
572.987	15614.49
573.349	15799.57
573.71	16041.6
574.071	16130.86
574.432	16368.82
574.794	16705.76
575.155	16782.6
575.516	16937.39
575.877	17202.25
576.238	17393.43
576.599	17647.21
576.96	17908.44
577.32	18012.39
577.681	18421.42
578.042	18540.06
578.403	18867.96
578.763	19095.75
579.124	19297.33
579.485	19685.12
579.845	19917.65
580.206	20186.12
580.566	20493.46
580.927	20765.54
581.287	21111.75
581.648	21254.57
582.008	21826.08
582.368	22019.97
582.728	22421.32
583.089	22642.55
583.449	22987.86
583.809	23289.09
584.169	23713.94
584.529	24045.23
584.889	24526.12
585.249	24795.49
585.609	25128.82
585.969	25635.7
586.329	26011.51
586.688	26330.14
587.048	26744.82
587.408	27130.12
587.768	27526.72
588.127	27889.65
588.487	28331.67
588.846	28962.39
589.206	29178.88
589.565	29505.65
589.925	30137.72
590.284	30438.73
590.643	30894.31
591.003	31390.57
591.362	31816.78
591.721	32279.36
592.08	32694.04
592.44	33150.53
592.799	33516.84
593.158	34062.82
593.517	34531.28
593.876	34926.07
594.235	35548.2
594.593	35881.98
594.952	36471.34
595.311	36732.58
595.67	37229.06
596.029	37932.55
596.387	38266.32
596.746	38708.35
597.104	39018.85
597.463	39433.75
597.822	40162.32
598.18	40400.05
598.538	40710.1
598.897	41307.83
599.255	41389.63
599.613	42512.99
599.972	42561.13
600.33	42998.18
600.688	43125.18
601.046	43827.76
601.404	44320.63
601.762	44507.29
602.12	45124
602.478	45327.38
602.836	45592.46
603.194	45810.08
603.552	46321.25
603.91	46396.05
604.268	46874.01
604.625	47053.21
604.983	47654.1
605.341	47718.05
605.698	48186.29
606.056	48529.33
606.413	48651.81
606.771	49006.83
607.128	49386.03
607.485	49347.39
607.843	49557.55
608.2	50034.38
608.557	50293.13
608.914	50300.36
609.272	50675.26
609.629	50878.2
609.986	51080.68
610.343	51139.21
610.7	51569.7
611.057	51609.02
611.414	51714.78
611.771	51813.31
612.127	52153.19
612.484	52258.72
612.841	52439.06
613.198	52391.15
613.554	52556.8
613.911	52824.59
614.267	52916.56
614.624	53047.4
614.98	53177.57
615.337	53389.32
615.693	53393.16
616.05	53498.92
616.406	53725.8
616.762	53689.2
617.118	53705.24
617.475	53841.96
617.831	53982.07
618.187	54042.18
618.543	54146.36
618.899	54434.26
619.255	54404.21
619.611	54342.51
619.967	54624.99
620.323	54641.94
620.678	54578.66
621.034	54555.61
621.39	54657.76
621.746	54632.67
622.101	54976.39
622.457	54837.19
622.812	54890.29
623.168	55000.57
623.523	55062.94
623.879	55140.23
624.234	54984.98
624.589	55173.68
624.945	55251.64
625.3	55217.52
625.655	55236.5
626.01	55223.62
626.365	55317.63
626.72	55357.85
627.075	55373.45
627.43	55397.85
627.785	55364.41
628.14	55362.6
628.495	55469.94
628.85	55492.99
629.205	55391.52
629.559	55577.96
629.914	55481.46
630.269	55515.36
630.623	55442.14
630.978	55416.16
631.332	55538.19
631.687	55544.74
632.041	55458.19
632.396	55624.29
632.75	55440.11
633.104	55557.62
633.459	55388.81
633.813	55419.55
634.167	55390.85
634.521	55400.79
634.875	55493.44
635.229	55452.31
635.583	55352.43
635.937	55324.63
636.291	55312.2
636.645	55357.4
636.999	55319.21
637.352	55409.15
637.706	55189.27
638.06	55357.63
638.413	55251.64
638.767	55205.09
639.121	55310.4
639.474	55123.06
639.828	55189.5
640.181	55202.83
640.534	55235.82
640.888	55256.39
641.241	55106.33
641.594	55094.81
641.947	55216.16
642.301	55186.56
642.654	55219.55
643.007	55223.84
643.36	55126.67
643.713	55109.27
644.066	55264.52
644.419	54955.83
644.771	54806.68
645.124	54602.17
645.477	54483.98
645.83	54421.61
646.182	54325.11
646.535	54233.59
646.888	54322.85
647.24	54184.1
647.593	54373.92
647.945	54228.62
648.298	54173.7
648.65	54122.86
649.002	54090.09
649.355	54152.23
649.707	54169.86
650.059	54258.67
650.411	54592.45
650.763	54588.83
651.115	54931.65
651.467	54767.36
651.819	54728.49
652.171	54773.23
652.523	54754.93
652.875	54724.2
653.227	54544.54
653.578	54824.31
653.93	54706.34
654.282	54631.32
654.633	54564.2
654.985	54662.5
655.337	54636.06
655.688	54624.76
656.039	54711.32
656.391	54468.38
656.742	54548.38
657.094	54595.84
657.445	54721.71
657.796	54612.34
658.147	54571.21
658.498	54525.11
658.849	54595.61
659.2	54611.43
659.551	54547.25
659.902	54673.58
660.253	54507.71
660.604	54628.38
660.955	54385.9
661.306	54538.89
661.656	54441.72
662.007	54450.53
662.358	54541.6
662.708	54438.33
663.059	54474.71
663.409	54346.13
663.76	54560.81
664.11	54503.41
664.461	54564.88
664.811	54576.86
665.161	54497.31
665.511	54411.89
665.862	54403.75
666.212	54479.01
666.562	54446.46
666.912	54421.15
667.262	54411.21
667.612	54340.93
667.962	54409.63
668.312	54323.76
668.662	54464.32
669.011	54361.95
669.361	54399.46
669.711	54366.92
670.06	54276.52
670.41	54210.76
670.76	54163.31
671.109	54333.25
671.459	54183.87
671.808	54207.15
672.157	54232.68
672.507	53936.42
672.856	54055.29
673.205	54123.99
673.554	54129.64
673.904	54022.29
674.253	54162.86
674.602	54000.15
674.951	53623.89
675.3	53548.63
675.649	53993.37
675.998	53943.65
676.346	53991.33
676.695	54007.83
677.044	53757.44
677.393	53822.07
677.741	53899.13
678.09	53756.09
678.438	53747.95
678.787	53850.1
679.135	53766.03
679.484	53573.72
679.832	53621.4
680.181	53552.7
680.529	53666.37
680.877	53599.71
681.225	53588.86
681.573	53666.82
681.922	53468.86
682.27	53357.9
682.618	53462.76
682.966	53298.92
683.314	53507.73
683.661	53311.8
684.009	53187.06
684.357	53106.84
684.705	53044.92
685.053	53073.62
685.4	53013.06
685.748	52891.7
686.095	52864.58
686.443	52805.6
686.79	52796.79
687.138	52800.63
687.485	52810.35
687.832	52630.01
688.18	52683.35
688.527	52450.58
688.874	52473.18
689.221	52417.14
689.568	52369.46
689.915	52117.94
690.262	52190.03
690.609	52044.72
690.956	52032.29
691.303	51965.63
691.65	51914.78
691.997	51797.04
692.344	51618.74
692.69	51579.65
693.037	51633.66
693.383	51383.04
693.73	51448.8
694.077	51303.04
694.423	51369.48
694.769	51141.47
695.116	51194.8
695.462	51064.86
695.808	50941.25
696.155	51064.86
696.501	50734.92
696.847	50689.73
697.193	50578.32
697.539	50610.18
697.885	50365.44
698.231	50187.37
698.577	50196.86
698.923	50138.55
699.269	49999.35
699.614	49875.96
699.96	49790.54
700.306	49810.43
700.651	49556.87
700.997	49532.92
701.342	49536.54
701.688	49433.04
702.033	49237.11
702.379	49271.01
702.724	49096.32
703.069	49177.45
703.415	48695.2
703.76	48802.54
704.105	48767.52
704.45	48632.61
704.795	48464.02
705.14	48329.11
705.485	48422.44
705.83	48196.23
706.175	48213.63
706.52	48059.29
706.865	47836.92
707.209	47981.1
707.554	47679.64
707.899	47797.6
708.243	47585.18
708.588	47466.76
708.932	47362.36
709.277	47354.22
709.621	47302.02
709.966	46998.75
710.31	47117.39
710.654	46716.05
710.998	46934.35
711.342	46997.17
711.687	46564.19
712.031	46717.18
712.375	46475.15
712.719	46497.29
713.063	46438.54
713.407	46595.6
713.75	46266.11
714.094	46173.91
714.438	46010.08
714.782	46134.59
715.125	45938.21
715.469	46140.69
715.812	45888.04
716.156	45765.11
716.499	45741.16
716.843	45548.17
717.186	45433.59
717.53	45603.08
717.873	45510.2
718.216	45583.65
718.559	45270.43
718.902	44982.76
719.246	45140.49
719.589	45026.37
719.932	44857.56
720.275	44862.54
720.617	44782.76
720.96	44854.17
721.303	44774.18
721.646	44795.87
721.989	44540.96
722.331	44630.68
722.674	44490.79
723.016	44419.16
723.359	44511.13
723.701	44411.47
724.044	44086.96
724.386	44099.17
724.729	44151.82
725.071	43969.23
725.413	44210.8
725.755	43909.79
726.097	43988.89
726.439	43740.76
726.782	43830.47
727.124	43837.48
727.465	43621.44
727.807	43739.85
728.149	43551.84
728.491	43532.17
728.833	43564.26
729.175	43464.15
729.516	43398.17
729.858	43398.39
730.199	43419.41
730.541	43135.35
730.882	43370.82
731.224	43238.4
731.565	42963.38
731.906	43062.13
732.248	43246.53
732.589	42826.66
732.93	42819.2
733.271	42891.74
733.612	42824.4
733.953	42787.11
734.294	42662.59
734.635	42741.91
734.976	42817.84
735.317	42367.91
735.658	42587.34
735.999	42395.03
736.339	42376.95
736.68	42620.33
737.021	42273
737.361	42153.91
737.702	42322.94
738.042	42300.12
738.383	42062.61
738.723	42174.92
739.063	42108.03
739.404	42066.68
739.744	42119.1
740.084	41886.57
740.424	41928.6
740.764	41818.55
741.104	42014.25
741.444	41694.26
741.784	41674.37
742.124	41779
742.464	41731.32
742.804	41527.48
743.143	41482.74
743.483	41508.72
743.823	41425.34
744.162	41359.8
744.502	41574.94
744.841	41149.86
745.181	41378.78
745.52	41357.99
745.86	41198
746.199	41088.85
746.538	41075.97
746.877	41263.08
747.216	41027.83
747.556	41023.99
747.895	41088.85
748.234	40897.44
748.573	40791.46
748.911	40883.2
749.25	40752.36
749.589	40570.44
749.928	40673.27
750.267	40735.19
750.605	40457.91
750.944	40444.8
751.283	40302.65
751.621	40385.82
751.96	40217.91
752.298	40187.18
752.636	40235.76
752.975	39982.66
753.313	39844.59
753.651	40146.5
753.989	39823.57
754.327	39899.95
754.666	39603.92
755.004	39621.99
755.342	39501.09
755.679	39509.68
756.017	39313.53
756.355	39518.04
756.693	39272.63
757.031	39446.18
757.368	39156.7
757.706	39053.42
758.044	38938.17
758.381	39013.88
758.719	38808.46
