Data from orange_diffuse_book_FLMS001491_00015.txt Node
Date: Wed Feb 08 15:29:12 GMT 2017
User: dcchb
Spectrometer: FLMS00149
Trigger mode: 0
Integration Time (sec): 2.000000E-2
Scans to average: 10
Electric dark correction enabled: true
Nonlinearity correction enabled: false
Boxcar width: 0
XAxis mode: Wavelengths
Number of Pixels in Spectrum: 2048
>>>>>Begin Spectral Data<<<<<
341.393	-17.32
341.776	-17.32
342.16	-17.32
342.543	-64.32
342.927	-66.81
343.31	-71.78
343.693	-51.21
344.077	-57.31
344.46	-58.9
344.843	-57.54
345.226	-45.56
345.61	-46.24
345.993	-28.62
346.376	3.7
346.759	16.13
347.142	17.26
347.525	31.95
347.908	55.45
348.291	91.38
348.674	94.32
349.057	106.97
349.44	115.34
349.823	122.12
350.206	161.89
350.588	195.11
350.971	230.81
351.354	222.68
351.737	241.43
352.119	251.6
352.502	288.21
352.884	296.57
353.267	305.39
353.65	321.21
354.032	296.8
354.414	318.95
354.797	314.88
355.179	345.61
355.562	332.73
355.944	341.32
356.326	349.68
356.709	336.57
357.091	332.51
357.473	373.18
357.855	331.6
358.238	353.97
358.62	351.26
359.002	336.35
359.384	343.13
359.766	349.91
360.148	335.9
360.53	360.98
360.912	342.45
361.294	358.72
361.676	359.62
362.057	354.65
362.439	349.91
362.821	338.38
363.203	334.77
363.584	341.54
363.966	327.76
364.348	353.52
364.729	333.41
365.111	334.54
365.493	338.61
365.874	337.03
366.256	336.12
366.637	322.79
367.019	317.36
367.4	341.32
367.781	324.82
368.163	327.53
368.544	314.88
368.925	338.61
369.306	323.24
369.688	332.73
370.069	290.02
370.45	323.92
370.831	333.64
371.212	318.04
371.593	326.63
371.974	313.75
372.355	317.36
372.736	321.43
373.117	337.03
373.498	346.52
373.879	327.99
374.26	323.47
374.641	310.59
375.021	330.25
375.402	344.93
375.783	329.57
376.163	301.09
376.544	338.15
376.925	325.05
377.305	336.35
377.686	326.4
378.066	333.18
378.447	331.83
378.827	353.07
379.208	348.32
379.588	332.96
379.968	362.34
380.349	346.06
380.729	330.92
381.109	348.1
381.489	349
381.87	353.97
382.25	359.4
382.63	345.61
383.01	366.18
383.39	349.68
383.77	354.43
384.15	343.35
384.53	381.09
384.91	351.49
385.29	341.54
385.67	350.58
386.049	378.61
386.429	349.68
386.809	373.18
387.189	365.05
387.568	363.47
387.948	344.48
388.328	348.55
388.707	366.85
389.087	364.37
389.466	367.08
389.846	370.24
390.225	377.7
390.605	375.44
390.984	388.32
391.363	359.62
391.743	361.21
392.122	400.98
392.501	371.15
392.881	383.8
393.26	388.78
393.639	397.59
394.018	384.71
394.397	362.79
394.776	366.4
395.155	387.19
395.534	391.26
395.913	391.49
396.292	394.65
396.671	392.39
397.05	388.32
397.429	397.14
397.808	386.74
398.186	422.67
398.565	416.8
398.944	395.1
399.323	399.85
399.701	403.92
400.08	386.06
400.458	400.3
400.837	417.25
401.215	421.09
401.594	423.8
401.972	407.31
402.351	418.83
402.729	420.86
403.107	438.72
403.486	431.26
403.864	421.99
404.242	434.42
404.62	435.78
404.999	416.34
405.377	424.71
405.755	435.78
406.133	445.72
406.511	451.82
406.889	432.16
407.267	454.31
407.645	452.5
408.023	451.15
408.401	457.25
408.779	454.99
409.156	447.08
409.534	474.65
409.912	467.64
410.29	470.35
410.667	477.13
411.045	466.97
411.422	468.32
411.8	485.95
412.178	490.47
412.555	471.03
412.933	479.85
413.31	498.15
413.687	517.13
414.065	502.9
414.442	515.1
414.819	481.65
415.197	512.84
415.574	520.98
415.951	504.03
416.328	508.77
416.705	509.9
417.082	524.82
417.46	524.59
417.837	530.24
418.214	531.37
418.591	535.21
418.967	535.66
419.344	561.88
419.721	532.05
420.098	517.13
420.475	536.79
420.852	551.26
421.228	575.89
421.605	566.17
421.982	569.79
422.358	573.85
422.735	561.43
423.111	559.17
423.488	583.35
423.864	579.28
424.241	572.73
424.617	599.17
424.994	597.58
425.37	604.59
425.746	626.73
426.123	588.32
426.499	605.72
426.875	612.95
427.251	608.66
427.627	634.64
428.003	610.01
428.379	637.13
428.756	624.25
429.132	635.1
429.507	628.99
429.883	637.58
430.259	662.89
430.635	641.42
431.011	671.71
431.387	657.69
431.763	692.72
432.138	699.73
432.514	699.05
432.89	713.06
433.265	709.67
433.641	707.41
434.016	715.77
434.392	730.01
434.767	707.86
435.143	709.67
435.518	736.56
435.894	738.37
436.269	749.44
436.644	741.53
437.02	757.8
437.395	726.39
437.77	751.03
438.145	764.81
438.52	769.78
438.895	772.04
439.271	786.05
439.646	810.01
440.021	785.15
440.395	821.53
440.77	787.41
441.145	802.55
441.52	797.13
441.895	799.16
442.27	810.68
442.645	832.83
443.019	819.27
443.394	818.59
443.769	810.46
444.143	824.47
444.518	842.77
444.892	833.28
445.267	850.46
445.641	845.94
446.016	856.33
446.39	852.04
446.764	857.69
447.139	883.68
447.513	866.28
447.887	863.11
448.262	883
448.636	881.42
449.01	878.93
449.384	902.66
449.758	896.56
450.132	915.09
450.506	915.09
450.88	901.53
451.254	939.72
451.628	932.04
452.002	921.19
452.376	937.91
452.75	946.5
453.123	946.5
453.497	968.65
453.871	958.03
454.244	993.28
454.618	1017.46
454.992	985.6
455.365	998.93
455.739	979.04
456.112	1023.11
456.486	1017.46
456.859	1021.98
457.232	1042.09
457.606	1012.94
457.979	1045.48
458.352	1039.38
458.725	1049.55
459.099	1070.57
459.472	1061.3
459.845	1071.69
460.218	1084.8
460.591	1114.41
460.964	1098.13
461.337	1114.86
461.71	1141.07
462.083	1158.02
462.456	1133.61
462.829	1117.57
463.201	1177.68
463.574	1171.58
463.947	1178.13
464.32	1186.27
464.692	1206.61
465.065	1200.28
465.438	1225.59
465.81	1259.94
466.183	1232.82
466.555	1233.72
466.928	1280.28
467.3	1250.22
467.672	1272.37
468.045	1315.98
468.417	1297.23
468.789	1299.49
469.161	1304.01
469.534	1334.29
469.906	1350.33
470.278	1367.28
470.65	1386.26
471.022	1371.57
471.394	1416.54
471.766	1388.75
472.138	1426.26
472.51	1454.28
472.882	1492.93
473.253	1470.55
473.625	1468.75
473.997	1498.58
474.369	1532.93
474.74	1540.16
475.112	1564.56
475.484	1570.66
475.855	1613.6
476.227	1630.1
476.598	1646.37
476.97	1671.68
477.341	1665.13
477.713	1709.64
478.084	1713.49
478.455	1762.98
478.827	1764.33
479.198	1814.95
479.569	1803.2
479.94	1869.87
480.311	1882.3
480.682	1936.31
481.053	1948.96
481.424	1974.04
481.795	1980.82
482.166	2009.52
482.537	2029.18
482.908	2092.01
483.279	2087.04
483.65	2152.8
484.021	2193.02
484.391	2186.02
484.762	2216.07
485.133	2236.41
485.503	2254.49
485.874	2312.57
486.244	2332.68
486.615	2376.07
486.985	2398.44
487.356	2441.6
487.726	2438.21
488.097	2498.55
488.467	2529.51
488.837	2598.43
489.207	2560.7
489.578	2638.89
489.948	2675.27
490.318	2703.97
490.688	2706.23
491.058	2760.01
491.428	2830.29
491.798	2850.18
492.168	2903.96
492.538	2932.66
492.908	2965.66
493.278	2988.25
493.648	3000.68
494.017	3007.92
494.387	3028.03
494.757	3082.26
495.126	3148.25
495.496	3216.95
495.866	3182.83
496.235	3236.61
496.605	3309.38
496.974	3281.81
497.344	3338.3
497.713	3376.49
498.082	3425.76
498.452	3472.31
498.821	3450.62
499.19	3456.27
499.559	3504.17
499.928	3530.39
500.298	3551.18
500.667	3615.36
501.036	3616.26
501.405	3691.29
501.774	3687.22
502.143	3731.06
502.512	3738.52
502.88	3789.82
503.249	3806.09
503.618	3882.69
503.987	3868.46
504.356	3905.07
504.724	3913.2
505.093	3922.92
505.462	3948.68
505.83	3986.42
506.199	4030.26
506.567	4077.72
506.936	4095.12
507.304	4083.14
507.672	4130.6
508.041	4151.84
508.409	4209.47
508.777	4275
509.145	4275.9
509.514	4300.76
509.882	4341.89
510.25	4312.06
510.618	4379.18
510.986	4383.47
511.354	4416.47
511.722	4464.37
512.09	4532.62
512.458	4475.67
512.826	4531.94
513.193	4493.53
513.561	4590.25
513.929	4627.08
514.297	4646.74
514.664	4710.92
515.032	4701.43
515.4	4731.94
515.767	4776.68
516.135	4856
516.502	4799.51
516.869	4912.5
517.237	4893.97
517.604	4930.35
517.972	4967.86
518.339	5033.4
518.706	5068.43
519.073	5079.05
519.44	5099.39
519.808	5115.88
520.175	5159.05
520.542	5219.16
520.909	5272.26
521.276	5265.48
521.643	5330.11
522.009	5337.8
522.376	5358.36
522.743	5406.72
523.11	5416.44
523.477	5486.49
523.843	5556.55
524.21	5566.27
524.577	5596.77
524.943	5635.64
525.31	5673.83
525.676	5690.33
526.043	5753.61
526.409	5807.39
526.776	5873.83
527.142	5838.8
527.508	5890.33
527.874	5932.81
528.241	5934.17
528.607	6021.85
528.973	6045.8
529.339	6039.7
529.705	6103.88
530.071	6180.04
530.437	6204.22
530.803	6163.54
531.169	6246.02
531.535	6213.25
531.901	6250.32
532.267	6278.79
532.632	6343.19
532.998	6351.78
533.364	6341.39
533.73	6411.89
534.095	6463.87
534.461	6469.97
534.826	6575.05
535.192	6513.81
535.557	6576.18
535.923	6574.83
536.288	6645.56
536.653	6666.35
537.019	6664.54
537.384	6682.85
537.749	6728.5
538.114	6754.48
538.479	6756.29
538.845	6790.19
539.21	6790.19
539.575	6871.99
539.94	6862.5
540.305	6896.17
540.67	6897.53
541.034	6975.27
541.399	6970.3
541.764	7009.84
542.129	7095.27
542.494	7063.85
542.858	7085.77
543.223	7138.88
543.587	7171.65
543.952	7204.42
544.316	7202.61
544.681	7198.99
545.045	7275.37
545.41	7339.55
545.774	7407.8
546.138	7351.08
546.503	7355.37
546.867	7380.23
547.231	7524.18
547.595	7485.76
547.959	7553.56
548.324	7514.46
548.688	7615.7
549.052	7657.74
549.416	7681.01
549.779	7692.99
550.143	7800.56
550.507	7829.26
550.871	7864.06
551.235	7892.31
551.599	7902.25
551.962	8003.94
552.326	7989.25
552.689	8063.6
553.053	8115.35
553.417	8058.86
553.78	8211.17
554.143	8243.94
554.507	8245.52
554.87	8346.76
555.234	8427.66
555.597	8451.39
555.96	8471.73
556.323	8516.02
556.686	8546.3
557.05	8665.17
557.413	8683.25
557.776	8737.26
558.139	8843.02
558.502	8859.29
558.865	8910.13
559.228	8970.02
559.59	9012.28
559.953	9092.73
560.316	9260.86
560.679	9321.65
561.041	9378.82
561.404	9394.87
561.767	9522.09
562.129	9452.94
562.492	9711.24
562.854	9746.5
563.217	9752.6
563.579	9804.12
563.941	9960.95
564.304	9993.49
564.666	10108.52
565.028	10212.02
565.39	10276.2
565.753	10413.82
566.115	10515.06
566.477	10592.8
566.839	10712.57
567.201	10835.73
567.563	10928.61
567.925	11066.23
568.287	11148.72
568.648	11259
569.01	11449.95
569.372	11504.87
569.734	11584.86
570.095	11745.99
570.457	11955.25
570.819	12044.51
571.18	12194.34
571.542	12332.42
571.903	12534.9
572.265	12643.14
572.626	12794.78
572.987	13005.39
573.349	13245.84
573.71	13276.12
574.071	13543.23
574.432	13703.68
574.794	13925.82
575.155	14134.4
575.516	14241.29
575.877	14467.95
576.238	14656.42
576.599	14939.58
576.96	15147.03
577.32	15339.12
577.681	15550.18
578.042	15822.27
578.403	16112.2
578.763	16338.86
579.124	16581.12
579.485	16947.44
579.845	17218.84
580.206	17475.11
580.566	17691.15
580.927	18044.13
581.287	18390.11
581.648	18708.97
582.008	19048.85
582.368	19292.46
582.728	19588.72
583.089	19933.35
583.449	20194.36
583.809	20655.81
584.169	20926.77
584.529	21214.22
584.889	21815.56
585.249	22070.46
585.609	22475.2
585.969	22965.13
586.329	23170.55
586.688	23675.17
587.048	24150.64
587.408	24395.6
587.768	24882.37
588.127	25307.67
588.487	25566.87
588.846	26227.42
589.206	26490.69
589.565	26958.25
589.925	27464.9
590.284	27887.26
590.643	28411.09
591.003	28735.83
591.362	29278.41
591.721	29732.86
592.08	30155
592.44	30637.92
592.799	31053.51
593.158	31534.17
593.517	32058.22
593.876	32486.91
594.235	32996.51
594.593	33538.41
594.952	34042.35
595.311	34384.27
595.67	34790.36
596.029	35522.99
596.387	35856.77
596.746	36416.98
597.104	36705.56
597.463	37154.36
597.822	37702.82
598.18	38008.8
598.538	38481.78
598.897	39112.5
599.255	39180.3
599.613	40164.45
599.972	40370.32
600.33	40778
600.688	41119.68
601.046	41613.45
601.404	42050.5
601.762	42408.91
602.12	42869.01
602.478	43304.93
602.836	43651.37
603.194	43864.24
603.552	44243.22
603.91	44465.58
604.268	45084.32
604.625	45276.41
604.983	45751.2
605.341	45825.09
605.698	46284.29
606.056	46796.14
606.413	46981.22
606.771	47320.65
607.128	47693.07
607.485	47729.23
607.843	47903.68
608.2	48378.7
608.557	48604.46
608.914	48818.69
609.272	49149.53
609.629	49372.35
609.986	49659.57
610.343	49627.25
610.7	50136.85
611.057	50153.12
611.414	50373.68
611.771	50565.08
612.127	50781.57
612.484	50950.38
612.841	51166.65
613.198	51151.51
613.554	51253.65
613.911	51537.94
614.267	51778.38
614.624	51829
614.98	51923.69
615.337	52161.2
615.693	52237.58
616.05	52350.57
616.406	52545.14
616.762	52531.13
617.118	52544.24
617.475	52662.88
617.831	52893.61
618.187	52951.23
618.543	53060.38
618.899	53231.45
619.255	53370.43
619.611	53337.89
619.967	53489.75
620.323	53594.83
620.678	53548.73
621.034	53463.54
621.39	53573.59
621.746	53637.09
622.101	53933.36
622.457	53775.62
622.812	53829.63
623.168	53938.33
623.523	54034.6
623.879	54167.25
624.234	53955.28
624.589	54062.84
624.945	54162.28
625.3	54222.84
625.655	54186.46
626.01	54234.14
626.365	54316.4
626.72	54349.39
627.075	54289.28
627.43	54326.57
627.785	54367.02
628.14	54466
628.495	54530.63
628.85	54473.91
629.205	54456.28
629.559	54587.58
629.914	54491.31
630.269	54465.32
630.623	54452.66
630.978	54520.91
631.332	54594.58
631.687	54651.98
632.041	54496.73
632.396	54609.27
632.75	54391.65
633.104	54538.99
633.459	54430.74
633.813	54407.92
634.167	54432.33
634.521	54452.44
634.875	54459.44
635.229	54473.68
635.583	54391.65
635.937	54355.94
636.291	54366.11
636.645	54352.1
636.999	54337.64
637.352	54424.64
637.706	54293.8
638.06	54337.87
638.413	54284.31
638.767	54186.23
639.121	54335.15
639.474	54181.94
639.828	54151.88
640.181	54262.16
640.534	54314.36
640.888	54188.04
641.241	54072.56
641.594	54246.12
641.947	54178.77
642.301	54224.42
642.654	54238.88
643.007	54214.7
643.36	54186.23
643.713	54137.19
644.066	54215.38
644.419	54002.28
644.771	53816.52
645.124	53468.06
645.477	53478.68
645.83	53330.66
646.182	53279.59
646.535	53247.72
646.888	53396.87
647.24	53190.55
647.593	53334.05
647.945	53312.13
648.298	53140.61
648.65	53055.64
649.002	53020.16
649.355	53148.74
649.707	53059.93
650.059	53262.64
650.411	53628.28
650.763	53595.06
651.115	53901.04
651.467	53851.1
651.819	53780.37
652.171	53732.23
652.523	53732.01
652.875	53807.03
653.227	53667.83
653.578	53860.59
653.93	53682.97
654.282	53651.78
654.633	53550.77
654.985	53693.36
655.337	53593.03
655.688	53674.15
656.039	53700.82
656.391	53505.34
656.742	53577.66
657.094	53536.53
657.445	53708.96
657.796	53632.57
658.147	53538.79
658.498	53496.31
658.849	53704.89
659.2	53557.77
659.551	53452.01
659.902	53670.54
660.253	53614.95
660.604	53644.55
660.955	53471.67
661.306	53618.56
661.656	53512.8
662.007	53525.46
662.358	53491.56
662.708	53511.67
663.059	53594.38
663.409	53400.04
663.76	53606.36
664.11	53610.2
664.461	53528.62
664.811	53537.21
665.161	53551.22
665.511	53399.36
665.862	53492.24
666.212	53567.94
666.562	53508.06
666.912	53440.26
667.262	53432.13
667.612	53463.76
667.962	53422.86
668.312	53347.61
668.662	53476.42
669.011	53405.01
669.361	53360.49
669.711	53309.19
670.06	53349.42
670.41	53228.52
670.76	53188.29
671.109	53275.97
671.459	53297.21
671.808	53228.29
672.157	53256.54
672.507	53068.29
672.856	53087.05
673.205	53174.96
673.554	53158.46
673.904	53071.01
674.253	53156.2
674.602	53091.34
674.951	52671.69
675.3	52450.46
675.649	52901.29
675.998	52943.1
676.346	52950.33
676.695	53014.74
677.044	52787.4
677.393	52886.6
677.741	52918.24
678.09	52820.62
678.438	52747.62
678.787	52807.28
679.135	52896.1
679.484	52567.29
679.832	52760.51
680.181	52501.3
680.529	52724.57
680.877	52464.69
681.225	52620.62
681.573	52707.4
681.922	52511.25
682.27	52424.02
682.618	52401.87
682.966	52256.34
683.314	52462.43
683.661	52277.13
684.009	52150.35
684.357	52085.72
684.705	51968.89
685.053	52040.52
685.4	51999.17
685.748	51900.19
686.095	51865.39
686.443	51803.92
686.79	51692.96
687.138	51723.24
687.485	51721.66
687.832	51584.72
688.18	51627.88
688.527	51434.66
688.874	51510.37
689.221	51312.86
689.568	51235.57
689.915	51236.03
690.262	51180.89
690.609	51045.75
690.956	50963.94
691.303	50967.11
691.65	50744.06
691.997	50805.08
692.344	50513.33
692.69	50637.17
693.037	50476.95
693.383	50278.31
693.73	50398.76
694.077	50128.71
694.423	50198.54
694.769	49937.75
695.116	50008.94
695.462	49884.87
695.808	49837.64
696.155	49910.41
696.501	49583.41
696.847	49604.88
697.193	49435.62
697.539	49445.34
697.885	49184.55
698.231	49125.8
698.577	49138.45
698.923	48955.41
699.269	48808.74
699.614	48533.95
699.96	48697.34
700.306	48655.53
700.651	48346.16
700.997	48108.88
701.342	48254.64
701.688	48077.46
702.033	47953.17
702.379	48009.44
702.724	47872.5
703.069	47845.83
703.415	47508.89
703.76	47491.49
704.105	47567.87
704.45	47284.49
704.795	47181.67
705.14	47116.59
705.485	47057.6
705.83	46862.58
706.175	46973.99
706.52	46797.72
706.865	46661.91
707.209	46543.49
707.554	46438.86
707.899	46498.07
708.243	46418.75
708.588	46143.73
708.932	45961.59
709.277	45872.78
709.621	46063.05
709.966	45664.87
710.31	45752.55
710.654	45362.06
710.998	45447.03
711.342	45569.28
711.687	45377.65
712.031	45269.85
712.375	45067.37
712.719	45137.43
713.063	44920.71
713.407	45210.42
713.75	44940.37
714.094	44895.85
714.438	44707.84
714.782	44645.69
715.125	44581.74
715.469	44541.74
715.812	44527.5
716.156	44217.91
716.499	44329.54
716.843	44238.7
717.186	43954.64
717.53	44171.58
717.873	44277.56
718.216	44132.94
718.559	43852.72
718.902	43725.04
719.246	43940.17
719.589	43669.67
719.932	43540.18
720.275	43511.71
720.617	43530.24
720.96	43425.38
721.303	43395.78
721.646	43392.16
721.989	43122.79
722.331	43315.78
722.674	43174.32
723.016	43121.66
723.359	43126.18
723.701	42923.48
724.044	42906.98
724.386	42596.7
724.729	42819.3
725.071	42765.06
725.413	42676.25
725.755	42616.82
726.097	42544.95
726.439	42355.13
726.782	42381.8
727.124	42532.53
727.465	42326.43
727.807	42350.84
728.149	42312.64
728.491	42221.57
728.833	42275.13
729.175	42164.4
729.516	42034.69
729.858	41990.17
730.199	42002.37
730.541	41980
730.882	41906.78
731.224	41897.97
731.565	41726.67
731.906	41761.7
732.248	41872.43
732.589	41509.73
732.93	41570.29
733.271	41627.24
733.612	41542.72
733.953	41628.37
734.294	41383.18
734.635	41329.62
734.976	41518.09
735.317	41133.47
735.658	41250.98
735.999	41222.28
736.339	41066.12
736.68	41158.55
737.021	41113.58
737.361	40910.2
737.702	41230.64
738.042	40985.45
738.383	40809.86
738.723	41005.33
739.063	40796.75
739.404	40808.28
739.744	40770.09
740.084	40575.52
740.424	40663.87
740.764	40556.76
741.104	40839.46
741.444	40562.63
741.784	40455.74
742.124	40524.67
742.464	40398.34
742.804	40305.47
743.143	40194.06
743.483	40334.39
743.823	40029.99
744.162	40228.63
744.502	40276.99
744.841	40095.53
745.181	40206.94
745.52	40013.95
745.86	40138.92
746.199	39977.34
746.538	39889.66
746.877	40000.84
747.216	39848.08
747.556	39835.42
747.895	39868.41
748.234	39615.09
748.573	39534.19
748.911	39623.22
749.25	39541.19
749.589	39443.57
749.928	39397.47
750.267	39478.37
750.605	39265.04
750.944	39376.68
751.283	39196.34
751.621	39244.25
751.96	39000.87
752.298	39082.67
752.636	38872.96
752.975	38766.3
753.313	38734.21
753.651	38920.87
753.989	38615.34
754.327	38400.43
754.666	38367.21
755.004	38557.94
755.342	38499.64
755.679	38392.3
756.017	38135.13
756.355	38366.53
756.693	38197.05
757.031	38216.03
757.368	37799.77
757.706	37818.53
758.044	37655.37
758.381	37839.77
758.719	37594.8
759.056	37672.09
759.394	37513.67
