Data from orange_diffuse_book_FLMS001491_00030.txt Node
Date: Wed Feb 08 15:29:21 GMT 2017
User: dcchb
Spectrometer: FLMS00149
Trigger mode: 0
Integration Time (sec): 2.000000E-2
Scans to average: 10
Electric dark correction enabled: true
Nonlinearity correction enabled: false
Boxcar width: 0
XAxis mode: Wavelengths
Number of Pixels in Spectrum: 2048
>>>>>Begin Spectral Data<<<<<
341.393	-2.26
341.776	-2.26
342.16	-2.26
342.543	-67.12
342.927	-83.39
343.31	-58.76
343.693	-74.35
344.077	-90.39
344.46	-67.34
344.843	-54.46
345.226	-41.81
345.61	-32.32
345.993	-19.89
346.376	3.16
346.759	12.2
347.142	18.98
347.525	39.55
347.908	64.18
348.291	72.54
348.674	103.5
349.057	125.19
349.44	127.68
349.823	145.76
350.206	163.39
350.588	203.16
350.971	232.08
351.354	245.19
351.737	282.48
352.119	274.34
352.502	290.39
352.884	270.73
353.267	280.67
353.65	313.89
354.032	313.89
354.414	329.26
354.797	323.38
355.179	339.65
355.562	347.11
355.944	357.28
356.326	353.89
356.709	350.5
357.091	360.89
357.473	369.71
357.855	370.16
358.238	375.36
358.62	341.46
359.002	367
359.384	354.34
359.766	351.63
360.148	359.99
360.53	355.02
360.912	357.96
361.294	363.38
361.676	345.75
362.057	338.07
362.439	340.56
362.821	331.97
363.203	359.31
363.584	325.87
363.966	339.65
364.348	351.18
364.729	333.78
365.111	341.91
365.493	338.52
365.874	340.78
366.256	339.65
366.637	346.21
367.019	336.04
367.4	325.87
367.781	348.24
368.163	330.61
368.544	342.36
368.925	332.42
369.306	372.87
369.688	336.04
370.069	326.09
370.45	326.77
370.831	315.7
371.212	325.64
371.593	326.77
371.974	326.55
372.355	348.47
372.736	335.36
373.117	339.2
373.498	352.53
373.879	319.99
374.26	340.1
374.641	350.27
375.021	330.39
375.402	332.87
375.783	343.27
376.163	333.78
376.544	358.86
376.925	354.11
377.305	360.22
377.686	349.6
378.066	345.75
378.447	366.09
378.827	343.04
379.208	343.49
379.588	352.53
379.968	364.74
380.349	354.34
380.729	359.09
381.109	329.03
381.489	359.31
381.87	357.5
382.25	346.21
382.63	360.67
383.01	367
383.39	337.17
383.77	351.18
384.15	358.18
384.53	356.37
384.91	363.15
385.29	365.19
385.67	363.61
386.049	384.4
386.429	362.7
386.809	381.46
387.189	380.33
387.568	374.68
387.948	381.01
388.328	355.7
388.707	367.45
389.087	388.46
389.466	392.76
389.846	379.65
390.225	378.52
390.605	401.35
390.984	364.28
391.363	410.84
391.743	409.93
392.122	371.52
392.501	388.01
392.881	387.11
393.26	398.86
393.639	381.68
394.018	395.92
394.397	404.06
394.776	409.25
395.155	410.16
395.534	398.18
395.913	392.98
396.292	408.58
396.671	430.95
397.05	403.15
397.429	413.32
397.808	409.03
398.186	396.83
398.565	425.75
398.944	414.45
399.323	386.88
399.701	410.16
400.08	423.04
400.458	399.54
400.837	439.08
401.215	413.77
401.594	442.7
401.972	416.26
402.351	441.8
402.729	438.18
403.107	426.66
403.486	424.17
403.864	430.72
404.242	418.97
404.62	447.22
404.999	445.86
405.377	453.55
405.755	453.1
406.133	458.07
406.511	455.13
406.889	452.64
407.267	446.54
407.645	459.2
408.023	468.01
408.401	475.47
408.779	451.06
409.156	474.56
409.534	465.3
409.912	473.89
410.29	475.69
410.667	508.01
411.045	489.03
411.422	495.81
411.8	475.92
412.178	495.58
412.555	487.67
412.933	506.65
413.31	504.17
413.687	514.11
414.065	514.34
414.442	529.25
414.819	527.67
415.197	513.43
415.574	528.57
415.951	522.92
416.328	529.7
416.705	547.78
417.082	562.7
417.46	552.53
417.837	548.91
418.214	549.82
418.591	562.92
418.967	562.47
419.344	551.62
419.721	538.97
420.098	555.47
420.475	560.66
420.852	585.75
421.228	570.38
421.605	564.5
421.982	576.48
422.358	592.07
422.735	570.15
423.111	594.33
423.488	577.16
423.864	594.56
424.241	592.3
424.617	599.76
424.994	595.46
425.37	613.77
425.746	598.18
426.123	632.53
426.499	640.21
426.875	627.33
427.251	636.82
427.627	636.37
428.003	645.41
428.379	662.81
428.756	639.53
429.132	646.08
429.507	664.39
429.883	679.53
430.259	673.65
430.635	672.98
431.011	678.17
431.387	670.04
431.763	677.95
432.138	691.96
432.514	707.1
432.89	708.68
433.265	735.35
433.641	726.08
434.016	738.74
434.392	749.81
434.767	743.71
435.143	754.56
435.518	755.46
435.894	740.55
436.269	772.86
436.644	788.45
437.02	787.78
437.395	781.22
437.77	799.75
438.145	792.07
438.52	809.92
438.895	804.05
439.271	821.22
439.646	823.03
440.021	830.71
440.395	842.24
440.77	809.92
441.145	832.07
441.52	838.4
441.895	835.68
442.27	855.8
442.645	848.34
443.019	850.15
443.394	852.86
443.769	863.48
444.143	853.76
444.518	869.36
444.892	866.87
445.267	854.89
445.641	894.67
446.016	888.56
446.39	884.27
446.764	873.42
447.139	863.93
447.513	891.5
447.887	895.8
448.262	912.97
448.636	915.46
449.01	918.39
449.384	898.96
449.758	923.14
450.132	941.9
450.506	935.79
450.88	934.66
451.254	948.22
451.628	963.82
452.002	942.12
452.376	962.23
452.75	950.26
453.123	966.08
453.497	978.73
453.871	967.66
454.244	1005.62
454.618	998.39
454.992	1006.98
455.365	999.52
455.739	1029.13
456.112	1017.15
456.486	1021.22
456.859	1076.13
457.232	1039.07
457.606	1051.72
457.979	1058.5
458.352	1077.03
458.725	1112.97
459.099	1064.6
459.472	1135.34
459.845	1134.89
460.218	1120.65
460.591	1126.75
460.964	1131.72
461.337	1167.88
461.71	1190.7
462.083	1175.34
462.456	1171.72
462.829	1180.31
463.201	1213.98
463.574	1206.97
463.947	1220.31
464.32	1216.92
464.692	1232.06
465.065	1229.8
465.438	1253.07
465.81	1269.8
466.183	1265.05
466.555	1285.39
466.928	1313.19
467.3	1306.41
467.672	1311.15
468.045	1319.06
468.417	1342.34
468.789	1335.11
469.161	1364.94
469.534	1357.03
469.906	1406.74
470.278	1394.99
470.65	1403.13
471.022	1409.68
471.394	1424.37
471.766	1458.04
472.138	1477.25
472.51	1500.75
472.882	1493.52
473.253	1499.17
473.625	1538.94
473.997	1546.85
474.369	1543.91
474.74	1592.5
475.112	1609
475.484	1626.4
475.855	1657.81
476.227	1664.14
476.598	1695.55
476.97	1698.94
477.341	1770.12
477.713	1768.77
478.084	1763.8
478.455	1827.97
478.827	1820.52
479.198	1842.89
479.569	1854.41
479.94	1897.58
480.311	1892.61
480.682	1951.59
481.053	1964.47
481.424	2031.81
481.795	2031.81
482.166	2033.84
482.537	2084.92
482.908	2110.45
483.279	2155.65
483.65	2165.59
484.021	2184.12
484.391	2265.7
484.762	2255.76
485.133	2281.07
485.503	2295.76
485.874	2373.72
486.244	2385.7
486.615	2414.4
486.985	2458.47
487.356	2531.46
487.726	2552.93
488.097	2581.4
488.467	2574.4
488.837	2661.17
489.207	2656.65
489.578	2717.67
489.948	2716.54
490.318	2804.67
490.688	2807.38
491.058	2841.06
491.428	2897.32
491.798	2933.93
492.168	2988.4
492.538	3002.18
492.908	3037.89
493.278	3042.41
493.648	3095.74
494.017	3140.26
494.387	3166.24
494.757	3196.53
495.126	3243.98
495.496	3276.52
495.866	3281.5
496.235	3325.56
496.605	3349.52
496.974	3429.29
497.344	3432
497.713	3463.86
498.082	3536.4
498.452	3527.82
498.821	3565.78
499.19	3575.27
499.559	3626.12
499.928	3644.65
500.298	3669.96
500.667	3743.18
501.036	3777.08
501.405	3775.49
501.774	3794.25
502.143	3818.43
502.512	3833.12
502.88	3876.06
503.249	3914.25
503.618	3947.47
503.987	3956.51
504.356	4005.09
504.724	3994.25
505.093	4072.21
505.462	4090.51
505.83	4061.81
506.199	4117.41
506.567	4207.35
506.936	4157.4
507.304	4241.24
507.672	4287.57
508.041	4284.86
508.409	4356.72
508.777	4348.81
509.145	4412.54
509.514	4425.42
509.882	4460.9
510.25	4461.13
510.618	4521.69
510.986	4491.18
511.354	4562.59
511.722	4592.42
512.09	4607.79
512.458	4618.18
512.826	4722.36
513.193	4712.64
513.561	4746.09
513.929	4779.76
514.297	4828.35
514.664	4888.23
515.032	4895.01
515.4	4915.58
515.767	4965.52
516.135	4979.3
516.502	4942.02
516.869	5075.8
517.237	5111.96
517.604	5102.69
517.972	5167.32
518.339	5173.42
518.706	5187.21
519.073	5253.2
519.44	5257.04
519.808	5355.57
520.175	5309.24
520.542	5389.69
520.909	5375.9
521.276	5382.91
521.643	5470.14
522.009	5524.83
522.376	5602.56
522.743	5561.21
523.11	5634.2
523.477	5692.96
523.843	5738.61
524.21	5744.26
524.577	5795.33
524.943	5878.26
525.31	5890.69
525.676	5924.14
526.043	5944.02
526.409	5973.18
526.776	6043.68
527.142	6081.65
527.508	6067.19
527.874	6117.58
528.241	6134.08
528.607	6181.76
528.973	6242.1
529.339	6261.53
529.705	6355.09
530.071	6338.14
530.437	6396.67
530.803	6366.16
531.169	6469.89
531.535	6480.28
531.901	6494.97
532.267	6523.9
532.632	6530.68
532.998	6582.43
533.364	6638.92
533.73	6658.36
534.095	6718.24
534.461	6712.37
534.826	6755.75
535.192	6754.4
535.557	6807.96
535.923	6812.7
536.288	6872.59
536.653	6858.35
537.019	6894.06
537.384	6885.69
537.749	6911.68
538.114	7010.21
538.479	6981.51
538.845	7023.77
539.21	7025.13
539.575	7117.55
539.94	7084.56
540.305	7165.69
540.67	7105.12
541.034	7209.98
541.399	7225.8
541.764	7246.59
542.129	7281.39
542.494	7343.31
542.858	7306.25
543.223	7367.04
543.587	7445
543.952	7420.37
544.316	7499.69
544.681	7453.59
545.045	7562.74
545.41	7574.04
545.774	7543.3
546.138	7678.44
546.503	7666.69
546.867	7636.41
547.231	7767.93
547.595	7818.55
547.959	7843.64
548.324	7869.17
548.688	7892
549.052	7955.27
549.416	7973.58
549.779	8003.41
550.143	7976.74
550.507	8083.86
550.871	8198.65
551.235	8193.91
551.599	8237.98
551.962	8227.35
552.326	8258.99
552.689	8326.11
553.053	8396.62
553.417	8408.14
553.78	8579.89
554.143	8494.24
554.507	8553.9
554.87	8621.69
555.234	8722.03
555.597	8692.65
555.96	8755.25
556.323	8845.87
556.686	8908.92
557.05	8948.92
557.413	9012.19
557.776	8999.76
558.139	9155.69
558.502	9180.78
558.865	9198.4
559.228	9350.49
559.59	9347.1
559.953	9433.2
560.316	9510.71
560.679	9561.33
561.041	9666.86
561.404	9742.12
561.767	9830.93
562.129	9903.47
562.492	10023.92
562.854	10059.62
563.217	10099.62
563.579	10201.31
563.941	10261.65
564.304	10381.65
564.666	10505.71
565.028	10528.76
565.39	10657.35
565.753	10712.03
566.115	10863.67
566.477	11056.88
566.839	11059.82
567.201	11219.59
567.563	11272.92
567.925	11378.01
568.287	11458
568.648	11664.78
569.01	11748.84
569.372	11911.55
569.734	12004.43
570.095	12182.05
570.457	12305.44
570.819	12495.04
571.18	12606.22
571.542	12773.22
571.903	12961.02
572.265	13038.75
572.626	13165.08
572.987	13388.12
573.349	13554.9
573.71	13759.41
574.071	13976.58
574.432	14209.8
574.794	14349.68
575.155	14527.75
575.516	14687.07
575.877	14975.88
576.238	15193.05
576.599	15431.01
576.96	15645.01
577.32	15965.91
577.681	16080.26
578.042	16462.17
578.403	16638.88
578.763	16953
579.124	17256.72
579.485	17628.01
579.845	17868.46
580.206	18131.05
580.566	18451.49
580.927	18611.94
581.287	19080.63
581.648	19259.61
582.008	19626.15
582.368	20005.8
582.728	20396.3
583.089	20536.18
583.449	20989.28
583.809	21354.69
584.169	21881.46
584.529	22070.38
584.889	22512.18
585.249	22888.44
585.609	23295.43
585.969	23857
586.329	24025.13
586.688	24658.33
587.048	25002.28
587.408	25366.34
587.768	25670.96
588.127	26227.78
588.487	26636.59
588.846	27216.46
589.206	27530.58
589.565	28020.96
589.925	28544.79
590.284	28872.91
590.643	29407.59
591.003	29841.25
591.362	30368.92
591.721	30753.77
592.08	31271.27
592.44	31784.02
592.799	32304.24
593.158	32574.06
593.517	33103.99
593.876	33699.23
594.235	34056.96
594.593	34607.23
594.952	35145.29
595.311	35458.73
595.67	35968.09
596.029	36647.85
596.387	37092.13
596.746	37599.24
597.104	38006.01
597.463	38452.32
597.822	39068.35
598.18	39246.43
598.538	39713.31
598.897	40280.3
599.255	40411.59
599.613	41289.08
599.972	41522.98
600.33	42014.71
600.688	42300.13
601.046	42978.98
601.404	43347.33
601.762	43712.97
602.12	44278.61
602.478	44445.39
602.836	45011.47
603.194	45125.37
603.552	45520.16
603.91	45736.88
604.268	46182.74
604.625	46639.68
604.983	47051.87
605.341	47140.23
605.698	47590.84
606.056	47920.77
606.413	48063.82
606.771	48470.36
607.128	48796.91
607.485	48915.1
607.843	49108.99
608.2	49480.73
608.557	49721.63
608.914	49921.63
609.272	50294.5
609.629	50518.45
609.986	50818.78
610.343	50727.93
610.7	51208.15
611.057	51275.71
611.414	51406.56
611.771	51547.12
612.127	51811.75
612.484	51948.46
612.841	52171.51
613.198	52206.31
613.554	52256.93
613.911	52626.64
614.267	52662.34
614.624	52705.51
614.98	53001.77
615.337	53145.5
615.693	53237.92
616.05	53218.04
616.406	53605.14
616.762	53472.49
617.118	53550.91
617.475	53705.25
617.831	53771.69
618.187	53887.4
618.543	54069.54
618.899	54221.85
619.255	54242.42
619.611	54246.26
619.967	54403.99
620.323	54558.57
620.678	54459.36
621.034	54426.59
621.39	54531.67
621.746	54483.54
622.101	54859.57
622.457	54655.51
622.812	54827.94
623.168	54889.86
623.523	54854.15
623.879	55027.48
624.234	54907.03
624.589	55034.94
624.945	55073.58
625.3	55130.08
625.655	55121.26
626.01	55161.71
626.365	55253.69
626.72	55217.98
627.075	55240.36
627.43	55289.39
627.785	55240.58
628.14	55340.69
628.495	55395.38
628.85	55374.36
629.205	55370.52
629.559	55490.74
629.914	55358.09
630.269	55421.37
630.623	55356.74
630.978	55292.11
631.332	55514.25
631.687	55522.83
632.041	55390.63
632.396	55443.06
632.75	55357.19
633.104	55382.27
633.459	55307.92
633.813	55335.49
634.167	55399
634.521	55383.85
634.875	55373.91
635.229	55400.58
635.583	55298.88
635.937	55339.56
636.291	55265.21
636.645	55283.07
636.999	55206.23
637.352	55320.58
637.706	55169.17
638.06	55309.51
638.413	55221.82
638.767	55270.41
639.121	55211.88
639.474	55048.27
639.828	55081.49
640.181	55206.91
640.534	55224.54
640.888	55088.95
641.241	55068.38
641.594	55102.28
641.947	55109.96
642.301	55017.31
642.654	55092.34
643.007	55108.38
643.36	55029.51
643.713	55060.7
644.066	55037.42
644.419	54921.49
644.771	54722.63
645.124	54505.46
645.477	54484.9
645.83	54308.85
646.182	54260.95
646.535	54121.97
646.888	54257.1
647.24	54118.8
647.593	54327.61
647.945	54138.69
648.298	53998.58
648.65	54090.56
649.002	54087.39
649.355	54037.22
649.707	54070.67
650.059	54131.91
650.411	54473.14
650.763	54492.35
651.115	54832.91
651.467	54739.35
651.819	54714.04
652.171	54606.02
652.523	54646.25
652.875	54671.1
653.227	54493.03
653.578	54703.42
653.93	54662.52
654.282	54501.62
654.633	54498.23
654.985	54600.37
655.337	54550.43
655.688	54677.43
656.039	54612.35
656.391	54480.15
656.742	54513.59
657.094	54476.08
657.445	54605.12
657.796	54510.88
658.147	54518.57
658.498	54471.79
658.849	54474.95
659.2	54514.27
659.551	54435.86
659.902	54627.72
660.253	54533.71
660.604	54499.36
660.955	54426.59
661.306	54535.74
661.656	54426.59
662.007	54493.93
662.358	54468.62
662.708	54462.07
663.059	54470.88
663.409	54280.83
663.76	54564.67
664.11	54488.74
664.461	54464.78
664.811	54537.55
665.161	54396.54
665.511	54406.71
665.862	54389.08
666.212	54451.45
666.562	54474.27
666.912	54349.08
667.262	54342.75
667.612	54392.24
667.962	54370.1
668.312	54329.64
668.662	54468.62
669.011	54382.98
669.361	54257.56
669.711	54261.62
670.06	54285.35
670.41	54163.77
670.76	54183.89
671.109	54249.65
671.459	54165.81
671.808	54129.42
672.157	54249.42
672.507	54027.51
672.856	54055.08
673.205	54075.64
673.554	54092.81
673.904	54003.33
674.253	54167.84
674.602	54025.02
674.951	53640.85
675.3	53486.73
675.649	54037.22
675.998	53987.73
676.346	53926.72
676.695	53945.93
677.044	53819.38
677.393	53746.84
677.741	53877.45
678.09	53811.24
678.438	53798.81
678.787	53833.16
679.135	53819.83
679.484	53581.19
679.832	53732.6
680.181	53568.31
680.529	53707.74
680.877	53570.34
681.225	53547.29
681.573	53613.73
681.922	53464.81
682.27	53261.88
682.618	53356.34
682.966	53308.88
683.314	53344.13
683.661	53223.23
684.009	53049.23
684.357	53114.99
684.705	53062.79
685.053	53161.99
685.4	53000.41
685.748	52876.8
686.095	52812.17
686.443	52731.27
686.79	52720.42
687.138	52882.9
687.485	52738.27
687.832	52626.19
688.18	52636.81
688.527	52455.57
688.874	52404.27
689.221	52399.53
689.568	52320.21
689.915	52172.87
690.262	52178.29
690.609	52102.13
690.956	51968.8
691.303	52006.99
691.65	51811.75
691.997	51714.35
692.344	51602.26
692.69	51659.43
693.037	51680.22
693.383	51325.88
693.73	51452.21
694.077	51191.65
694.423	51340.57
694.769	51156.85
695.116	51150.07
695.462	51064.19
695.808	50935.38
696.155	50911.43
696.501	50561.83
696.847	50677.09
697.193	50370.43
697.539	50591.21
697.885	50281.39
698.231	50125.01
698.577	50124.56
698.923	50151.45
699.269	49907.61
699.614	49771.8
699.96	49581.75
700.306	49729.31
700.651	49605.25
700.997	49428.98
701.342	49427.17
701.688	49364.13
702.033	49213.85
702.379	49213.4
702.724	49072.61
703.069	49101.76
703.415	48744.03
703.76	48694.31
704.105	48685.95
704.45	48576.12
704.795	48396.47
705.14	48408.67
705.485	48318.96
705.83	48113.09
706.175	48141.79
706.52	47909.02
706.865	47901.57
707.209	47775.69
707.554	47680.33
707.899	47683.04
708.243	47483.72
708.588	47332.09
708.932	47140.68
709.277	47245.99
709.621	47163.96
709.966	46894.13
710.31	47021.14
710.654	46762.61
710.998	46678.32
711.342	46807.36
711.687	46551.09
712.031	46378.67
712.375	46378.89
712.719	46341.61
713.063	46261.38
713.407	46443.52
713.75	46177.54
714.094	46056.19
714.438	45901.17
714.782	46001.05
715.125	45834.28
715.469	45877.89
715.812	45639.48
716.156	45556.99
716.499	45563.1
716.843	45550.44
717.186	45247.62
717.53	45528.52
717.873	45575.07
718.216	45334.4
718.559	45251.92
718.902	44872.94
719.246	45089.44
719.589	44750.01
719.932	44707.07
720.275	44761.08
720.617	44837.47
720.96	44581.43
721.303	44718.82
721.646	44576.91
721.989	44387.99
722.331	44568.09
722.674	44518.15
723.016	44357.03
723.359	44296.69
723.701	44406.74
724.044	44048.33
724.386	43790.04
724.729	44059.18
725.071	43986.87
725.413	44143.7
725.755	43984.83
726.097	43776.02
726.439	43525.86
726.782	43423.94
727.124	43668.23
727.465	43465.98
727.807	43487.9
728.149	43567.89
728.491	43397.28
728.833	43509.59
729.175	43279.54
729.516	43168.58
729.858	43360.89
730.199	43244.96
730.541	43159.77
730.882	43189.6
731.224	43091.07
731.565	42814.69
731.906	42934.01
732.248	42906.89
732.589	42822.83
732.93	42723.17
733.271	42722.72
733.612	42796.84
733.953	42647.01
734.294	42551.2
734.635	42578.54
734.976	42628.71
735.317	42507.13
735.658	42441.37
735.999	42411.09
736.339	42359.56
736.68	42407.02
737.021	42279.57
737.361	41979.46
737.702	42321.37
738.042	42161.38
738.383	42070.76
738.723	42130.64
739.063	41978.78
739.404	42068.27
739.744	42068.72
740.084	41839.8
740.424	41876.64
740.764	41759.58
741.104	42025.79
741.444	41686.81
741.784	41544.9
742.124	41607.95
742.464	41640.71
742.804	41539.02
743.143	41427.84
743.483	41410.66
743.823	41334.73
744.162	41228.75
744.502	41344.45
744.841	41179.48
745.181	41338.8
745.52	41163.44
745.86	41212.02
746.199	41148.3
746.538	41093.61
746.877	41097
747.216	41120.73
747.556	40913.5
747.895	40988.75
748.234	40673.73
748.573	40781.53
748.911	40760.96
749.25	40685.03
749.589	40485.94
749.928	40562.1
750.267	40514.19
750.605	40542.44
750.944	40528.65
751.283	40246.17
751.621	40409.56
751.96	40311.03
752.298	40234.2
752.636	40224.71
752.975	39941.32
753.313	40004.82
753.651	40069.23
753.989	39825.62
754.327	39722.57
754.666	39458.85
755.004	39561.67
755.342	39637.6
755.679	39599.86
756.017	39349.02
756.355	39448
756.693	39334.56
757.031	39391.05
757.368	39058.86
757.706	38967.11
758.044	38892.99
758.381	38928.69
758.719	38785.87
759.056	38819.77
759.394	38654.12
