Data from orange_diffuse_book_FLMS001491_00002.txt Node
Date: Wed Feb 08 15:29:02 GMT 2017
User: dcchb
Spectrometer: FLMS00149
Trigger mode: 0
Integration Time (sec): 2.000000E-2
Scans to average: 10
Electric dark correction enabled: true
Nonlinearity correction enabled: false
Boxcar width: 0
XAxis mode: Wavelengths
Number of Pixels in Spectrum: 2048
>>>>>Begin Spectral Data<<<<<
341.393	-5.69
341.776	-5.69
342.16	-5.69
342.543	-72.13
342.927	-50.89
343.31	-77.78
343.693	-71.9
344.077	-56.76
344.46	-50.66
344.843	-52.7
345.226	-49.53
345.61	-25.35
345.993	-5.92
346.376	-5.47
346.759	11.26
347.142	8.32
347.525	45.61
347.908	40.63
348.291	82.89
348.674	80.63
349.057	126.73
349.44	124.25
349.823	117.69
350.206	164.25
350.588	201.53
350.971	227.75
351.354	231.82
351.737	243.34
352.119	250.12
352.502	276.56
352.884	254.87
353.267	301.64
353.65	320.4
354.032	312.72
354.414	304.36
354.797	330.12
355.179	328.08
355.562	322.89
355.944	324.47
356.326	335.77
356.709	343.9
357.091	355.88
357.473	347.75
357.855	358.59
358.238	359.72
358.62	350.68
359.002	349.33
359.384	352.26
359.766	350.46
360.148	348.2
360.53	348.65
360.912	330.8
361.294	351.81
361.676	344.81
362.057	345.71
362.439	315.43
362.821	341.64
363.203	317.01
363.584	333.96
363.966	347.52
364.348	352.26
364.729	328.08
365.111	321.98
365.493	330.12
365.874	327.86
366.256	345.03
366.637	322.44
367.019	324.24
367.4	325.15
367.781	331.93
368.163	317.92
368.544	325.15
368.925	330.8
369.306	329.67
369.688	306.39
370.069	317.46
370.45	334.86
370.831	323.79
371.212	320.85
371.593	331.47
371.974	324.47
372.355	318.59
372.736	319.05
373.117	315.43
373.498	326.95
373.879	341.64
374.26	321.53
374.641	342.1
375.021	326.28
375.402	314.53
375.783	338.93
376.163	344.36
376.544	353.39
376.925	343
377.305	319.27
377.686	342.1
378.066	336.45
378.447	345.49
378.827	343.23
379.208	342.77
379.588	347.75
379.968	326.95
380.349	348.65
380.729	352.94
381.109	353.17
381.489	346.62
381.87	351.36
382.25	352.49
382.63	348.2
383.01	340.06
383.39	365.15
383.77	347.29
384.15	346.62
384.53	378.7
384.91	364.24
385.29	367.86
385.67	359.95
386.049	346.16
386.429	362.21
386.809	364.69
387.189	375.77
387.568	360.63
387.948	379.16
388.328	363.34
388.707	353.85
389.087	377.12
389.466	383.22
389.846	364.47
390.225	378.93
390.605	400.17
390.984	412.83
391.363	366.5
391.743	384.13
392.122	384.58
392.501	387.52
392.881	392.72
393.26	413.73
393.639	391.81
394.018	397.01
394.397	375.54
394.776	373.06
395.155	405.14
395.534	381.64
395.913	377.57
396.292	406.27
396.671	421.42
397.05	418.93
397.429	413.28
397.808	402.66
398.186	406.05
398.565	386.39
398.944	422.77
399.323	411.7
399.701	418.25
400.08	405.6
400.458	428.65
400.837	398.37
401.215	423.9
401.594	429.55
401.972	439.95
402.351	447.18
402.729	431.81
403.107	427.74
403.486	444.69
403.864	425.03
404.242	439.72
404.62	417.8
404.999	435.2
405.377	452.15
405.755	440.85
406.133	438.14
406.511	434.07
406.889	431.81
407.267	434.97
407.645	463.45
408.023	472.04
408.401	448.76
408.779	448.08
409.156	454.63
409.534	485.59
409.912	471.81
410.29	480.85
410.667	502.77
411.045	505.71
411.422	508.42
411.8	491.02
412.178	498.02
412.555	491.02
412.933	502.32
413.31	486.5
413.687	505.03
414.065	524.24
414.442	508.64
414.819	510.68
415.197	533.73
415.574	545.48
415.951	507.06
416.328	555.42
416.705	548.87
417.082	545.03
417.46	538.02
417.837	543.9
418.214	555.2
418.591	570.34
418.967	568.53
419.344	586.16
419.721	561.75
420.098	554.97
420.475	547.29
420.852	586.38
421.228	568.08
421.605	564.24
421.982	588.87
422.358	608.53
422.735	582.54
423.111	589.55
423.488	601.98
423.864	613.5
424.241	605.14
424.617	614.18
424.994	629.32
425.37	635.87
425.746	601.3
426.123	608.3
426.499	650.56
426.875	644.23
427.251	636.1
427.627	649.21
428.003	668.41
428.379	662.54
428.756	656.21
429.132	675.87
429.507	688.3
429.883	692.14
430.259	694.85
430.635	697.11
431.011	688.98
431.387	721.52
431.763	702.09
432.138	739.15
432.514	726.49
432.89	745.25
433.265	738.92
433.641	752.48
434.016	733.27
434.392	740.5
434.767	754.97
435.143	772.37
435.518	779.82
435.894	760.16
436.269	761.75
436.644	790.22
437.02	801.52
437.395	802.87
437.77	810.33
438.145	809.65
438.52	830.67
438.895	860.27
439.271	841.97
439.646	868.18
440.021	832.48
440.395	860.5
440.77	858.24
441.145	858.92
441.52	859.37
441.895	865.7
442.27	881.06
442.645	877.9
443.019	895.53
443.394	878.35
443.769	861.86
444.143	892.36
444.518	886.49
444.892	882.65
445.267	906.83
445.641	891.23
446.016	902.31
446.39	887.17
446.764	925.81
447.139	910.44
447.513	931.68
447.887	931.01
448.262	934.85
448.636	926.94
449.01	976.66
449.384	964.23
449.758	963.77
450.132	949.31
450.506	971.23
450.88	992.47
451.254	957.67
451.628	1002.42
452.002	996.77
452.376	977.11
452.75	987.95
453.123	1053.94
453.497	1026.82
453.871	1049.2
454.244	1037.9
454.618	1060.49
454.992	1064.56
455.365	1088.29
455.739	1074.96
456.112	1086.71
456.486	1095.07
456.859	1082.64
457.232	1096.43
457.606	1089.19
457.979	1116.99
458.352	1131
458.725	1140.49
459.099	1157.67
459.472	1152.24
459.845	1175.97
460.218	1160.38
460.591	1182.3
460.964	1194.05
461.337	1238.57
461.71	1234.28
462.083	1236.31
462.456	1257.55
462.829	1225.46
463.201	1259.13
463.574	1260.26
463.947	1296.19
464.32	1280.83
464.692	1305.69
465.065	1311.11
465.438	1334.84
465.81	1329.19
466.183	1370.77
466.555	1381.39
466.928	1375.06
467.3	1392.92
467.672	1400.15
468.045	1421.16
468.417	1399.24
468.789	1444.67
469.161	1443.54
469.534	1468.85
469.906	1464.78
470.278	1484.89
470.65	1509.52
471.022	1533.25
471.394	1551.33
471.766	1569.18
472.138	1589.29
472.51	1622.97
472.882	1604.66
473.253	1639.69
473.625	1646.24
473.997	1652.34
474.369	1659.12
474.74	1683.08
475.112	1740.7
475.484	1756.75
475.855	1770.08
476.227	1771.66
476.598	1807.82
476.97	1815.73
477.341	1863.64
477.713	1872.45
478.084	1888.04
478.455	1930.98
478.827	1936.63
479.198	1986.12
479.569	2019.34
479.94	2040.13
480.311	2064.99
480.682	2112.22
481.053	2163.74
481.424	2174.59
481.795	2200.35
482.166	2234.7
482.537	2234.02
482.908	2310.18
483.279	2284.42
483.65	2374.13
484.021	2404.19
484.391	2429.95
484.762	2446
485.133	2452.32
485.503	2529.83
485.874	2558.08
486.244	2591.53
486.615	2628.14
486.985	2654.8
487.356	2700
487.726	2730.51
488.097	2770.51
488.467	2762.6
488.837	2860.67
489.207	2877.85
489.578	2917.17
489.948	2996.94
490.318	3009.14
490.688	3021.57
491.058	3094.57
491.428	3124.85
491.798	3148.8
492.168	3203.94
492.538	3215.69
492.908	3280.32
493.278	3268.35
493.648	3278.06
494.017	3397.83
494.387	3426.31
494.757	3462.24
495.126	3476.48
495.496	3504.5
495.866	3517.83
496.235	3599.41
496.605	3626.75
496.974	3650.48
497.344	3731.16
497.713	3738.62
498.082	3797.15
498.452	3765.06
498.821	3791.95
499.19	3849.35
499.559	3887.77
499.928	3936.35
500.298	3976.8
500.667	3986.75
501.036	4005.73
501.405	4076.01
501.774	4052.28
502.143	4120.08
502.512	4137.93
502.88	4175.44
503.249	4215.89
503.618	4239.39
503.987	4263.8
504.356	4267.42
504.724	4316.45
505.093	4348.09
505.462	4407.3
505.83	4434.87
506.199	4481.42
506.567	4501.08
506.936	4472.61
507.304	4561.42
507.672	4614.75
508.041	4598.03
508.409	4698.59
508.777	4683.22
509.145	4713.28
509.514	4725.94
509.882	4800.74
510.25	4806.61
510.618	4841.86
510.986	4869.21
511.354	4924.12
511.722	4918.92
512.09	5035.98
512.458	4989.66
512.826	5064.01
513.193	5061.75
513.561	5081.63
513.929	5139.71
514.297	5212.48
514.664	5237.11
515.032	5266.49
515.4	5330.89
515.767	5369.99
516.135	5350.1
516.502	5332.02
516.869	5449.53
517.237	5472.36
517.604	5485.24
517.972	5538.34
518.339	5554.84
518.706	5517.33
519.073	5610.43
519.44	5607.49
519.808	5719.36
520.175	5728.17
520.542	5785.12
520.909	5848.84
521.276	5806.36
521.643	5890.2
522.009	5928.16
522.376	6006.35
522.743	5979.46
523.11	6093.13
523.477	6125.45
523.843	6151.66
524.21	6187.37
524.577	6324.99
524.943	6315.27
525.31	6331.77
525.676	6416.51
526.043	6433.01
526.409	6454.7
526.776	6515.49
527.142	6574.93
527.508	6567.69
527.874	6595.49
528.241	6646.34
528.607	6683.62
528.973	6779.67
529.339	6736.5
529.705	6812.21
530.071	6852.43
530.437	6877.74
530.803	6925.2
531.169	6993.67
531.535	7025.54
531.901	7065.08
532.267	7064.4
532.632	7099.66
532.998	7158.19
533.364	7161.13
533.73	7182.37
534.095	7240.22
534.461	7233.67
534.826	7337.62
535.192	7292.87
535.557	7372.42
535.923	7363.83
536.288	7463.26
536.653	7513.66
537.019	7478.86
537.384	7496.48
537.749	7534
538.114	7599.31
538.479	7594.56
538.845	7594.33
539.21	7613.54
539.575	7662.13
539.94	7778.96
540.305	7739.19
540.67	7747.1
541.034	7823.03
541.399	7831.62
541.764	7885.85
542.129	7882.91
542.494	7990.03
542.858	7973.31
543.223	8001.78
543.587	8054.89
543.952	8055.34
544.316	8110.48
544.681	8070.48
545.045	8144.6
545.41	8228.67
545.774	8289.91
546.138	8271.15
546.503	8303.02
546.867	8341.66
547.231	8419.4
547.595	8411.26
547.959	8489
548.324	8483.8
548.688	8514.08
549.052	8610.58
549.416	8576.23
549.779	8651.93
550.143	8671.59
550.507	8689.22
550.871	8773.74
551.235	8792.04
551.599	8847.86
551.962	8937.35
552.326	8939.61
552.689	8958.59
553.053	8973.51
553.417	9029.55
553.78	9163.78
554.143	9064.58
554.507	9238.36
554.87	9205.37
555.234	9291.46
555.597	9262.31
555.96	9405.81
556.323	9438.13
556.686	9467.51
557.05	9594.73
557.413	9643.77
557.776	9628.18
558.139	9730.78
558.502	9857.33
558.865	9855.74
559.228	9885.57
559.59	9975.29
559.953	10032.69
560.316	10159.46
560.679	10166.02
561.041	10233.36
561.404	10340.93
561.767	10428.16
562.129	10450.98
562.492	10646.01
562.854	10670.41
563.217	10641.03
563.579	10779.34
563.941	10876.28
564.304	10924.19
564.666	11058.2
565.028	11162.15
565.39	11241.7
565.753	11335.03
566.115	11471.29
566.477	11492.31
566.839	11650.5
567.201	11741.34
567.563	11816.14
567.925	11893.66
568.287	12112.18
568.648	12115.35
569.01	12252.74
569.372	12536.35
569.734	12493.64
570.095	12673.75
570.457	12749.45
570.819	12992.61
571.18	12996
571.542	13221.3
571.903	13380.17
572.265	13500.85
572.626	13632.14
572.987	13741.29
573.349	13891.34
573.71	14122.75
574.071	14363.87
574.432	14463.98
574.794	14751.66
575.155	14891.54
575.516	14929.51
575.877	15204.08
576.238	15430.74
576.599	15576.5
576.96	15779.2
577.32	15977.62
577.681	16295.57
578.042	16443.14
578.403	16689.46
578.763	16954.09
579.124	17190.92
579.485	17587.74
579.845	17699.61
580.206	18036.09
580.566	18330.32
580.927	18605.12
581.287	18868.16
581.648	19022.96
582.008	19474.47
582.368	19628.37
582.728	20031.75
583.089	20328.24
583.449	20510.15
583.809	20963.02
584.169	21353.07
584.529	21686.39
584.889	22083.22
585.249	22292.25
585.609	22633.03
585.969	22997.77
586.329	23340.36
586.688	23887.69
587.048	24095.82
587.408	24500.78
587.768	24767.44
588.127	25254.89
588.487	25524.71
588.846	26080.4
589.206	26356.78
589.565	26807.61
589.925	27240.6
590.284	27648.95
590.643	27964.87
591.003	28479.21
591.362	29030.61
591.721	29354.89
592.08	29797.37
592.44	30220.86
592.799	30784.01
593.158	31084.34
593.517	31438.9
593.876	31903.07
594.235	32368.82
594.593	32820.34
594.952	33320.89
595.311	33533.77
595.67	34213.52
596.029	34674.98
596.387	35187.51
596.746	35588.17
597.104	35906.81
597.463	36296.18
597.822	36883.51
598.18	37164.63
598.538	37379.99
598.897	38128.9
599.255	38231.27
599.613	39072.6
599.972	39178.81
600.33	39704.9
600.688	39914.39
601.046	40458.78
601.404	40943.51
601.762	41252.21
602.12	41599.32
602.478	42071.39
602.836	42361.78
603.194	42606.52
603.552	43033.63
603.91	43176.68
604.268	43820.73
604.625	43926.26
604.983	44413.93
605.341	44608.5
605.698	45129.62
606.056	45517.86
606.413	45547.23
606.771	46122.81
607.128	46306.99
607.485	46419.53
607.843	46678.5
608.2	47084.14
608.557	47426.28
608.914	47492.04
609.272	47843.9
609.629	48134.74
609.986	48515.07
610.343	48332.92
610.7	48777.88
611.057	48920.48
611.414	49037.31
611.771	49313.46
612.127	49579.9
612.484	49745.99
612.841	49935.14
613.198	49923.16
613.554	50060.34
613.911	50462.13
614.267	50484.96
614.624	50641.56
614.98	50769.24
615.337	51026.41
615.693	51135.11
616.05	51112.51
616.406	51529.22
616.762	51462.11
617.118	51446.74
617.475	51658.94
617.831	51747.52
618.187	51868.88
618.543	51990.46
618.899	52142.77
619.255	52128.98
619.611	52271.13
619.967	52313.61
620.323	52388.64
620.678	52474.28
621.034	52413.27
621.39	52458.47
621.746	52497.56
622.101	52881.73
622.457	52672.02
622.812	52823.65
623.168	52947.27
623.523	52833.82
623.879	53014.38
624.234	52823.2
624.589	53106.13
624.945	53017.09
625.3	53134.38
625.655	53111.1
626.01	53203.98
626.365	53303.19
626.72	53314.94
627.075	53321.72
627.43	53275.39
627.785	53219.35
628.14	53394.94
628.495	53296.86
628.85	53370.53
629.205	53253.02
629.559	53554.48
629.914	53406.24
630.269	53452.34
630.623	53350.19
630.978	53335.5
631.332	53456.18
631.687	53565.55
632.041	53426.12
632.396	53525.56
632.75	53454.37
633.104	53482.62
633.459	53336.41
633.813	53390.42
634.167	53413.02
634.521	53352.23
634.875	53424.77
635.229	53440.13
635.583	53296.41
635.937	53298.44
636.291	53295.05
636.645	53327.59
636.999	53228.84
637.352	53455.73
637.706	53168.28
638.06	53265.9
638.413	53209.41
638.767	53107.49
639.121	53217.77
639.474	53104.78
639.828	53108.39
640.181	53137.77
640.534	53185
640.888	53142.97
641.241	52923.09
641.594	53006.7
641.947	53199.46
642.301	53052.12
642.654	53041.27
643.007	52984.78
643.36	53051.44
643.713	53008.06
644.066	53156.07
644.419	52921.96
644.771	52719.02
645.124	52417.79
645.477	52469.76
645.83	52280.16
646.182	52165.82
646.535	52080.17
646.888	52115.88
647.24	52006.5
647.593	52166.27
647.945	52028.87
648.298	51956.33
648.65	51890.34
649.002	51860.29
649.355	52007.86
649.707	51910.91
650.059	52071.58
650.411	52470.22
650.763	52527.39
651.115	52800.15
651.467	52686.71
651.819	52650.78
652.171	52618.46
652.523	52591.34
652.875	52650.1
653.227	52434.96
653.578	52682.87
653.93	52618.46
654.282	52441.06
654.633	52383.44
654.985	52481.97
655.337	52536.2
655.688	52473.83
656.039	52588.41
656.391	52300.28
656.742	52340.28
657.094	52390.44
657.445	52508.18
657.796	52440.84
658.147	52459.14
658.498	52399.94
658.849	52540.05
659.2	52412.14
659.551	52409.43
659.902	52534.62
660.253	52397.22
660.604	52472.48
660.955	52276.55
661.306	52384.34
661.656	52306.83
662.007	52285.36
662.358	52310.22
662.708	52352.03
663.059	52273.16
663.409	52134.63
663.76	52357.23
664.11	52333.95
664.461	52249.66
664.811	52278.36
665.161	52286.04
665.511	52205.36
665.862	52250.34
666.212	52354.06
666.562	52272.26
666.912	52357.45
667.262	52231.8
667.612	52209.66
667.962	52244.01
668.312	52102.32
668.662	52305.93
669.011	52181.41
669.361	52129.43
669.711	52184.57
670.06	52119.27
670.41	52056.44
670.76	51970.57
671.109	52231.13
671.459	52091.47
671.808	51937.35
672.157	52116.33
672.507	51850.57
672.856	51834.98
673.205	51865.71
673.554	51950.23
673.904	51887.18
674.253	52023.45
674.602	51856.22
674.951	51399.96
675.3	51314.54
675.649	51808.76
675.998	51717.69
676.346	51688.09
676.695	51815.32
677.044	51512.73
677.393	51648.09
677.741	51746.62
678.09	51685.6
678.438	51557.25
678.787	51584.82
679.135	51546.85
679.484	51405.39
679.832	51587.75
680.181	51316.12
680.529	51445.61
680.877	51352.51
681.225	51225.96
681.573	51524.25
681.922	51187.76
682.27	51126.75
682.618	51173.3
682.966	51103.47
683.314	51155.22
683.661	50956.81
684.009	50869.35
684.357	50812.41
684.705	50746.87
685.053	50796.14
685.4	50761.11
685.748	50560.66
686.095	50639.08
686.443	50360.22
686.79	50502.58
687.138	50528.8
687.485	50503.71
687.832	50312.98
688.18	50318.63
688.527	49960.45
688.874	50076.61
689.221	50117.51
689.568	49946.89
689.915	49855.14
690.262	49852.88
690.609	49778.76
690.956	49596.85
691.303	49571.54
691.65	49429.17
691.997	49364.31
692.344	49083.64
692.69	49147.59
693.037	49238.21
693.383	48913.93
693.73	48994.6
694.077	48765.68
694.423	48664.21
694.769	48567.72
695.116	48552.58
695.462	48551.68
695.808	48328.18
696.155	48480.04
696.501	48028.98
696.847	48144.23
697.193	47909.66
697.539	48161.4
697.885	47674.41
698.231	47554.41
698.577	47497.24
698.923	47485.94
699.269	47354.42
699.614	47173.63
699.96	47075.56
700.306	47039.62
700.651	46826.3
700.997	46672.4
701.342	46604.16
701.688	46693.65
702.033	46491.16
702.379	46576.13
702.724	46335.24
703.069	46416.36
703.415	45926.43
703.76	45921.24
704.105	45938.41
704.45	45705.42
704.795	45731.64
705.14	45478.54
705.485	45533
705.83	45352.44
706.175	45386.56
706.52	45162.61
706.865	45039.45
707.209	44959.68
707.554	44918.55
707.899	44944.54
708.243	44691.89
708.588	44640.14
708.932	44334.84
709.277	44304.56
709.621	44324.22
709.966	44050.78
710.31	44187.27
710.654	43826.83
710.998	43939.82
711.342	43946.37
711.687	43762.65
712.031	43666.61
712.375	43561.52
712.719	43584.57
713.063	43486.5
713.407	43746.15
713.75	43339.61
714.094	43297.12
714.438	43124.93
714.782	43207.18
715.125	43024.36
715.469	43063.68
715.812	42954.08
716.156	42670.02
716.499	42601.32
716.843	42732.39
717.186	42463.93
717.53	42691.04
717.873	42630.48
718.216	42511.61
718.559	42397.26
718.902	42152.07
719.246	42285.85
719.589	42017.61
719.932	41958.4
720.275	41912.98
720.617	41866.65
720.96	41595.02
721.303	41771.06
721.646	41782.81
721.989	41524.52
722.331	41783.27
722.674	41471.18
723.016	41542.59
723.359	41424.86
723.701	41438.42
724.044	41295.59
724.386	41085.66
724.729	41275.71
725.071	41149.84
725.413	41203.17
725.755	41004.3
726.097	40904.19
726.439	40813.57
726.782	40753.91
727.124	41047.92
727.465	40697.42
727.807	40720.24
728.149	40739.23
728.491	40683.63
728.833	40696.74
729.175	40516.18
729.516	40571.55
729.858	40352.34
730.199	40433.92
730.541	40343.76
730.882	40187.83
731.224	40352.57
731.565	40175.85
731.906	40163.2
732.248	40251.55
732.589	39947.61
732.93	39908.51
733.271	39899.25
733.612	39970.21
733.953	40004.33
734.294	39714.17
734.635	39788.74
734.976	39788.74
735.317	39695.41
735.658	39649.99
735.999	39659.71
736.339	39517.56
736.68	39667.39
737.021	39517.11
737.361	39297.46
737.702	39508.98
738.042	39354.4
738.383	39357.57
738.723	39427.62
739.063	39247.97
739.404	39202.77
739.744	39219.94
740.084	39163.22
740.424	39189.21
740.764	39026.95
741.104	39197.12
741.444	38868.99
741.784	38889.56
742.124	38962.32
742.464	38846.85
742.804	38730.92
743.143	38699.51
743.483	38672.61
743.823	38440.75
744.162	38596.23
744.502	38646.85
744.841	38431.94
745.181	38517.59
745.52	38354.66
745.86	38361.43
746.199	38363.69
746.538	38349.46
746.877	38320.98
747.216	38215.22
747.556	38136.58
747.895	38174.32
748.234	37983.14
748.573	38004.83
748.911	37921.9
749.25	37902.69
749.589	37824.73
749.928	37991.73
750.267	37843.93
750.605	37733.88
750.944	37682.81
751.283	37566.88
751.621	37706.31
751.96	37478.29
752.298	37511.51
752.636	37400.56
752.975	37302.25
753.313	37074.69
753.651	37282.82
753.989	37090.73
754.327	37120.56
754.666	36773
755.004	36828.82
755.342	36966.44
755.679	36752.66
756.017	36744.98
756.355	36680.35
756.693	36656.17
757.031	36673.12
757.368	36337.76
757.706	36328.95
758.044	36248.5
758.381	36208.5
758.719	36055.51
759.056	36046.02
