Data from orange_diffuse_book_FLMS001491_00097.txt Node
Date: Wed Feb 08 15:30:19 GMT 2017
User: dcchb
Spectrometer: FLMS00149
Trigger mode: 0
Integration Time (sec): 2.000000E-2
Scans to average: 10
Electric dark correction enabled: true
Nonlinearity correction enabled: false
Boxcar width: 0
XAxis mode: Wavelengths
Number of Pixels in Spectrum: 2048
>>>>>Begin Spectral Data<<<<<
341.393	-20.8
341.776	-20.8
342.16	-20.8
342.543	-56.74
342.927	-72.55
343.31	-61.71
343.693	-63.52
344.077	-58.77
344.46	-49.96
344.843	-45.89
345.226	-30.52
345.61	-28.04
345.993	-40.24
346.376	-36.62
346.759	-3.63
347.142	46.31
347.525	50.38
347.908	48.57
348.291	78.18
348.674	97.16
349.057	98.29
349.44	118.17
349.823	140.77
350.206	165.18
350.588	210.38
350.971	219.64
351.354	244.73
351.737	230.49
352.119	248.79
352.502	283.37
352.884	264.16
353.267	288.57
353.65	295.12
354.032	315.46
354.414	329.92
354.797	330.82
355.179	335.12
355.562	353.87
355.944	330.82
356.326	362.91
356.709	344.84
357.091	360.65
357.473	350.49
357.855	373.31
358.238	357.94
358.62	355.91
359.002	344.61
359.384	348.9
359.766	351.39
360.148	353.42
360.53	372.41
360.912	359.75
361.294	332.18
361.676	336.47
362.057	342.8
362.439	346.19
362.821	331.28
363.203	335.12
363.584	358.39
363.966	326.98
364.348	367.21
364.729	339.41
365.111	325.18
365.493	359.52
365.874	348.9
366.256	322.92
366.637	319.3
367.019	321.11
367.4	332.63
367.781	312.07
368.163	336.47
368.544	331.73
368.925	304.84
369.306	324.5
369.688	317.94
370.069	314.55
370.45	327.21
370.831	328.79
371.212	319.53
371.593	313.42
371.974	336.02
372.355	343.48
372.736	345.06
373.117	315.68
373.498	340.09
373.879	331.05
374.26	318.4
374.641	342.8
375.021	322.01
375.402	316.36
375.783	331.73
376.163	338.28
376.544	344.16
376.925	365.85
377.305	325.63
377.686	335.8
378.066	353.42
378.447	354.33
378.827	354.55
379.208	331.5
379.588	349.13
379.968	351.16
380.349	350.49
380.729	366.3
381.109	337.38
381.489	315.68
381.87	357.94
382.25	362.69
382.63	338.73
383.01	352.74
383.39	364.95
383.77	341.67
384.15	371.95
384.53	347.77
384.91	348
385.29	364.72
385.67	348.68
386.049	377.38
386.429	357.04
386.809	362.91
387.189	364.72
387.568	348
387.948	387.32
388.328	387.77
388.707	364.5
389.087	363.14
389.466	364.72
389.846	385.74
390.225	367.43
390.605	371.28
390.984	382.12
391.363	372.86
391.743	384.38
392.122	371.5
392.501	401.33
392.881	390.26
393.26	360.43
393.639	403.37
394.018	387.09
394.397	394.78
394.776	385.74
395.155	402.24
395.534	392.07
395.913	400.65
396.292	395.68
396.671	423.25
397.05	436.13
397.429	414.44
397.808	391.16
398.186	413.76
398.565	417.6
398.944	412.18
399.323	405.62
399.701	407.88
400.08	420.54
400.458	434.32
400.837	423.7
401.215	422.8
401.594	433.42
401.972	426.64
402.351	429.58
402.729	430.48
403.107	414.21
403.486	444.27
403.864	435.91
404.242	448.56
404.62	446.98
404.999	457.15
405.377	444.72
405.755	449.24
406.133	435.45
406.511	465.06
406.889	449.92
407.267	456.92
407.645	456.7
408.023	463.25
408.401	463.7
408.779	471.84
409.156	474.32
409.534	462.57
409.912	478.84
410.29	472.74
410.667	483.36
411.045	496.24
411.422	486.75
411.8	481.33
412.178	509.13
412.555	516.81
412.933	497.37
413.31	512.29
413.687	511.16
414.065	532.63
414.442	517.71
414.819	547.99
415.197	526.53
415.574	527.88
415.951	546.41
416.328	532.4
416.705	518.62
417.082	546.41
417.46	536.47
417.837	565.39
418.214	543.25
418.591	546.86
418.967	538.05
419.344	571.72
419.721	570.59
420.098	564.04
420.475	573.98
420.852	578.05
421.228	587.54
421.605	566.98
421.982	580.31
422.358	593.19
422.735	589.12
423.111	594.77
423.488	609.69
423.864	604.26
424.241	618.73
424.617	625.28
424.994	616.01
425.37	606.3
425.746	609.91
426.123	625.96
426.499	642.45
426.875	632.06
427.251	653.08
427.627	628.9
428.003	666.18
428.379	653.53
428.756	666.41
429.132	672.96
429.507	698.5
429.883	679.29
430.259	709.8
430.635	700.98
431.011	693.07
431.387	709.35
431.763	722.68
432.138	691.49
432.514	754.54
432.89	740.76
433.265	757.25
433.641	732.17
434.016	766.75
434.392	742.34
434.767	797.93
435.143	772.17
435.518	791.15
435.894	788.44
436.269	776.01
436.644	822.34
437.02	805.61
437.395	825.5
437.77	819.4
438.145	860.08
438.52	835.67
438.895	847.42
439.271	865.95
439.646	868.89
440.021	842.68
440.395	851.49
440.77	858.04
441.145	877.02
441.52	854.2
441.895	856.46
442.27	866.86
442.645	874.31
443.019	882.22
443.394	872.51
443.769	902.79
444.143	882.45
444.518	928.32
444.892	901.88
445.267	875.67
445.641	901.66
446.016	919.28
446.39	904.82
446.764	936.91
447.139	932.16
447.513	934.42
447.887	951.37
448.262	928.32
448.636	962.45
449.01	957.47
449.384	947.53
449.758	938.94
450.132	960.41
450.506	968.55
450.88	972.16
451.254	971.49
451.628	979.4
452.002	992.73
452.376	998.38
452.75	999.73
453.123	1003.12
453.497	1015.78
453.871	1028.43
454.244	1038.6
454.618	1049.45
454.992	1056.91
455.365	1023.24
455.739	1072.95
456.112	1093.97
456.486	1084.25
456.859	1082.67
457.232	1077.02
457.606	1118.15
457.979	1143.23
458.352	1140.75
458.725	1127.64
459.099	1126.74
459.472	1155.66
459.845	1168.54
460.218	1183.23
460.591	1143.91
460.964	1193.4
461.337	1205.6
461.71	1208.09
462.083	1234.76
462.456	1201.76
462.829	1204.02
463.201	1211.48
463.574	1229.11
463.947	1279.73
464.32	1265.72
464.692	1304.13
465.065	1287.18
465.438	1293.06
465.81	1268.88
466.183	1313.17
466.555	1316.79
466.928	1296
467.3	1332.38
467.672	1353.4
468.045	1369.89
468.417	1379.16
468.789	1374.64
469.161	1380.97
469.534	1414.19
469.906	1393.62
470.278	1428.2
470.65	1466.16
471.022	1473.17
471.394	1463.45
471.766	1472.49
472.138	1479.72
472.51	1526.5
472.882	1559.94
473.253	1534.41
473.625	1578.7
473.997	1609.21
474.369	1620.73
474.74	1590.45
475.112	1649.43
475.484	1643.78
475.855	1732.14
476.227	1701.18
476.598	1725.59
476.97	1761.07
477.341	1767.62
477.713	1776.21
478.084	1773.27
478.455	1855.76
478.827	1865.47
479.198	1936.43
479.569	1893.04
479.94	1958.58
480.311	1949.31
480.682	2000.84
481.053	2021.18
481.424	2056.2
481.795	2111.12
482.166	2114.05
482.537	2154.28
482.908	2186.37
483.279	2182.3
483.65	2227.5
484.021	2286.03
484.391	2300.94
484.762	2300.26
485.133	2365.8
485.503	2344.56
485.874	2416.42
486.244	2419.58
486.615	2473.37
486.985	2520.6
487.356	2515.85
487.726	2566.7
488.097	2603.08
488.467	2631.78
488.837	2682.85
489.207	2699.58
489.578	2739.35
489.948	2814.6
490.318	2853.24
490.688	2837.65
491.058	2907.48
491.428	2914.49
491.798	2994.94
492.168	3002.84
492.538	3014.6
492.908	3052.33
493.278	3109.06
493.648	3109.06
494.017	3160.35
494.387	3184.76
494.757	3258.43
495.126	3257.75
495.496	3290.07
495.866	3351.76
496.235	3360.8
496.605	3443.96
496.974	3438.31
497.344	3471.98
497.713	3488.03
498.082	3542.04
498.452	3549.05
498.821	3613
499.19	3605.31
499.559	3662.71
499.928	3685.99
500.298	3746.55
500.667	3772.99
501.036	3803.05
501.405	3780
501.774	3836.5
502.143	3880.79
502.512	3875.59
502.88	3935.7
503.249	3939.32
503.618	4014.57
503.987	3989.94
504.356	4057.05
504.724	4099.77
505.093	4085.3
505.462	4084.17
505.83	4167.56
506.199	4199.65
506.567	4255.69
506.936	4243.49
507.304	4327.78
507.672	4322.58
508.041	4384.96
508.409	4409.81
508.777	4433.09
509.145	4439.87
509.514	4519.42
509.882	4506.08
510.25	4526.19
510.618	4583.82
510.986	4609.58
511.354	4657.94
511.722	4712.18
512.09	4720.09
512.458	4699.98
512.826	4760.99
513.193	4801.44
513.561	4826.3
513.929	4838.5
514.297	4932.96
514.664	4953.98
515.032	4934.77
515.4	5014.09
515.767	4998.05
516.135	5015.22
516.502	5072.39
516.869	5091.83
517.237	5171.38
517.604	5156.91
517.972	5218.38
518.339	5261.09
518.706	5283.46
519.073	5311.26
519.44	5351.71
519.808	5355.55
520.175	5433.97
520.542	5451.37
520.909	5503.34
521.276	5456.34
521.643	5504.47
522.009	5587.18
522.376	5629.89
522.743	5689.33
523.11	5741.08
523.477	5744.47
523.843	5748.08
524.21	5835.54
524.577	5902.43
524.943	5966.38
525.31	5943.33
525.676	5993.27
526.043	6051.58
526.409	6060.84
526.776	6128.41
527.142	6106.49
527.508	6191.91
527.874	6204.12
528.241	6266.04
528.607	6297.67
528.973	6323.21
529.339	6352.81
529.705	6396.2
530.071	6475.75
530.437	6496.31
530.803	6521.62
531.169	6512.36
531.535	6507.84
531.901	6581.28
532.267	6632.35
532.632	6681.39
532.998	6690.66
533.364	6722.52
533.73	6693.82
534.095	6811.11
534.461	6793.71
534.826	6809.52
535.192	6880.26
535.557	6907.6
535.923	6902.4
536.288	6895.85
536.653	6915.28
537.019	6967.49
537.384	7045.45
537.749	7019.24
538.114	7113.47
538.479	7124.32
538.845	7113.47
539.21	7187.37
539.575	7234.15
539.94	7176.07
540.305	7255.84
540.67	7208.16
541.034	7323.41
541.399	7324.99
541.764	7353.92
542.129	7381.49
542.494	7402.73
542.858	7429.17
543.223	7487.92
543.587	7561.59
543.952	7556.85
544.316	7560.92
544.681	7559.34
545.045	7699.9
545.41	7754.13
545.774	7673.68
546.138	7734.7
546.503	7869.16
546.867	7822.15
547.231	7860.57
547.595	7906.44
547.959	7910.74
548.324	7966.33
548.688	8041.36
549.052	8000.45
549.416	8109.38
549.779	8110.06
550.143	8166.55
550.507	8227.34
550.871	8194.57
551.235	8204.97
551.599	8348.24
551.962	8354.12
552.326	8390.73
552.689	8486.77
553.053	8472.08
553.417	8526.77
553.78	8658.52
554.143	8606.09
554.507	8619.42
554.87	8712.53
555.234	8868.91
555.597	8764.95
555.96	8885.4
556.323	8973.08
556.686	9013.08
557.05	9088.56
557.413	9193.42
557.776	9172.85
558.139	9239.52
558.502	9254.21
558.865	9374.88
559.228	9463.47
559.59	9465.5
559.953	9521.77
560.316	9647.87
560.679	9677.47
561.041	9761.76
561.404	9794.76
561.767	9961.53
562.129	9934.64
562.492	10082.21
562.854	10150.68
563.217	10130.79
563.579	10291.47
563.941	10383.89
564.304	10493.27
564.666	10624.57
565.028	10693.04
565.39	10745.92
565.753	10830.44
566.115	11007.83
566.477	11093.48
566.839	11099.13
567.201	11289.18
567.563	11292.34
567.925	11499.12
568.287	11586.8
568.648	11670.87
569.01	11848.04
569.372	12073.57
569.734	12091.42
570.095	12206.22
570.457	12415.25
570.819	12493.67
571.18	12581.12
571.542	12795.81
571.903	12981.57
572.265	13204.38
572.626	13331.84
572.987	13518.5
573.349	13682.56
573.71	13828.77
574.071	13961.2
574.432	14141.31
574.794	14414.07
575.155	14642.31
575.516	14746.49
575.877	15015.86
576.238	15233.94
576.599	15590.08
576.96	15782.4
577.32	15903.07
577.681	16158.66
578.042	16405.88
578.403	16754.12
578.763	16954.79
579.124	17257.39
579.485	17599.75
579.845	17923.58
580.206	18093.75
580.566	18534.41
580.927	18785.25
581.287	19280.61
581.648	19344.11
582.008	19715.17
582.368	20058.44
582.728	20302.5
583.089	20765.77
583.449	21085.31
583.809	21514.45
584.169	21945.85
584.529	22265.62
584.889	22700.18
585.249	22896.11
585.609	23293.16
585.969	23921.16
586.329	24214.72
586.688	24595.95
587.048	25070.74
587.408	25550.27
587.768	25906.2
588.127	26247.43
588.487	26673.41
588.846	27395.88
589.206	27607.62
589.565	28046.25
589.925	28663.19
590.284	28925.1
590.643	29394.02
591.003	29988.8
591.362	30365.97
591.721	30927.53
592.08	31374.3
592.44	31855.87
592.799	32335.41
593.158	32814.49
593.517	33318.88
593.876	33803.39
594.235	34263.49
594.593	34896.7
594.952	35348.66
595.311	35683.34
595.67	36230.22
596.029	36966.7
596.387	37422.96
596.746	37741.14
597.104	38177.06
597.463	38558.07
597.822	39177.03
598.18	39415.22
598.538	39995.54
598.897	40552.37
599.255	40492.71
599.613	41664.65
599.972	41722.73
600.33	42387.12
600.688	42553.67
601.046	43086.76
601.404	43483.81
601.762	43881.09
602.12	44520.62
602.478	44888.07
602.836	45230.21
603.194	45363.76
603.552	45710.42
603.91	46075.84
604.268	46479.89
604.625	46781.81
604.983	47116.71
605.341	47253.88
605.698	47914.88
606.056	48213.86
606.413	48337.7
606.771	48694.98
607.128	48926.83
607.485	49120.73
607.843	49368.63
608.2	49738.79
608.557	50089.29
608.914	50083.87
609.272	50409.51
609.629	50706.22
609.986	50984.41
610.343	50904.18
610.7	51354.79
611.057	51489.71
611.414	51524.51
611.771	51733.54
612.127	51978.28
612.484	52107.54
612.841	52298.5
613.198	52313.19
613.554	52522.22
613.911	52757.02
614.267	52819.61
614.624	52881.08
614.98	53114.52
615.337	53266.83
615.693	53346.83
616.05	53361.29
616.406	53715.86
616.762	53615.3
617.118	53674.73
617.475	53846.93
617.831	53901.39
618.187	54035.63
618.543	54195.85
618.899	54297.54
619.255	54337.54
619.611	54428.16
619.967	54542.51
620.323	54689.85
620.678	54579.12
621.034	54525.78
621.39	54606.01
621.746	54566.23
622.101	54975.72
622.457	54764.42
622.812	54858.43
623.168	55081.93
623.523	55097.29
623.879	55144.52
624.234	54953.12
624.589	55138.65
624.945	55203.51
625.3	55270.62
625.655	55277.4
626.01	55250.51
626.365	55337.51
626.72	55348.14
627.075	55265.65
627.43	55312.66
627.785	55315.37
628.14	55424.07
628.495	55505.65
628.85	55488.47
629.205	55439.88
629.559	55611.18
629.914	55452.99
630.269	55517.62
630.623	55494.57
630.978	55480.33
631.332	55588.58
631.687	55627.22
632.041	55492.54
632.396	55588.58
632.75	55482.37
633.104	55602.59
633.459	55432.88
633.813	55526.44
634.167	55419.32
634.521	55401.02
634.875	55499.54
635.229	55417.06
635.583	55312.43
635.937	55346.78
636.291	55327.57
636.645	55396.72
636.999	55383.61
637.352	55404.63
637.706	55346.78
638.06	55455.48
638.413	55322.6
638.767	55296.16
639.121	55360.11
639.474	55142.04
639.828	55225.88
640.181	55299.55
640.534	55241.47
640.888	55124.41
641.241	55156.05
641.594	55183.17
641.947	55203.51
642.301	55178.2
642.654	55237.86
643.007	55223.62
643.36	55233.11
643.713	55129.16
644.066	55334.8
644.419	54994.7
644.771	54868.6
645.124	54604.2
645.477	54620.02
645.83	54450.76
646.182	54387.26
646.535	54290.31
646.888	54402.85
647.24	54165.34
647.593	54435.62
647.945	54330.08
648.298	54128.05
648.65	54173.02
649.002	54109.75
649.355	54192.69
649.707	54174.61
650.059	54304.32
650.411	54690.3
650.763	54636.29
651.115	54963.06
651.467	54870.41
651.819	54874.7
652.171	54784.99
652.523	54800.35
652.875	54706.8
653.227	54643.75
653.578	54897.98
653.93	54741.37
654.282	54707.7
654.633	54699.34
654.985	54680.81
655.337	54722.61
655.688	54673.58
656.039	54848.26
656.391	54605.33
656.742	54544.99
657.094	54660.47
657.445	54786.34
657.796	54667.02
658.147	54661.83
658.498	54689.17
658.849	54677.87
659.2	54608.27
659.551	54540.92
659.902	54753.57
660.253	54572.79
660.604	54667.48
660.955	54584.31
661.306	54696.17
661.656	54557.65
662.007	54620.47
662.358	54571.66
662.708	54646.01
663.059	54594.03
663.409	54431.77
663.76	54689.17
664.11	54605.56
664.461	54630.87
664.811	54607.82
665.161	54568.04
665.511	54469.29
665.862	54457.99
666.212	54494.6
666.562	54558.78
666.912	54520.59
667.262	54482.85
667.612	54514.26
667.962	54535.05
668.312	54452.57
668.662	54496.18
669.011	54534.37
669.361	54426.35
669.711	54391.1
670.06	54434.26
670.41	54301.38
670.76	54213.25
671.109	54448.72
671.459	54315.39
671.808	54231.78
672.157	54278.33
672.507	54089.64
672.856	54076.08
673.205	54143.65
673.554	54306.35
673.904	54155.85
674.253	54247.83
674.602	54179.35
674.951	53692.81
675.3	53555.64
675.649	54032.24
675.998	53938.23
676.346	54036.76
676.695	54128.73
677.044	53855.97
677.393	53938
677.741	54012.13
678.09	53927.16
678.438	53820.94
678.787	53963.09
679.135	53932.35
679.484	53724
679.832	53767.84
680.181	53629.31
680.529	53705.24
680.877	53668.41
681.225	53646.03
681.573	53789.31
681.922	53590.44
682.27	53544.57
682.618	53429.99
682.966	53421.86
683.314	53483.78
683.661	53396.32
684.009	53283.1
684.357	53115.88
684.705	53154.97
685.053	53165.14
685.4	53185.25
685.748	53008.76
686.095	52952.49
686.443	52855.55
686.79	52909.78
687.138	52983
687.485	52863
687.832	52701.88
688.18	52764.25
688.527	52565.16
688.874	52567.87
689.221	52508.21
689.568	52555.89
689.915	52343.47
690.262	52306.18
690.609	52212.17
690.956	52128.33
691.303	52107.54
691.65	51989.81
691.997	51944.61
692.344	51771.05
692.69	51706.42
693.037	51793.43
693.383	51463.04
693.73	51502.81
694.077	51442.7
694.423	51398.18
694.769	51300.33
695.116	51267.34
695.462	51176.72
695.808	51032.09
696.155	51012.66
696.501	50800.01
696.847	50714.13
697.193	50594.81
697.539	50756.17
697.885	50427.81
698.231	50312.34
698.577	50430.52
698.923	50197.99
699.269	50064.88
699.614	49896.98
699.96	49940.82
700.306	49913.93
700.651	49706.7
700.997	49462.64
701.342	49534.05
701.688	49492.24
702.033	49360.04
702.379	49309.65
702.724	49182.65
703.069	49209.31
703.415	48819.04
703.76	48849.77
704.105	48933.39
704.45	48573.17
704.795	48579.5
705.14	48497.47
705.485	48394.19
705.83	48204.14
706.175	48265.84
706.52	48093.64
706.865	47943.58
707.209	47855.9
707.554	47707.88
707.899	47850.25
708.243	47664.04
708.588	47577.27
708.932	47320.32
709.277	47257.5
709.621	47161.46
709.966	47034.68
710.31	47195.81
710.654	46790.17
710.998	46933.44
711.342	46936.6
711.687	46716.95
712.031	46598.31
712.375	46540.01
712.719	46528.03
713.063	46528.25
713.407	46727.34
713.75	46418.2
714.094	46328.03
714.438	46108.15
714.782	46236.28
715.125	45906.12
715.469	46083.75
715.812	45999.23
716.156	45695.73
716.499	45762.4
716.843	45770.08
717.186	45490.99
717.53	45641.5
717.873	45587.94
718.216	45390.43
718.559	45361.73
718.902	45125.13
719.246	45264.11
719.589	45066.37
719.932	44896.88
720.275	44925.58
720.617	44891.69
720.96	44913.16
721.303	44745.7
721.646	44919.71
721.989	44532.83
722.331	44684.91
722.674	44628.42
723.016	44623.67
723.359	44557.46
723.701	44425.94
724.044	44265.26
724.386	44196.56
724.729	44231.37
725.071	44007.42
725.413	44179.84
725.755	44054.87
726.097	44059.17
726.439	43713.41
726.782	43795.9
727.124	44074.31
727.465	43802
727.807	43750.02
728.149	43713.64
728.491	43622.12
728.833	43646.97
729.175	43494.21
729.516	43487.2
729.858	43452.4
730.199	43453.31
730.541	43312.52
730.882	43262.8
731.224	43409.24
731.565	43087.89
731.906	43280.66
732.248	43255.8
732.589	42987.78
732.93	42786.43
733.271	42939.42
733.612	43017.61
733.953	42857.39
734.294	42806.32
734.635	42747.79
734.976	42748.92
735.317	42609.04
735.658	42512.54
735.999	42635.02
736.339	42570.39
736.68	42600.45
737.021	42513.22
737.361	42241.14
737.702	42567.45
738.042	42298.99
738.383	42336.5
738.723	42322.04
739.063	42125.21
739.404	42288.14
739.744	42231.64
740.084	42127.69
740.424	42107.81
740.764	41961.59
741.104	42146
741.444	41821.03
741.784	41729.51
742.124	41959.79
742.464	41815.61
742.804	41780.13
743.143	41607.03
743.483	41682.73
743.823	41593.47
744.162	41614.71
744.502	41597.08
744.841	41424.43
745.181	41560.7
745.52	41312.12
745.86	41388.05
746.199	41248.39
746.538	41198.9
746.877	41293.59
747.216	41259.69
747.556	41278.9
747.895	41102.41
748.234	40965.24
748.573	40947.16
748.911	40888.4
749.25	40974.28
749.589	40739.93
749.928	40753.94
750.267	40834.39
750.605	40645.24
750.944	40528.86
751.283	40587.17
751.621	40619.26
751.96	40435.98
752.298	40357.12
752.636	40320.28
752.975	40180.17
753.313	40111.47
753.651	40145.14
753.989	39942.89
754.327	40007.75
754.666	39593.75
755.004	39736.57
755.342	39860.86
755.679	39894.98
756.017	39528.21
756.355	39585.84
756.693	39435.11
757.031	39590.81
757.368	39248.67
757.706	39233.3
758.044	39110.37
758.381	39132.74
758.719	38934.78
759.056	39022.69
759.394	38867.21
