Data from orange_diffuse_book_FLMS001491_00067.txt Node
Date: Wed Feb 08 15:29:54 GMT 2017
User: dcchb
Spectrometer: FLMS00149
Trigger mode: 0
Integration Time (sec): 2.000000E-2
Scans to average: 10
Electric dark correction enabled: true
Nonlinearity correction enabled: false
Boxcar width: 0
XAxis mode: Wavelengths
Number of Pixels in Spectrum: 2048
>>>>>Begin Spectral Data<<<<<
341.393	-15.62
341.776	-15.62
342.16	-15.62
342.543	-70.53
342.927	-76.18
343.31	-66.24
343.693	-75.51
344.077	-54.72
344.46	-50.42
344.843	-51.78
345.226	-38.9
345.61	-37.77
345.993	-15.62
346.376	-11.1
346.759	11.5
347.142	35.9
347.525	37.48
347.908	54.89
348.291	65.73
348.674	96.24
349.057	100.31
349.44	121.1
349.823	157.93
350.206	152.51
350.588	200.42
350.971	216.24
351.354	232.06
351.737	234.77
352.119	250.81
352.502	257.82
352.884	294.2
353.267	279.06
353.65	290.13
354.032	310.02
354.414	313.64
354.797	306.18
355.179	336.69
355.562	324.93
355.944	340.08
356.326	349.79
356.709	358.38
357.091	348.89
357.473	354.54
357.855	344.14
358.238	344.6
358.62	340.98
359.002	319.29
359.384	346.63
359.766	338.49
360.148	329
360.53	350.92
360.912	357.02
361.294	324.26
361.676	325.61
362.057	339.17
362.439	326.74
362.821	341.43
363.203	313.86
363.584	330.81
363.966	341.66
364.348	338.04
364.729	307.31
365.111	319.06
365.493	324.71
365.874	310.25
366.256	340.98
366.637	326.52
367.019	344.82
367.4	326.29
367.781	332.39
368.163	327.42
368.544	322
368.925	326.06
369.306	314.09
369.688	322.45
370.069	321.77
370.45	313.86
370.831	316.12
371.212	324.03
371.593	331.71
371.974	338.49
372.355	313.86
372.736	330.58
373.117	310.92
373.498	333.07
373.879	329.68
374.26	326.97
374.641	318.38
375.021	337.59
375.402	346.4
375.783	317.48
376.163	331.71
376.544	369
376.925	325.61
377.305	341.21
377.686	328.32
378.066	357.48
378.447	329.68
378.827	345.95
379.208	362.9
379.588	363.35
379.968	334.2
380.349	338.27
380.729	356.8
381.109	329.68
381.489	344.37
381.87	368.1
382.25	343.01
382.63	337.36
383.01	362.67
383.39	364.03
383.77	354.76
384.15	340.3
384.53	366.97
384.91	371.94
385.29	369.68
385.67	367.42
386.049	350.7
386.429	363.13
386.809	366.29
387.189	351.15
387.568	355.22
387.948	363.13
388.328	372.39
388.707	364.48
389.087	350.47
389.466	357.48
389.846	378.49
390.225	380.98
390.605	377.59
390.984	376.69
391.363	362.45
391.743	379.4
392.122	382.56
392.501	379.85
392.881	393.86
393.26	405.38
393.639	376.46
394.018	371.94
394.397	409
394.776	370.81
395.155	386.18
395.534	392.28
395.913	377.14
396.292	388.21
396.671	387.76
397.05	408.32
397.429	394.54
397.808	402.67
398.186	385.05
398.565	402.9
398.944	382.56
399.323	415.33
399.701	402.67
400.08	395.44
400.458	411.26
400.837	400.64
401.215	393.18
401.594	412.39
401.972	406.51
402.351	406.51
402.729	429.79
403.107	416.91
403.486	416.91
403.864	423.92
404.242	438.83
404.62	437.7
404.999	432.05
405.377	423.92
405.755	442.45
406.133	453.29
406.511	439.96
406.889	432.73
407.267	450.81
407.645	454.2
408.023	449.45
408.401	450.36
408.779	464.14
409.156	439.06
409.534	474.54
409.912	477.02
410.29	479.51
410.667	456.23
411.045	486.96
411.422	508.88
411.8	475.89
412.178	485.38
412.555	505.5
412.933	474.54
413.31	489
413.687	509.34
414.065	484.7
414.442	515.66
414.819	514.53
415.197	506.4
415.574	510.47
415.951	544.82
416.328	513.4
416.705	528.32
417.082	507.98
417.46	517.02
417.837	526.74
418.214	556.12
418.591	538.49
418.967	509.11
419.344	546.85
419.721	558.15
420.098	561.99
420.475	538.49
420.852	561.54
421.228	568.54
421.605	583.01
421.982	575.55
422.358	576
422.735	570.35
423.111	576.45
423.488	587.07
423.864	602.67
424.241	588.88
424.617	602.22
424.994	609.9
425.37	609.45
425.746	618.26
426.123	599.5
426.499	616.68
426.875	618.94
427.251	628.2
427.627	640.63
428.003	623.46
428.379	627.75
428.756	646.06
429.132	644.25
429.507	633.4
429.883	642.89
430.259	676.56
430.635	681.31
431.011	681.08
431.387	696.9
431.763	692.61
432.138	695.77
432.514	687.19
432.89	693.06
433.265	723.57
433.641	702.55
434.016	709.78
434.392	729.44
434.767	735.77
435.143	756.79
435.518	726.51
435.894	745.26
436.269	747.52
436.644	759.27
437.02	777.8
437.395	782.32
437.77	779.84
438.145	793.62
438.52	762.66
438.895	793.17
439.271	789.33
439.646	810.35
440.021	801.76
440.395	797.92
440.77	839.05
441.145	818.93
441.52	834.53
441.895	824.81
442.27	849.67
442.645	839.27
443.019	849.44
443.394	815.77
443.769	835.43
444.143	829.78
444.518	882.89
444.892	851.7
445.267	868.65
445.641	889.44
446.016	852.6
446.39	868.65
446.764	856.67
447.139	870.23
447.513	883.34
447.887	897.35
448.262	882.66
448.636	888.54
449.01	910.46
449.384	893.96
449.758	909.78
450.132	928.53
450.506	905.26
450.88	905.03
451.254	924.02
451.628	941.87
452.002	929.44
452.376	946.16
452.75	933.51
453.123	946.39
453.497	962.66
453.871	971.47
454.244	973.05
454.618	993.84
454.992	995.88
455.365	1014.18
455.739	1013.05
456.112	1004.69
456.486	1015.76
456.859	1019.38
457.232	1018.7
457.606	1028.19
457.979	1044.46
458.352	1090.56
458.725	1050.79
459.099	1082.2
459.472	1094.63
459.845	1121.3
460.218	1088.3
460.591	1111.35
460.964	1111.58
461.337	1125.14
461.71	1141.86
462.083	1156.55
462.456	1148.42
462.829	1206.27
463.201	1185.93
463.574	1189.09
463.947	1152.71
464.32	1202.43
464.692	1197.45
465.065	1193.61
465.438	1213.05
465.81	1233.16
466.183	1227.28
466.555	1233.84
466.928	1278.13
467.3	1245.81
467.672	1277.68
468.045	1307.51
468.417	1285.14
468.789	1306.15
469.161	1316.77
469.534	1311.35
469.906	1345.25
470.278	1353.38
470.65	1357.9
471.022	1373.72
471.394	1404.68
471.766	1416.43
472.138	1406.26
472.51	1451.91
472.882	1454.62
473.253	1483.55
473.625	1486.26
473.997	1505.02
474.369	1473.61
474.74	1543.89
475.112	1540.5
475.484	1546.15
475.855	1567.84
476.227	1615.75
476.598	1631.57
476.97	1672.24
477.341	1697.33
477.713	1705.24
478.084	1709.08
478.455	1737.78
478.827	1767.61
479.198	1788.4
479.569	1818.91
479.94	1841.05
480.311	1854.84
480.682	1906.59
481.053	1947.27
481.424	1960.6
481.795	1948.85
482.166	2039.92
482.537	2032.01
482.908	2027.72
483.279	2061.61
483.65	2102.29
484.021	2137.32
484.391	2163.3
484.762	2182.51
485.133	2205.56
485.503	2221.61
485.874	2265.22
486.244	2285.34
486.615	2363.07
486.985	2404.88
487.356	2419.57
487.726	2448.95
488.097	2502.73
488.467	2518.78
488.837	2533.24
489.207	2562.16
489.578	2609.17
489.948	2687.13
490.318	2657.53
490.688	2695.95
491.058	2768.49
491.428	2749.28
491.798	2782.05
492.168	2876.96
492.538	2885.77
492.908	2945.21
493.278	2958.99
493.648	2992.89
494.017	3034.47
494.387	3055.03
494.757	3104.97
495.126	3180
495.496	3156.05
495.866	3184.97
496.235	3212.77
496.605	3260.68
496.974	3285.54
497.344	3335.25
497.713	3316.95
498.082	3383.16
498.452	3443.05
498.821	3465.64
499.19	3467.9
499.559	3491.41
499.928	3525.08
500.298	3562.36
500.667	3621.12
501.036	3639.2
501.405	3631.74
501.774	3682.13
502.143	3697.73
502.512	3716.26
502.88	3776.14
503.249	3763.49
503.618	3845.52
503.987	3801.45
504.356	3915.12
504.724	3881.23
505.093	3901.56
505.462	3941.56
505.83	4004.61
506.199	4021.11
506.567	4071.5
506.936	4086.19
507.304	4123.03
507.672	4127.32
508.041	4170.94
508.409	4200.54
508.777	4224.04
509.145	4272.18
509.514	4267.2
509.882	4318.5
510.25	4333.19
510.618	4380.87
510.986	4370.03
511.354	4430.36
511.722	4484.83
512.09	4501.1
512.458	4518.95
512.826	4566.18
513.193	4580.87
513.561	4635.56
513.929	4652.05
514.297	4715.1
514.664	4719.17
515.032	4692.05
515.4	4771.15
515.767	4824.48
516.135	4849.79
516.502	4836.23
516.869	4925.94
517.237	4929.56
517.604	4909.45
517.972	4996.9
518.339	5015.43
518.706	5035.09
519.073	5056.11
519.44	5149.21
519.808	5194.41
520.175	5145.15
520.542	5216.11
520.909	5267.63
521.276	5262.43
521.643	5265.82
522.009	5363.45
522.376	5385.59
522.743	5423.56
523.11	5469.88
523.477	5498.13
523.843	5518.92
524.21	5629.2
524.577	5644.57
524.943	5635.3
525.31	5684.57
525.676	5727.73
526.043	5797.33
526.409	5812.7
526.776	5823.55
527.142	5856.54
527.508	5905.35
527.874	5939.48
528.241	5989.87
528.607	6004.79
528.973	6068.51
529.339	6118
529.705	6135.86
530.071	6151.22
530.437	6148.74
530.803	6229.86
531.169	6272.12
531.535	6252.91
531.901	6258.79
532.267	6331.78
532.632	6313.48
532.998	6402.74
533.364	6400.93
533.73	6402.52
534.095	6524.77
534.461	6511.21
534.826	6500.59
535.192	6591.89
535.557	6650.19
535.923	6624.2
536.288	6619.46
536.653	6678.21
537.019	6666.69
537.384	6729.51
537.749	6787.14
538.114	6783.97
538.479	6772.22
538.845	6842.28
539.21	6795.05
539.575	6835.27
539.94	6910.07
540.305	6926.34
540.67	6932.67
541.034	6981.26
541.399	7026.68
541.764	7038.43
542.129	7059.22
542.494	7096.73
542.858	7156.39
543.223	7140.35
543.587	7213.57
543.952	7229.84
544.316	7211.99
544.681	7328.14
545.045	7350.74
545.41	7403.84
545.774	7390.06
546.138	7368.14
546.503	7418.76
546.867	7462.83
547.231	7504.63
547.595	7547.57
547.959	7569.04
548.324	7618.53
548.688	7580.56
549.052	7689.94
549.416	7717.28
549.779	7750.28
550.143	7783.95
550.507	7854.68
550.871	7864.62
551.235	7924.51
551.599	7968.8
551.962	8000.89
552.326	8084.96
552.689	8150.49
553.053	8069.14
553.417	8157.27
553.78	8279.53
554.143	8243.6
554.507	8344.16
554.87	8367.21
555.234	8458.05
555.597	8484.27
555.96	8550.26
556.323	8618.5
556.686	8603.59
557.05	8795.9
557.413	8774.2
557.776	8798.16
558.139	8851.26
558.502	8886.97
558.865	9021.66
559.228	9097.59
559.59	9093.29
559.953	9161.54
560.316	9318.14
560.679	9318.6
561.041	9410.8
561.404	9470.91
561.767	9632.03
562.129	9583.9
562.492	9766.27
562.854	9702.32
563.217	9792.48
563.579	9933.27
563.941	10006.94
564.304	10127.16
564.666	10215.75
565.028	10302.3
565.39	10315.41
565.753	10460.04
566.115	10567.15
566.477	10688.73
566.839	10768.73
567.201	10922.62
567.563	11009.17
567.925	11123.52
568.287	11246.23
568.648	11328.71
569.01	11472.44
569.372	11654.35
569.734	11641.47
570.095	11888.92
570.457	11982.71
570.819	12075.81
571.18	12231.29
571.542	12521
571.903	12649.13
572.265	12727.55
572.626	12962.79
572.987	13098.61
573.349	13238.27
573.71	13448.43
574.071	13606.85
574.432	13816.56
574.794	14101.3
575.155	14196.89
575.516	14338.58
575.877	14651.79
576.238	14880.94
576.599	15119.57
576.96	15260.14
577.32	15485.67
577.681	15658.32
578.042	16002.49
578.403	16291.75
578.763	16574.9
579.124	16811.96
579.485	17220.76
579.845	17548.21
580.206	17747.75
580.566	18028.65
580.927	18323.78
581.287	18615.08
581.648	18938
582.008	19295.51
582.368	19585.67
582.728	19882.61
583.089	20220.68
583.449	20652.08
583.809	20968.91
584.169	21350.14
584.529	21696.12
584.889	22177.92
585.249	22532.26
585.609	22821.07
585.969	23280.49
586.329	23691.78
586.688	24192.78
587.048	24520.91
587.408	24937.85
587.768	25380.32
588.127	25819.18
588.487	26269.79
588.846	26791.58
589.206	27009.88
589.565	27512.47
589.925	28191.32
590.284	28423.86
590.643	28930.28
591.003	29407.56
591.362	29899.98
591.721	30323.47
592.08	30777.47
592.44	31395.76
592.799	31787.16
593.158	32242.51
593.517	32852.89
593.876	33275.71
594.235	33614.23
594.593	34234.55
594.952	34834.08
595.311	35156.11
595.67	35563.56
596.029	36181.39
596.387	36562.17
596.746	37177.53
597.104	37397.18
597.463	37951.29
597.822	38426.53
598.18	38862.9
598.538	39236.91
598.897	39998.47
599.255	39902.2
599.613	40849.75
599.972	41075.05
600.33	41592.32
600.688	41825.54
601.046	42396.37
601.404	43000.87
601.762	43296.69
602.12	43757.01
602.478	44114.97
602.836	44593.6
603.194	44772.35
603.552	45078.33
603.91	45291.89
604.268	45775.04
604.625	46046.67
604.983	46591.74
605.341	46732.08
605.698	47215.23
606.056	47495.22
606.413	47713.75
606.771	47973.4
607.128	48363.22
607.485	48388.98
607.843	48584.91
608.2	48997.33
608.557	49431.89
608.914	49497.2
609.272	49910.75
609.629	50059.22
609.986	50262.83
610.343	50398.65
610.7	50751.41
611.057	50897.39
611.414	50966.99
611.771	51219.42
612.127	51526.98
612.484	51567.66
612.841	51776.24
613.198	51800.87
613.554	51970.36
613.911	52206.96
614.267	52248.99
614.624	52377.58
614.98	52537.57
615.337	52693.73
615.693	52865.93
616.05	52810.79
616.406	53127.39
616.762	53085.81
617.118	53148.86
617.475	53227.95
617.831	53406.93
618.187	53512.46
618.543	53643.53
618.899	53853.02
619.255	53801.72
619.611	53916.97
619.967	54038.78
620.323	54206.46
620.678	54052.34
621.034	54062.28
621.39	54145.44
621.746	54174.37
622.101	54460.69
622.457	54271.99
622.812	54395.6
623.168	54476.73
623.523	54504.53
623.879	54688.48
624.234	54458.88
624.589	54601.7
624.945	54695.03
625.3	54673.56
625.655	54703.84
626.01	54800.11
626.365	54792.43
626.72	54795.37
627.075	54908.36
627.43	54790.85
627.785	54769.61
628.14	54923.5
628.495	54944.29
628.85	54969.37
629.205	54898.87
629.559	55089.14
629.914	55034.23
630.269	55087.79
630.623	54983.16
630.978	54881.92
631.332	55089.82
631.687	55154.68
632.041	54982.71
632.396	55050.73
632.75	55022.48
633.104	55053.44
633.459	54902.03
633.813	54936.61
634.167	54964.4
634.521	54927.12
634.875	55075.81
635.229	54927.57
635.583	54850.05
635.937	54867.46
636.291	54852.09
636.645	54950.84
636.999	54810.06
637.352	54919.88
637.706	54746.78
638.06	54824.29
638.413	54843.5
638.767	54781.36
639.121	54818.64
639.474	54700.23
639.828	54716.27
640.181	54714.24
640.534	54839.89
640.888	54706.1
641.241	54583.85
641.594	54737.97
641.947	54746.55
642.301	54669.49
642.654	54756.05
643.007	54734.13
643.36	54706.56
643.713	54591.53
644.066	54760.57
644.419	54496.62
644.771	54317.64
645.124	54098.89
645.477	54023.64
645.83	53860.93
646.182	53830.87
646.535	53793.13
646.888	53865.45
647.24	53708.84
647.593	53905.45
647.945	53873.81
648.298	53603.53
648.65	53713.14
649.002	53551.33
649.355	53721.72
649.707	53641.73
650.059	53791.78
650.411	54086.69
650.763	54133.46
651.115	54497.52
651.467	54399.45
651.819	54303.4
652.171	54290.75
652.523	54307.7
652.875	54289.17
653.227	54189.51
653.578	54408.71
653.93	54277.87
654.282	54136.4
654.633	54106.12
654.985	54163.97
655.337	54279.9
655.688	54149.73
656.039	54243.97
656.391	54051.66
656.742	54120.81
657.094	54170.98
657.445	54242.16
657.796	54232.22
658.147	54126.68
658.498	54163.97
658.849	54187.7
659.2	54092.56
659.551	54048.72
659.902	54132.11
660.253	54084.43
660.604	54149.28
660.955	53975.95
661.306	54104.99
661.656	53987.25
662.007	54077.87
662.358	54061.15
662.708	54074.48
663.059	54004.2
663.409	53876.75
663.76	54034.26
664.11	54078.1
664.461	54058.21
664.811	53995.61
665.161	54074.71
665.511	54029.06
665.862	54123.29
666.212	54138.66
666.562	54064.31
666.912	53987.03
667.262	54001.26
667.612	53873.81
667.962	53960.59
668.312	53903.87
668.662	54016.86
669.011	53922.4
669.361	53892.57
669.711	53864.09
670.06	53792.91
670.41	53764.89
670.76	53685.34
671.109	53883.75
671.459	53684.89
671.808	53786.81
672.157	53798.56
672.507	53592.01
672.856	53624.1
673.205	53581.16
673.554	53715.85
673.904	53538.68
674.253	53757.2
674.602	53531.9
674.951	53167.39
675.3	53069.54
675.649	53588.39
675.998	53522.41
676.346	53533.25
676.695	53600.6
677.044	53380.26
677.393	53420.49
677.741	53482.18
678.09	53449.64
678.438	53314.5
678.787	53420.04
679.135	53452.13
679.484	53213.71
679.832	53254.39
680.181	53078.12
680.529	53222.98
680.877	53145.24
681.225	53142.53
681.573	53233.37
681.922	53002.19
682.27	53028.63
682.618	53032.48
682.966	52891.46
683.314	53001.52
683.661	52792.48
684.009	52682.43
684.357	52650.34
684.705	52646.95
685.053	52639.72
685.4	52574.86
685.748	52351.36
686.095	52419.16
686.443	52331.03
686.79	52283.57
687.138	52317.24
687.485	52311.59
687.832	52224.36
688.18	52313.85
688.527	52062.56
688.874	52060.3
689.221	51952.05
689.568	51922
689.915	51813.3
690.262	51718.61
690.609	51582.34
690.956	51679.97
691.303	51543.93
691.65	51286.98
691.997	51335.12
692.344	51171.06
692.69	51174.9
693.037	51113.2
693.383	50945.52
693.73	50955.92
694.077	50807.9
694.423	50699.2
694.769	50767.68
695.116	50606.1
695.462	50632.76
695.808	50402.94
696.155	50451.98
696.501	50215.15
696.847	50248.82
697.193	49939.9
697.539	50002.05
697.885	49790.53
698.231	49705.11
698.577	49779.91
698.923	49546.01
699.269	49445.23
699.614	49273.25
699.96	49230.32
700.306	49214.5
700.651	49030.55
700.997	48982.64
701.342	48900.61
701.688	48775.41
702.033	48735.87
702.379	48644.34
702.724	48635.76
703.069	48638.69
703.415	48272.15
703.76	48250.45
704.105	48197.12
704.45	48010.46
704.795	47963
705.14	47738.15
705.485	47759.17
705.83	47579.96
706.175	47589.91
706.52	47468.55
706.865	47396.69
707.209	47259.29
707.554	47157.38
707.899	47125.74
708.243	46858.4
708.588	46821.79
708.932	46684.62
709.277	46591.97
709.621	46571.4
709.966	46296.61
710.31	46540.67
710.654	46095.03
710.998	46333.44
711.342	46166.67
711.687	46095.93
712.031	45866.34
712.375	45805.77
712.719	45979.1
713.063	45746.57
713.407	45886
713.75	45662.95
714.094	45471.32
714.438	45440.36
714.782	45445.33
715.125	45321.04
715.469	45318.78
715.812	45208.27
716.156	44912.92
716.499	45013.03
716.843	45053.48
717.186	44783.88
717.53	44973.03
717.873	44908.85
718.216	44815.06
718.559	44591.12
718.902	44267.06
719.246	44539.37
719.589	44434.28
719.932	44205.14
720.275	44189.77
720.617	44062.99
720.96	44081.75
721.303	44023.9
721.646	44142.09
721.989	43797.69
722.331	44013.5
722.674	43899.16
723.016	43825.26
723.359	43678.15
723.701	43809.89
724.044	43447.64
724.386	43378.94
724.729	43712.04
725.071	43326.52
725.413	43495.78
725.755	43278.38
726.097	43213.75
726.439	43107.99
726.782	43076.81
727.124	43269.79
727.465	42995
727.807	43078.39
728.149	42889.47
728.491	42890.6
728.833	42850.82
729.175	42754.1
729.516	42767.43
729.858	42685.86
730.199	42715.91
730.541	42813.76
730.882	42650.15
731.224	42577.16
731.565	42442.02
731.906	42470.72
732.248	42538.29
732.589	42322.93
732.93	42212.87
733.271	42173.1
733.612	42240.44
733.953	42185.98
734.294	42082.03
734.635	41965.42
734.976	42060.79
735.317	41795.26
735.658	41873.9
735.999	41861.92
736.339	41666.45
736.68	41873.9
737.021	41755.94
737.361	41645.88
737.702	41710.29
738.042	41567.92
738.383	41575.83
738.723	41576.73
739.063	41352.78
739.404	41442.5
739.744	41359.79
740.084	41333.8
740.424	41360.47
740.764	41358.88
741.104	41414.7
741.444	41262.84
741.784	41091.55
742.124	41207.7
742.464	41127.93
742.804	41062.17
743.143	40956.86
743.483	41103.52
743.823	40792.12
744.162	40722.97
744.502	40839.8
744.841	40661.73
745.181	40761.39
745.52	40647.49
745.86	40652.91
746.199	40481.39
746.538	40532.24
746.877	40547.61
747.216	40650.2
747.556	40523.2
747.895	40483.65
748.234	40208.63
748.573	40351
748.911	40187.84
749.25	40224.22
749.589	40082.53
749.928	40200.27
750.267	40159.37
750.605	39976.77
750.944	39980.39
751.283	39733.84
751.621	39868.08
751.96	39567.97
752.298	39680.06
752.636	39670.79
752.975	39500.63
753.313	39425.15
753.651	39434.64
753.989	39406.85
754.327	39275.32
754.666	39043.24
755.004	39141.99
755.342	39146.74
755.679	39017.7
756.017	38819.29
756.355	38863.81
756.693	38729.12
757.031	38835.11
757.368	38523.03
757.706	38577.26
758.044	38404.84
758.381	38427.66
758.719	38361.22
759.056	38348.12
759.394	38160.1
759.731	37908.13
