Data from orange_diffuse_book_FLMS001491_00064.txt Node
Date: Wed Feb 08 15:29:53 GMT 2017
User: dcchb
Spectrometer: FLMS00149
Trigger mode: 0
Integration Time (sec): 2.000000E-2
Scans to average: 10
Electric dark correction enabled: true
Nonlinearity correction enabled: false
Boxcar width: 0
XAxis mode: Wavelengths
Number of Pixels in Spectrum: 2048
>>>>>Begin Spectral Data<<<<<
341.393	-24.34
341.776	-24.34
342.16	-24.34
342.543	-89.42
342.927	-68.85
343.31	-67.72
343.693	-61.4
344.077	-61.62
344.46	-54.39
344.843	-68.18
345.226	-34.5
345.61	2.56
345.993	-22.98
346.376	-11.45
346.759	-4.45
347.142	13.86
347.525	36.68
347.908	66.06
348.291	75.77
348.674	81.88
349.057	109.9
349.44	141.54
349.823	136.11
350.206	149.45
350.588	208.2
350.971	215.43
351.354	209.78
351.737	234.19
352.119	255.66
352.502	270.12
352.884	292.04
353.267	287.29
353.65	305.83
354.032	309.89
354.414	328.42
354.797	332.04
355.179	326.39
355.562	336.33
355.944	348.08
356.326	351.47
356.709	345.6
357.091	342.89
357.473	354.19
357.855	358.48
358.238	334.3
358.62	334.07
359.002	348.08
359.384	364.81
359.766	337.24
360.148	341.76
360.53	363.22
360.912	354.86
361.294	354.19
361.676	339.72
362.057	339.27
362.439	346.73
362.821	340.63
363.203	348.31
363.584	333.17
363.966	344.92
364.348	338.59
364.729	330.46
365.111	346.73
365.493	325.03
365.874	344.69
366.256	323.23
366.637	313.51
367.019	334.98
367.4	335.66
367.781	314.64
368.163	323
368.544	338.37
368.925	341.76
369.306	316.67
369.688	343.11
370.069	329.78
370.45	317.8
370.831	347.18
371.212	338.82
371.593	319.84
371.974	314.41
372.355	329.1
372.736	348.08
373.117	337.01
373.498	336.11
373.879	321.19
374.26	344.02
374.641	343.79
375.021	325.94
375.402	327.75
375.783	336.33
376.163	348.08
376.544	328.65
376.925	334.75
377.305	321.19
377.686	345.6
378.066	345.82
378.447	339.04
378.827	342.66
379.208	345.15
379.588	345.6
379.968	341.3
380.349	335.43
380.729	342.21
381.109	339.5
381.489	347.41
381.87	354.41
382.25	328.65
382.63	371.13
383.01	372.26
383.39	376.11
383.77	341.98
384.15	357.58
384.53	358.25
384.91	368.2
385.29	382.43
385.67	356.22
386.049	371.59
386.429	368.87
386.809	360.29
387.189	367.52
387.568	374.3
387.948	367.97
388.328	352.38
388.707	381.53
389.087	367.07
389.466	391.25
389.846	375.2
390.225	391.25
390.605	374.07
390.984	377.91
391.363	376.56
391.743	384.92
392.122	385.15
392.501	381.08
392.881	377.91
393.26	398.93
393.639	391.7
394.018	390.57
394.397	405.03
394.776	398.93
395.155	413.85
395.534	401.64
395.913	402.09
396.292	399.83
396.671	427.63
397.05	417.01
397.429	397.12
397.808	406.16
398.186	412.04
398.565	410.46
398.944	431.02
399.323	411.59
399.701	424.01
400.08	427.4
400.458	414.3
400.837	411.13
401.215	423.11
401.594	401.42
401.972	424.01
402.351	415.2
402.729	417.23
403.107	429.66
403.486	411.81
403.864	438.48
404.242	426.5
404.62	440.06
404.999	425.82
405.377	430.57
405.755	440.51
406.133	435.77
406.511	435.09
406.889	450.23
407.267	451.36
407.645	441.87
408.023	456.78
408.401	445.93
408.779	468.53
409.156	443
409.534	453.39
409.912	465.14
410.29	492.26
410.667	458.82
411.045	482.54
411.422	475.09
411.8	475.54
412.178	482.09
412.555	487.97
412.933	494.52
413.31	505.59
413.687	490.23
414.065	485.71
414.442	522.77
414.819	527.74
415.197	539.27
415.574	520.28
415.951	523.67
416.328	521.19
416.705	543.56
417.082	531.36
417.46	527.06
417.837	551.92
418.214	528.42
418.591	519.15
418.967	534.52
419.344	543.79
419.721	550.34
420.098	536.33
420.475	541.3
420.852	562.77
421.228	544.46
421.605	589.66
421.982	552.6
422.358	566.84
422.735	591.92
423.111	580.62
423.488	591.24
423.864	588.08
424.241	586.04
424.617	597.8
424.994	602.99
425.37	616.78
425.746	595.54
426.123	614.74
426.499	621.52
426.875	614.29
427.251	625.59
427.627	638.02
428.003	649.77
428.379	627.17
428.756	667.62
429.132	645.93
429.507	665.59
429.883	648.42
430.259	654.97
430.635	654.52
431.011	693.16
431.387	690.9
431.763	701.75
432.138	720.5
432.514	685.93
432.89	719.6
433.265	733.84
433.641	734.29
434.016	738.81
434.392	741.97
434.767	737.23
435.143	718.7
435.518	732.48
435.894	773.84
436.269	784.23
436.644	755.76
437.02	781.52
437.395	762.08
437.77	780.84
438.145	779.26
438.52	815.19
438.895	783.78
439.271	806.15
439.646	814.96
440.021	806.38
440.395	799.15
440.77	825.59
441.145	805.47
441.52	815.42
441.895	831.91
442.27	862.87
442.645	851.35
443.019	838.01
443.394	847.96
443.769	848.64
444.143	823.78
444.518	882.08
444.892	868.3
445.267	879.37
445.641	845.02
446.016	892.25
446.39	857.68
446.764	879.14
447.139	876.88
447.513	884.12
447.887	881.86
448.262	871.23
448.636	898.58
449.01	901.74
449.384	888.41
449.758	886.6
450.132	907.84
450.506	901.06
450.88	922.08
451.254	914.4
451.628	933.15
452.002	962.08
452.376	962.31
452.75	934.74
453.123	968.63
453.497	971.57
453.871	985.58
454.244	994.62
454.618	997.78
454.992	1006.15
455.365	990.55
455.739	1012.47
456.112	1031.68
456.486	1024.22
456.859	1030.78
457.232	1046.14
457.606	1056.99
457.979	1068.07
458.352	1063.55
458.725	1102.19
459.099	1077.56
459.472	1095.18
459.845	1115.3
460.218	1073.94
460.591	1122.53
460.964	1122.75
461.337	1141.28
461.71	1121.85
462.083	1140.83
462.456	1125.46
462.829	1166.37
463.201	1158.91
463.574	1164.56
463.947	1189.19
464.32	1203.65
464.692	1209.53
465.065	1206.82
465.438	1209.3
465.81	1250.21
466.183	1266.93
466.555	1270.55
466.928	1255.86
467.3	1294.73
467.672	1297.89
468.045	1312.8
468.417	1273.03
468.789	1289.98
469.161	1322.52
469.534	1344.44
469.906	1385.34
470.278	1346.7
470.65	1376.98
471.022	1412.01
471.394	1421.28
471.766	1396.19
472.138	1417.89
472.51	1440.26
472.882	1466.25
473.253	1477.32
473.625	1481.16
473.997	1507.15
474.369	1494.95
474.74	1531.33
475.112	1528.62
475.484	1565.68
475.855	1603.19
476.227	1617.88
476.598	1640.93
476.97	1649.29
477.341	1692.23
477.713	1718.67
478.084	1704.66
478.455	1729.74
478.827	1766.13
479.198	1810.42
479.569	1824.43
479.94	1821.94
480.311	1887.7
480.682	1899.46
481.053	1923.41
481.424	1943.07
481.795	1958.89
482.166	2003.63
482.537	2026.91
482.908	2067.13
483.279	2078.21
483.65	2106.23
484.021	2133.57
484.391	2174.93
484.762	2187.58
485.133	2204.98
485.503	2226.45
485.874	2282.27
486.244	2328.6
486.615	2333.34
486.985	2411.08
487.356	2419.22
487.726	2450.18
488.097	2482.27
488.467	2513.68
488.837	2559.33
489.207	2588.93
489.578	2616.5
489.948	2651.3
490.318	2653.56
490.688	2697.4
491.058	2719.1
491.428	2807.91
491.798	2797.29
492.168	2867.57
492.538	2902.82
492.908	2917.28
493.278	2979.65
493.648	2973.33
494.017	3037.73
494.387	3087
494.757	3082.48
495.126	3118.41
495.496	3130.38
495.866	3204.51
496.235	3223.49
496.605	3255.8
496.974	3300.77
497.344	3327.21
497.713	3339.19
498.082	3405.63
498.452	3398.63
498.821	3440.66
499.19	3474.1
499.559	3509.13
499.928	3530.15
500.298	3554.78
500.667	3602.01
501.036	3624.38
501.405	3668.9
501.774	3663.93
502.143	3702.57
502.512	3737.83
502.88	3768.56
503.249	3785.73
503.618	3847.43
503.987	3799.52
504.356	3877.48
504.724	3896.47
505.093	3941.44
505.462	3918.16
505.83	4017.59
506.199	4080.64
506.567	4069.34
506.936	4078.16
507.304	4141.43
507.672	4165.38
508.041	4190.47
508.409	4169.45
508.777	4203.8
509.145	4301.88
509.514	4308.21
509.882	4261.43
510.25	4392.95
510.618	4379.62
510.986	4376.45
511.354	4469.33
511.722	4500.74
512.09	4459.16
512.458	4478.37
512.826	4588.42
513.193	4611.25
513.561	4645.6
513.929	4611.7
514.297	4687.18
514.664	4709.1
515.032	4763.56
515.4	4779.15
515.767	4790.45
516.135	4812.15
516.502	4860.73
516.869	4939.38
517.237	4923.33
517.604	4947.51
517.972	4973.95
518.339	5040.39
518.706	5018.47
519.073	5047.62
519.44	5113.38
519.808	5218.69
520.175	5160.39
520.542	5238.12
520.909	5324
521.276	5264.11
521.643	5336.2
522.009	5323.77
522.376	5370.1
522.743	5468.85
523.11	5467.27
523.477	5476.54
523.843	5573.94
524.21	5606.25
524.577	5640.15
524.943	5642.86
525.31	5686.02
525.676	5783.2
526.043	5804.21
526.409	5801.73
526.776	5875.4
527.142	5865.45
527.508	5923.08
527.874	5937.32
528.241	5990.87
528.607	6017.31
528.973	6077.42
529.339	6078.1
529.705	6166.01
530.071	6169.85
530.437	6157.65
530.803	6223.64
531.169	6313.12
531.535	6279.68
531.901	6261.6
532.267	6315.38
532.632	6333.24
532.998	6421.6
533.364	6448.71
533.73	6392.67
534.095	6503.18
534.461	6456.17
534.826	6526.23
535.192	6552.21
535.557	6639.9
535.923	6638.31
536.288	6678.77
536.653	6628.14
537.019	6736.39
537.384	6711.08
537.749	6742.72
538.114	6772.77
538.479	6807.35
538.845	6843.73
539.21	6801.02
539.575	6912.66
539.94	6924.41
540.305	6937.06
540.67	6959.89
541.034	7030.17
541.399	6997.63
541.764	7098.19
542.129	7095.93
542.494	7108.13
542.858	7160.56
543.223	7197.17
543.587	7231.07
543.952	7208.69
544.316	7306.77
544.681	7307.68
545.045	7365.07
545.41	7314.23
545.774	7377.96
546.138	7434.45
546.503	7479.87
546.867	7512.64
547.231	7539.31
547.595	7520.1
547.959	7631.51
548.324	7596.93
548.688	7680.32
549.052	7705.86
549.416	7710.38
549.779	7785.85
550.143	7846.19
550.507	7868.79
550.871	7866.76
551.235	7919.64
551.599	8038.05
551.962	8022.46
552.326	8081.67
552.689	8094.32
553.053	8140.2
553.417	8185.17
553.78	8288.21
554.143	8278.72
554.507	8390.81
554.87	8360.75
555.234	8487.31
555.597	8438.49
555.96	8579.51
556.323	8624.93
556.686	8659.28
557.05	8784.02
557.413	8762.55
557.776	8884.81
558.139	8924.13
558.502	8967.52
558.865	9009.78
559.228	9193.95
559.59	9141.07
559.953	9148.3
560.316	9262.2
560.679	9304.23
561.041	9471.01
561.404	9398.92
561.767	9589.2
562.129	9538.35
562.492	9748.74
562.854	9819.02
563.217	9805.01
563.579	9878.68
563.941	10005.46
564.304	10146.24
564.666	10199.12
565.028	10346.01
565.39	10382.62
565.753	10531.09
566.115	10611.54
566.477	10715.27
566.839	10800.24
567.201	10978.54
567.563	11001.14
567.925	11131.98
568.287	11257.85
568.648	11320.22
569.01	11458.07
569.372	11669.82
569.734	11683.38
570.095	11886.54
570.457	11963.37
570.819	12195.91
571.18	12288.34
571.542	12495.56
571.903	12596.8
572.265	12760.19
572.626	12956.79
572.987	13027.98
573.349	13293.96
573.71	13441.07
574.071	13723.1
574.432	13783.89
574.794	14031.79
575.155	14177.1
575.516	14409.18
575.877	14631.32
576.238	14931.43
576.599	15180.01
576.96	15370.51
577.32	15601.47
577.681	15734.35
578.042	16087.11
578.403	16291.17
578.763	16636.24
579.124	16857.25
579.485	17216.34
579.845	17444.81
580.206	17675.31
580.566	18069.65
580.927	18396.2
581.287	18617.66
581.648	18956.86
582.008	19372.89
582.368	19675.26
582.728	19928.81
583.089	20272.08
583.449	20637.72
583.809	20989.8
584.169	21354.76
584.529	21716.11
584.889	22255.76
585.249	22546.82
585.609	22942.29
585.969	23452.56
586.329	23809.39
586.688	24178.87
587.048	24566.43
587.408	24959.19
587.768	25303.13
588.127	25749.68
588.487	26149.67
588.846	26850.21
589.206	27030.09
589.565	27546.69
589.925	28014.93
590.284	28367.01
590.643	28906.88
591.003	29531.5
591.362	30021.88
591.721	30335.54
592.08	30970.1
592.44	31340.94
592.799	31840.36
593.158	32286.68
593.517	32759.21
593.876	33268.57
594.235	33616.36
594.593	34118.72
594.952	34672.15
595.311	35090.9
595.67	35602.3
596.029	36333.35
596.387	36742.83
596.746	37223.27
597.104	37547.78
597.463	37887.66
597.822	38569.23
598.18	38879.27
598.538	39202.66
598.897	39962.41
599.255	39995.86
599.613	40888.26
599.972	41135.94
600.33	41620.22
600.688	41687.11
601.046	42452.97
601.404	43021.54
601.762	43241.19
602.12	43829.2
602.478	44171.79
602.836	44473.03
603.194	44682.29
603.552	45082.73
603.91	45442.49
604.268	45857.17
604.625	46030.05
604.983	46581.22
605.341	46693.76
605.698	47218.49
606.056	47553.85
606.413	47744.8
606.771	48169.65
607.128	48449.87
607.485	48542.07
607.843	48729.64
608.2	49031.32
608.557	49368.72
608.914	49592.66
609.272	49858.19
609.629	50189.49
609.986	50369.59
610.343	50447.33
610.7	50784.72
611.057	50886.87
611.414	51057.26
611.771	51209.35
612.127	51543.57
612.484	51519.39
612.841	51747.86
613.198	51738.6
613.554	51939.04
613.911	52270.11
614.267	52243.67
614.624	52392.82
614.98	52509.88
615.337	52722.53
615.693	52874.84
616.05	52916.65
616.406	53117.54
616.762	53155.28
617.118	53272.79
617.475	53329.52
617.831	53456.07
618.187	53482.51
618.543	53616.06
618.899	53875.26
619.255	53862.16
619.611	53884.3
619.967	54134.01
620.323	54149.16
620.678	54096.28
621.034	54159.1
621.39	54146.9
621.746	54098.99
622.101	54438.41
622.457	54312.54
622.812	54374.69
623.168	54415.36
623.523	54523.83
623.879	54643.38
624.234	54470.73
624.589	54622.82
624.945	54679.99
625.3	54741
625.655	54729.03
626.01	54788.91
626.365	54827.78
626.72	54824.39
627.075	54865.75
627.43	54850.61
627.785	54862.36
628.14	54973.31
628.495	54933.09
628.85	54969.47
629.205	54943.94
629.559	55111.16
629.914	54944.39
630.269	55053.54
630.623	55018.51
630.978	54982.35
631.332	55096.93
631.687	55175.12
632.041	55078.4
632.396	55114.33
632.75	54954.78
633.104	55022.13
633.459	54933.54
633.813	54919.53
634.167	54960.21
634.521	54963.37
634.875	54992.75
635.229	54997.04
635.583	54916.82
635.937	54945.74
636.291	54892.19
636.645	54874.33
636.999	54868.46
637.352	54953.43
637.706	54740.33
638.06	54875.92
638.413	54767.22
638.767	54742.81
639.121	54914.11
639.474	54721.34
639.828	54730.38
640.181	54731.29
640.534	54773.32
640.888	54660.33
641.241	54640.67
641.594	54679.08
641.947	54782.13
642.301	54701.23
642.654	54667.33
643.007	54708.24
643.36	54704.85
643.713	54730.61
644.066	54814.67
644.419	54550.73
644.771	54349.15
645.124	54100.79
645.477	54106.67
645.83	53848.15
646.182	53824.42
646.535	53756.4
646.888	53823.74
647.24	53704.42
647.593	53916.39
647.945	53853.57
648.298	53689.73
648.65	53610.19
649.002	53645.67
649.355	53754.59
649.707	53600.02
650.059	53709.62
650.411	54091.53
650.763	54134.24
651.115	54512.31
651.467	54376.27
651.819	54273.9
652.171	54308.93
652.523	54289.94
652.875	54331.3
653.227	54138.31
653.578	54364.29
653.93	54309.6
654.282	54078.87
654.633	54108.25
654.985	54166.33
655.337	54149.38
655.688	54215.37
656.039	54305.99
656.391	54112.09
656.742	54144.86
657.094	54131.53
657.445	54261.69
657.796	54154.58
658.147	54062.38
658.498	54150.74
658.849	54218.53
659.2	54170.62
659.551	54150.74
659.902	54154.8
660.253	54158.42
660.604	54110.06
660.955	53995.94
661.306	54079.55
661.656	54045.43
662.007	54127.46
662.358	54052.43
662.708	54011.53
663.059	54024.64
663.409	53933.34
663.76	54092.43
664.11	54037.07
664.461	54090.17
664.811	54080.68
665.161	54089.27
665.511	53928.6
665.862	54082.49
666.212	54128.82
666.562	54076.84
666.912	54046.56
667.262	54068.03
667.612	53959.56
667.962	53905.77
668.312	53898.09
668.662	54008.14
669.011	53952.1
669.361	53912.55
669.711	53827.13
670.06	53852.44
670.41	53754.36
670.76	53749.17
671.109	53797.53
671.459	53733.57
671.808	53673.69
672.157	53814.93
672.507	53634.59
672.856	53625.33
673.205	53642.95
673.554	53796.85
673.904	53624.88
674.253	53775.15
674.602	53661.48
674.951	53172.91
675.3	53058.56
675.649	53478.89
675.998	53418.55
676.346	53470.76
676.695	53637.53
677.044	53330.87
677.393	53440.02
677.741	53519.57
678.09	53363.87
678.438	53432.34
678.787	53382.17
679.135	53404.54
679.484	53198.45
679.832	53228.95
680.181	53160.03
680.529	53206.13
680.877	53145.34
681.225	53149.63
681.573	53277.99
681.922	52928.4
682.27	53029.64
682.618	53017.66
682.966	52914.39
683.314	52951.22
683.661	52847.49
684.009	52653.83
684.357	52724.33
684.705	52583.32
685.053	52666.93
685.4	52633.49
685.748	52360.05
686.095	52461.74
686.443	52305.81
686.79	52247.51
687.138	52350.78
687.485	52418.35
687.832	52101.53
688.18	52275.08
688.527	52059.94
688.874	51975.88
689.221	51976.33
689.568	51823.57
689.915	51767.75
690.262	51753.06
690.609	51694.3
690.956	51627.64
691.303	51587.41
691.65	51382.67
691.997	51282.56
692.344	51200.98
692.69	51214.32
693.037	51124.38
693.383	50986.07
693.73	50913.31
694.077	50728.45
694.423	50728.91
694.769	50667.66
695.116	50666.54
695.462	50599.19
695.808	50421.34
696.155	50447.78
696.501	50116.49
696.847	50236.26
697.193	49938.42
697.539	50108.13
697.885	49773
698.231	49766.22
698.577	49616.62
698.923	49640.35
699.269	49462.72
699.614	49325.33
699.96	49205.33
700.306	49218.21
700.651	49118.55
700.997	48958.33
701.342	48918.78
701.688	48816.19
702.033	48843.31
702.379	48688.06
702.724	48525.57
703.069	48543.2
703.415	48218.69
703.76	48236.77
704.105	48133.27
704.45	48067.51
704.795	47890.11
705.14	47899.38
705.485	47745.03
705.83	47509.56
706.175	47669.78
706.52	47484.02
706.865	47382.78
707.209	47250.35
707.554	47025.73
707.899	47166.06
708.243	46905.96
708.588	46906.86
708.932	46744.15
709.277	46549.58
709.621	46552.52
709.966	46364.95
710.31	46549.13
710.654	46264.84
710.998	46268.23
711.342	46258.06
711.687	46145.52
712.031	45866.89
712.375	45813.33
712.719	45801.8
713.063	45845.64
713.407	45967
713.75	45690.85
714.094	45679.77
714.438	45486.33
714.782	45510.96
715.125	45326.11
715.469	45371.53
715.812	45237.53
716.156	45052.22
716.499	45145.55
716.843	44951.21
717.186	44808.16
717.53	45003.86
717.873	44927.48
718.216	44777.65
718.559	44585.34
718.902	44233.26
719.246	44536.98
719.589	44268.06
719.932	44238.23
720.275	44335.18
720.617	44052.02
720.96	44118.91
721.303	43995.75
721.646	44057.44
721.989	43809.99
722.331	44036.65
722.674	43765.7
723.016	43974.28
723.359	43624.01
723.701	43614.07
724.044	43503.33
724.386	43400.06
724.729	43539.49
725.071	43373.39
725.413	43339.04
725.755	43524.8
726.097	43168.88
726.439	42929.34
726.782	43118.94
727.124	43379.49
727.465	42979.05
727.807	43021.76
728.149	42957.36
728.491	42977.25
728.833	42999.39
729.175	42737.25
729.516	42891.15
729.858	42781.32
730.199	42702.68
730.541	42650.7
730.882	42534.32
731.224	42682.34
731.565	42444.38
731.906	42484.83
732.248	42443.47
732.589	42281.9
732.93	42265.4
733.271	42112.41
733.612	42290.48
733.953	42211.84
734.294	42119.87
734.635	41973.88
734.976	42189.02
735.317	41816.15
735.658	41735.7
735.999	41910.16
736.339	41757.62
736.68	41898.4
737.021	41791.06
737.361	41707.9
737.702	41702.48
738.042	41660.22
738.383	41588.58
738.723	41563.95
739.063	41449.38
739.404	41493.22
739.744	41427.23
740.084	41338.19
740.424	41417.29
740.764	41282.15
741.104	41440.56
741.444	41173.68
741.784	41029.95
742.124	41106.79
742.464	41038.09
742.804	41097.97
743.143	40847.13
743.483	41071.31
743.823	40730.3
744.162	40933.91
744.502	40741.15
744.841	40824.08
745.181	40831.99
745.52	40664.31
745.86	40707.93
746.199	40486.24
746.538	40551.77
746.877	40656.85
747.216	40719
747.556	40575.05
747.895	40487.82
748.234	40344.09
748.573	40247.6
748.911	40272.23
749.25	40324.21
749.589	40019.81
749.928	40225.68
750.267	40177.09
750.605	39978.23
750.944	39966.48
751.283	39726.48
751.621	39898
751.96	39629.76
752.298	39744.56
752.636	39609.42
752.975	39432.03
753.313	39380.96
753.651	39431.58
753.989	39298.25
754.327	39321.75
754.666	39051.93
755.004	39092.83
755.342	39098.03
755.679	39067.97
756.017	38737.58
756.355	38977.8
756.693	38924.92
757.031	38806.51
757.368	38518.61
757.706	38523.8
758.044	38476.57
758.381	38574.88
758.719	38411.04
759.056	38494.88
759.394	38257.37
