Data from orange_diffuse_book_FLMS001491_00048.txt Node
Date: Wed Feb 08 15:29:38 GMT 2017
User: dcchb
Spectrometer: FLMS00149
Trigger mode: 0
Integration Time (sec): 2.000000E-2
Scans to average: 10
Electric dark correction enabled: true
Nonlinearity correction enabled: false
Boxcar width: 0
XAxis mode: Wavelengths
Number of Pixels in Spectrum: 2048
>>>>>Begin Spectral Data<<<<<
341.393	-6.58
341.776	-6.58
342.16	-6.58
342.543	-57.88
342.927	-56.75
343.31	-66.02
343.693	-73.25
344.077	-69.63
344.46	-53.13
344.843	-48.61
345.226	-39.35
345.61	-41.84
345.993	-21.95
346.376	0.2
346.759	12.63
347.142	13.08
347.525	43.81
347.908	70.93
348.291	81.78
348.674	89.46
349.057	101.89
349.44	133.53
349.823	146.18
350.206	163.81
350.588	216.24
350.971	228.21
351.354	232.06
351.737	256.46
352.119	262.34
352.502	264.37
352.884	304.14
353.267	291.94
353.65	303.92
354.032	329.68
354.414	301.66
354.797	311.38
355.179	322.22
355.562	329.91
355.944	329.45
356.326	335.1
356.709	360.41
357.091	354.09
357.473	370.58
357.855	371.94
358.238	355.22
358.62	348.66
359.002	362.22
359.384	363.8
359.766	329.23
360.148	343.69
360.53	328.1
360.912	374.65
361.294	330.81
361.676	348.44
362.057	333.52
362.439	340.3
362.821	328.55
363.203	362
363.584	333.07
363.966	337.59
364.348	331.49
364.729	335.78
365.111	345.73
365.493	339.4
365.874	344.37
366.256	333.07
366.637	318.16
367.019	332.17
367.4	323.13
367.781	322
368.163	322.45
368.544	331.49
368.925	332.39
369.306	326.74
369.688	312.73
370.069	309.79
370.45	305.73
370.831	313.86
371.212	310.25
371.593	329.68
371.974	331.04
372.355	347.31
372.736	347.08
373.117	321.09
373.498	332.84
373.879	315.44
374.26	329.68
374.641	331.94
375.021	337.82
375.402	322.45
375.783	330.13
376.163	324.48
376.544	331.26
376.925	337.59
377.305	349.12
377.686	333.07
378.066	343.92
378.447	334.65
378.827	340.3
379.208	338.49
379.588	331.04
379.968	349.12
380.349	356.8
380.729	345.05
381.109	356.12
381.489	349.12
381.87	352.73
382.25	363.58
382.63	336.91
383.01	359.06
383.39	368.32
383.77	354.54
384.15	349.12
384.53	338.95
384.91	363.35
385.29	386.4
385.67	343.47
386.049	385.72
386.429	345.5
386.809	362.22
387.189	351.83
387.568	372.17
387.948	371.26
388.328	363.8
388.707	348.44
389.087	360.41
389.466	362.45
389.846	384.82
390.225	392.05
390.605	379.62
390.984	373.07
391.363	371.26
391.743	364.71
392.122	376.23
392.501	390.7
392.881	390.24
393.26	369.68
393.639	376.01
394.018	394.31
394.397	392.28
394.776	405.84
395.155	387.31
395.534	395.67
395.913	413.29
396.292	398.83
396.671	408.55
397.05	374.65
397.429	410.58
397.808	401.54
398.186	394.99
398.565	399.28
398.944	411.49
399.323	403.35
399.701	412.39
400.08	400.19
400.458	400.19
400.837	408.32
401.215	418.94
401.594	407.64
401.972	432.95
402.351	435.44
402.729	445.38
403.107	411.94
403.486	424.37
403.864	418.49
404.242	446.97
404.62	442.9
404.999	434.76
405.377	432.5
405.755	430.47
406.133	417.14
406.511	423.69
406.889	468.89
407.267	431.82
407.645	464.14
408.023	447.19
408.401	450.81
408.779	450.36
409.156	454.88
409.534	464.59
409.912	456.91
410.29	489.9
410.667	492.16
411.045	476.8
411.422	469.11
411.8	477.25
412.178	511.6
412.555	497.59
412.933	486.96
413.31	496.91
413.687	487.42
414.065	496.68
414.442	522.67
414.819	489
415.197	520.41
415.574	498.94
415.951	498.94
416.328	556.12
416.705	530.81
417.082	538.71
417.46	542.56
417.837	531.48
418.214	525.16
418.591	543.69
418.967	535.78
419.344	555.66
419.721	547.53
420.098	541.65
420.475	557.02
420.852	556.57
421.228	561.31
421.605	574.42
421.982	566.74
422.358	574.42
422.735	585.04
423.111	616
423.488	570.8
423.864	587.07
424.241	562.89
424.617	602.22
424.994	618.71
425.37	603.57
425.746	590.46
426.123	591.14
426.499	619.39
426.875	601.54
427.251	620.97
427.627	605.15
428.003	646.73
428.379	640.18
428.756	615.32
429.132	644.7
429.507	646.73
429.883	628.66
430.259	648.54
430.635	637.02
431.011	683.34
431.387	695.77
431.763	701.65
432.138	682.44
432.514	679.28
432.89	717.69
433.265	716.56
433.641	687.19
434.016	712.5
434.392	701.65
434.767	726.05
435.143	724.02
435.518	734.19
435.894	710.91
436.269	745.49
436.644	753.85
437.02	758.82
437.395	768.77
437.77	764.25
438.145	780.52
438.52	759.73
438.895	794.53
439.271	770.35
439.646	794.53
440.021	803.79
440.395	787.07
440.77	785.04
441.145	805.37
441.52	830.23
441.895	820.74
442.27	831.14
442.645	815.09
443.019	832.72
443.394	837.46
443.769	836.33
444.143	837.92
444.518	852.83
444.892	843.79
445.267	856.22
445.641	861.87
446.016	861.19
446.39	877.01
446.764	867.97
447.139	878.82
447.513	884.02
447.887	873.85
448.262	885.37
448.636	882.89
449.01	933.96
449.384	892.15
449.758	893.51
450.132	921.3
450.506	910
450.88	912.49
451.254	903.9
451.628	924.92
452.002	947.07
452.376	948.2
452.75	958.36
453.123	945.48
453.497	951.81
453.871	971.92
454.244	1003.34
454.618	957.01
454.992	985.71
455.365	974.18
455.739	1001.53
456.112	996.78
456.486	1021.41
456.859	1015.09
457.232	1026.61
457.606	1026.61
457.979	1054.86
458.352	1046.95
458.725	1079.72
459.099	1073.62
459.472	1097.8
459.845	1073.16
460.218	1115.42
460.591	1122.88
460.964	1102.54
461.337	1114.97
461.71	1133.73
462.083	1163.56
462.456	1150.9
462.829	1153.84
463.201	1139.38
463.574	1185.48
463.947	1176.44
464.32	1194.52
464.692	1222.99
465.065	1196.1
465.438	1211.01
465.81	1243.78
466.183	1242.2
466.555	1209.66
466.928	1245.14
467.3	1261.41
467.672	1274.06
468.045	1316.55
468.417	1299.82
468.789	1305.7
469.161	1319.03
469.534	1374.17
469.906	1364.23
470.278	1372.82
470.65	1359.03
471.022	1401.52
471.394	1429.54
471.766	1420.05
472.138	1440.16
472.51	1473.15
472.882	1484.45
473.253	1472.02
473.625	1476.09
473.997	1564.9
474.369	1553.15
474.74	1568.52
475.112	1572.59
475.484	1568.29
475.855	1623.43
476.227	1632.25
476.598	1659.82
476.97	1661.17
477.341	1679.02
477.713	1741.85
478.084	1729.64
478.455	1769.19
478.827	1800.6
479.198	1801.96
479.569	1797.89
479.94	1879.47
480.311	1886.02
480.682	1887.83
481.053	1928.96
481.424	1965.12
481.795	1987.72
482.166	2020.03
482.537	2039.69
482.908	2084.89
483.279	2097.77
483.65	2142.29
484.021	2131.44
484.391	2192.68
484.762	2231.33
485.133	2243.98
485.503	2253.47
485.874	2304.54
486.244	2304.54
486.615	2393.58
486.985	2408.72
487.356	2435.84
487.726	2394.03
488.097	2509.28
488.467	2533.01
488.837	2542.96
489.207	2588.83
489.578	2627.02
489.948	2639.68
490.318	2711.31
490.688	2733.69
491.058	2748.6
491.428	2775.72
491.798	2849.84
492.168	2878.31
492.538	2874.25
492.908	2933.91
493.278	2984.98
493.648	3022.27
494.017	3067.24
494.387	3064.52
494.757	3042.83
495.126	3167.8
495.496	3142.49
495.866	3202.37
496.235	3226.55
496.605	3255.25
496.974	3292.54
497.344	3308.13
497.713	3375.48
498.082	3400.79
498.452	3429.26
498.821	3438.75
499.19	3445.98
499.559	3552.42
499.928	3560.33
500.298	3581.57
500.667	3593.78
501.036	3600.1
501.405	3691.4
501.774	3690.72
502.143	3732.98
502.512	3721.68
502.88	3746.31
503.249	3793.77
503.618	3783.83
503.987	3864.05
504.356	3876.25
504.724	3889.59
505.093	3913.54
505.462	3956.93
505.83	3980.66
506.199	4009.36
506.567	4038.96
506.936	4067.44
507.304	4116.25
507.672	4094.33
508.041	4149.69
508.409	4175.46
508.777	4235.34
509.145	4291.61
509.514	4284.83
509.882	4340.65
510.25	4294.77
510.618	4353.98
510.986	4377.94
511.354	4432.85
511.722	4433.75
512.09	4512.4
512.458	4506.52
512.826	4557.82
513.193	4629
513.561	4595.56
513.929	4594.65
514.297	4645.5
514.664	4707.19
515.032	4684.82
515.4	4743.8
515.767	4775.89
516.135	4843.91
516.502	4795.1
516.869	4888.2
517.237	4893.63
517.604	4891.37
517.972	5011.14
518.339	5007.07
518.706	5001.65
519.073	5047.52
519.44	5082.78
519.808	5121.19
520.175	5159.61
520.542	5195.54
520.909	5231.92
521.276	5256.1
521.643	5274.18
522.009	5338.59
522.376	5327.29
522.743	5394.86
523.11	5427.17
523.477	5504.91
523.843	5509.66
524.21	5587.4
524.577	5659.48
524.943	5693.83
525.31	5675.98
525.676	5717.56
526.043	5749.65
526.409	5757.79
526.776	5831
527.142	5861.06
527.508	5903.09
527.874	5956.43
528.241	6002.3
528.607	5944.67
528.973	6079.59
529.339	6069.42
529.705	6097.66
530.071	6158.23
530.437	6134.5
530.803	6196.64
531.169	6261.73
531.535	6240.03
531.901	6303.31
532.267	6346.47
532.632	6345.79
532.998	6360.03
533.364	6433.93
533.73	6417.43
534.095	6531.78
534.461	6536.07
534.826	6578.1
535.192	6587.82
535.557	6594.15
535.923	6641.61
536.288	6688.61
536.653	6675.28
537.019	6710.76
537.384	6719.34
537.749	6771.32
538.114	6773.8
538.479	6753.47
538.845	6824.88
539.21	6773.35
539.575	6840.02
539.94	6896.74
540.305	6956.62
540.67	6946.46
541.034	7003.63
541.399	7082.27
541.764	7100.8
542.129	7078.43
542.494	7123.17
542.858	7128.82
543.223	7167.47
543.587	7188.03
543.952	7218.31
544.316	7223.51
544.681	7261.25
545.045	7296.73
545.41	7333.79
545.774	7364.3
546.138	7373.34
546.503	7444.3
546.867	7446.1
547.231	7541.69
547.595	7517.06
547.959	7570.62
548.324	7531.07
548.688	7642.71
549.052	7682.48
549.416	7680.9
549.779	7693.33
550.143	7769.71
550.507	7843.38
550.871	7903.72
551.235	7854.45
551.599	8018.29
551.962	8004.96
552.326	8031.17
552.689	8068.23
553.053	8116.82
553.417	8181.68
553.78	8238.17
554.143	8239.76
554.507	8271.84
554.87	8309.58
555.234	8428.22
555.597	8388.23
555.96	8468.45
556.323	8528.11
556.686	8572.18
557.05	8668.22
557.413	8681.33
557.776	8723.58
558.139	8817.59
558.502	8797.03
558.865	8840.42
559.228	8943.47
559.59	9037.7
559.953	9117.25
560.316	9218.49
560.679	9273.4
561.041	9269.78
561.404	9424.13
561.767	9477.01
562.129	9473.39
562.492	9674.29
562.854	9639.27
563.217	9725.59
563.579	9801.75
563.941	9951.35
564.304	10000.84
564.666	10104.79
565.028	10126.49
565.39	10239.93
565.753	10404.44
566.115	10439.92
566.477	10542.29
566.839	10650.99
567.201	10829.52
567.563	10816.86
567.925	10934.37
568.287	11051.43
568.648	11126.91
569.01	11305.89
569.372	11487.35
569.734	11479.44
570.095	11610.06
570.457	11735.26
570.819	11975.48
571.18	12003.5
571.542	12164.85
571.903	12293.89
572.265	12513.32
572.626	12626.08
572.987	12763.48
573.349	13009.57
573.71	13212.51
574.071	13359.62
574.432	13531.59
574.794	13719.39
575.155	13918.93
575.516	14022.65
575.877	14270.56
576.238	14508.74
576.599	14737.89
576.96	14951.67
577.32	15157.54
577.681	15366.57
578.042	15611.54
578.403	15863.51
578.763	16103.05
579.124	16374.68
579.485	16637.73
579.845	16964.5
580.206	17206.52
580.566	17374.43
580.927	17708.66
581.287	18194.52
581.648	18265.25
582.008	18788.4
582.368	18933.49
582.728	19345
583.089	19640.13
583.449	19885.55
583.809	20268.82
584.169	20686.21
584.529	20908.8
584.889	21375
585.249	21663.13
585.609	21912.39
585.969	22524.35
586.329	22673.95
586.688	23289.75
587.048	23538.34
587.408	23960.25
587.768	24349.84
588.127	24662.83
588.487	25071.18
588.846	25582.12
589.206	25913.64
589.565	26257.13
589.925	26846.5
590.284	27208.97
590.643	27627.49
591.003	28171.89
591.362	28622.95
591.721	28828.37
592.08	29481.68
592.44	29896.36
592.799	30300.19
593.158	30828.99
593.517	31211.35
593.876	31765.69
594.235	32128.39
594.593	32636.85
594.952	33028.26
595.311	33367.91
595.67	33825.97
596.029	34477.48
596.387	34885.61
596.746	35426.38
597.104	35750.9
597.463	36162.41
597.822	36682.4
598.18	36866.12
598.538	37384.07
598.897	37990.84
599.255	38081.23
599.613	38930.25
599.972	39073.97
600.33	39522.55
600.688	39913.05
601.046	40355.29
601.404	40938.1
601.762	41056.52
602.12	41769.04
602.478	42017.17
602.836	42430.04
603.194	42571.06
603.552	43022.34
603.91	43199.74
604.268	43839.05
604.625	43883.34
604.983	44573.71
605.341	44579.36
605.698	45077.43
606.056	45396.29
606.413	45701.59
606.771	45909.95
607.128	46360.33
607.485	46378.64
607.843	46670.38
608.2	47083.25
608.557	47337.48
608.914	47687.53
609.272	47985.38
609.629	48070.35
609.986	48482.09
610.343	48473.27
610.7	48862.19
611.057	49015.18
611.414	49094.05
611.771	49373.81
612.127	49661.49
612.484	49683.86
612.841	49944.2
613.198	49944.65
613.554	50263.73
613.911	50445.88
614.267	50612.2
614.624	50738.75
614.98	50763.61
615.337	50991.85
615.693	51096.03
616.05	51189.13
616.406	51545.74
616.762	51429.58
617.118	51512.97
617.475	51613.98
617.831	51849.23
618.187	51847.2
618.543	52060.75
618.899	52264.36
619.255	52220.97
619.611	52295.77
619.967	52435.88
620.323	52479.72
620.678	52465.26
621.034	52488.54
621.39	52532.15
621.746	52542.09
622.101	53058.24
622.457	52670.45
622.812	52844.91
623.168	52951.57
623.523	53032.7
623.879	53153.38
624.234	52949.99
624.589	53158.57
624.945	53170.55
625.3	53257.1
625.655	53189.99
626.01	53222.53
626.365	53348.17
626.72	53284.9
627.075	53385.46
627.43	53283.77
627.785	53335.52
628.14	53425.46
628.495	53443.31
628.85	53462.07
629.205	53330.32
629.559	53628.17
629.914	53500.49
630.269	53518.79
630.623	53429.3
630.978	53445.57
631.332	53503.65
631.687	53571.44
632.041	53487.38
632.396	53531.22
632.75	53421.62
633.104	53573.7
633.459	53420.94
633.813	53469.53
634.167	53460.26
634.521	53406.25
634.875	53473.37
635.229	53379.81
635.583	53308.63
635.937	53415.52
636.291	53394.05
636.645	53394.95
636.999	53309.76
637.352	53410.32
637.706	53226.82
638.06	53358.34
638.413	53261.17
638.767	53218.91
639.121	53292.13
639.474	53072.02
639.828	53109.08
640.181	53219.59
640.534	53192.7
640.888	53113.83
641.241	53049.65
641.594	53149.53
641.947	53157.22
642.301	53090.55
642.654	53105.92
643.007	53169.42
643.36	53148.63
643.713	53032.02
644.066	53166.48
644.419	53001.74
644.771	52845.36
645.124	52546.16
645.477	52560.17
645.83	52268.88
646.182	52183.23
646.535	52174.42
646.888	52265.26
647.24	52038.38
647.593	52297.13
647.945	52164.93
648.298	52049.45
648.65	51957.02
649.002	51963.13
649.355	52052.84
649.707	51987.98
650.059	52162.67
650.411	52479.5
650.763	52528.08
651.115	52900.28
651.467	52731.24
651.819	52832.93
652.171	52651.47
652.523	52683.56
652.875	52646.27
653.227	52533.05
653.578	52772.82
653.93	52669.1
654.282	52521.98
654.633	52518.14
654.985	52572.6
655.337	52639.49
655.688	52590.91
656.039	52662.99
656.391	52404.02
656.742	52554.97
657.094	52594.3
657.445	52691.47
657.796	52607.4
658.147	52515.88
658.498	52469.33
658.849	52578.25
659.2	52507.29
659.551	52512.94
659.902	52520.62
660.253	52469.55
660.604	52564.69
660.955	52300.29
661.306	52575.76
661.656	52499.83
662.007	52446.05
662.358	52466.39
662.708	52477.69
663.059	52441.76
663.409	52289.44
663.76	52444.02
664.11	52429.55
664.461	52545.93
664.811	52445.82
665.161	52387.07
665.511	52275.43
665.862	52479.5
666.212	52488.08
666.562	52399.05
666.912	52380.74
667.262	52264.36
667.612	52328.09
667.962	52404.02
668.312	52234.08
668.662	52451.47
669.011	52355.88
669.361	52298.26
669.711	52150.01
670.06	52265.49
670.41	52141.2
670.76	52072.27
671.109	52293.29
671.459	52046.51
671.808	52133.06
672.157	52121.09
672.507	51978.04
672.856	52017.81
673.205	52008.55
673.554	52058.26
673.904	52012.62
674.253	52103.46
674.602	51993.18
674.951	51521.55
675.3	51384.16
675.649	51952.96
675.998	51848.78
676.346	51832.96
676.695	51978.72
677.044	51691.95
677.393	51790.47
677.741	51807.2
678.09	51669.57
678.438	51657.14
678.787	51775.33
679.135	51755
679.484	51481.56
679.832	51583.47
680.181	51397.94
680.529	51553.19
680.877	51457.38
681.225	51320.2
681.573	51588.67
681.922	51318.17
682.27	51212.86
682.618	51353.65
682.966	51202.69
683.314	51153.65
683.661	51203.37
684.009	50938.07
684.357	50872.08
684.705	50881.57
685.053	51039.76
685.4	50945.98
685.748	50746.66
686.095	50650.62
686.443	50551.86
686.79	50444.52
687.138	50590.28
687.485	50596.61
687.832	50418.76
688.18	50419.44
688.527	50245.2
688.874	50285.43
689.221	50150.52
689.568	49908.94
689.915	49917.76
690.262	49895.83
690.609	49767.25
690.956	49683.86
691.303	49719.34
691.65	49470.76
691.997	49480.48
692.344	49147.83
692.69	49325.45
693.037	49190.99
693.383	49049.98
693.73	49103.99
694.077	48834.17
694.423	48818.58
694.769	48656.32
695.116	48766.83
695.462	48749.2
695.808	48522.76
696.155	48488.19
696.501	48268.31
696.847	48212.26
697.193	48046.39
697.539	48185.82
697.885	47793.07
698.231	47693.18
698.577	47686.85
698.923	47602.34
699.269	47466.07
699.614	47389.23
699.96	47194.21
700.306	47142.69
700.651	46933.43
700.997	47039.19
701.342	46747.44
701.688	46603.94
702.033	46550.84
702.379	46606.66
702.724	46446.89
703.069	46412.31
703.415	46020
703.76	46201.69
704.105	45936.17
704.45	45949.27
704.795	45868.14
705.14	45756.51
705.485	45538.66
705.83	45489.4
706.175	45566.46
706.52	45414.6
706.865	45189.74
707.209	45246.24
707.554	44895.29
707.899	45065.91
708.243	44886.93
708.588	44824.78
708.932	44514.96
709.277	44568.97
709.621	44570.55
709.966	44354.51
710.31	44471.57
710.654	43993.84
710.998	44154.52
711.342	44232.93
711.687	43926.95
712.031	43837.46
712.375	43739.16
712.719	43788.2
713.063	43716.34
713.407	43770.35
713.75	43517.02
714.094	43483.12
714.438	43180.98
714.782	43385.95
715.125	43198.16
715.469	43151.61
715.812	43020.54
716.156	42837.94
716.499	42814.44
716.843	42880.2
717.186	42613.99
717.53	42827.09
717.873	42854.89
718.216	42616.93
718.559	42458.97
718.902	42324.51
719.246	42339.88
719.589	42269.59
719.932	42232.99
720.275	42225.53
720.617	42249.03
720.96	42034.8
721.303	41962.03
721.646	41933.56
721.989	41808.36
722.331	41913.67
722.674	41781.47
723.016	41793.45
723.359	41622.38
723.701	41636.62
724.044	41331.99
724.386	41232.79
724.729	41449.73
725.071	41294.48
725.413	41327.47
725.755	41309.62
726.097	41179.45
726.439	40836.86
726.782	40925.22
727.124	41098.33
727.465	40925.9
727.807	40881.38
728.149	40870.31
728.491	40845.9
728.833	40805
729.175	40545.12
729.516	40566.36
729.858	40620.15
730.199	40658.79
730.541	40478.23
730.882	40509.19
731.224	40545.35
731.565	40345.8
731.906	40289.31
732.248	40429.19
732.589	40077.79
732.93	40035.08
733.271	40207.95
733.612	40098.8
733.953	40119.59
734.294	40068.52
734.635	40016.55
734.976	39956.66
735.317	39647.52
735.658	39870.56
735.999	39776.33
736.339	39579.27
736.68	39783.78
737.021	39612.49
737.361	39601.87
737.702	39737.68
738.042	39577.01
738.383	39505.37
738.723	39523.68
739.063	39393.51
739.404	39419.5
739.744	39323.01
740.084	39299.05
740.424	39390.12
740.764	39223.35
741.104	39254.08
741.444	39156.23
741.784	38995.1
742.124	39096.12
742.464	39077.81
742.804	38963.92
743.143	38861.55
743.483	38799.18
743.823	38688.9
744.162	38862.45
744.502	38845.96
744.841	38494.1
745.181	38837.14
745.52	38603.25
745.86	38583.82
746.199	38564.83
746.538	38485.51
746.877	38614.32
747.216	38461.56
747.556	38297.04
747.895	38316.48
748.234	38099.76
748.573	38074.45
748.911	38072.64
749.25	38123.94
749.589	37934.34
749.928	38020.67
750.267	38090.95
750.605	37922.36
750.944	37859.77
751.283	37763.05
751.621	37826.55
751.96	37601.69
752.298	37525.09
752.636	37608.25
752.975	37543.17
753.313	37324.64
753.651	37478.76
753.989	37283.51
754.327	37209.84
754.666	37132.55
755.004	37039.22
755.342	37161.71
755.679	37014.59
756.017	36747.93
756.355	36940.47
756.693	36650.76
757.031	36726.01
757.368	36653.25
757.706	36532.57
758.044	36461.84
758.381	36397.88
758.719	36346.59
759.056	36273.14
759.394	36226.59
