Data from orange_diffuse_book_FLMS001491_00042.txt Node
Date: Wed Feb 08 15:29:37 GMT 2017
User: dcchb
Spectrometer: FLMS00149
Trigger mode: 0
Integration Time (sec): 2.000000E-2
Scans to average: 10
Electric dark correction enabled: true
Nonlinearity correction enabled: false
Boxcar width: 0
XAxis mode: Wavelengths
Number of Pixels in Spectrum: 2048
>>>>>Begin Spectral Data<<<<<
341.393	-1.78
341.776	-1.78
342.16	-1.78
342.543	-65.28
342.927	-52.17
343.31	-71.83
343.693	-91.04
344.077	-44.49
344.46	-42.68
344.843	-71.38
345.226	-47.65
345.61	-22.12
345.993	-17.82
346.376	-22.34
346.759	-0.88
347.142	31.89
347.525	21.04
347.908	45.45
348.291	85.68
348.674	117.99
349.057	130.19
349.44	135.84
349.823	125.9
350.206	158.67
350.588	210.19
350.971	232.79
351.354	225.11
351.737	232.11
352.119	258.33
352.502	265.11
352.884	284.31
353.267	288.38
353.65	310.3
354.032	306.01
354.414	314.6
354.797	345.56
355.179	322.51
355.562	344.2
355.944	342.39
356.326	336.29
356.709	362.28
357.091	351.66
357.473	363.41
357.855	356.86
358.238	375.61
358.62	344.2
359.002	343.07
359.384	365.22
359.766	356.86
360.148	358.44
360.53	352.56
360.912	343.07
361.294	327.7
361.676	326.35
362.057	338.32
362.439	350.98
362.821	345.56
363.203	322.51
363.584	336.29
363.966	330.42
364.348	338.78
364.729	325.44
365.111	330.64
365.493	337.19
365.874	335.16
366.256	325.67
366.637	322.96
367.019	313.24
367.4	343.07
367.781	313.01
368.163	327.03
368.544	328.38
368.925	337.42
369.306	338.1
369.688	350.98
370.069	330.19
370.45	334.03
370.831	334.93
371.212	309.17
371.593	317.53
371.974	319.12
372.355	326.35
372.736	336.97
373.117	334.71
373.498	342.62
373.879	354.37
374.26	313.69
374.641	309.85
375.021	332.22
375.402	329.51
375.783	320.02
376.163	357.76
376.544	333.13
376.925	333.13
377.305	330.19
377.686	364.76
378.066	348.27
378.447	373.58
378.827	352.34
379.208	362.5
379.588	329.06
379.968	333.58
380.349	344.2
380.729	352.34
381.109	345.56
381.489	338.55
381.87	353.24
382.25	353.47
382.63	343.97
383.01	368.38
383.39	356.86
383.77	350.53
384.15	356.18
384.53	357.98
384.91	349.17
385.29	351.43
385.67	349.62
386.049	342.84
386.429	363.41
386.809	355.95
387.189	370.64
387.568	348.04
387.948	362.96
388.328	356.18
388.707	386.01
389.087	381.04
389.466	369.74
389.846	357.98
390.225	372.22
390.605	362.5
390.984	367.25
391.363	363.86
391.743	395.05
392.122	383.75
392.501	379
392.881	375.61
393.26	364.09
393.639	390.98
394.018	383.3
394.397	397.98
394.776	385.1
395.155	399.34
395.534	390.53
395.913	403.86
396.292	394.59
396.671	390.75
397.05	396.63
397.429	410.19
397.808	404.76
398.186	397.53
398.565	397.76
398.944	393.46
399.323	403.63
399.701	414.03
400.08	403.41
400.458	410.41
400.837	428.94
401.215	395.27
401.594	430.75
401.972	419
402.351	423.75
402.729	421.49
403.107	415.61
403.486	461.49
403.864	424.42
404.242	427.59
404.62	437.98
404.999	429.4
405.377	432.79
405.755	425.78
406.133	454.93
406.511	446.34
406.889	426.23
407.267	454.03
407.645	468.72
408.023	438.66
408.401	448.6
408.779	455.84
409.156	460.81
409.534	446.34
409.912	460.36
410.29	474.82
410.667	464.42
411.045	494.03
411.422	473.69
411.8	467.36
412.178	484.08
412.555	490.86
412.933	494.7
413.31	507.81
413.687	477.76
414.065	515.95
414.442	504.42
414.819	499.22
415.197	491.09
415.574	491.09
415.951	511.65
416.328	525.66
416.705	527.7
417.082	508.04
417.46	510.07
417.837	510.52
418.214	537.19
418.591	556.17
418.967	541.71
419.344	555.49
419.721	560.01
420.098	528.83
420.475	547.58
420.852	556.62
421.228	579.45
421.605	574.93
421.982	565.66
422.358	566.57
422.735	572.22
423.111	590.3
423.488	577.41
423.864	571.76
424.241	611.99
424.617	592.1
424.994	580.13
425.37	585.55
425.746	607.92
426.123	624.87
426.499	605.66
426.875	611.76
427.251	610.41
427.627	622.84
428.003	625.1
428.379	641.82
428.756	643.63
429.132	638.2
429.507	652.89
429.883	611.99
430.259	660.12
430.635	629.62
431.011	651.99
431.387	659.45
431.763	667.36
432.138	704.87
432.514	679.11
432.89	689.28
433.265	700.57
433.641	701.03
434.016	727.01
434.392	734.7
434.767	748.94
435.143	728.14
435.518	720.24
435.894	743.29
436.269	730.4
436.644	736.28
437.02	751.42
437.395	774.92
437.77	767.01
438.145	780.35
438.52	778.76
438.895	776.51
439.271	791.87
439.646	797.3
440.021	789.61
440.395	806.11
440.77	796.39
441.145	825.32
441.52	828.93
441.895	810.4
442.27	840.23
442.645	833.9
443.019	848.14
443.394	801.82
443.769	851.76
444.143	861.93
444.518	845.88
444.892	855.6
445.267	883.39
445.641	851.08
446.016	856.73
446.39	846.33
446.764	876.39
447.139	860.8
447.513	857.41
447.887	890.63
448.262	897.86
448.636	890.4
449.01	885.2
449.384	887.46
449.758	883.62
450.132	913.68
450.506	905.09
450.88	932.66
451.254	893.11
451.628	929.5
452.002	919.78
452.376	951.42
452.75	969.49
453.123	926.11
453.497	956.84
453.871	976.73
454.244	989.38
454.618	972.43
454.992	976.5
455.365	984.64
455.739	1015.59
456.112	1007.01
456.486	1009.04
456.859	1011.75
457.232	1051.98
457.606	1045.65
457.979	1037.52
458.352	1055.14
458.725	1068.7
459.099	1068.47
459.472	1091.07
459.845	1076.84
460.218	1079.32
460.591	1077.29
460.964	1107.34
461.337	1120.22
461.71	1113.45
462.083	1132.88
462.456	1143.73
462.829	1159.77
463.201	1183.73
463.574	1191.86
463.947	1187.34
464.32	1200.9
464.692	1193.44
465.065	1191.41
465.438	1226.21
465.81	1227.34
466.183	1237.74
466.555	1261.69
466.928	1288.81
467.3	1266.44
467.672	1298.07
468.045	1281.58
468.417	1295.14
468.789	1313.89
469.161	1325.64
469.534	1342.37
469.906	1326.77
470.278	1378.52
470.65	1400.44
471.022	1391.18
471.394	1416.04
471.766	1421.01
472.138	1441.57
472.51	1451.97
472.882	1478.41
473.253	1490.38
473.625	1471.85
473.997	1511.63
474.369	1514.11
474.74	1558.86
475.112	1566.77
475.484	1572.42
475.855	1639.31
476.227	1619.65
476.598	1649.7
476.97	1657.16
477.341	1650.61
477.713	1723.37
478.084	1734.22
478.455	1771.96
478.827	1801.11
479.198	1834.1
479.569	1835.69
479.94	1855.8
480.311	1839.08
480.682	1959.75
481.053	1936.93
481.424	1963.59
481.795	1945.97
482.166	2018.51
482.537	2017.15
482.908	2075
483.279	2099.63
483.65	2133.08
484.021	2137.15
484.391	2154.32
484.762	2206.75
485.133	2221.89
485.503	2234.55
485.874	2288.1
486.244	2306.86
486.615	2340.31
486.985	2378.95
487.356	2450.36
487.726	2454.43
488.097	2486.06
488.467	2526.74
488.837	2557.25
489.207	2611.49
489.578	2672.95
489.948	2663.01
490.318	2696.45
490.688	2731.71
491.058	2777.36
491.428	2815.77
491.798	2823.91
492.168	2907.97
492.538	2893.29
492.908	2946.17
493.278	2985.71
493.648	2980.74
494.017	3050.12
494.387	3041.53
494.757	3111.58
495.126	3120.17
495.496	3199.94
495.866	3189.1
496.235	3241.3
496.605	3278.36
496.974	3309.77
497.344	3342.31
497.713	3322.43
498.082	3405.81
498.452	3411.24
498.821	3426.6
499.19	3472.71
499.559	3526.49
499.928	3564.45
500.298	3545.47
500.667	3607.62
501.036	3575.98
501.405	3642.64
501.774	3690.78
502.143	3726.26
502.512	3755.41
502.88	3768.97
503.249	3778.69
503.618	3825.01
503.987	3830.89
504.356	3911.56
504.724	3875.18
505.093	3901.17
505.462	3942.07
505.83	4008.51
506.199	4030.2
506.567	4080.37
506.936	4104.33
507.304	4138.45
507.672	4125.34
508.041	4196.75
508.409	4217.09
508.777	4281.95
509.145	4253.93
509.514	4269.07
509.882	4305.68
510.25	4310.42
510.618	4385.9
510.986	4364.43
511.354	4469.74
511.722	4441.72
512.09	4507.71
512.458	4490.53
512.826	4570.08
513.193	4560.36
513.561	4565.78
513.929	4632.9
514.297	4675.61
514.664	4687.14
515.032	4706.12
515.4	4799
515.767	4839.22
516.135	4848.26
516.502	4813.24
516.869	4884.87
517.237	4896.62
517.604	4884.65
517.972	4999.67
518.339	5013.91
518.706	5013.23
519.073	5051.87
519.44	5152.44
519.808	5154.69
520.175	5132.77
520.542	5161.25
520.909	5232.66
521.276	5231.98
521.643	5272.21
522.009	5352.88
522.376	5398.98
522.743	5431.3
523.11	5453.67
523.477	5535.48
523.843	5533.89
524.21	5603.04
524.577	5674
524.943	5719.43
525.31	5709.03
525.676	5792.64
526.043	5774.57
526.409	5834.9
526.776	5833.55
527.142	5861.12
527.508	5929.82
527.874	5975.69
528.241	6002.81
528.607	5951.51
528.973	6083.94
529.339	6026.54
529.705	6116.03
530.071	6104.05
530.437	6164.84
530.803	6173.65
531.169	6260.43
531.535	6259.07
531.901	6281.67
532.267	6319.86
532.632	6384.04
532.998	6401.22
533.364	6412.06
533.73	6424.72
534.095	6434.44
534.461	6519.18
534.826	6517.82
535.192	6557.6
535.557	6588.56
535.923	6600.98
536.288	6652.96
536.653	6679.4
537.019	6670.14
537.384	6691.83
537.749	6720.08
538.114	6730.7
538.479	6772.05
538.845	6831.04
539.21	6893.18
539.575	6888.89
539.94	6870.13
540.305	6972.95
540.67	6966.17
541.034	6963.91
541.399	7024.25
541.764	7016.11
542.129	7091.82
542.494	7107.86
542.858	7120.07
543.223	7218.82
543.587	7185.38
543.952	7219.05
544.316	7299.5
544.681	7279.61
545.045	7268.31
545.41	7327.52
545.774	7357.8
546.138	7360.06
546.503	7458.82
546.867	7468.31
547.231	7540.17
547.595	7566.38
547.959	7589.89
548.324	7551.92
548.688	7593.27
549.052	7746.27
549.416	7722.76
549.779	7807.73
550.143	7808.86
550.507	7817.9
550.871	7859.93
551.235	7878.01
551.599	7991.68
551.962	8059.7
552.326	8012.47
552.689	8167.05
553.053	8104.9
553.417	8097.67
553.78	8280.26
554.143	8214.28
554.507	8335.63
554.87	8318.45
555.234	8452.69
555.597	8400.49
555.96	8491.33
556.323	8612.01
556.686	8526.81
557.05	8652.68
557.413	8663.08
557.776	8756.86
558.139	8834.6
558.502	8877.99
558.865	8957.53
559.228	9002.05
559.59	9047.02
559.953	9053.12
560.316	9194.81
560.679	9319.78
561.041	9374.02
561.404	9418.99
561.767	9440.68
562.129	9461.7
562.492	9665.31
562.854	9697.4
563.217	9687.46
563.579	9811.75
563.941	9903.95
564.304	10002.03
564.666	10120.44
565.028	10115.24
565.39	10203.83
565.753	10423.03
566.115	10462.13
566.477	10563.82
566.839	10638.17
567.201	10788.45
567.563	10873.19
567.925	10951.15
568.287	11021.21
568.648	11185.27
569.01	11335.1
569.372	11433.17
569.734	11429.33
570.095	11706.61
570.457	11801.53
570.819	11946.61
571.18	12000.62
571.542	12221.85
571.903	12349.31
572.265	12519.25
572.626	12623.2
572.987	12767.15
573.349	12919.91
573.71	13127.82
574.071	13326.68
574.432	13442.84
574.794	13776.62
575.155	13855.71
575.516	14114.46
575.877	14293.44
576.238	14410.72
576.599	14757.15
576.96	14912.18
577.32	15113.3
577.681	15405.05
578.042	15584.48
578.403	15836.22
578.763	16092.71
579.124	16354.85
579.485	16595.98
579.845	16999.58
580.206	17082.06
580.566	17456.07
580.927	17722.05
581.287	18075.03
581.648	18266.67
582.008	18735.13
582.368	18989.59
582.728	19233.42
583.089	19623.47
583.449	19920.18
583.809	20251.25
584.169	20649.2
584.529	20880.61
584.889	21435.62
585.249	21559.69
585.609	21973.69
585.969	22605.99
586.329	22840.56
586.688	23188.12
587.048	23579.07
587.408	23956.69
587.768	24324.81
588.127	24617.46
588.487	25015.19
588.846	25549.64
589.206	25867.14
589.565	26380.35
589.925	26774.47
590.284	27242.25
590.643	27628.45
591.003	28097.37
591.362	28594.3
591.721	29018.25
592.08	29353.83
592.44	29923.99
592.799	30451.66
593.158	30767.13
593.517	31260.22
593.876	31749.25
594.235	32082.12
594.593	32460.87
594.952	33085.94
595.311	33400.73
595.67	34000.72
596.029	34472.34
596.387	34910.07
596.746	35363.84
597.104	35633.67
597.463	36026.2
597.822	36785.73
598.18	36928.77
598.538	37444.92
598.897	37948.18
599.255	38030.67
599.613	38957.87
599.972	39023.86
600.33	39728.02
600.688	39722.37
601.046	40451.17
601.404	40792.63
601.762	41161.21
602.12	41669.44
602.478	41874.18
602.836	42595.52
603.194	42595.97
603.552	43009.29
603.91	43206.58
604.268	43809.05
604.625	43875.26
604.983	44436.37
605.341	44627.56
605.698	45213.53
606.056	45436.12
606.413	45638.38
606.771	46038.37
607.128	46279.26
607.485	46425.02
607.843	46595.64
608.2	47001.28
608.557	47455.96
608.914	47620.7
609.272	48005.09
609.629	48232.88
609.986	48560.56
610.343	48482.14
610.7	48859.76
611.057	48947.67
611.414	49175.23
611.771	49467.43
612.127	49613.86
612.484	49735.44
612.841	50049.11
613.198	49939.73
613.554	50141.76
613.911	50475.31
614.267	50601.18
614.624	50605.93
614.98	50902.64
615.337	51190.55
615.693	51102.19
616.05	51182.41
616.406	51467.83
616.762	51480.48
617.118	51517.54
617.475	51601.16
617.831	51766.8
618.187	51917.31
618.543	51998.44
618.899	52159.11
619.255	52281.14
619.611	52230.07
619.967	52492.89
620.323	52546.44
620.678	52418.76
621.034	52370.4
621.39	52454.02
621.746	52482.04
622.101	52892.65
622.457	52708.92
622.812	52830.73
623.168	52981.91
623.523	53051.51
623.879	53116.15
624.234	53036.37
624.589	53103.49
624.945	53153.88
625.3	53266.65
625.655	53236.14
626.01	53279.98
626.365	53269.81
626.72	53306.42
627.075	53350.72
627.43	53344.61
627.785	53270.49
628.14	53437.95
628.495	53416.93
628.85	53454.22
629.205	53423.26
629.559	53621.9
629.914	53403.82
630.269	53479.53
630.623	53519.52
630.978	53440.43
631.332	53544.16
631.687	53579.18
632.041	53515.01
632.396	53514.33
632.75	53509.13
633.104	53489.24
633.459	53372.64
633.813	53445.63
634.167	53405.4
634.521	53382.13
634.875	53423.71
635.229	53446.76
635.583	53446.76
635.937	53391.39
636.291	53386.87
636.645	53456.7
636.999	53304.39
637.352	53460.32
637.706	53306.2
638.06	53383.48
638.413	53332.86
638.767	53259.87
639.121	53233.66
639.474	53143.26
639.828	53173.55
640.181	53244.96
640.534	53303.71
640.888	53133.32
641.241	53025.53
641.594	53125.86
641.947	53221.23
642.301	53103.94
642.654	53200.44
643.007	53203.6
643.36	53069.14
643.713	53162.92
644.066	53198.18
644.419	52933.1
644.771	52732.2
645.124	52506.67
645.477	52528.59
645.83	52340.12
646.182	52151.2
646.535	52153.69
646.888	52370.18
647.24	52127.02
647.593	52322.04
647.945	52099.22
648.298	52061.26
648.65	51896.74
649.002	51960.7
649.355	52065.55
649.707	51946.68
650.059	52139.22
650.411	52442.72
650.763	52531.3
651.115	52824.63
651.467	52741.01
651.819	52787.11
652.171	52611.75
652.523	52680.45
652.875	52654.24
653.227	52548.48
653.578	52786.89
653.93	52663.95
654.282	52573.56
654.633	52547.8
654.985	52599.32
655.337	52564.97
655.688	52545.09
656.039	52670.73
656.391	52415.15
656.742	52530.17
657.094	52468.71
657.445	52668.93
657.796	52571.08
658.147	52529.27
658.498	52516.16
658.849	52621.02
659.2	52510.06
659.551	52466.67
659.902	52554.8
660.253	52533.11
660.604	52550.28
660.955	52333.79
661.306	52506.22
661.656	52427.58
662.007	52446.56
662.358	52410.18
662.708	52509.61
663.059	52376.73
663.409	52266.9
663.76	52536.73
664.11	52524.75
664.461	52471.19
664.811	52482.49
665.161	52392.77
665.511	52334.92
665.862	52315.71
666.212	52386.67
666.562	52446.11
666.912	52371.53
667.262	52314.13
667.612	52288.82
667.962	52302.16
668.312	52254.25
668.662	52506.44
669.011	52296.51
669.361	52278.43
669.711	52161.82
670.06	52237.75
670.41	52150.52
670.76	52108.94
671.109	52167.92
671.459	52082.95
671.808	52027.59
672.157	52069.39
672.507	51905.33
672.856	51937.87
673.205	52022.62
673.554	52050.86
673.904	51971.09
674.253	52102.39
674.602	51988.27
674.951	51555.73
675.3	51283.43
675.649	51773.13
675.998	51847.7
676.346	51837.31
676.695	51943.97
677.044	51721.15
677.393	51747.37
677.741	51779.68
678.09	51626.47
678.438	51621.5
678.787	51714.83
679.135	51652
679.484	51502.63
679.832	51635.05
680.181	51395.51
680.529	51504.21
680.877	51398.9
681.225	51489.97
681.573	51597.77
681.922	51356.42
682.27	51214.5
682.618	51278
682.966	51190.77
683.314	51227.38
683.661	51065.58
684.009	50918.01
684.357	50835.53
684.705	50916.88
685.053	50854.51
685.4	50899.03
685.748	50601.18
686.095	50534.29
686.443	50468.31
686.79	50505.37
687.138	50644.35
687.485	50531.13
687.832	50358.93
688.18	50457.46
688.527	50263.11
688.874	50122.78
689.221	50031.93
689.568	50067.64
689.915	49908.32
690.262	49945.83
690.609	49871.26
690.956	49647.08
691.303	49711.94
691.65	49484.38
691.997	49406.41
692.344	49224.72
692.69	49201.9
693.037	49229.92
693.383	48885.97
693.73	49041.9
694.077	48805.3
694.423	48874.9
694.769	48872.87
695.116	48754.68
695.462	48625.87
695.808	48494.12
696.155	48528.24
696.501	48282.15
696.847	48279.89
697.193	48047.13
697.539	48166.45
697.885	47825.66
698.231	47804.42
698.577	47735.04
698.923	47535.95
699.269	47288.05
699.614	47276.98
699.96	47266.36
700.306	47274.94
700.651	46900.04
700.997	46796.09
701.342	46714.96
701.688	46745.01
702.033	46658.69
702.379	46568.97
702.724	46458.24
703.069	46498.47
703.415	46003.11
703.76	46079.95
704.105	46085.14
704.45	46039.72
704.795	45702.78
705.14	45671.82
705.485	45717.92
705.83	45538.04
706.175	45585.27
706.52	45361.77
706.865	45225.05
707.209	45135.56
707.554	45123.81
707.899	45044.04
708.243	44766.53
708.588	44780.77
708.932	44420.33
709.277	44357.96
709.621	44536.48
709.966	44199.77
710.31	44323.83
710.654	43928.36
710.998	44107.57
711.342	44169.04
711.687	43921.59
712.031	43781.7
712.375	43451.54
712.719	43789.16
713.063	43713
713.407	43671.2
713.75	43554.59
714.094	43392.11
714.438	43237.31
714.782	43238.89
715.125	43104.88
715.469	43164.09
715.812	43044.32
716.156	42834.83
716.499	42737.21
716.843	42899.47
717.186	42594.61
717.53	42738.57
717.873	43009.07
718.216	42745.12
718.559	42485.92
718.902	42142.2
719.246	42386.48
719.589	42223.32
719.932	42058.13
720.275	42081.86
720.617	42105.81
720.96	42002.77
721.303	41939.49
721.646	41944.91
721.989	41731.59
722.331	41835.76
722.674	41816.78
723.016	41676.45
723.359	41626.96
723.701	41618.37
724.044	41246.85
724.386	41188.1
724.729	41431.26
725.071	41361.88
725.413	41293.41
725.755	41267.87
726.097	41106.07
726.439	40934.32
726.782	40887.54
727.124	41098.83
727.465	40936.13
727.807	40774.78
728.149	40824.94
728.491	40728.9
728.833	40814.55
729.175	40785.62
729.516	40676.7
729.858	40559.87
730.199	40656.13
730.541	40420.89
730.882	40465.63
731.224	40537.04
731.565	40296.82
731.906	40420.43
732.248	40394.67
732.589	40207.33
732.93	40107.67
733.271	40201.01
733.612	40091.4
733.953	40178.41
734.294	39994.46
734.635	39917.85
734.976	39997.85
735.317	39715.14
735.658	39789.94
735.999	39766.67
736.339	39644.86
736.68	39775.93
737.021	39673.11
737.361	39444.41
737.702	39727.35
738.042	39561.7
738.383	39388.82
738.723	39533.9
739.063	39327.36
739.404	39372.78
739.744	39314.47
740.084	39341.59
740.424	39326.68
740.764	39211.2
741.104	39330.07
741.444	39102.28
741.784	38938.89
742.124	39121.03
742.464	39053.92
742.804	38888.72
743.143	38868.38
743.483	38945.44
743.823	38693.7
744.162	38685.79
744.502	38768.95
744.841	38532.8
745.181	38773.7
745.52	38504.33
745.86	38679.01
746.199	38480.6
746.538	38516.08
746.877	38520.15
747.216	38624.55
747.556	38159.48
747.895	38312.47
748.234	38057.78
748.573	38027.95
748.911	38093.04
749.25	37923.1
749.589	38011.68
749.928	37987.05
750.267	38151.57
750.605	37907.05
750.944	37820.28
751.283	37695.76
751.621	37797.68
751.96	37631.13
752.298	37548.65
752.636	37516.33
752.975	37338.26
753.313	37392.04
753.651	37431.36
753.989	37227.3
754.327	37251.93
754.666	37117.7
755.004	36977.81
755.342	37119.96
755.679	37051.48
756.017	36740.08
756.355	36914.76
756.693	36614.43
757.031	36918.15
757.368	36444.27
757.706	36451.95
758.044	36282.92
758.381	36523.59
758.719	36218.28
759.056	36270.04
759.394	36133.32
