Data from orange_diffuse_book_FLMS001491_00023.txt Node
Date: Wed Feb 08 15:29:19 GMT 2017
User: dcchb
Spectrometer: FLMS00149
Trigger mode: 0
Integration Time (sec): 2.000000E-2
Scans to average: 10
Electric dark correction enabled: true
Nonlinearity correction enabled: false
Boxcar width: 0
XAxis mode: Wavelengths
Number of Pixels in Spectrum: 2048
>>>>>Begin Spectral Data<<<<<
341.393	-1.14
341.776	-1.14
342.16	-1.14
342.543	-52.44
342.927	-65.78
343.31	-49.96
343.693	-75.49
344.077	-63.74
344.46	-55.15
344.843	-58.09
345.226	-42.05
345.61	-29.84
345.993	-31.2
346.376	-22.39
346.759	2.25
347.142	35.01
347.525	46.09
347.908	48.8
348.291	69.59
348.674	101.23
349.057	124.95
349.44	119.53
349.823	152.98
350.206	168.34
350.588	201.34
350.971	239.3
351.354	247.21
351.737	250.6
352.119	285.63
352.502	260.09
352.884	269.13
353.267	277.72
353.65	300.09
354.032	307.32
354.414	322.92
354.797	351.39
355.179	344.38
355.562	349.58
355.944	337.38
356.326	350.71
356.709	345.51
357.091	349.36
357.473	357.26
357.855	364.95
358.238	367.21
358.62	354.78
359.002	369.69
359.384	355.23
359.766	367.21
360.148	361.56
360.53	341.45
360.912	342.8
361.294	355.23
361.676	361.78
362.057	347.77
362.439	325.63
362.821	339.41
363.203	325.63
363.584	341.22
363.966	329.92
364.348	321.33
364.729	344.38
365.111	330.82
365.493	320.2
365.874	334.21
366.256	344.38
366.637	345.97
367.019	335.12
367.4	331.05
367.781	330.15
368.163	324.27
368.544	343.03
368.925	339.19
369.306	341.67
369.688	328.56
370.069	341.22
370.45	323.59
370.831	322.92
371.212	328.34
371.593	334.44
371.974	325.18
372.355	316.36
372.736	321.11
373.117	335.34
373.498	303.25
373.879	308.9
374.26	357.26
374.641	321.33
375.021	323.14
375.402	343.48
375.783	349.13
376.163	335.34
376.544	335.34
376.925	360.88
377.305	321.79
377.686	345.06
378.066	325.4
378.447	349.58
378.827	360.2
379.208	346.87
379.588	337.83
379.968	326.3
380.349	347.55
380.729	337.38
381.109	321.56
381.489	356.36
381.87	339.41
382.25	358.39
382.63	335.12
383.01	353.87
383.39	359.98
383.77	370.37
384.15	366.76
384.53	364.72
384.91	384.61
385.29	367.43
385.67	361.56
386.049	383.93
386.429	379.86
386.809	385.29
387.189	366.76
387.568	351.39
387.948	364.27
388.328	375.57
388.707	377.15
389.087	391.39
389.466	381.22
389.846	373.08
390.225	374.44
390.605	399.75
390.984	392.74
391.363	402.69
391.743	399.75
392.122	367.43
392.501	393.87
392.881	392.07
393.26	397.04
393.639	401.56
394.018	388.68
394.397	382.12
394.776	398.85
395.155	403.82
395.534	382.8
395.913	409.92
396.292	406.98
396.671	407.43
397.05	412.18
397.429	425.29
397.808	430.03
398.186	425.74
398.565	412.4
398.944	418.05
399.323	404.72
399.701	397.04
400.08	432.52
400.458	432.52
400.837	418.73
401.215	442.46
401.594	408.34
401.972	413.08
402.351	426.87
402.729	446.98
403.107	422.57
403.486	424.16
403.864	427.77
404.242	428.22
404.62	432.06
404.999	446.75
405.377	447.88
405.755	433.19
406.133	476.81
406.511	448.34
406.889	455.34
407.267	463.48
407.645	472.06
408.023	452.86
408.401	448.79
408.779	468.45
409.156	483.59
409.534	462.35
409.912	475.23
410.29	485.62
410.667	484.72
411.045	491.5
411.422	474.55
411.8	498.05
412.178	488.33
412.555	489.69
412.933	486.07
413.31	503.02
413.687	501.44
414.065	515.9
414.442	524.04
414.819	512.06
415.197	524.72
415.574	520.88
415.951	538.5
416.328	519.97
416.705	529.46
417.082	530.59
417.46	526.07
417.837	548.22
418.214	540.99
418.591	543.47
418.967	547.54
419.344	566.75
419.721	570.59
420.098	551.61
420.475	587.99
420.852	577.37
421.228	593.19
421.605	557.03
421.982	585.73
422.358	571.72
422.735	599.52
423.111	584.15
423.488	576.02
423.864	595.22
424.241	602.68
424.617	622.57
424.994	592.96
425.37	593.64
425.746	609.46
426.123	606.3
426.499	614.66
426.875	627.09
427.251	642.45
427.627	641.32
428.003	643.58
428.379	629.12
428.756	671.61
429.132	661.21
429.507	669.35
429.883	665.96
430.259	663.25
430.635	670.02
431.011	675.22
431.387	696.24
431.763	671.83
432.138	706.18
432.514	722.23
432.89	711.83
433.265	732.62
433.641	712.74
434.016	711.83
434.392	723.81
434.767	743.7
435.143	726.29
435.518	762.45
435.894	757.48
436.269	766.75
436.644	770.36
437.02	773.3
437.395	805.39
437.77	795.45
438.145	795.67
438.52	816.91
438.895	788.89
439.271	815.11
439.646	832.51
440.021	841.55
440.395	809.23
440.77	822.79
441.145	810.59
441.52	839.51
441.895	837.03
442.27	835.22
442.645	823.69
443.019	845.39
443.394	842
443.769	870.25
444.143	874.77
444.518	861.66
444.892	875.22
445.267	847.87
445.641	892.84
446.016	881.54
446.39	868.89
446.764	877.48
447.139	872.05
447.513	895.33
447.887	920.87
448.262	884.26
448.636	908.89
449.01	914.54
449.384	901.88
449.758	925.61
450.132	942.11
450.506	948.89
450.88	939.62
451.254	911.37
451.628	980.3
452.002	947.76
452.376	970.81
452.75	958.83
453.123	962.22
453.497	943.01
453.871	975.33
454.244	1022.33
454.618	1005.38
454.992	999.28
455.365	1007.42
455.739	1031.6
456.112	1045.38
456.486	1033.18
456.859	1048.09
457.232	1048.09
457.606	1062.56
457.979	1062.1
458.352	1095.1
458.725	1098.26
459.099	1115.89
459.472	1122.67
459.845	1136.91
460.218	1119.96
460.591	1129.22
460.964	1121.99
461.337	1166.06
461.71	1165.38
462.083	1174.42
462.456	1165.6
462.829	1167.86
463.201	1191.82
463.574	1177.36
463.947	1215.77
464.32	1215.77
464.692	1239.73
465.065	1243.12
465.438	1264.59
465.81	1274.53
466.183	1259.61
466.555	1289.9
466.928	1284.47
467.3	1294.42
467.672	1291.7
468.045	1331.7
468.417	1316.56
468.789	1336.22
469.161	1359.5
469.534	1372.15
469.906	1422.77
470.278	1411.47
470.65	1425.03
471.022	1432.94
471.394	1451.47
471.766	1441.76
472.138	1440.85
472.51	1481.98
472.882	1514.97
473.253	1528.76
473.625	1514.97
473.997	1557.46
474.369	1570.34
474.74	1569.66
475.112	1586.38
475.484	1642.43
475.855	1639.72
476.227	1618.25
476.598	1688.98
476.97	1729.88
477.341	1712.71
477.713	1764.91
478.084	1751.58
478.455	1773.95
478.827	1791.13
479.198	1875.87
479.569	1862.76
479.94	1903.21
480.311	1913.83
480.682	1959.03
481.053	1989.09
481.424	1979.82
481.795	2048.29
482.166	2050.55
482.537	2071.34
482.908	2118.35
483.279	2145.47
483.65	2190.89
484.021	2235.41
484.391	2264.56
484.762	2284.67
485.133	2286.25
485.503	2332.13
485.874	2356.08
486.244	2393.14
486.615	2431.33
486.985	2483.54
487.356	2524.21
487.726	2529.41
488.097	2587.49
488.467	2605.57
488.837	2661.16
489.207	2688.28
489.578	2700.93
489.948	2700.71
490.318	2762.85
490.688	2783.42
491.058	2839.69
491.428	2867.71
491.798	2920.36
492.168	2953.13
492.538	2977.31
492.908	3011.21
493.278	3041.94
493.648	3088.04
494.017	3135.27
494.387	3144.08
494.757	3202.84
495.126	3219.34
495.496	3291.65
495.866	3260.47
496.235	3343.17
496.605	3358.99
496.974	3402.61
497.344	3397.41
497.713	3448.93
498.082	3481.25
498.452	3523.96
498.821	3591.98
499.19	3557.63
499.559	3647.35
499.928	3657.29
500.298	3682.6
500.667	3713.11
501.036	3732.77
501.405	3750.62
501.774	3833.11
502.143	3855.48
502.512	3825.42
502.88	3888.25
503.249	3884.18
503.618	3944.51
503.987	3954.91
504.356	3983.16
504.724	4037.39
505.093	4027.68
505.462	4115.13
505.83	4096.15
506.199	4141.8
506.567	4166.66
506.936	4235.58
507.304	4267.44
507.672	4262.02
508.041	4302.47
508.409	4328.23
508.777	4371.17
509.145	4387.22
509.514	4380.21
509.882	4414.56
510.25	4433.54
510.618	4495.01
510.986	4523.71
511.354	4551.5
511.722	4598.51
512.09	4675.34
512.458	4655.23
512.826	4659.98
513.193	4725.29
513.561	4802.12
513.929	4776.36
514.297	4838.5
514.664	4823.36
515.032	4914.43
515.4	4893.87
515.767	4926.41
516.135	5001.44
516.502	4918.5
516.869	5039.18
517.237	5041.44
517.604	5109.46
517.972	5175.89
518.339	5170.7
518.706	5180.87
519.073	5186.06
519.44	5267.19
519.808	5321.88
520.175	5336.12
520.542	5350.58
520.909	5439.84
521.276	5440.52
521.643	5460.18
522.009	5517.81
522.376	5505.15
522.743	5589.9
523.11	5601.42
523.477	5693.17
523.843	5704.69
524.21	5790.79
524.577	5823.79
524.943	5864.46
525.31	5918.25
525.676	5970.68
526.043	5983.33
526.409	5988.98
526.776	6043.22
527.142	6047.51
527.508	6169.09
527.874	6138.13
528.241	6248.41
528.607	6222.87
528.973	6239.37
529.339	6222.2
529.705	6296.54
530.071	6353.94
530.437	6373.15
530.803	6424.22
531.169	6460.38
531.535	6459.93
531.901	6531.79
532.267	6510.1
532.632	6567.5
532.998	6554.16
533.364	6605.46
533.73	6670.54
534.095	6718.91
534.461	6694.27
534.826	6707.38
535.192	6802.97
535.557	6823.54
535.923	6785.8
536.288	6858.34
536.653	6872.12
537.019	6923.65
537.384	6929.07
537.749	6944.44
538.114	6958.22
538.479	6949.86
538.845	7082.06
539.21	7070.76
539.575	7060.14
539.94	7131.1
540.305	7145.11
540.67	7178.1
541.034	7172
541.399	7272.11
541.764	7221.04
542.129	7335.16
542.494	7298.1
542.858	7387.14
543.223	7423.97
543.587	7465.55
543.952	7456.29
544.316	7549.39
544.681	7467.59
545.045	7554.14
545.41	7569.73
545.774	7585.32
546.138	7577.87
546.503	7629.16
546.867	7691.31
547.231	7725.88
547.595	7799.1
547.959	7840.01
548.324	7846.33
548.688	7814.92
549.052	7945.77
549.416	7972.66
549.779	7952.77
550.143	8025.09
550.507	8124.29
550.871	8155.48
551.235	8160
551.599	8198.87
551.962	8266.89
552.326	8263.05
552.689	8349.82
553.053	8370.61
553.417	8407.9
553.78	8478.18
554.143	8500.78
554.507	8582.59
554.87	8583.49
555.234	8708.68
555.597	8658.29
555.96	8752.3
556.323	8884.05
556.686	8889.24
557.05	8976.92
557.413	8978.96
557.776	8987.77
558.139	9076.13
558.502	9145.73
558.865	9137.15
559.228	9329.68
559.59	9350.25
559.953	9458.49
560.316	9464.14
560.679	9548.21
561.041	9728.32
561.404	9750.01
561.767	9857.81
562.129	9872.72
562.492	10065.48
562.854	10014.64
563.217	10109.1
563.579	10138.25
563.941	10260.28
564.304	10366.72
564.666	10429.09
565.028	10517.22
565.39	10680.38
565.753	10740.04
566.115	10854.16
566.477	10952.47
566.839	11043.09
567.201	11219.13
567.563	11238.79
567.925	11399.91
568.287	11530.76
568.648	11660.24
569.01	11727.14
569.372	11970.07
569.734	11933.68
570.095	12220.46
570.457	12298.42
570.819	12502.71
571.18	12481.47
571.542	12698.41
571.903	12817.5
572.265	13041.45
572.626	13211.62
572.987	13314.21
573.349	13568.44
573.71	13766.86
574.071	13955.1
574.432	14147.41
574.794	14406.16
575.155	14598.25
575.516	14719.37
575.877	14890.22
576.238	15126.59
576.599	15422.18
576.96	15619.91
577.32	15945.33
577.681	16088.6
578.042	16415.15
578.403	16638.87
578.763	16905.3
579.124	17208.35
579.485	17553.42
579.845	17850.59
580.206	18129.68
580.566	18365.38
580.927	18762.88
581.287	18966.27
581.648	19229.08
582.008	19732.35
582.368	19982.74
582.728	20233.35
583.089	20602.38
583.449	20928.48
583.809	21404.17
584.169	21795.57
584.529	22034.66
584.889	22700.18
585.249	22960.51
585.609	23281.41
585.969	23816.08
586.329	24221.04
586.688	24522.28
587.048	24863.51
587.408	25385.31
587.768	25733.32
588.127	26151.39
588.487	26701.88
588.846	27219.84
589.206	27465.93
589.565	27921.06
589.925	28486.47
590.284	28777.99
590.643	29372.32
591.003	29838.75
591.362	30418.4
591.721	30781.32
592.08	31284.14
592.44	31712.37
592.799	32238.01
593.158	32640.26
593.517	33151.43
593.876	33730.62
594.235	34110.28
594.593	34566.99
594.952	35176.69
595.311	35503.69
595.67	36022.32
596.029	36631.57
596.387	37233.36
596.746	37659.56
597.104	38037.18
597.463	38425.42
597.822	39091.16
598.18	39313.3
598.538	39590.81
598.897	40317.57
599.255	40352.15
599.613	41327.03
599.972	41568.16
600.33	42134.47
600.688	42322.04
601.046	42839.31
601.404	43325.85
601.762	43627.99
602.12	44314.53
602.478	44580.06
602.836	45023.21
603.194	45212.81
603.552	45687.37
603.91	45813.02
604.268	46315.15
604.625	46614.58
604.983	47061.35
605.341	47066.54
605.698	47627.89
606.056	47947.43
606.413	48177.02
606.771	48544.47
607.128	48816.56
607.485	48858.14
607.843	49090.67
608.2	49602.52
608.557	49842.97
608.914	49995.28
609.272	50272.11
609.629	50459.9
609.986	50770.18
610.343	50811.76
610.7	51190.96
611.057	51357.05
611.414	51416.49
611.771	51567.67
612.127	51805.63
612.484	51945.96
612.841	52185.73
613.198	52068.45
613.554	52293.75
613.911	52607.64
614.267	52656.23
614.624	52767.41
614.98	52901.65
615.337	53191.81
615.693	53197.46
616.05	53310.67
616.406	53521.29
616.762	53471.35
617.118	53632.7
617.475	53669.99
617.831	53883.54
618.187	53874.28
618.543	53998.79
618.899	54227.94
619.255	54273.81
619.611	54206.24
619.967	54366.69
620.323	54500.47
620.678	54446.69
621.034	54383.41
621.39	54544.31
621.746	54500.47
622.101	54868.37
622.457	54709.51
622.812	54777.53
623.168	54907.47
623.523	54907.24
623.879	55038.99
624.234	54938.65
624.589	54976.17
624.945	55066.79
625.3	55073.34
625.655	55158.31
626.01	55238.08
626.365	55174.35
626.72	55219.32
627.075	55252.77
627.43	55235.14
627.785	55276.27
628.14	55357.4
628.495	55436.27
628.85	55360.34
629.205	55288.48
629.559	55527.11
629.914	55398.76
630.269	55452.31
630.623	55296.61
630.978	55324.41
631.332	55438.3
631.687	55554.46
632.041	55353.56
632.396	55509.26
632.75	55349.26
633.104	55484.18
633.459	55283.5
633.813	55299.32
634.167	55370.06
634.521	55344.07
634.875	55408.47
635.229	55447.79
635.583	55204.86
635.937	55318.08
636.291	55263.62
636.645	55186.78
636.999	55201.02
637.352	55325.08
637.706	55142.94
638.06	55339.32
638.413	55217.97
638.767	55137.29
639.121	55159.21
639.474	55036.05
639.828	55080.8
640.181	55145.2
640.534	55188.14
640.888	55053.91
641.241	55018.43
641.594	55034.7
641.947	55215.94
642.301	55045.77
642.654	55093.45
643.007	55070.18
643.36	55098.65
643.713	55015.94
644.066	55127.8
644.419	54944.98
644.771	54737.08
645.124	54455.5
645.477	54432.9
645.83	54284.21
646.182	54233.59
646.535	54211.67
646.888	54274.49
647.24	54146.58
647.593	54322.63
647.945	54206.92
648.298	54032.69
648.65	54033.59
649.002	54046.25
649.355	54103.65
649.707	54037.66
650.059	54100.03
650.411	54482.62
650.763	54613.92
651.115	54903.4
651.467	54807.81
651.819	54773.46
652.171	54690.07
652.523	54650.3
652.875	54629.28
653.227	54570.75
653.578	54704.54
653.93	54694.14
654.282	54609.85
654.633	54536.63
654.985	54564.2
655.337	54619.79
655.688	54528.5
656.039	54667.48
656.391	54452.11
656.742	54538.89
657.094	54562.17
657.445	54622.73
657.796	54561.72
658.147	54458.89
658.498	54492.56
658.849	54576.4
659.2	54483.3
659.551	54391.32
659.902	54537.31
660.253	54515.39
660.604	54502.96
660.955	54421.61
661.306	54518.33
661.656	54452.11
662.007	54444.43
662.358	54430.87
662.708	54500.47
663.059	54477.65
663.409	54269.29
663.76	54450.76
664.11	54434.71
664.461	54489.4
664.811	54413.92
665.161	54453.47
665.511	54384.32
665.862	54383.87
666.212	54451.89
666.562	54549.29
666.912	54469.06
667.262	54373.7
667.612	54398.33
667.962	54355.62
668.312	54279.24
668.662	54433.36
669.011	54338.67
669.361	54271.78
669.711	54328.73
670.06	54138.9
670.41	54207.37
670.76	54143.87
671.109	54294.83
671.459	54196.53
671.808	54046.02
672.157	54219.13
672.507	53967.15
672.856	54022.75
673.205	54069.3
673.554	54191.78
673.904	54020.49
674.253	54237.2
674.602	54050.32
674.951	53634.28
675.3	53434.06
675.649	53989.07
675.998	53952.47
676.346	53959.47
676.695	54018.23
677.044	53750.66
677.393	53847.84
677.741	53868.85
678.09	53742.98
678.438	53769.87
678.787	53847.61
679.135	53787.5
679.484	53594.73
679.832	53671.57
680.181	53546.37
680.529	53659.82
680.877	53540.05
681.225	53568.29
681.573	53719.25
681.922	53479.03
682.27	53408.3
682.618	53357
682.966	53307.51
683.314	53437
683.661	53281.3
684.009	53111.13
684.357	53010.8
684.705	52961.53
685.053	53073.39
685.4	52985.03
685.748	52836.11
686.095	52853.96
686.443	52795.43
686.79	52726.96
687.138	52827.75
687.485	52732.38
687.832	52643.8
688.18	52647.19
688.527	52403.13
688.874	52471.6
689.221	52365.39
689.568	52315.9
689.915	52224.6
690.262	52176.47
690.609	52098.73
690.956	51943.25
691.303	51988
691.65	51833.88
691.997	51787.1
692.344	51587.56
692.69	51633.2
693.037	51633.43
693.383	51431.63
693.73	51525.18
694.077	51241.35
694.423	51279.32
694.769	51101.02
695.116	51135.59
695.462	51004.75
695.808	50938.99
696.155	50965.65
696.501	50661.7
696.847	50622.16
697.193	50421.26
697.539	50576.06
697.885	50292.45
698.231	50244.31
698.577	50125.9
698.923	50097.2
699.269	49968.84
699.614	49811.33
699.96	49823.76
700.306	49771.33
700.651	49561.62
700.997	49378.12
701.342	49344.68
701.688	49186.72
702.033	49239.37
702.379	49093.16
702.724	49097
703.069	48995.53
703.415	48665.6
703.76	48699.72
704.105	48662.66
704.45	48584.92
704.795	48343.35
705.14	48244.37
705.485	48247.98
705.83	48152.62
706.175	48196.23
706.52	47989.23
706.865	47961.44
707.209	47765.06
707.554	47627.66
707.899	47605.51
708.243	47479.19
708.588	47470.83
708.932	47188.35
709.277	47133.89
709.621	47155.81
709.966	46948.13
710.31	46958.53
710.654	46658.87
710.998	46767.57
711.342	46741.81
711.687	46490.29
712.031	46408.94
712.375	46266.57
712.719	46272.89
713.063	46329.39
713.407	46454.36
713.75	46135.95
714.094	46267.47
714.438	46070.19
714.782	45930.98
715.125	45780.93
715.469	45924.88
715.812	45625.68
716.156	45666.58
716.499	45534.61
716.843	45511.56
717.186	45289.64
717.53	45519.92
717.873	45422.07
718.216	45250.55
718.559	45136.2
718.902	44921.97
719.246	45005.36
719.589	44885.36
719.932	44711.8
720.275	44802.88
720.617	44744.57
720.96	44620.51
721.303	44558.81
721.646	44597.23
721.989	44284.47
722.331	44452.83
722.674	44414.86
723.016	44457.35
723.359	44284.7
723.701	44333.74
724.044	43978.72
724.386	43751.38
724.729	44147.98
725.071	43958.83
725.413	43962.22
725.755	43852.62
726.097	43698.27
726.439	43568.78
726.782	43624.38
727.124	43755.67
727.465	43525.62
727.807	43633.64
728.149	43399.75
728.491	43367.89
728.833	43464.61
729.175	43384.16
729.516	43215.35
729.858	43289.92
730.199	43252.86
730.541	43256.02
730.882	43042.92
731.224	43264.16
731.565	42883.83
731.906	42964.73
732.248	43136.93
732.589	42911.85
732.93	42691.97
733.271	42743.95
733.612	42714.12
733.953	42654.91
734.294	42501.02
734.635	42370.4
734.976	42581.24
735.317	42381.47
735.658	42343.51
735.999	42392.09
736.339	42306.22
736.68	42369.27
737.021	42266.22
737.361	42094.02
737.702	42280.23
738.042	42218.54
738.383	42036.17
738.723	42141.7
739.063	41967.47
739.404	42078.88
739.744	41962.95
740.084	41859.68
740.424	41850.86
740.764	41626.24
741.104	41840.47
741.444	41723.18
741.784	41608.16
742.124	41647.48
742.464	41685.22
742.804	41466.69
743.143	41383.08
743.483	41486.58
743.823	41351.89
744.162	41308.73
744.502	41407.94
744.841	41157.1
745.181	41510.31
745.52	41309.86
745.86	41208.39
746.199	41157.55
746.538	41000.72
746.877	41276.41
747.216	41108.28
747.556	40922.98
747.895	41002.52
748.234	40856.76
748.573	40788.74
748.911	40748.07
749.25	40753.26
749.589	40536.77
749.928	40644.34
750.267	40661.06
750.605	40518.24
750.944	40281.19
751.283	40207.29
751.621	40422.2
751.96	40210
752.298	40157.57
752.636	40189.66
752.975	39890.91
753.313	39753.74
753.651	40088.65
753.989	39779.73
754.327	39694.54
754.666	39417.71
755.004	39548.78
755.342	39641.43
755.679	39523.24
756.017	39290.25
756.355	39505.84
756.693	39295.68
757.031	39294.55
757.368	39023.37
757.706	38998.28
758.044	38876.25
758.381	38972.75
758.719	38899.3
759.056	38807.78
