Data from orange_diffuse_book_FLMS001491_00082.txt Node
Date: Wed Feb 08 15:30:09 GMT 2017
User: dcchb
Spectrometer: FLMS00149
Trigger mode: 0
Integration Time (sec): 2.000000E-2
Scans to average: 10
Electric dark correction enabled: true
Nonlinearity correction enabled: false
Boxcar width: 0
XAxis mode: Wavelengths
Number of Pixels in Spectrum: 2048
>>>>>Begin Spectral Data<<<<<
341.393	-8.88
341.776	-8.88
342.16	-8.88
342.543	-63.57
342.927	-60.63
343.31	-77.58
343.693	-57.24
344.077	-75.1
344.46	-72.39
344.843	-53.4
345.226	-50.46
345.61	-9.11
345.993	-12.95
346.376	-21.99
346.759	10.1
347.142	11.23
347.525	40.15
347.908	53.26
348.291	106.59
348.674	107.5
349.057	101.4
349.44	137.33
349.823	144.78
350.206	172.58
350.588	195.63
350.971	215.06
351.354	248.28
351.737	269.07
352.119	264.78
352.502	271.11
352.884	279.02
353.267	280.37
353.65	305.23
354.032	313.14
354.414	333.25
354.797	316.31
355.179	336.42
355.562	340.94
355.944	342.29
356.326	335.97
356.709	374.61
357.091	333.03
357.473	360.37
357.855	344.78
358.238	342.29
358.62	341.84
359.002	333.93
359.384	336.42
359.766	327.83
360.148	343.65
360.53	344.78
360.912	335.51
361.294	346.13
361.676	325.57
362.057	336.87
362.439	349.52
362.821	331.67
363.203	330.99
363.584	347.72
363.966	343.88
364.348	344.1
364.729	321.28
365.111	339.58
365.493	330.99
365.874	333.48
366.256	331.22
366.637	337.32
367.019	305.46
367.4	326.7
367.781	314.5
368.163	323.08
368.544	347.72
368.925	337.77
369.306	326.7
369.688	316.98
370.069	310.66
370.45	336.64
370.831	333.71
371.212	329.19
371.593	335.29
371.974	334.38
372.355	307.72
372.736	324.89
373.117	348.17
373.498	313.82
373.879	306.36
374.26	329.86
374.641	323.76
375.021	347.49
375.402	314.05
375.783	338.9
376.163	330.54
376.544	332.12
376.925	349.07
377.305	331.45
377.686	329.86
378.066	330.32
378.447	344.33
378.827	338.9
379.208	358.79
379.588	354.27
379.968	317.21
380.349	342.29
380.729	359.92
381.109	328.96
381.489	358.11
381.87	368.06
382.25	330.77
382.63	349.07
383.01	353.82
383.39	348.85
383.77	349.3
384.15	361.28
384.53	352.24
384.91	370.09
385.29	346.36
385.67	349.3
386.049	360.6
386.429	368.96
386.809	361.28
387.189	361.5
387.568	374.16
387.948	361.05
388.328	361.5
388.707	368.06
389.087	377.09
389.466	355.17
389.846	370.09
390.225	378.22
390.605	371.9
390.984	358.79
391.363	373.03
391.743	385
392.122	401.95
392.501	386.13
392.881	396.53
393.26	398.56
393.639	399.92
394.018	359.47
394.397	375.96
394.776	384.55
395.155	393.82
395.534	404.44
395.913	378.45
396.292	419.13
396.671	391.78
397.05	418.22
397.429	406.92
397.808	401.73
398.186	402.4
398.565	411.9
398.944	430.2
399.323	402.63
399.701	428.17
400.08	422.97
400.458	377.09
400.837	409.41
401.215	413.7
401.594	388.85
401.972	443.08
402.351	411.67
402.729	450.54
403.107	412.12
403.486	416.19
403.864	413.03
404.242	423.2
404.62	433.36
404.999	411.67
405.377	451.44
405.755	426.58
406.133	437.43
406.511	446.92
406.889	430.65
407.267	443.76
407.645	448.96
408.023	446.47
408.401	450.54
408.779	434.49
409.156	453.02
409.534	463.42
409.912	459.13
410.29	476.08
410.667	459.8
411.045	480.14
411.422	478.79
411.8	503.87
412.178	498.9
412.555	463.42
412.933	488.05
413.31	506.13
413.687	495.06
414.065	503.42
414.442	508.84
414.819	512.01
415.197	502.97
415.574	524.21
415.951	514.49
416.328	508.39
416.705	502.52
417.082	507.03
417.46	551.55
417.837	529.86
418.214	538.9
418.591	550.42
418.967	541.84
419.344	556.98
419.721	553.14
420.098	555.62
420.475	543.42
420.852	567.15
421.228	572.57
421.605	555.4
421.982	557.2
422.358	606.47
422.735	583.42
423.111	585
423.488	571.21
423.864	614.6
424.241	592.68
424.617	584.77
424.994	587.03
425.37	594.04
425.746	599.46
426.123	606.69
426.499	608.95
426.875	618.44
427.251	600.37
427.627	630.42
428.003	643.08
428.379	617.54
428.756	624.09
429.132	634.94
429.507	651.89
429.883	657.77
430.259	660.25
430.635	682.85
431.011	678.33
431.387	656.41
431.763	677.43
432.138	698.22
432.514	713.13
432.89	685.11
433.265	698.22
433.641	690.98
434.016	697.99
434.392	719.68
434.767	729.4
435.143	722.62
435.518	750.19
435.894	737.76
436.269	744.99
436.644	742.51
437.02	743.86
437.395	760.59
437.77	779.12
438.145	766.69
438.52	767.82
438.895	785.22
439.271	803.3
439.646	808.72
440.021	789.06
440.395	822.96
440.77	800.59
441.145	787.71
441.52	833.81
441.895	818.44
442.27	831.77
442.645	818.21
443.019	836.52
443.394	832.22
443.769	848.04
444.143	858.44
444.518	839.91
444.892	839.23
445.267	847.59
445.641	864.77
446.016	850.08
446.39	850.75
446.764	889.4
447.139	866.57
447.513	871.77
447.887	901.83
448.262	878.78
448.636	875.61
449.01	891.21
449.384	901.15
449.758	892.11
450.132	895.05
450.506	896.4
450.88	898.21
451.254	916.97
451.628	908.38
452.002	947.25
452.376	935.27
452.75	959.9
453.123	937.08
453.497	974.82
453.871	936.85
454.244	967.59
454.618	985.67
454.992	985.44
455.365	978.21
455.739	990.41
456.112	1023.41
456.486	1014.14
456.859	1025.67
457.232	1022.05
457.606	1039.68
457.979	1031.99
458.352	1056.85
458.725	1064.99
459.099	1056.4
459.472	1068.6
459.845	1085.78
460.218	1069.96
460.591	1066.34
460.964	1074.7
461.337	1155.83
461.71	1126.91
462.083	1142.5
462.456	1144.53
462.829	1136.62
463.201	1142.72
463.574	1176.17
463.947	1186.11
464.32	1208.94
464.692	1201.48
465.065	1194.93
465.438	1205.32
465.81	1215.04
466.183	1213.91
466.555	1229.28
466.928	1251.42
467.3	1243.74
467.672	1241.93
468.045	1262.72
468.417	1312.89
468.789	1285.77
469.161	1307.24
469.534	1324.64
469.906	1336.39
470.278	1332.32
470.65	1348.14
471.022	1380.91
471.394	1385.88
471.766	1392.44
472.138	1437.41
472.51	1422.94
472.882	1446.67
473.253	1461.36
473.625	1510.85
473.997	1492.32
474.369	1524.41
474.74	1540.68
475.112	1544.07
475.484	1574.13
475.855	1588.14
476.227	1595.37
476.598	1609.83
476.97	1655.93
477.341	1687.79
477.713	1671.3
478.084	1683.95
478.455	1720.79
478.827	1745.87
479.198	1780.45
479.569	1787.68
479.94	1855.7
480.311	1826.32
480.682	1889.6
481.053	1866.1
481.424	1920.33
481.795	1964.4
482.166	2002.59
482.537	2020.44
482.908	2007.56
483.279	2067.9
483.65	2083.94
484.021	2112.87
484.391	2163.26
484.762	2165.3
485.133	2190.15
485.503	2261.79
485.874	2279.19
486.244	2298.17
486.615	2314.44
486.985	2359.64
487.356	2415.91
487.726	2379.98
488.097	2472.63
488.467	2478.73
488.837	2517.15
489.207	2584.27
489.578	2613.19
489.948	2626.53
490.318	2659.75
490.688	2671.27
491.058	2711.04
491.428	2783.36
491.798	2791.49
492.168	2809.35
492.538	2837.37
492.908	2897.48
493.278	2952.17
493.648	2969.34
494.017	3006.86
494.387	3013.18
494.757	3025.61
495.126	3079.62
495.496	3136.8
495.866	3160.52
496.235	3207.53
496.605	3189
496.974	3268.32
497.344	3266.74
497.713	3292.72
498.082	3350.35
498.452	3372.95
498.821	3403.91
499.19	3434.42
499.559	3515.54
499.928	3497.69
500.298	3488.88
500.667	3540.85
501.036	3586.05
501.405	3575.88
501.774	3595.32
502.143	3654.97
502.512	3690.23
502.88	3723.9
503.249	3749.89
503.618	3763.67
503.987	3796.21
504.356	3821.75
504.724	3881.18
505.093	3903.33
505.462	3881.41
505.83	3948.07
506.199	3929.54
506.567	3989.88
506.936	4004.34
507.304	4041.86
507.672	4090.44
508.041	4074.17
508.409	4141.06
508.777	4157.11
509.145	4192.14
509.514	4216.99
509.882	4249.99
510.25	4278.01
510.618	4311.68
510.986	4333.6
511.354	4347.84
511.722	4415.41
512.09	4437.33
512.458	4478.46
512.826	4465.35
513.193	4520.04
513.561	4548.06
513.929	4577.89
514.297	4618.57
514.664	4642.52
515.032	4662.18
515.4	4687.49
515.767	4695.17
516.135	4754.83
516.502	4726.81
516.869	4865.11
517.237	4857.2
517.604	4849.97
517.972	4911.66
518.339	5005.45
518.706	4921.16
519.073	5003.64
519.44	4993.92
519.808	5097.87
520.175	5107.82
520.542	5140.59
520.909	5187.36
521.276	5166.8
521.643	5248.15
522.009	5248.6
522.376	5287.02
522.743	5341.71
523.11	5364.99
523.477	5456.28
523.843	5446.79
524.21	5485.43
524.577	5543.29
524.943	5558.65
525.31	5578.31
525.676	5687.24
526.043	5654.47
526.409	5679.33
526.776	5763.62
527.142	5744.64
527.508	5805.2
527.874	5865.09
528.241	5893.33
528.607	5912.77
528.973	5946.89
529.339	5913.67
529.705	5993.44
530.071	6079.54
530.437	6091.07
530.803	6135.81
531.169	6175.81
531.535	6144.17
531.901	6242.25
532.267	6235.47
532.632	6242.7
532.998	6324.96
533.364	6330.84
533.73	6351.63
534.095	6393.89
534.461	6401.34
534.826	6411.96
535.192	6434.34
535.557	6479.08
535.923	6490.38
536.288	6521.34
536.653	6576.03
537.019	6581.9
537.384	6611.28
537.749	6619.19
538.114	6654.9
538.479	6658.51
538.845	6674.1
539.21	6673.2
539.575	6757.04
539.94	6822.57
540.305	6797.49
540.67	6820.09
541.034	6902.35
541.399	6946.19
541.764	6951.16
542.129	6987.54
542.494	6993.64
542.858	6977.15
543.223	6968.56
543.587	7064.6
543.952	7110.48
544.316	7114.54
544.681	7148.89
545.045	7147.54
545.41	7242.68
545.774	7259.17
546.138	7283.13
546.503	7364.03
546.867	7322.45
547.231	7409.23
547.595	7432.5
547.959	7412.39
548.324	7494.42
548.688	7503.23
549.052	7528.54
549.416	7547.3
549.779	7672.04
550.143	7633.4
550.507	7704.13
550.871	7784.81
551.235	7740.74
551.599	7800.85
551.962	7907.52
552.326	7955.43
552.689	7945.71
553.053	8017.35
553.417	7962.88
553.78	8156.1
554.143	8092.82
554.507	8154.97
554.87	8225.7
555.234	8325.13
555.597	8337.56
555.96	8419.6
556.323	8420.72
556.686	8411.69
557.05	8518.58
557.413	8586.82
557.776	8674.28
558.139	8711.56
558.502	8768.06
558.865	8825.69
559.228	8930.54
559.59	8968.28
559.953	8957.66
560.316	9087.6
560.679	9131.21
561.041	9289.18
561.404	9340.93
561.767	9390.19
562.129	9397.65
562.492	9535.5
562.854	9571.2
563.217	9690.07
563.579	9611.43
563.941	9840.57
564.304	9916.28
564.666	10036.28
565.028	10086.9
565.39	10164.86
565.753	10351.75
566.115	10420.45
566.477	10531.18
566.839	10619.31
567.201	10700.89
567.563	10865.63
567.925	11059.98
568.287	11034.89
568.648	11137.94
569.01	11205.28
569.372	11390.59
569.734	11504.71
570.095	11724.37
570.457	11862.44
570.819	11989.9
571.18	12071.93
571.542	12169.55
571.903	12357.57
572.265	12624.46
572.626	12682.99
572.987	12862.42
573.349	13080.26
573.71	13296.3
574.071	13516.86
574.432	13662.17
574.794	13903.74
575.155	13996.17
575.516	14182.16
575.877	14473.67
576.238	14628.25
576.599	14919.54
576.96	15178.97
577.32	15294.44
577.681	15544.15
578.042	15838.83
578.403	16067.76
578.763	16382.1
579.124	16717.68
579.485	16981.86
579.845	17313.6
580.206	17594.72
580.566	17874.26
580.927	18110.64
581.287	18519.89
581.648	18835.14
582.008	19177.73
582.368	19422.02
582.728	19728.68
583.089	20202.11
583.449	20503.12
583.809	20816.56
584.169	21244.34
584.529	21483.43
584.889	22139.23
585.249	22328.38
585.609	22759.1
585.969	23251.3
586.329	23498.07
586.688	24054.89
587.048	24465.5
587.408	24770.58
587.768	25254.41
588.127	25709.76
588.487	26055.52
588.846	26629.51
589.206	26965.55
589.565	27481.24
589.925	28022.24
590.284	28321.9
590.643	28818.15
591.003	29306.05
591.362	29835.53
591.721	30214.73
592.08	30772.91
592.44	31227.58
592.799	31718.64
593.158	32068.92
593.517	32660.54
593.876	33072.73
594.235	33439.5
594.593	34050.56
594.952	34606.25
595.311	34937.09
595.67	35611.65
596.029	36071.75
596.387	36614.56
596.746	37126.86
597.104	37431.49
597.463	37903.79
597.822	38347.62
598.18	38672.81
598.538	39138.34
598.897	39829.16
599.255	39969.95
599.613	40944.84
599.972	40972.19
600.33	41410.37
600.688	41831.37
601.046	42359.27
601.404	42879.48
601.762	43105.69
602.12	43691.66
602.478	43968.72
602.836	44431.76
603.194	44607.34
603.552	45098.86
603.91	45187.22
604.268	45745.39
604.625	46080.3
604.983	46417.01
605.341	46605.03
605.698	47061.74
606.056	47416.76
606.413	47710.54
606.771	48077.31
607.128	48268.94
607.485	48404.08
607.843	48651.76
608.2	49090.62
608.557	49332.19
608.914	49394.79
609.272	49851.95
609.629	50123.13
609.986	50430.24
610.343	50343.92
610.7	50789.55
611.057	50829.33
611.414	50997.68
611.771	51166.27
612.127	51437.22
612.484	51542.3
612.841	51812.8
613.198	51828.17
613.554	51909.3
613.911	52219.57
614.267	52278.33
614.624	52418.44
614.98	52553.8
615.337	52752.21
615.693	52862.72
616.05	52971.19
616.406	53172.09
616.762	53173.22
617.118	53200.56
617.475	53301.13
617.831	53532.99
618.187	53619.08
618.543	53664.73
618.899	53842.58
619.255	53881.22
619.611	53864.05
619.967	54096.59
620.323	54135
620.678	54115.34
621.034	54110.15
621.39	54174.32
621.746	54143.14
622.101	54573.41
622.457	54308.33
622.812	54397.82
623.168	54556.91
623.523	54539.51
623.879	54676.23
624.234	54541.32
624.589	54677.81
624.945	54680.3
625.3	54825.38
625.655	54677.36
626.01	54781.77
626.365	54887.75
626.72	54801.65
627.075	54916.9
627.43	54932.27
627.785	54905.15
628.14	55021.99
628.495	55009.56
628.85	55110.34
629.205	54991.93
629.559	55163.9
629.914	54966.62
630.269	55088.42
630.623	55076.67
630.978	54923.46
631.332	55110.12
631.687	55167.74
632.041	54974.08
632.396	55138.37
632.75	55011.36
633.104	55117.8
633.459	54976.11
633.813	54952.83
634.167	55001.42
634.521	55019.95
634.875	55008.2
635.229	55030.12
635.583	54948.99
635.937	54886.4
636.291	54890.69
636.645	54934.98
636.999	54814.08
637.352	54947.86
637.706	54867.64
638.06	54933.4
638.413	54812.95
638.767	54776.57
639.121	54859.5
639.474	54767.08
639.828	54706.74
640.181	54757.13
640.534	54802.1
640.888	54800.3
641.241	54625.84
641.594	54744.48
641.947	54801.43
642.301	54734.76
642.654	54852.5
643.007	54758.49
643.36	54774.08
643.713	54598.04
644.066	54818.15
644.419	54568.89
644.771	54405.73
645.124	54145.17
645.477	54109.69
645.83	53964.16
646.182	53893.43
646.535	53765.52
646.888	54004.61
647.24	53796.71
647.593	53931.84
647.945	53859.08
648.298	53721.68
648.65	53677.61
649.002	53565.75
649.355	53776.37
649.707	53698.63
650.059	53796.03
650.411	54108.79
650.763	54220.88
651.115	54546.29
651.467	54316.69
651.819	54360.53
652.171	54353.3
652.523	54269.91
652.875	54309.46
653.227	54149.47
653.578	54446.86
653.93	54348.78
654.282	54200.31
654.633	54131.61
654.985	54242.57
655.337	54295.9
655.688	54209.58
656.039	54345.62
656.391	54065.17
656.742	54210.48
657.094	54171.61
657.445	54238.28
657.796	54181.33
658.147	54184.04
658.498	54183.14
658.849	54184.27
659.2	54098.85
659.551	54040.54
659.902	54147.66
660.253	54127.09
660.604	54182.91
660.955	54004.84
661.306	54201.67
661.656	54165.28
662.007	54049.36
662.358	54139.3
662.708	54060.43
663.059	54057.04
663.409	53892.98
663.76	54091.16
664.11	54095.91
664.461	54162.12
664.811	54084.38
665.161	54074.44
665.511	53946.76
665.862	54076.93
666.212	54069.92
666.562	54099.07
666.912	53966.19
667.262	54001.45
667.612	54034.67
667.962	53932.3
668.312	54001.67
668.662	54102.01
669.011	54043.71
669.361	53968.23
669.711	53890.72
670.06	53885.52
670.41	53751.74
670.76	53752.19
671.109	53830.38
671.459	53874.22
671.808	53818.18
672.157	53830.6
672.507	53591.29
672.856	53661.57
673.205	53647.11
673.554	53778.63
673.904	53634.23
674.253	53706.99
674.602	53683.94
674.951	53249.38
675.3	53092.09
675.649	53568.24
675.998	53538.18
676.346	53584.51
676.695	53650.72
677.044	53370.73
677.393	53464.96
677.741	53459.77
678.09	53457.05
678.438	53431.97
678.787	53483.27
679.135	53359.88
679.484	53214.8
679.832	53371.41
680.181	53178.64
680.529	53220.9
680.877	53111.75
681.225	53036.95
681.573	53334.8
681.922	53054.13
682.27	52930.74
682.618	52985.43
682.966	52854.81
683.314	52937.29
683.661	52860.01
684.009	52658.66
684.357	52672.22
684.705	52694.36
685.053	52716.51
685.4	52606.23
685.748	52577.98
686.095	52461.83
686.443	52366.01
686.79	52373.24
687.138	52352.23
687.485	52356.29
687.832	52139.12
688.18	52226.13
688.527	51990.2
688.874	51985.23
689.221	51923.08
689.568	51875.85
689.915	51772.13
690.262	51768.51
690.609	51646.03
690.956	51644.45
691.303	51591.12
691.65	51458.46
691.997	51298.24
692.344	51154.97
692.69	51209.43
693.037	51128.53
693.383	50953.39
693.73	51014.86
694.077	50820.06
694.423	50898.03
694.769	50765.83
695.116	50576
695.462	50585.72
695.808	50354.31
696.155	50470.47
696.501	50157.03
696.847	50283.13
697.193	49942.12
697.539	50013.3
697.885	49872.52
698.231	49621.9
698.577	49741.67
698.923	49690.6
699.269	49396.6
699.614	49262.81
699.96	49264.17
700.306	49228.01
700.651	49019.43
700.997	48922.94
701.342	48859.89
701.688	48912.77
702.033	48764.97
702.379	48572.66
702.724	48566.34
703.069	48685.2
703.415	48162.05
703.76	48272.33
704.105	48189.62
704.45	48093.35
704.795	47934.04
705.14	47745.57
705.485	47825.34
705.83	47587.15
706.175	47672.8
706.52	47383.32
706.865	47364.33
707.209	47276.65
707.554	47096.77
707.899	47322.53
708.243	46899.71
708.588	46947.4
708.932	46558.48
709.277	46637.35
709.621	46639.83
709.966	46447.75
710.31	46435.54
710.654	46193.29
710.998	46332.95
711.342	46199.62
711.687	46218.6
712.031	45953.07
712.375	45746.3
712.719	45853.86
713.063	45810.7
713.407	45847.99
713.75	45716.24
714.094	45645.28
714.438	45367.32
714.782	45545.62
715.125	45354.67
715.469	45411.39
715.812	45242.58
716.156	45006.88
716.499	44897.05
716.843	45088.69
717.186	44765.53
717.53	44991.29
717.873	44965.3
718.216	44759.43
718.559	44645.99
718.902	44380.68
719.246	44414.58
719.589	44427.01
719.932	44234.25
720.275	44125.77
720.617	44303.4
720.96	44094.14
721.303	44100.69
721.646	44075.61
721.989	43854.37
722.331	43968.72
722.674	43916.06
723.016	43987.7
723.359	43823.18
723.701	43793.81
724.044	43522.85
724.386	43412.8
724.729	43579.8
725.071	43366.7
725.413	43418
725.755	43394.27
726.097	43088.51
726.439	43106.82
726.782	43157.21
727.124	43262.29
727.465	43021.62
727.807	43088.06
728.149	42968.97
728.491	42924.45
728.833	43011.45
729.175	42827.73
729.516	42709.09
729.858	42691.69
730.199	42726.04
730.541	42625.25
730.882	42597.23
731.224	42658.92
731.565	42394.07
731.906	42389.32
732.248	42437.91
732.589	42357.91
732.93	42181.19
733.271	42224.58
733.612	42191.59
733.953	42267.97
734.294	42074.98
734.635	42019.84
734.976	42055.09
735.317	41899.39
735.658	41974.87
735.999	41887.19
736.339	41845.38
736.68	41874.76
737.021	41838.15
737.361	41515
737.702	41845.61
738.042	41637.93
738.383	41608.33
738.723	41651.94
739.063	41405.17
739.404	41618.72
739.744	41499.86
740.084	41406.3
740.424	41375.79
740.764	41202.46
741.104	41376.47
741.444	41080.88
741.784	41028.46
742.124	41096.25
742.464	40980.55
742.804	41015.57
743.143	41011.05
743.483	41014.67
743.823	40778.74
744.162	40794.11
744.502	40851.06
744.841	40591.4
745.181	40864.17
745.52	40657.39
745.86	40819.87
746.199	40594.34
746.538	40454.91
746.877	40518.19
747.216	40663.49
747.556	40538.3
747.895	40470.05
748.234	40334.69
748.573	40284.52
748.911	40214.69
749.25	40098.76
749.589	40012.44
749.928	40097.86
750.267	39988.71
750.605	40023.51
750.944	39897.86
751.283	39863.29
751.621	39870.07
751.96	39630.98
752.298	39492.9
752.636	39639.11
752.975	39493.81
753.313	39321.16
753.651	39468.72
753.989	39272.57
754.327	39221.72
754.666	39031.22
755.004	39173.81
755.342	39096.98
755.679	39013.37
756.017	38770.21
756.355	38985.12
756.693	38563.89
757.031	38820.15
757.368	38564.57
757.706	38541.06
758.044	38376.55
758.381	38367.06
758.719	38345.36
759.056	38278.47
759.394	38079.61
759.731	37960.29
