Data from orange_diffuse_book_FLMS001491_00052.txt Node
Date: Wed Feb 08 15:29:45 GMT 2017
User: dcchb
Spectrometer: FLMS00149
Trigger mode: 0
Integration Time (sec): 2.000000E-2
Scans to average: 10
Electric dark correction enabled: true
Nonlinearity correction enabled: false
Boxcar width: 0
XAxis mode: Wavelengths
Number of Pixels in Spectrum: 2048
>>>>>Begin Spectral Data<<<<<
341.393	-10.85
341.776	-10.85
342.16	-10.85
342.543	-65.76
342.927	-53.56
343.31	-42.71
343.693	-72.77
344.077	-58.98
344.46	-61.69
344.843	-59.21
345.226	-52.88
345.61	-43.61
345.993	-42.26
346.376	-3.16
346.759	14.01
347.142	40.9
347.525	46.1
347.908	61.69
348.291	74.12
348.674	78.64
349.057	121.8
349.44	132.43
349.823	136.49
350.206	145.31
350.588	197.06
350.971	226.21
351.354	251.07
351.737	218.75
352.119	245.64
352.502	268.92
352.884	262.14
353.267	304.17
353.65	297.62
354.032	282.93
354.414	300.33
354.797	339.88
355.179	350.95
355.562	338.97
355.944	330.84
356.326	312.99
356.709	352.31
357.091	341.23
357.473	337.62
357.855	366.54
358.238	344.85
358.62	353.89
359.002	351.63
359.384	358.63
359.766	347.56
360.148	344.4
360.53	353.89
360.912	336.94
361.294	348.92
361.676	341.46
362.057	344.17
362.439	345.75
362.821	341.01
363.203	340.1
363.584	337.39
363.966	329.71
364.348	349.82
364.729	321.8
365.111	323.38
365.493	334
365.874	325.19
366.256	336.94
366.637	331.74
367.019	301.91
367.4	329.48
367.781	302.59
368.163	335.81
368.544	328.13
368.925	316.15
369.306	322.03
369.688	313.21
370.069	331.06
370.45	333.55
370.831	318.18
371.212	322.7
371.593	311.86
371.974	283.61
372.355	353.89
372.736	333.32
373.117	336.04
373.498	314.57
373.879	331.74
374.26	325.19
374.641	299.2
375.021	331.29
375.402	325.19
375.783	325.19
376.163	370.84
376.544	325.87
376.925	328.13
377.305	347.56
377.686	320.67
378.066	333.1
378.447	336.71
378.827	346.43
379.208	349.37
379.588	347.34
379.968	338.07
380.349	342.82
380.729	338.97
381.109	346.43
381.489	329.93
381.87	349.82
382.25	315.7
382.63	336.71
383.01	343.95
383.39	373.32
383.77	349.82
384.15	367.22
384.53	349.14
384.91	364.06
385.29	364.51
385.67	350.5
386.049	328.8
386.429	343.95
386.809	352.53
387.189	365.19
387.568	354.79
387.948	345.08
388.328	375.81
388.707	360.89
389.087	345.53
389.466	362.25
389.846	359.99
390.225	369.26
390.605	377.39
390.984	383.72
391.363	376.49
391.743	378.52
392.122	385.98
392.501	385.3
392.881	378.97
393.26	382.14
393.639	371.52
394.018	353.89
394.397	370.16
394.776	374.91
395.155	372.19
395.534	375.36
395.913	394.57
396.292	375.36
396.671	413.77
397.05	370.84
397.429	390.95
397.808	369.71
398.186	411.74
398.565	412.87
398.944	398.41
399.323	379.88
399.701	408.58
400.08	408.35
400.458	392.31
400.837	409.25
401.215	407.22
401.594	431.4
401.972	402.93
402.351	420.1
402.729	425.07
403.107	416.94
403.486	412.42
403.864	413.32
404.242	423.27
404.62	427.56
404.999	428.46
405.377	440.89
405.755	423.72
406.133	439.08
406.511	445.86
406.889	441.8
407.267	458.97
407.645	448.58
408.023	436.37
408.401	459.65
408.779	458.52
409.156	456.71
409.534	466.2
409.912	437.28
410.29	479.08
410.667	461.23
411.045	444.73
411.422	449.71
411.8	474.11
412.178	487.67
412.555	484.51
412.933	461.23
413.31	499.2
413.687	486.31
414.065	476.15
414.442	491.06
414.819	487.67
415.197	519.31
415.574	510.27
415.951	496.26
416.328	513.43
416.705	503.26
417.082	519.31
417.46	512.53
417.837	506.88
418.214	532.87
418.591	523.6
418.967	526.54
419.344	540.32
419.721	545.07
420.098	539.87
420.475	553.66
420.852	547.33
421.228	550.72
421.605	543.94
421.982	559.99
422.358	560.89
422.735	561.79
423.111	563.15
423.488	566.99
423.864	581
424.241	567.22
424.617	577.16
424.994	594.56
425.37	598.4
425.746	603.83
426.123	590.27
426.499	599.31
426.875	595.01
427.251	627.1
427.627	610.83
428.003	617.16
428.379	619.42
428.756	629.36
429.132	643.15
429.507	635.01
429.883	638.4
430.259	657.61
430.635	639.31
431.011	650.15
431.387	662.58
431.763	684.5
432.138	680.43
432.514	688.34
432.89	708.91
433.265	700.09
433.641	701.45
434.016	683.82
434.392	712.52
434.767	692.41
435.143	712.52
435.518	693.54
435.894	705.29
436.269	730.83
436.644	726.76
437.02	739.42
437.395	750.49
437.77	735.57
438.145	750.71
438.52	760.21
438.895	749.58
439.271	778.28
439.646	767.89
440.021	769.25
440.395	784.61
440.77	791.39
441.145	787.78
441.52	817.38
441.895	808.11
442.27	793.43
442.645	817.83
443.019	819.87
443.394	825.06
443.769	828.9
444.143	847.21
444.518	820.09
444.892	840.43
445.267	848.57
445.641	849.02
446.016	847.66
446.39	827.55
446.764	825.52
447.139	865.51
447.513	848.34
447.887	853.76
448.262	854.44
448.636	872.75
449.01	879.52
449.384	891.28
449.758	901.45
450.132	899.41
450.506	896.93
450.88	903.48
451.254	905.74
451.628	931.05
452.002	910.48
452.376	921.78
452.75	931.05
453.123	934.89
453.497	943.25
453.871	940.99
454.244	950.94
454.618	971.95
454.992	972.63
455.365	975.12
455.739	1006.53
456.112	992.74
456.486	943.93
456.859	1008.79
457.232	1007.43
457.606	1026.19
457.979	1016.7
458.352	1039.97
458.725	1071.38
459.099	1075.9
459.472	1069.8
459.845	1050.14
460.218	1077.26
460.591	1077.26
460.964	1052.63
461.337	1091.95
461.71	1093.08
462.083	1152.96
462.456	1080.88
462.829	1127.88
463.201	1149.8
463.574	1138.73
463.947	1154.55
464.32	1175.34
464.692	1165.17
465.065	1171.04
465.438	1163.13
465.81	1195
466.183	1213.3
466.555	1234.32
466.928	1239.29
467.3	1230.25
467.672	1236.58
468.045	1261.44
468.417	1270.02
468.789	1296.01
469.161	1313.64
469.534	1323.13
469.906	1306.18
470.278	1338.27
470.65	1343.02
471.022	1371.26
471.394	1382.56
471.766	1383.47
472.138	1415.56
472.51	1426.63
472.882	1460.07
473.253	1448.32
473.625	1443.58
473.997	1496.46
474.369	1486.29
474.74	1511.15
475.112	1514.54
475.484	1550.02
475.855	1567.87
476.227	1588.66
476.598	1608.09
476.97	1633.63
477.341	1653.97
477.713	1678.83
478.084	1664.36
478.455	1716.79
478.827	1720.63
479.198	1737.36
479.569	1788.88
479.94	1835.21
480.311	1832.72
480.682	1821.2
481.053	1876.79
481.424	1917.46
481.795	1945.94
482.166	1956.33
482.537	2000.4
482.908	1998.37
483.279	2041.53
483.65	2075.88
484.021	2071.13
484.391	2151.36
484.762	2159.72
485.133	2204.01
485.503	2206.72
485.874	2238.36
486.244	2262.54
486.615	2303.67
486.985	2302.09
487.356	2393.84
487.726	2379.82
488.097	2409.2
488.467	2460.05
488.837	2479.26
489.207	2508.41
489.578	2572.36
489.948	2606.94
490.318	2631.34
490.688	2673.15
491.058	2690.1
491.428	2761.28
491.798	2767.84
492.168	2825.69
492.538	2837.44
492.908	2849.87
493.278	2935.52
493.648	2891.45
494.017	2981.62
494.387	2973.71
494.757	3005.8
495.126	3053.48
495.496	3076.3
495.866	3100.26
496.235	3174.61
496.605	3195.62
496.974	3221.61
497.344	3226.36
497.713	3259.35
498.082	3318.56
498.452	3316.07
498.821	3328.73
499.19	3373.92
499.559	3430.64
499.928	3404.88
500.298	3452.56
500.667	3476.74
501.036	3503.41
501.405	3568.27
501.774	3548.16
502.143	3615.5
502.512	3627.25
502.88	3642.39
503.249	3669.51
503.618	3703.41
503.987	3710.64
504.356	3758.55
504.724	3769.84
505.093	3774.59
505.462	3797.19
505.83	3852.55
506.199	3858.66
506.567	3914.7
506.936	3889.39
507.304	3964.87
507.672	4024.98
508.041	3981.14
508.409	4027.01
508.777	4081.7
509.145	4064.07
509.514	4125.54
509.882	4181.13
510.25	4206.44
510.618	4235.14
510.986	4223.84
511.354	4329.6
511.722	4321.02
512.09	4352.88
512.458	4343.39
512.826	4405.76
513.193	4419.54
513.561	4450.28
513.929	4452.31
514.297	4543.16
514.664	4497.51
515.032	4549.26
515.4	4607.79
515.767	4612.76
516.135	4653.44
516.502	4697.96
516.869	4745.86
517.237	4752.64
517.604	4737.5
517.972	4798.07
518.339	4821.12
518.706	4863.37
519.073	4858.86
519.44	4916.25
519.808	5011.39
520.175	4961.45
520.542	5073.54
520.909	5026.08
521.276	5086.65
521.643	5150.37
522.009	5175.91
522.376	5153.99
522.743	5199.64
523.11	5267.88
523.477	5332.74
523.843	5322.35
524.21	5438.28
524.577	5457.71
524.943	5429.24
525.31	5479.86
525.676	5526.41
526.043	5580.64
526.409	5598.72
526.776	5608.21
527.142	5671.94
527.508	5685.95
527.874	5765.5
528.241	5805.95
528.607	5760.3
528.973	5841.43
529.339	5791.03
529.705	5882.33
530.071	5880.3
530.437	5968.2
530.803	5966.4
531.169	6056.11
531.535	6011.37
531.901	6040.29
532.267	6078.48
532.632	6142.89
532.998	6152.38
533.364	6157.13
533.73	6223.57
534.095	6260.17
534.461	6242.55
534.826	6318.48
535.192	6311.7
535.557	6368.19
535.923	6334.75
536.288	6438.93
536.653	6417.23
537.019	6435.54
537.384	6439.15
537.749	6479.83
538.114	6542.65
538.479	6541.75
538.845	6566.61
539.21	6573.39
539.575	6575.42
539.94	6661.29
540.305	6721.86
540.67	6721.18
541.034	6644.35
541.399	6778.58
541.764	6788.75
542.129	6774.74
542.494	6845.02
542.858	6927.73
543.223	6864.9
543.587	6910.55
543.952	6922.76
544.316	6957.78
544.681	6988.06
545.045	7007.27
545.41	7041.85
545.774	7044.56
546.138	7084.56
546.503	7106.71
546.867	7146.48
547.231	7224.67
547.595	7306.7
547.959	7329.3
548.324	7376.76
548.688	7318
549.052	7400.71
549.416	7465.79
549.779	7387.6
550.143	7466.24
550.507	7554.6
550.871	7603.19
551.235	7600.93
551.599	7649.06
551.962	7714.6
552.326	7762.28
552.689	7765.9
553.053	7814.03
553.417	7878.66
553.78	7901.71
554.143	7931.09
554.507	7999.56
554.87	8055.61
555.234	8160.69
555.597	8127.47
555.96	8198.88
556.323	8248.6
556.686	8282.27
557.05	8355.49
557.413	8414.69
557.776	8443.62
558.139	8528.14
558.502	8542.83
558.865	8637.51
559.228	8771.29
559.59	8797.96
559.953	8771.52
560.316	8945.3
560.679	8965.87
561.041	9042.93
561.404	9061.23
561.767	9203.6
562.129	9201.57
562.492	9284.95
562.854	9355.91
563.217	9440.2
563.579	9489.92
563.941	9583.48
564.304	9693.53
564.666	9826.41
565.028	9893.75
565.39	10026.63
565.753	10065.27
566.115	10161.99
566.477	10266.17
566.839	10378.48
567.201	10574.64
567.563	10580.29
567.925	10700.51
568.287	10801.52
568.648	10937.79
569.01	11015.08
569.372	11169.65
569.734	11292.36
570.095	11444.67
570.457	11642.63
570.819	11705.91
571.18	11822.51
571.542	11935.73
571.903	12141.38
572.265	12370.97
572.626	12479.45
572.987	12653.9
573.349	12844.41
573.71	12960.34
574.071	13203.04
574.432	13357.84
574.794	13626.76
575.155	13798.96
575.516	13852.74
575.877	14195.56
576.238	14347.19
576.599	14555.55
576.96	14799.16
577.32	15101.3
577.681	15288.41
578.042	15533.38
578.403	15795.06
578.763	16046.13
579.124	16318.67
579.485	16595.04
579.845	16924.98
580.206	17160.9
580.566	17511.4
580.927	17759.08
581.287	18223.02
581.648	18344.38
582.008	18817.58
582.368	19024.13
582.728	19385.48
583.089	19728.07
583.449	20101.62
583.809	20503.64
584.169	20912.44
584.529	21030.86
584.889	21776.83
585.249	21965.75
585.609	22304.72
585.969	22815.45
586.329	23066.06
586.688	23574.3
587.048	24026.71
587.408	24373.14
587.768	24805
588.127	25133.58
588.487	25712.54
588.846	26225.07
589.206	26419.64
589.565	26926.3
589.925	27583
590.284	27825.48
590.643	28332.59
591.003	28768.28
591.362	29289.63
591.721	29737.07
592.08	30231.3
592.44	30785.63
592.799	31119.18
593.158	31535.67
593.517	32101.53
593.876	32565.02
594.235	33026.25
594.593	33550.3
594.952	33989.16
595.311	34433.9
595.67	34960.89
596.029	35627.99
596.387	35991.6
596.746	36499.38
597.104	36864.79
597.463	37258
597.822	37825.67
598.18	38255.04
598.538	38579.55
598.897	39269.7
599.255	39332.07
599.613	40226.96
599.972	40447.3
600.33	41003.67
600.688	41120.27
601.046	41681.62
601.404	42248.15
601.762	42629.84
602.12	43113.44
602.478	43461.68
602.836	43835.68
603.194	44088.11
603.552	44392.05
603.91	44592.27
604.268	45291.24
604.625	45490.78
604.983	45841.73
605.341	46075.17
605.698	46588.83
606.056	46961.48
606.413	47088.03
606.771	47497.51
607.128	47834.22
607.485	47784.96
607.843	48183.37
608.2	48601.89
608.557	48843.69
608.914	48951.93
609.272	49390.11
609.629	49695.87
609.986	49932.25
610.343	49849.54
610.7	50305.57
611.057	50405.23
611.414	50590.08
611.771	50749.4
612.127	50975.38
612.484	51059
612.841	51364.3
613.198	51411.3
613.554	51583.5
613.911	51839.31
614.267	51927.22
614.624	51956.83
614.98	52223.71
615.337	52431.16
615.693	52394.33
616.05	52485.63
616.406	52771.27
616.762	52670.93
617.118	52747.54
617.475	52857.59
617.831	53113.18
618.187	53149.11
618.543	53250.13
618.899	53569.89
619.255	53604.69
619.611	53456.67
619.967	53776.44
620.323	53756.55
620.678	53756.55
621.034	53681.98
621.39	53769.66
621.746	53760.39
622.101	54083.32
622.457	53958.81
622.812	54027.73
623.168	54229.53
623.523	54199.7
623.879	54336.88
624.234	54112.25
624.589	54286.48
624.945	54443.54
625.3	54472.69
625.655	54335.07
626.01	54483.31
626.365	54608.06
626.72	54563.31
627.075	54528.74
627.43	54573.03
627.785	54569.41
628.14	54632.24
628.495	54636.08
628.85	54673.36
629.205	54554.05
629.559	54848.5
629.914	54654.38
630.269	54700.26
630.623	54686.25
630.978	54669.07
631.332	54816.19
631.687	54761.95
632.041	54698.45
632.396	54775.96
632.75	54714.04
633.104	54766.7
633.459	54653.7
633.813	54704.1
634.167	54678.11
634.521	54655.74
634.875	54647.83
635.229	54735.51
635.583	54541.62
635.937	54665.23
636.291	54616.19
636.645	54541.39
636.999	54506.14
637.352	54628.17
637.706	54433.37
638.06	54570.99
638.413	54509.3
638.767	54455.74
639.121	54546.59
639.474	54363.09
639.828	54439.25
640.181	54429.3
640.534	54485.35
640.888	54370.55
641.241	54165.58
641.594	54435.18
641.947	54467.72
642.301	54368.06
642.654	54405.12
643.007	54402.64
643.36	54322.87
643.713	54342.75
644.066	54433.37
644.419	54230.21
644.771	54066.37
645.124	53768.76
645.477	53713.84
645.83	53536.45
646.182	53433.17
646.535	53444.24
646.888	53526.73
647.24	53300.52
647.593	53592.94
647.945	53506.16
648.298	53352.5
648.65	53238.83
649.002	53224.59
649.355	53437.24
649.707	53309.78
650.059	53481.08
650.411	53757.46
650.763	53817.79
651.115	54079.48
651.467	53971.01
651.819	54014.85
652.171	53933.05
652.523	53898.47
652.875	53984.8
653.227	53804.01
653.578	53965.81
653.93	53908.41
654.282	53861.41
654.633	53762.43
654.985	53870.9
655.337	53926.72
655.688	53802.65
656.039	53967.85
656.391	53735.31
656.742	53789.32
657.094	53782.77
657.445	53891.01
657.796	53773.28
658.147	53828.87
658.498	53756.78
658.849	53774.86
659.2	53762.43
659.551	53702.09
659.902	53826.83
660.253	53709.55
660.604	53822.99
660.955	53621.87
661.306	53695.76
661.656	53761.75
662.007	53740.96
662.358	53698.93
662.708	53768.08
663.059	53679.72
663.409	53557.01
663.76	53725.82
664.11	53686.95
664.461	53697.8
664.811	53762.43
665.161	53676.1
665.511	53600.62
665.862	53647.4
666.212	53731.02
666.562	53727.63
666.912	53668.19
667.262	53581.87
667.612	53626.61
667.962	53656.89
668.312	53567.18
668.662	53665.71
669.011	53647.63
669.361	53512.49
669.711	53577.57
670.06	53498.25
670.41	53378.94
670.76	53352.04
671.109	53491.47
671.459	53446.96
671.808	53326.96
672.157	53412.61
672.507	53159.28
672.856	53303.01
673.205	53246.96
673.554	53316.34
673.904	53221.43
674.253	53399.73
674.602	53280.86
674.951	52881.77
675.3	52632.06
675.649	53147.98
675.998	53166.29
676.346	53123.35
676.695	53263.01
677.044	52969.91
677.393	52974.88
677.741	53186.62
678.09	52985.05
678.438	52962.68
678.787	52960.42
679.135	52968.32
679.484	52751.83
679.832	52886.97
680.181	52808.78
680.529	52867.76
680.877	52790.25
681.225	52733.3
681.573	52907.76
681.922	52643.14
682.27	52602.23
682.618	52593.65
682.966	52482.91
683.314	52566.75
683.661	52527.21
684.009	52264.39
684.357	52265.07
684.705	52205.86
685.053	52159.31
685.4	52261.22
685.748	52016.49
686.095	52041.12
686.443	51867.34
686.79	51993.21
687.138	51920.67
687.485	51883.61
687.832	51754.12
688.18	51795.47
688.527	51688.58
688.874	51669.6
689.221	51574.01
689.568	51504.86
689.915	51365.43
690.262	51383.06
690.609	51270.29
690.956	51200.69
691.303	51199.11
691.65	51000.92
691.997	50994.59
692.344	50699.23
692.69	50725.22
693.037	50744.2
693.383	50437.09
693.73	50657.88
694.077	50340.6
694.423	50301.28
694.769	50211.79
695.116	50165.01
695.462	50036.65
695.808	49940.38
696.155	49896.77
696.501	49740.61
696.847	49846.82
697.193	49494.52
697.539	49641.18
697.885	49431.69
698.231	49291.81
698.577	49140.18
698.923	49129.56
699.269	48983.57
699.614	48867.87
699.96	48758.04
700.306	48772.5
700.651	48491.38
700.997	48448.44
701.342	48329.12
701.688	48355.79
702.033	48190.6
702.379	48192.63
702.724	48029.25
703.069	48299.07
703.415	47577.28
703.76	47653.21
704.105	47639.88
704.45	47466.77
704.795	47379.09
705.14	47335.25
705.485	47246.44
705.83	47144.3
706.175	47108.59
706.52	47004.64
706.865	46837.64
707.209	46708.15
707.554	46580.02
707.899	46786.11
708.243	46413.24
708.588	46405.11
708.932	46146.58
709.277	46106.81
709.621	46158.56
709.966	45775.52
710.31	46047.83
710.654	45677.89
710.998	45799.25
711.342	45626.82
711.687	45602.64
712.031	45369.88
712.375	45303.44
712.719	45361.52
713.063	45261.86
713.407	45455.3
713.75	45162.43
714.094	45164.46
714.438	44943.68
714.782	44988.2
715.125	44784.59
715.469	44954.75
715.812	44644.93
716.156	44496.01
716.499	44468.44
716.843	44532.16
717.186	44238.61
717.53	44455.78
717.873	44450.13
718.216	44190.7
718.559	44068.67
718.902	43854.44
719.246	44002.68
719.589	43776.02
719.932	43654.22
720.275	43855.8
720.617	43635.46
720.96	43628.68
721.303	43513.21
721.646	43372.19
721.989	43305.53
722.331	43497.39
722.674	43463.94
723.016	43359.54
723.359	43194.12
723.701	43243.38
724.044	42970.17
724.386	42930.17
724.729	43116.83
725.071	42904.63
725.413	43005.2
725.755	42783.06
726.097	42612.44
726.439	42538.99
726.782	42540.8
727.124	42809.5
727.465	42601.37
727.807	42432.78
728.149	42513.68
728.491	42421.26
728.833	42346.91
729.175	42347.59
729.516	42234.37
729.858	42189.17
730.199	42198.21
730.541	42056.07
730.882	41959.57
731.224	42181.04
731.565	41819.69
731.906	41946.47
732.248	41925.23
732.589	41783.31
732.93	41772.91
733.271	41723.42
733.612	41816.53
733.953	41690.88
734.294	41362.08
734.635	41463.32
734.976	41621.96
735.317	41338.12
735.658	41392.13
735.999	41409.76
736.339	41369.76
736.68	41347.84
737.021	41181.52
737.361	41031.24
737.702	41328.86
738.042	41238.92
738.383	41128.41
738.723	41114.4
739.063	40948.53
739.404	41096.77
739.744	40945.36
740.084	40768.42
740.424	40861.3
740.764	40803.22
741.104	40854.29
741.444	40588.54
741.784	40476.45
742.124	40621.08
742.464	40588.99
742.804	40537.69
743.143	40444.81
743.483	40409.11
743.823	40220.41
744.162	40280.97
744.502	40320.75
744.841	40092.51
745.181	40258.38
745.52	40069.45
745.86	40161.2
746.199	39982.9
746.538	40037.59
746.877	40100.64
747.216	39999.85
747.556	40027.2
747.895	39964.6
748.234	39652.97
748.573	39728.22
748.911	39683.7
749.25	39746.75
749.589	39481.45
749.928	39481
750.267	39571.16
750.605	39497.27
750.944	39371.17
751.283	39290.27
751.621	39327.55
751.96	39177.5
752.298	39078.75
752.636	39055.24
752.975	38871.29
753.313	38669.72
753.651	39016.15
753.989	38591.3
754.327	38633.56
754.666	38608.02
755.004	38554.01
755.342	38616.84
755.679	38566.9
756.017	38201.71
756.355	38380.69
756.693	38161.93
757.031	38191.09
757.368	37880.81
757.706	37908.83
758.044	37847.14
758.381	37895.5
758.719	37721.27
759.056	37650.31
759.394	37631.33
759.731	37404.21
