Data from orange_diffuse_book_FLMS001491_00066.txt Node
Date: Wed Feb 08 15:29:54 GMT 2017
User: dcchb
Spectrometer: FLMS00149
Trigger mode: 0
Integration Time (sec): 2.000000E-2
Scans to average: 10
Electric dark correction enabled: true
Nonlinearity correction enabled: false
Boxcar width: 0
XAxis mode: Wavelengths
Number of Pixels in Spectrum: 2048
>>>>>Begin Spectral Data<<<<<
341.393	-19.19
341.776	-19.19
342.16	-19.19
342.543	-54.9
342.927	-63.49
343.31	-75.01
343.693	-57.61
344.077	-52.19
344.46	-69.14
344.843	-69.59
345.226	-36.6
345.61	-28.69
345.993	-20.55
346.376	-14.67
346.759	3.18
347.142	17.64
347.525	43.85
347.908	45.21
348.291	75.27
348.674	122.95
349.057	115.94
349.44	134.02
349.823	140.12
350.206	170.18
350.588	206.11
350.971	218.54
351.354	220.8
351.737	254.02
352.119	273.23
352.502	280.01
352.884	303.96
353.267	296.96
353.65	314.58
354.032	326.79
354.414	323.17
354.797	324.07
355.179	351.64
355.562	327.69
355.944	336.28
356.326	354.58
356.709	347.12
357.091	357.29
357.473	359.33
357.855	367.24
358.238	352.32
358.62	351.87
359.002	371.08
359.384	355.26
359.766	338.76
360.148	380.8
360.53	346.45
360.912	340.12
361.294	348.93
361.676	367.91
362.057	348.03
362.439	344.86
362.821	339.67
363.203	325.66
363.584	351.42
363.966	344.19
364.348	330.63
364.729	351.64
365.111	341.02
365.493	334.47
365.874	332.66
366.256	343.51
366.637	322.04
367.019	351.19
367.4	337.63
367.781	332.66
368.163	329.72
368.544	339.44
368.925	331.76
369.306	326.11
369.688	330.85
370.069	335.37
370.45	342.6
370.831	338.31
371.212	322.72
371.593	321.81
371.974	328.59
372.355	335.6
372.736	333.79
373.117	316.39
373.498	345.54
373.879	319.1
374.26	327.46
374.641	324.07
375.021	316.84
375.402	336.05
375.783	353.23
376.163	359.78
376.544	356.61
376.925	339.21
377.305	356.39
377.686	352.77
378.066	335.6
378.447	341.93
378.827	329.95
379.208	372.43
379.588	354.13
379.968	345.09
380.349	354.81
380.729	358.42
381.109	344.41
381.489	345.99
381.87	351.87
382.25	348.48
382.63	349.84
383.01	374.24
383.39	350.97
383.77	360.91
384.15	357.07
384.53	360.46
384.91	360.23
385.29	375.82
385.67	369.72
386.049	364.3
386.429	386.22
386.809	370.85
387.189	362.04
387.568	363.39
387.948	370.85
388.328	387.35
388.707	374.92
389.087	391.42
389.466	367.01
389.846	378.31
390.225	370.17
390.605	403.85
390.984	366.56
391.363	390.51
391.743	376.95
392.122	399.55
392.501	386.22
392.881	371.76
393.26	387.35
393.639	399.55
394.018	393.68
394.397	405.65
394.776	403.39
395.155	414.01
395.534	395.26
395.913	396.39
396.292	387.57
396.671	393
397.05	405.88
397.429	426.67
397.808	394.35
398.186	422.15
398.565	411.98
398.944	400
399.323	406.56
399.701	421.02
400.08	428.48
400.458	416.95
400.837	426.67
401.215	417.18
401.594	395.26
401.972	411.3
402.351	423.05
402.729	436.16
403.107	431.19
403.486	433.22
403.864	441.36
404.242	435.26
404.62	434.35
404.999	431.42
405.377	442.26
405.755	438.87
406.133	454.92
406.511	460.34
406.889	444.75
407.267	449.72
407.645	460.57
408.023	454.92
408.401	463.05
408.779	487.46
409.156	430.74
409.534	475.26
409.912	463.5
410.29	464.41
410.667	443.17
411.045	498.98
411.422	458.53
411.8	484.97
412.178	503.96
412.555	476.61
412.933	505.76
413.31	490.62
413.687	484.07
414.065	498.76
414.442	528.14
414.819	540.34
415.197	528.14
415.574	529.27
415.951	538.76
416.328	517.06
416.705	527.46
417.082	513.45
417.46	546.44
417.837	548.93
418.214	536.72
418.591	548.7
418.967	557.97
419.344	557.74
419.721	543.95
420.098	561.36
420.475	550.28
420.852	562.49
421.228	585.08
421.605	564.52
421.982	572.65
422.358	600.22
422.735	589.15
423.111	609.26
423.488	584.18
423.864	585.31
424.241	578.08
424.617	627.79
424.994	614.46
425.37	613.56
425.746	613.11
426.123	620.11
426.499	625.99
426.875	621.24
427.251	616.27
427.627	640
428.003	622.37
428.379	642.71
428.756	664.86
429.132	658.75
429.507	653.56
429.883	659.88
430.259	649.04
430.635	659.43
431.011	670.73
431.387	683.61
431.763	691.97
432.138	728.58
432.514	710.28
432.89	715.93
433.265	708.7
433.641	717.28
434.016	717.28
434.392	748.92
434.767	721.8
435.143	766.77
435.518	725.42
435.894	741.92
436.269	776.49
436.644	769.71
437.02	740.11
437.395	774.68
437.77	755.93
438.145	790.73
438.52	776.49
438.895	790.28
439.271	819.65
439.646	813.55
440.021	791.18
440.395	824.63
440.77	824.63
441.145	839.54
441.52	816.49
441.895	842.48
442.27	837.73
442.645	837.73
443.019	865.75
443.394	836.6
443.769	854.45
444.143	866.88
444.518	863.27
444.892	842.7
445.267	895.58
445.641	881.57
446.016	884.06
446.39	871.18
446.764	871.63
447.139	891.52
447.513	901.01
447.887	902.82
448.262	889.26
448.636	905.08
449.01	913.89
449.384	922.25
449.758	891.06
450.132	918.86
450.506	912.31
450.88	925.41
451.254	952.31
451.628	935.13
452.002	956.15
452.376	958.18
452.75	954.34
453.123	977.84
453.497	948.69
453.871	967.22
454.244	1001.12
454.618	952.53
454.992	994.56
455.365	991.17
455.739	1042.92
456.112	1024.85
456.486	1007.22
456.859	1054.22
457.232	1047.67
457.606	1033.89
457.979	1047.9
458.352	1084.05
458.725	1090.83
459.099	1082.25
459.472	1101.68
459.845	1102.36
460.218	1114.34
460.591	1112.53
460.964	1118.18
461.337	1133.32
461.71	1157.27
462.083	1154.79
462.456	1166.09
462.829	1162.47
463.201	1147.1
463.574	1144.16
463.947	1184.84
464.32	1205.63
464.692	1208.57
465.065	1230.49
465.438	1260.55
465.81	1230.04
466.183	1219.19
466.555	1257.38
466.928	1268.91
467.3	1260.32
467.672	1283.37
468.045	1283.6
468.417	1309.13
468.789	1307.78
469.161	1308.23
469.534	1349.36
469.906	1366.08
470.278	1368.34
470.65	1351.39
471.022	1376.7
471.394	1404.95
471.766	1418.28
472.138	1439.52
472.51	1480.65
472.882	1467.09
473.253	1451.5
473.625	1496.02
473.997	1499.64
474.369	1532.4
474.74	1542.8
475.112	1572.63
475.484	1601.1
475.855	1605.85
476.227	1594.55
476.598	1657.15
476.97	1660.76
477.341	1689.91
477.713	1719.52
478.084	1670.25
478.455	1768.78
478.827	1764.49
479.198	1802
479.569	1828.44
479.94	1839.74
480.311	1852.39
480.682	1919.96
481.053	1923.35
481.424	1946.63
481.795	1961.32
482.166	1982.56
482.537	2033.18
482.908	2084.93
483.279	2103.46
483.65	2124.03
484.021	2123.35
484.391	2163.12
484.762	2162.44
485.133	2234.98
485.503	2223.46
485.874	2248.32
486.244	2331.93
486.615	2360.18
486.985	2396.79
487.356	2453.28
487.726	2411.02
488.097	2475.43
488.467	2538.25
488.837	2540.51
489.207	2613.96
489.578	2618.25
489.948	2655.76
490.318	2701.19
490.688	2690.56
491.058	2764.69
491.428	2789.09
491.798	2829.09
492.168	2914.51
492.538	2874.29
492.908	2931.69
493.278	2961.52
493.648	3010.56
494.017	3041.52
494.387	3042.65
494.757	3069.76
495.126	3143.43
495.496	3175.52
495.866	3149.76
496.235	3199.7
496.605	3257.56
496.974	3293.49
497.344	3286.26
497.713	3334.39
498.082	3359.25
498.452	3474.05
498.821	3483.99
499.19	3480.83
499.559	3502.75
499.928	3570.99
500.298	3584.1
500.667	3612.12
501.036	3596.98
501.405	3610.54
501.774	3659.13
502.143	3689.63
502.512	3742.29
502.88	3790.87
503.249	3789.74
503.618	3827.94
503.987	3843.75
504.356	3913.13
504.724	3897.76
505.093	3906.13
505.462	3920.36
505.83	3996.07
506.199	4028.83
506.567	4055.05
506.936	4077.87
507.304	4187.7
507.672	4125.1
508.041	4173.01
508.409	4243.07
508.777	4224.76
509.145	4255.72
509.514	4270.18
509.882	4376.62
510.25	4360.8
510.618	4377.3
510.986	4410.29
511.354	4434.7
511.722	4460.46
512.09	4517.18
512.458	4525.32
512.826	4569.84
513.193	4591.31
513.561	4608.48
513.929	4662.94
514.297	4723.96
514.664	4776.16
515.032	4750.4
515.4	4717.63
515.767	4810.51
516.135	4871.3
516.502	4819.32
516.869	4916.95
517.237	4914.46
517.604	4951.97
517.972	4981.8
518.339	5035.36
518.706	5027.9
519.073	5069.26
519.44	5095.02
519.808	5164.85
520.175	5127.11
520.542	5234.23
520.909	5278.75
521.276	5228.13
521.643	5299.08
522.009	5347.9
522.376	5383.83
522.743	5415.24
523.11	5445.75
523.477	5544.95
523.843	5561.68
524.21	5641
524.577	5665.63
524.943	5682.12
525.31	5646.42
525.676	5742.69
526.043	5797.83
526.409	5791.95
526.776	5825.62
527.142	5880.09
527.508	5962.12
527.874	5999.18
528.241	5983.36
528.607	6025.39
528.973	6070.14
529.339	6078.5
529.705	6079.4
530.071	6161.89
530.437	6203.69
530.803	6267.65
531.169	6205.95
531.535	6231.71
531.901	6279.4
532.267	6318.27
532.632	6379.28
532.998	6365.5
533.364	6445.72
533.73	6413.86
534.095	6477.36
534.461	6512.16
534.826	6577.47
535.192	6585.38
535.557	6617.24
535.923	6591.71
536.288	6637.13
536.653	6672.16
537.019	6732.27
537.384	6742.44
537.749	6774.98
538.114	6769.33
538.479	6763.45
538.845	6852.72
539.21	6794.41
539.575	6898.14
539.94	6897.69
540.305	6945.82
540.67	6949.44
541.034	7028.08
541.399	7044.57
541.764	7095.42
542.129	7063.78
542.494	7139.94
542.858	7130
543.223	7197.34
543.587	7160.5
543.952	7215.64
544.316	7252.25
544.681	7353.04
545.045	7277.79
545.41	7381.74
545.774	7407.28
546.138	7354.17
546.503	7487.73
546.867	7472.59
547.231	7530.66
547.595	7541.74
547.959	7553.26
548.324	7654.28
548.688	7673.48
549.052	7664.9
549.416	7811.79
549.779	7771.34
550.143	7825.12
550.507	7900.6
550.871	7908.96
551.235	7925.23
551.599	8030.09
551.962	8102.85
552.326	8076.19
552.689	8162.29
553.053	8093.36
553.417	8189.18
553.78	8343.52
554.143	8258.55
554.507	8334.26
554.87	8342.85
555.234	8487.02
555.597	8495.16
555.96	8524.54
556.323	8611.77
556.686	8658.32
557.05	8749.84
557.413	8755.04
557.776	8825.09
558.139	8904.19
558.502	8945.32
558.865	8981.02
559.228	9092.66
559.59	9076.84
559.953	9195.93
560.316	9299.88
560.679	9310.5
561.041	9423.72
561.404	9509.14
561.767	9602.7
562.129	9620.55
562.492	9706.65
562.854	9804.05
563.217	9796.37
563.579	9943.03
563.941	10056.47
564.304	10076.81
564.666	10249.46
565.028	10317.48
565.39	10427.08
565.753	10456.91
566.115	10604.93
566.477	10641.32
566.839	10732.61
567.201	10935.09
567.563	11028.65
567.925	11104.35
568.287	11251.24
568.648	11302.09
569.01	11465.7
569.372	11632.02
569.734	11626.83
570.095	11883.54
570.457	12026.59
570.819	12087.38
571.18	12294.15
571.542	12446.47
571.903	12589.06
572.265	12707.48
572.626	12895.72
572.987	13064.08
573.349	13256.84
573.71	13477.4
574.071	13598.07
574.432	13821.35
574.794	14051.4
575.155	14227.44
575.516	14346.53
575.877	14594.43
576.238	14835.33
576.599	15018.6
576.96	15280.97
577.32	15619.04
577.681	15786.27
578.042	16047.5
578.403	16275.07
578.763	16449.53
579.124	16856.52
579.485	17230.07
579.845	17489.95
580.206	17699.89
580.566	17992.99
580.927	18294.9
581.287	18653.53
581.648	18891.04
582.008	19282.67
582.368	19506.62
582.728	19982.54
583.089	20218.24
583.449	20617.1
583.809	20979.8
584.169	21496.17
584.529	21707.69
584.889	22326.88
585.249	22531.17
585.609	23011.39
585.969	23365.95
586.329	23674.42
586.688	24200.06
587.048	24508.97
587.408	24900.38
587.768	25334.72
588.127	25762.27
588.487	26143.73
588.846	26874.56
589.206	27085.18
589.565	27622.11
589.925	27973.52
590.284	28381.19
590.643	28906.15
591.003	29423.65
591.362	30042.84
591.721	30350.4
592.08	30789.71
592.44	31414.1
592.799	31728.45
593.158	32304.93
593.517	32842.09
593.876	33237.78
594.235	33703.08
594.593	34199.57
594.952	34670.97
595.311	35084.74
595.67	35741.9
596.029	36319.29
596.387	36656.9
596.746	37129.66
597.104	37449.65
597.463	38050.31
597.822	38490.3
598.18	38831.54
598.538	39145.88
598.897	39781.57
599.255	39932.98
599.613	40934.53
599.972	41083.68
600.33	41515.08
600.688	41872.13
601.046	42482.96
601.404	43023.06
601.762	43259.89
602.12	43853.78
602.478	44171.06
602.836	44458.73
603.194	44724.94
603.552	45050.58
603.91	45339.16
604.268	45964.46
604.625	46109.08
604.983	46502.97
605.341	46659.35
605.698	47128.72
606.056	47471.76
606.413	47750.4
606.771	48196.04
607.128	48319.87
607.485	48408.68
607.843	48649.81
608.2	49117.37
608.557	49392.16
608.914	49557.36
609.272	49885.26
609.629	50183.55
609.986	50325.7
610.343	50392.59
610.7	50809.07
611.057	50864.21
611.414	50916.87
611.771	51322.73
612.127	51514.14
612.484	51596.62
612.841	51703.74
613.198	51852.21
613.554	51930.17
613.911	52199.32
614.267	52332.42
614.624	52396.38
614.98	52520.22
615.337	52784.61
615.693	52849.47
616.05	52926.53
616.406	53216.02
616.762	53042.46
617.118	53181.21
617.475	53216.47
617.831	53459.63
618.187	53476.57
618.543	53618.72
618.899	53801.09
619.255	53788.66
619.611	53939.39
619.967	54042.66
620.323	54131.7
620.678	54031.81
621.034	54102.32
621.39	54101.42
621.746	54151.36
622.101	54532.82
622.457	54293.28
622.812	54417.79
623.168	54538.24
623.523	54475.42
623.879	54602.65
624.234	54510.67
624.589	54651.91
624.945	54717.22
625.3	54794.73
625.655	54753.6
626.01	54783.66
626.365	54793.38
626.72	54826.14
627.075	54873.6
627.43	54859.14
627.785	54879.48
628.14	54948.85
628.495	55040.37
628.85	55016.65
629.205	54980.04
629.559	55053.48
629.914	55014.16
630.269	55030.43
630.623	55011
630.978	54938.91
631.332	55126.47
631.687	55221.84
632.041	55027.95
632.396	55171.44
632.75	54950.43
633.104	55130.32
633.459	54958.8
633.813	54952.92
634.167	54984.11
634.521	54961.28
634.875	55014.84
635.229	55040.37
635.583	54913.6
635.937	54948.17
636.291	54901.4
636.645	54888.51
636.999	54860.72
637.352	54904.11
637.706	54778.23
638.06	54925.12
638.413	54833.6
638.767	54744.79
639.121	54720.84
639.474	54690.1
639.828	54616.21
640.181	54669.76
640.534	54700.04
640.888	54700.04
641.241	54652.59
641.594	54727.16
641.947	54776.43
642.301	54657.11
642.654	54670.89
643.007	54711.8
643.36	54670.67
643.713	54669.76
644.066	54744.34
644.419	54562.2
644.771	54446.94
645.124	54095.09
645.477	54103.68
645.83	53933.96
646.182	53869.11
646.535	53747.98
646.888	53849.22
647.24	53696.68
647.593	53959.73
647.945	53806.28
648.298	53609.68
648.65	53651.48
649.002	53608.32
649.355	53644.93
649.707	53626.4
650.059	53705.95
650.411	54084.47
650.763	54191.36
651.115	54441.75
651.467	54316.33
651.819	54377.57
652.171	54240.62
652.523	54247.4
652.875	54207.4
653.227	54278.36
653.578	54397.91
653.93	54282.2
654.282	54160.17
654.633	54043.34
654.985	54202.88
655.337	54229.1
655.688	54263.22
656.039	54334.86
656.391	54018.71
656.742	54098.25
657.094	54190.45
657.445	54271.13
657.796	54206.27
658.147	54097.12
658.498	54088.76
658.849	54213.5
659.2	54090.12
659.551	54020.06
659.902	54185.93
660.253	54150.45
660.604	54146.84
660.955	53950.69
661.306	54050.8
661.656	53996.79
662.007	54112.94
662.358	54075.43
662.708	54119.27
663.059	54050.57
663.409	53854.87
663.76	54044.02
664.11	54139.61
664.461	54175.99
664.811	54045.15
665.161	54065.03
665.511	53994.75
665.862	53994.98
666.212	54116.56
666.562	54090.12
666.912	54056.9
667.262	54013.74
667.612	53985.71
667.962	54068.65
668.312	53962.44
668.662	53980.06
669.011	53960.63
669.361	53827.07
669.711	53966.28
670.06	53941.65
670.41	53871.82
670.76	53700.07
671.109	53851.93
671.459	53739.62
671.808	53685.16
672.157	53758.15
672.507	53596.34
672.856	53675.66
673.205	53636.8
673.554	53746.62
673.904	53599.28
674.253	53756.57
674.602	53710.92
674.951	53160.65
675.3	53102.57
675.649	53511.15
675.998	53492.39
676.346	53476.12
676.695	53607.87
677.044	53331.04
677.393	53433.19
677.741	53432.06
678.09	53400.87
678.438	53315.45
678.787	53392.96
679.135	53339.18
679.484	53132.4
679.832	53315.67
680.181	53096.7
680.529	53262.12
680.877	53127.2
681.225	53052.18
681.573	53284.71
681.922	53079.52
682.27	52962.46
682.618	53008.34
682.966	53001.78
683.314	53013.08
683.661	52861.22
684.009	52701.91
684.357	52654.67
684.705	52609.03
685.053	52700.78
685.4	52609.93
685.748	52423.49
686.095	52461.91
686.443	52329.49
686.79	52384.63
687.138	52398.41
687.485	52276.83
687.832	52152.77
688.18	52209.49
688.527	51968.59
688.874	52018.99
689.221	51886.33
689.568	51906.45
689.915	51806.56
690.262	51818.31
690.609	51567.7
690.956	51594.36
691.303	51570.64
691.65	51379.45
691.997	51432.11
692.344	51165.9
692.69	51188.27
693.037	51296.52
693.383	50870.99
693.73	50977.2
694.077	50831.67
694.423	50939.01
694.769	50769.3
695.116	50584.45
695.462	50567.95
695.808	50462.19
696.155	50437.33
696.501	50101.97
696.847	50215.87
697.193	49941.3
697.539	50188.3
697.885	49780.85
698.231	49767.29
698.577	49723
698.923	49703.79
699.269	49510.12
699.614	49316.46
699.96	49339.73
700.306	49274.42
700.651	49099.51
700.997	48843.93
701.342	48929.12
701.688	48782.46
702.033	48787.43
702.379	48641.67
702.724	48587.44
703.069	48647.1
703.415	48260.89
703.76	48264.96
704.105	48229.48
704.45	48029.71
704.795	47871.3
705.14	47696.16
705.485	47836.04
705.83	47570.51
706.175	47599.21
706.52	47404.87
706.865	47319.67
707.209	47253.91
707.554	47152.67
707.899	47188.38
708.243	46940.47
708.588	46823.87
708.932	46583.42
709.277	46657.32
709.621	46730.31
709.966	46324.45
710.31	46483.76
710.654	46167.84
710.998	46192.25
711.342	46208.52
711.687	46169.87
712.031	45800.84
712.375	45731.02
712.719	45997.22
713.063	45788.19
713.407	45940.5
713.75	45672.49
714.094	45565.6
714.438	45410.12
714.782	45400.18
715.125	45321.08
715.469	45369.22
715.812	45228.66
716.156	44950.24
716.499	45085.83
716.843	45087.64
717.186	44734.88
717.53	44970.81
717.873	44950.92
718.216	44755.9
718.559	44622.12
718.902	44329.02
719.246	44452.18
719.589	44377.38
719.932	44206.76
720.275	44185.74
720.617	44273.43
720.96	44222.13
721.303	44179.64
721.646	44068.91
721.989	43806.32
722.331	43945.98
722.674	43865.3
723.016	43866.43
723.359	43832.53
723.701	43686.55
724.044	43498.31
724.386	43435.93
724.729	43522.49
725.071	43458.31
725.413	43290.18
725.755	43361.59
726.097	43229.16
726.439	43040.01
726.782	43091.08
727.124	43287.92
727.465	43079.56
727.807	43049.73
728.149	43069.84
728.491	42998.43
728.833	43088.15
729.175	42844.54
729.516	42727.7
729.858	42724.09
730.199	42856.74
730.541	42787.82
730.882	42524.77
731.224	42751.43
731.565	42349.18
731.906	42425.57
732.248	42436.64
732.589	42131.79
732.93	42207.72
733.271	42227.38
733.612	42253.14
733.953	42132.24
734.294	41977.67
734.635	41929.53
734.976	42117.78
735.317	41869.2
735.658	41922.08
735.999	41962.75
736.339	41705.36
736.68	41959.59
737.021	41697.22
737.361	41612.48
737.702	41807.95
738.042	41596.89
738.383	41612.71
738.723	41635.3
739.063	41464.23
739.404	41488.64
739.744	41440.73
740.084	41278.25
740.424	41251.58
740.764	41302.2
741.104	41267.18
741.444	41213.62
741.784	41201.19
742.124	41247.97
742.464	41192.83
742.804	41108.76
743.143	40979.28
743.483	40975.89
743.823	40733.86
744.162	40872.39
744.502	40790.81
744.841	40736.12
745.181	40873.52
745.52	40677.59
745.86	40713.52
746.199	40592.62
746.538	40577.03
746.877	40674.2
747.216	40471.27
747.556	40556.24
747.895	40422.45
748.234	40283.25
748.573	40263.36
748.911	40143.37
749.25	40207.32
749.589	40138.62
749.928	40156.47
750.267	40182.46
750.605	39912.64
750.944	39798.06
751.283	39694.34
751.621	39981.79
751.96	39457.51
752.298	39577.5
752.636	39617.96
752.975	39522.59
753.313	39397.17
753.651	39546.54
753.989	39353.1
754.327	39243.5
754.666	39225.65
755.004	39167.57
755.342	39198.31
755.679	39095.71
756.017	38883.74
756.355	38922.38
756.693	38789.73
757.031	38706.57
757.368	38468.83
757.706	38525.33
758.044	38363.07
758.381	38401.04
758.719	38139.35
759.056	38222.51
