Data from orange_diffuse_book_FLMS001491_00045.txt Node
Date: Wed Feb 08 15:29:37 GMT 2017
User: dcchb
Spectrometer: FLMS00149
Trigger mode: 0
Integration Time (sec): 2.000000E-2
Scans to average: 10
Electric dark correction enabled: true
Nonlinearity correction enabled: false
Boxcar width: 0
XAxis mode: Wavelengths
Number of Pixels in Spectrum: 2048
>>>>>Begin Spectral Data<<<<<
341.393	-9.49
341.776	-9.49
342.16	-9.49
342.543	-60.11
342.927	-72.99
343.31	-74.12
343.693	-78.19
344.077	-55.59
344.46	-73.9
344.843	-44.74
345.226	-39.1
345.61	-29.15
345.993	-15.37
346.376	-6.33
346.759	-4.97
347.142	35.48
347.525	36.61
347.908	60.11
348.291	75.7
348.674	89.49
349.057	124.06
349.44	143.73
349.823	156.61
350.206	179.66
350.588	216.04
350.971	209.71
351.354	248.13
351.737	251.07
352.119	257.62
352.502	261.01
352.884	289.48
353.267	303.72
353.65	325.64
354.032	315.02
354.414	308.24
354.797	334.23
355.179	321.12
355.562	327
355.944	346.66
356.326	357.05
356.709	351.63
357.091	361.12
357.473	359.99
357.855	351.4
358.238	359.54
358.62	356.6
359.002	341.69
359.384	376.71
359.766	383.94
360.148	345.98
360.53	341.69
360.912	344.62
361.294	356.15
361.676	361.57
362.057	335.81
362.439	350.5
362.821	348.47
363.203	340.33
363.584	359.09
363.966	329.26
364.348	349.14
364.729	322.93
365.111	330.61
365.493	325.87
365.874	318.86
366.256	353.66
366.637	322.48
367.019	323.38
367.4	327.9
367.781	333.55
368.163	341.01
368.544	332.42
368.925	321.12
369.306	319.99
369.688	350.95
370.069	328.13
370.45	350.95
370.831	353.21
371.212	310.95
371.593	310.5
371.974	332.19
372.355	322.03
372.736	319.31
373.117	329.48
373.498	327.22
373.879	327.9
374.26	327.22
374.641	316.83
375.021	335.13
375.402	325.87
375.783	341.69
376.163	348.69
376.544	337.62
376.925	338.52
377.305	346.88
377.686	354.11
378.066	327.68
378.447	341.91
378.827	311.18
379.208	348.92
379.588	345.75
379.968	330.16
380.349	362.25
380.729	350.95
381.109	342.82
381.489	360.67
381.87	323.83
382.25	347.11
382.63	327.22
383.01	370.61
383.39	370.61
383.77	354.34
384.15	362.93
384.53	358.41
384.91	365.64
385.29	376.04
385.67	359.76
386.049	384.4
386.429	378.75
386.809	364.28
387.189	369.71
387.568	380.1
387.948	380.78
388.328	369.26
388.707	355.02
389.087	387.56
389.466	380.1
389.846	376.26
390.225	377.84
390.605	382.14
390.984	366.09
391.363	388.01
391.743	399.99
392.122	383.72
392.501	376.94
392.881	401.35
393.26	376.04
393.639	383.72
394.018	396.83
394.397	398.41
394.776	387.79
395.155	371.52
395.534	407.45
395.913	397.28
396.292	405.64
396.671	380.55
397.05	374.91
397.429	400.44
397.808	409.03
398.186	411.29
398.565	407.45
398.944	402.02
399.323	383.49
399.701	411.51
400.08	426.43
400.458	404.96
400.837	407.45
401.215	406.32
401.594	442.47
401.972	420.33
402.351	436.15
402.729	419.2
403.107	437.5
403.486	422.14
403.864	404.51
404.242	427.56
404.62	435.47
404.999	430.95
405.377	433.21
405.755	441.34
406.133	441.12
406.511	450.84
406.889	454.9
407.267	439.54
407.645	453.1
408.023	442.93
408.401	464.62
408.779	468.46
409.156	461
409.534	472.53
409.912	465.98
410.29	477.05
410.667	481.34
411.045	488.35
411.422	476.82
411.8	481.8
412.178	492.42
412.555	475.92
412.933	485.64
413.31	503.72
413.687	518.18
414.065	510.72
414.442	506.43
414.819	528.35
415.197	508.01
415.574	516.37
415.951	521.12
416.328	528.57
416.705	525.41
417.082	535.13
417.46	531.06
417.837	541.23
418.214	531.29
418.591	543.94
418.967	543.04
419.344	547.56
419.721	557.05
420.098	569.48
420.475	564.96
420.852	542.81
421.228	573.32
421.605	559.08
421.982	583.71
422.358	564.28
422.735	574.45
423.111	569.7
423.488	569.02
423.864	574.9
424.241	597.05
424.617	594.11
424.994	584.39
425.37	609.25
425.746	619.87
426.123	600.66
426.499	627.1
426.875	623.94
427.251	614.22
427.627	618.29
428.003	632.3
428.379	640.66
428.756	637.95
429.132	631.17
429.507	647.89
429.883	656.25
430.259	662.36
430.635	666.2
431.011	656.71
431.387	668.91
431.763	680.43
432.138	681.11
432.514	704.39
432.89	706.2
433.265	710.94
433.641	717.72
434.016	696.48
434.392	738.51
434.767	726.53
435.143	722.69
435.518	742.58
435.894	732.41
436.269	748.23
436.644	762.24
437.02	770.38
437.395	770.83
437.77	791.39
438.145	773.99
438.52	794.56
438.895	805.18
439.271	801.79
439.646	808.79
440.021	811.05
440.395	806.76
440.77	820.54
441.145	813.09
441.52	827.55
441.895	839.98
442.27	836.81
442.645	821.22
443.019	842.24
443.394	843.37
443.769	853.31
444.143	832.97
444.518	840.43
444.892	848.57
445.267	886.3
445.641	844.27
446.016	882.91
446.39	858.28
446.764	883.37
447.139	869.81
447.513	868.45
447.887	875.68
448.262	884.95
448.636	898.51
449.01	884.04
449.384	910.48
449.758	917.04
450.132	913.42
450.506	921.33
450.88	902.58
451.254	919.75
451.628	941.22
452.002	937.83
452.376	951.16
452.75	945.74
453.123	958.84
453.497	953.65
453.871	946.64
454.244	978.05
454.618	973.08
454.992	988.67
455.365	979.86
455.739	1027.54
456.112	996.58
456.486	1026.64
456.859	1040.65
457.232	1032.06
457.606	1044.27
457.979	1062.57
458.352	1066.19
458.725	1064.38
459.099	1055.79
459.472	1089.69
459.845	1097.37
460.218	1123.59
460.591	1105.73
460.964	1119.97
461.337	1138.28
461.71	1157.26
462.083	1187.31
462.456	1169.91
462.829	1171.04
463.201	1202.23
463.574	1178.27
463.947	1213.3
464.32	1206.97
464.692	1183.47
465.065	1254.66
465.438	1237.26
465.81	1227.54
466.183	1244.49
466.555	1288.33
466.928	1275.67
467.3	1272.73
467.672	1260.53
468.045	1315.67
468.417	1299.85
468.789	1314.99
469.161	1320.64
469.534	1346.18
469.906	1388.44
470.278	1397.48
470.65	1389.79
471.022	1410.36
471.394	1439.96
471.766	1446.06
472.138	1424.82
472.51	1456.01
472.882	1510.24
473.253	1522.45
473.625	1485.61
473.997	1527.42
474.369	1527.42
474.74	1550.24
475.112	1575.33
475.484	1594.76
475.855	1610.58
476.227	1628.21
476.598	1646.96
476.97	1662.56
477.341	1704.36
477.713	1714.53
478.084	1738.49
478.455	1746.39
478.827	1782.78
479.198	1823.91
479.569	1819.16
479.94	1861.42
480.311	1893.74
480.682	1912.49
481.053	1948.42
481.424	1993.62
481.795	1975.77
482.166	2011.25
482.537	2019.38
482.908	2099.38
483.279	2090.34
483.65	2137.8
484.021	2168.76
484.391	2203.33
484.762	2212.6
485.133	2237.68
485.503	2248.75
485.874	2314.74
486.244	2376.43
486.615	2373.27
486.985	2395.87
487.356	2430.22
487.726	2479.48
488.097	2515.19
488.467	2471.57
488.837	2543.44
489.207	2608.07
489.578	2662.98
489.948	2692.81
490.318	2697.33
490.688	2738.46
491.058	2745.46
491.428	2812.13
491.798	2835.63
492.168	2885.12
492.538	2903.43
492.908	2953.37
493.278	3003.99
493.648	3020.71
494.017	3055.29
494.387	3081.05
494.757	3112.46
495.126	3124.66
495.496	3146.58
495.866	3199.46
496.235	3220.71
496.605	3274.26
496.974	3312.68
497.344	3323.53
497.713	3405.79
498.082	3380.02
498.452	3415.73
498.821	3462.96
499.19	3493.92
499.559	3549.29
499.928	3523.98
500.298	3566.91
500.667	3600.81
501.036	3603.75
501.405	3673.12
501.774	3674.71
502.143	3729.85
502.512	3748.38
502.88	3775.27
503.249	3769.62
503.618	3806.91
503.987	3847.81
504.356	3837.87
504.724	3867.69
505.093	3903.4
505.462	3938.2
505.83	3932.55
506.199	4002.61
506.567	4038.31
506.936	4071.08
507.304	4124.19
507.672	4108.59
508.041	4152.66
508.409	4181.81
508.777	4260.68
509.145	4283.96
509.514	4271.98
509.882	4316.04
510.25	4318.08
510.618	4392.43
510.986	4360.34
511.354	4376.83
511.722	4483.27
512.09	4517.62
512.458	4520.56
512.826	4537.96
513.193	4564.85
513.561	4587.45
513.929	4645.08
514.297	4705.19
514.664	4730.5
515.032	4722.81
515.4	4778.18
515.767	4814.11
516.135	4833.55
516.502	4793.77
516.869	4879.19
517.237	4904.05
517.604	4884.17
517.972	5010.72
518.339	4990.38
518.706	5041.45
519.073	5009.59
519.44	5089.13
519.808	5166.42
520.175	5176.36
520.542	5175.46
520.909	5264.04
521.276	5280.54
521.643	5317.37
522.009	5341.78
522.376	5372.29
522.743	5418.39
523.11	5458.84
523.477	5541.78
523.843	5565.5
524.21	5579.97
524.577	5603.69
524.943	5649.57
525.31	5660.87
525.676	5720.08
526.043	5755.78
526.409	5811.37
526.776	5855.67
527.142	5855.44
527.508	5891.6
527.874	5897.02
528.241	5988.09
528.607	5973.18
528.973	6080.29
529.339	6080.97
529.705	6160.29
530.071	6135.88
530.437	6168.88
530.803	6231.93
531.169	6270.57
531.535	6286.39
531.901	6249.55
532.267	6343.79
532.632	6322.55
532.998	6325.71
533.364	6387.18
533.73	6435.31
534.095	6497.46
534.461	6487.51
534.826	6538.13
535.192	6609.77
535.557	6629.2
535.923	6627.85
536.288	6664.91
536.653	6691.12
537.019	6687.06
537.384	6660.84
537.749	6764.12
538.114	6796.66
538.479	6787.39
538.845	6848.86
539.21	6841.4
539.575	6875.3
539.94	6928.18
540.305	6935.41
540.67	6929.99
541.034	7003.43
541.399	7029.87
541.764	7011.57
542.129	7071.9
542.494	7145.12
542.858	7143.99
543.223	7171.56
543.587	7223.99
543.952	7264.67
544.316	7200.71
544.681	7247.27
545.045	7325.91
545.41	7369.3
545.774	7411.1
546.138	7430.09
546.503	7457.43
546.867	7469.86
547.231	7522.97
547.595	7531.33
547.959	7574.26
548.324	7536.98
548.688	7604.32
549.052	7630.76
549.416	7735.84
549.779	7693.58
550.143	7820.59
550.507	7856.52
550.871	7910.3
551.235	7908.27
551.599	8012.22
551.962	8000.24
552.326	8065.55
552.689	8067.36
553.053	8032.11
553.417	8137.64
553.78	8267.58
554.143	8260.35
554.507	8258.77
554.87	8300.8
555.234	8400.46
555.597	8415.82
555.96	8504.18
556.323	8541.7
556.686	8564.52
557.05	8710.28
557.413	8687.68
557.776	8726.32
558.139	8841.35
558.502	8832.31
558.865	8941.01
559.228	9017.62
559.59	9040.44
559.953	9120.21
560.316	9236.82
560.679	9288.34
561.041	9317.04
561.404	9333.31
561.767	9449.7
562.129	9509.81
562.492	9609.69
562.854	9698.95
563.217	9719.52
563.579	9771.72
563.941	9878.16
564.304	10009.91
564.666	10096.46
565.028	10165.61
565.39	10194.99
565.753	10371.7
566.115	10493.28
566.477	10634.75
566.839	10735.54
567.201	10712.49
567.563	10830.22
567.925	10987.06
568.287	11041.07
568.648	11218.01
569.01	11240.61
569.372	11498.23
569.734	11459.59
570.095	11674.95
570.457	11865.68
570.819	11887.37
571.18	12048.04
571.542	12263.86
571.903	12353.8
572.265	12518.31
572.626	12650.29
572.987	12869.72
573.349	12994.69
573.71	13139.99
574.071	13339.31
574.432	13532.3
574.794	13734.33
575.155	13897.94
575.516	14004.83
575.877	14384.03
576.238	14501.77
576.599	14755.32
576.96	14869.67
577.32	15089.09
577.681	15402.31
578.042	15656.09
578.403	15761.39
578.763	16068.96
579.124	16330.19
579.485	16663.52
579.845	17022.38
580.206	17160.9
580.566	17525.87
580.927	17840.66
581.287	18092.63
581.648	18272.29
582.008	18649
582.368	18972.38
582.728	19315.65
583.089	19603.55
583.449	19924.22
583.809	20218
584.169	20596.97
584.529	20946.12
584.889	21434.69
585.249	21618.64
585.609	21918.75
585.969	22461.33
586.329	22808.67
586.688	23169.56
587.048	23528.65
587.408	23881.41
587.768	24337.21
588.127	24650.2
588.487	25047.93
588.846	25738.76
589.206	25872.54
589.565	26297.39
589.925	26922.46
590.284	27293.07
590.643	27577.35
591.003	28073.84
591.362	28719.7
591.721	29007.37
592.08	29498.89
592.44	29885.32
592.799	30318.3
593.158	30789.47
593.517	31193.76
593.876	31697.92
594.235	32170.91
594.593	32573.83
594.952	33128.85
595.311	33320.93
595.67	34006.11
596.029	34547.11
596.387	34900.78
596.746	35559.29
597.104	35616.92
597.463	36174.19
597.822	36648.08
598.18	37021.85
598.538	37430.43
598.897	37973.46
599.255	38198.54
599.613	39006.88
599.972	39056.6
600.33	39673.08
600.688	39864.04
601.046	40341.31
601.404	40879.83
601.762	41105.13
602.12	41675.97
602.478	42122.96
602.836	42387.13
603.194	42542.38
603.552	43087.68
603.91	43291.52
604.268	43864.38
604.625	44128.33
604.983	44552.5
605.341	44679.28
605.698	45102.99
606.056	45475.64
606.413	45704.33
606.771	46116.53
607.128	46290.08
607.485	46431.77
607.843	46661.15
608.2	47124.86
608.557	47482.82
608.914	47474.23
609.272	47881.68
609.629	48157.83
609.986	48488.22
610.343	48462.23
610.7	48901.09
611.057	48993.06
611.414	49328.19
611.771	49361.87
612.127	49645.25
612.484	49700.61
612.841	50011.79
613.198	49976.99
613.554	50125.01
613.911	50517.77
614.267	50621.04
614.624	50625.79
614.98	50757.54
615.337	51087.24
615.693	51152.55
616.05	51213.12
616.406	51533.33
616.762	51426.9
617.118	51611.98
617.475	51687.45
617.831	51792.31
618.187	51940.1
618.543	52020.55
618.899	52281.11
619.255	52244.05
619.611	52262.35
619.967	52464.61
620.323	52568.56
620.678	52410.83
621.034	52509.81
621.39	52492.63
621.746	52624.38
622.101	52933.75
622.457	52705.51
622.812	52840.42
623.168	52915.9
623.523	52981.43
623.879	53225.72
624.234	52974.88
624.589	53094.2
624.945	53139.17
625.3	53325.6
625.655	53228.66
626.01	53242.44
626.365	53375.32
626.72	53376.9
627.075	53363.79
627.43	53345.49
627.785	53361.76
628.14	53439.05
628.495	53439.72
628.85	53378.48
629.205	53328.77
629.559	53588.87
629.914	53444.02
630.269	53504.58
630.623	53435.88
630.978	53397.24
631.332	53523.34
631.687	53592.94
632.041	53451.48
632.396	53589.33
632.75	53513.4
633.104	53604.47
633.459	53458.26
633.813	53531.02
634.167	53505.94
634.521	53424.58
634.875	53582.09
635.229	53489.22
635.583	53314.08
635.937	53361.99
636.291	53366.96
636.645	53397.47
636.999	53382.1
637.352	53473.85
637.706	53248.77
638.06	53385.71
638.413	53311.37
638.767	53230.46
639.121	53314.98
639.474	53194.31
639.828	53184.59
640.181	53195.44
640.534	53272.27
640.888	53225.49
641.241	53012.39
641.594	53220.3
641.947	53236.11
642.301	53103.01
642.654	53197.7
643.007	53189.11
643.36	53109.34
643.713	53096.91
644.066	53154.53
644.419	52951.15
644.771	52774.88
645.124	52516.81
645.477	52540.09
645.83	52353.88
646.182	52195.92
646.535	52127.67
646.888	52287.21
647.24	52128.35
647.593	52299.87
647.945	52127.22
648.298	52121.34
648.65	52045.41
649.002	51941.69
649.355	51967
649.707	52050.83
650.059	52086.09
650.411	52543.7
650.763	52520.65
651.115	52839.74
651.467	52762
651.819	52789.35
652.171	52636.81
652.523	52711.16
652.875	52607.88
653.227	52505.96
653.578	52750.48
653.93	52677.94
654.282	52534.89
654.633	52576.47
654.985	52655.11
655.337	52628.67
655.688	52558.17
656.039	52726.52
656.391	52384.16
656.742	52505.96
657.094	52522.69
657.445	52677.03
657.796	52588.67
658.147	52566.75
658.498	52548.45
658.849	52511.39
659.2	52475.46
659.551	52405.18
659.902	52564.04
660.253	52517.26
660.604	52551.16
660.955	52343.26
661.306	52527.43
661.656	52489.02
662.007	52379.19
662.358	52428
662.708	52422.8
663.059	52392.52
663.409	52193.2
663.76	52462.35
664.11	52454.67
664.461	52406.08
664.811	52424.84
665.161	52447.89
665.511	52259.87
665.862	52385.74
666.212	52440.43
666.562	52416.7
666.912	52449.24
667.262	52369.7
667.612	52357.27
667.962	52397.49
668.312	52254.9
668.662	52541.22
669.011	52416.93
669.361	52290.38
669.711	52303.03
670.06	52300.55
670.41	52177.39
670.76	52053.09
671.109	52240.66
671.459	52171.51
671.808	52076.6
672.157	52116.6
672.507	52023.94
672.856	51943.94
673.205	52105.52
673.554	52117.27
673.904	51944.62
674.253	52169.48
674.602	51933.78
674.951	51440.23
675.3	51387.8
675.649	51895.81
675.998	51893.32
676.346	51878.86
676.695	51928.58
677.044	51701.92
677.393	51759.54
677.741	51804.97
678.09	51748.24
678.438	51630.28
678.787	51735.36
679.135	51751.41
679.484	51515.03
679.832	51573.56
680.181	51387.8
680.529	51521.58
680.877	51400.91
681.225	51436.16
681.573	51501.7
681.922	51300.57
682.27	51254.25
682.618	51251.53
682.966	51226.9
683.314	51274.58
683.661	51224.19
684.009	50905.55
684.357	50928.15
684.705	50879.34
685.053	50877.76
685.4	50918.21
685.748	50609.97
686.095	50677.99
686.443	50526.13
686.79	50479.58
687.138	50574.04
687.485	50482.74
687.832	50333.82
688.18	50423.76
688.527	50166.82
688.874	50234.61
689.221	50112.13
689.568	50094.95
689.915	49948.74
690.262	49889.99
690.609	49736.09
690.956	49657.45
691.303	49698.35
691.65	49460.85
691.997	49425.82
692.344	49253.39
692.69	49227.41
693.037	49355.99
693.383	49011.59
693.73	49189.67
694.077	48860.86
694.423	48802.11
694.769	48754.88
695.116	48700.64
695.462	48680.98
695.808	48424.72
696.155	48578.61
696.501	48154.44
696.847	48294.55
697.193	48157.38
697.539	48046.42
697.885	47801.45
698.231	47736.6
698.577	47653.66
698.923	47626.32
699.269	47497.06
699.614	47249.61
699.96	47190.4
700.306	47239.66
700.651	47006
700.997	46817.3
701.342	46892.55
701.688	46879.9
702.033	46601.03
702.379	46426.8
702.724	46526.46
703.069	46523.97
703.415	46151.33
703.76	46036.3
704.105	45987.49
704.45	45979.81
704.795	45836.99
705.14	45628.63
705.485	45666.6
705.83	45437
706.175	45537.33
706.52	45358.13
706.865	45250.34
707.209	45126.95
707.554	45063
707.899	45085.14
708.243	44894.19
708.588	44739.84
708.932	44514.08
709.277	44531.71
709.621	44668.43
709.966	44277.93
710.31	44349.12
710.654	43983.25
710.998	44176.24
711.342	44096.24
711.687	43919.3
712.031	43716.59
712.375	43589.36
712.719	43760.66
713.063	43618.74
713.407	43818.06
713.75	43462.81
714.094	43609.02
714.438	43255.81
714.782	43437.05
715.125	43150.05
715.469	43228.47
715.812	43001.81
716.156	42737.86
716.499	42845.2
716.843	42937.18
717.186	42688.14
717.53	42867.35
717.873	42897.86
718.216	42627.13
718.559	42506.9
718.902	42346.23
719.246	42391.88
719.589	42290.41
719.932	42175.84
720.275	42109.18
720.617	42085.45
720.96	41984.88
721.303	42000.7
721.646	41962.06
721.989	41693.82
722.331	42008.84
722.674	41800.71
723.016	41871.22
723.359	41555.97
723.701	41578.12
724.044	41448.4
724.386	41367.05
724.729	41555.07
725.071	41199.37
725.413	41341.74
725.755	41436.65
726.097	41105.59
726.439	40935.19
726.782	41017.45
727.124	41238.24
727.465	40879.83
727.807	41045.93
728.149	40777.46
728.491	40798.25
728.833	40845.93
729.175	40647.97
729.516	40680.51
729.858	40559.39
730.199	40623.56
730.541	40459.73
730.882	40413.4
731.224	40622.89
731.565	40293.86
731.906	40379.05
732.248	40448.2
732.589	40194.65
732.93	40125.95
733.271	40183.8
733.612	40145.16
733.953	40184.93
734.294	39905.62
734.635	39870.82
734.976	40085.95
735.317	39684.83
735.658	39876.69
735.999	39737.94
736.339	39635.79
736.68	39804.83
737.021	39580.65
737.361	39490.94
737.702	39777.03
738.042	39602.35
738.383	39489.58
738.723	39586.53
739.063	39490.49
739.404	39584.95
739.744	39377.27
740.084	39276.48
740.424	39219.76
740.764	39214.79
741.104	39265.18
741.444	39160.33
741.784	39051.4
742.124	39243.71
742.464	38991.97
742.804	38938.41
743.143	38908.81
743.483	38834.23
743.823	38683.05
744.162	38721.24
744.502	38785.87
744.841	38670.4
745.181	38828.58
745.52	38502.49
745.86	38562.15
746.199	38580
746.538	38496.39
746.877	38431.53
747.216	38374.13
747.556	38386.56
747.895	38422.49
748.234	38260.46
748.573	38045.55
748.911	38167.81
749.25	38128.04
749.589	37881.26
749.928	38136.62
750.267	38077.64
750.605	37927.14
750.944	37819.12
751.283	37800.59
751.621	37872.9
751.96	37657.31
752.298	37696.18
752.636	37513.36
752.975	37555.62
753.313	37357.44
753.651	37627.94
753.989	37211.45
754.327	37207.16
754.666	37054.17
755.004	37096.43
755.342	37040.83
755.679	36913.15
756.017	36925.81
756.355	36853.49
756.693	36777.34
757.031	36698.92
757.368	36639.94
757.706	36554.75
758.044	36511.36
758.381	36436.78
758.719	36263
759.056	36354.3
759.394	36223.68
