Data from orange_diffuse_book_FLMS001491_00060.txt Node
Date: Wed Feb 08 15:29:46 GMT 2017
User: dcchb
Spectrometer: FLMS00149
Trigger mode: 0
Integration Time (sec): 2.000000E-2
Scans to average: 10
Electric dark correction enabled: true
Nonlinearity correction enabled: false
Boxcar width: 0
XAxis mode: Wavelengths
Number of Pixels in Spectrum: 2048
>>>>>Begin Spectral Data<<<<<
341.393	4.18
341.776	4.18
342.16	4.18
342.543	-53.9
342.927	-64.52
343.31	-69.49
343.693	-64.52
344.077	-67.46
344.46	-54.12
344.843	-39.66
345.226	-61.58
345.61	-36.27
345.993	0.56
346.376	-22.71
346.759	18.87
347.142	27
347.525	43.5
347.908	63.16
348.291	62.26
348.674	90.96
349.057	109.49
349.44	127.34
349.823	127.34
350.206	152.88
350.588	207.34
350.971	213.44
351.354	241.24
351.737	274.23
352.119	266.77
352.502	267.22
352.884	294.12
353.267	292.76
353.65	305.87
354.032	324.62
354.414	335.7
354.797	321.69
355.179	316.71
355.562	343.61
355.944	342.7
356.326	341.57
356.709	345.64
357.091	354.68
357.473	339.54
357.855	350.61
358.238	345.87
358.62	356.94
359.002	341.12
359.384	346.77
359.766	353.55
360.148	350.16
360.53	347.45
360.912	382.93
361.294	346.54
361.676	333.66
362.057	338.18
362.439	372.53
362.821	348.35
363.203	340.67
363.584	357.62
363.966	343.61
364.348	329.6
364.729	328.92
365.111	335.02
365.493	330.95
365.874	333.21
366.256	321.69
366.637	343.15
367.019	331.4
367.4	342.48
367.781	335.25
368.163	336.38
368.544	334.79
368.925	305.64
369.306	333.89
369.688	320.78
370.069	323.72
370.45	339.77
370.831	324.17
371.212	333.66
371.593	314.23
371.974	317.62
372.355	321.91
372.736	339.99
373.117	342.25
373.498	337.05
373.879	331.63
374.26	315.58
374.641	343.15
375.021	336.15
375.402	339.77
375.783	331.63
376.163	352.19
376.544	322.14
376.925	332.53
377.305	349.03
377.686	324.17
378.066	337.51
378.447	330.73
378.827	354.68
379.208	349.03
379.588	325.75
379.968	333.66
380.349	328.69
380.729	365.08
381.109	358.3
381.489	321.91
381.87	337.73
382.25	332.31
382.63	359.2
383.01	342.7
383.39	352.42
383.77	343.15
384.15	363.04
384.53	344.06
384.91	347
385.29	368.69
385.67	343.38
386.049	367.56
386.429	367.79
386.809	379.76
387.189	356.71
387.568	377.5
387.948	366.88
388.328	375.7
388.707	366.88
389.087	370.95
389.466	380.67
389.846	380.89
390.225	393.77
390.605	386.09
390.984	385.19
391.363	369.14
391.743	408.24
392.122	386.54
392.501	370.95
392.881	385.64
393.26	387.45
393.639	405.07
394.018	390.61
394.397	381.57
394.776	398.07
395.155	393.77
395.534	407.11
395.913	380.67
396.292	385.19
396.671	395.81
397.05	405.53
397.429	409.82
397.808	407.56
398.186	401.68
398.565	401.46
398.944	395.36
399.323	399.65
399.701	410.95
400.08	409.37
400.458	432.42
400.837	425.64
401.215	421.57
401.594	410.72
401.972	419.99
402.351	425.19
402.729	392.19
403.107	441.23
403.486	440.1
403.864	407.33
404.242	427.67
404.62	437.84
404.999	417.5
405.377	460.44
405.755	454.79
406.133	452.76
406.511	448.91
406.889	451.63
407.267	463.6
407.645	459.31
408.023	463.6
408.401	450.04
408.779	456.6
409.156	479.65
409.534	481.68
409.912	474
410.29	457.5
410.667	476.71
411.045	461.34
411.422	480.78
411.8	473.09
412.178	479.65
412.555	475.35
412.933	470.38
413.31	501.34
413.687	509.93
414.065	496.82
414.442	509.25
414.819	492.76
415.197	504.28
415.574	511.51
415.951	504.28
416.328	496.37
416.705	516.03
417.082	520.1
417.46	532.08
417.837	536.82
418.214	519.87
418.591	558.52
418.967	538.63
419.344	539.08
419.721	564.17
420.098	539.99
420.475	548.35
420.852	587.89
421.228	545.86
421.605	572.08
421.982	564.17
422.358	549.7
422.735	570.95
423.111	583.37
423.488	583.6
423.864	597.39
424.241	582.7
424.617	588.12
424.994	598.29
425.37	610.49
425.746	602.81
426.123	602.81
426.499	596.26
426.875	601.23
427.251	625.86
427.627	637.38
428.003	630.15
428.379	638.06
428.756	627.44
429.132	645.52
429.507	640.77
429.883	653.2
430.259	666.31
430.635	655.91
431.011	658.63
431.387	669.93
431.763	665.18
432.138	680.32
432.514	682.13
432.89	666.08
433.265	704.05
433.641	676.71
434.016	704.28
434.392	699.53
434.767	717.38
435.143	713.31
435.518	712.18
435.894	737.95
436.269	751.05
436.644	738.85
437.02	765.06
437.395	763.71
437.77	764.61
438.145	761.9
438.52	765.52
438.895	785.18
439.271	788.11
439.646	789.47
440.021	771.62
440.395	792.18
440.77	792.63
441.145	799.87
441.52	820.88
441.895	811.17
442.27	791.5
442.645	812.52
443.019	844.16
443.394	808.45
443.769	818.4
444.143	845.29
444.518	824.5
444.892	833.76
445.267	857.27
445.641	841.45
446.016	845.06
446.39	845.06
446.764	852.29
447.139	872.86
447.513	857.27
447.887	864.5
448.262	855.46
448.636	883.48
449.01	885.74
449.384	878.28
449.758	877.83
450.132	882.58
450.506	895.91
450.88	919.41
451.254	912.41
451.628	918.96
452.002	962.12
452.376	931.61
452.75	924.38
453.123	922.35
453.497	946.98
453.871	938.39
454.244	967.55
454.618	961.67
454.992	987.88
455.365	994.44
455.739	997.83
456.112	1000.54
456.486	1026.53
456.859	1004.15
457.232	1020.43
457.606	1026.07
457.979	1003.02
458.352	1044.83
458.725	1071.5
459.099	1066.53
459.472	1088.67
459.845	1076.47
460.218	1088.9
460.591	1073.98
460.964	1070.14
461.337	1110.82
461.71	1132.06
462.083	1134.77
462.456	1131.61
462.829	1127.77
463.201	1169.35
463.574	1167.54
463.947	1187.65
464.32	1170.03
464.692	1206.63
465.065	1188.56
465.438	1177.71
465.81	1196.69
466.183	1227.2
466.555	1250.02
466.928	1232.17
467.3	1243.92
467.672	1240.08
468.045	1286.18
468.417	1255.67
468.789	1277.82
469.161	1304.71
469.534	1321.21
469.906	1337.03
470.278	1345.84
470.65	1335.9
471.022	1352.39
471.394	1405.73
471.766	1368.21
472.138	1403.92
472.51	1420.64
472.882	1427.42
473.253	1497.7
473.625	1456.57
473.997	1495.89
474.369	1492.05
474.74	1525.27
475.112	1516.01
475.484	1551.03
475.855	1534.31
476.227	1588.77
476.598	1620.18
476.97	1625.38
477.341	1678.94
477.713	1680.75
478.084	1699.73
478.455	1729.56
478.827	1732.5
479.198	1782.89
479.569	1790.35
479.94	1848.65
480.311	1821.31
480.682	1903.11
481.053	1920.74
481.424	1929.55
481.795	1960.74
482.166	1950.8
482.537	2022.21
482.908	2043.22
483.279	2066.5
483.65	2100.85
484.021	2090.23
484.391	2123.67
484.762	2119.15
485.133	2169.1
485.503	2231.01
485.874	2266.04
486.244	2252.26
486.615	2298.13
486.985	2350.79
487.356	2402.08
487.726	2380.62
488.097	2447.73
488.467	2467.17
488.837	2504.45
489.207	2539.26
489.578	2591.68
489.948	2617.45
490.318	2627.84
490.688	2663.32
491.058	2692.02
491.428	2739.25
491.798	2753.26
492.168	2764.56
492.538	2857.89
492.908	2871.45
493.278	2932.47
493.648	2928.85
494.017	2985.57
494.387	3017.66
494.757	3021.5
495.126	3054.5
495.496	3083.42
495.866	3085.68
496.235	3097.88
496.605	3176.3
496.974	3185.34
497.344	3253.81
497.713	3256.98
498.082	3307.82
498.452	3347.6
498.821	3345.56
499.19	3336.3
499.559	3443.64
499.928	3470.53
500.298	3435.05
500.667	3481.15
501.036	3538.1
501.405	3563.41
501.774	3574.93
502.143	3600.02
502.512	3622.16
502.88	3657.19
503.249	3683.18
503.618	3704.87
503.987	3753.46
504.356	3823.06
504.724	3810.18
505.093	3806.57
505.462	3812.22
505.83	3841.37
506.199	3880.46
506.567	3907.81
506.936	3967.69
507.304	3989.84
507.672	3998.65
508.041	4033.45
508.409	4086.33
508.777	4099.21
509.145	4137.41
509.514	4157.97
509.882	4193.45
510.25	4188.7
510.618	4201.36
510.986	4288.14
511.354	4300.34
511.722	4330.62
512.09	4355.03
512.458	4373.78
512.826	4397.96
513.193	4379.21
513.561	4416.04
513.929	4488.81
514.297	4546.43
514.664	4544.17
515.032	4555.47
515.4	4629.82
515.767	4618.97
516.135	4640.44
516.502	4650.39
516.869	4739.42
517.237	4773.09
517.604	4767.9
517.972	4804.05
518.339	4820.33
518.706	4853.09
519.073	4849.7
519.44	4974.67
519.808	4956.59
520.175	4961.11
520.542	5093.31
520.909	4993.65
521.276	5062.58
521.643	5082.01
522.009	5168.11
522.376	5191.16
522.743	5211.28
523.11	5262.8
523.477	5356.81
523.843	5418.73
524.21	5389.58
524.577	5430.48
524.943	5455.79
525.31	5483.36
525.676	5553.64
526.043	5595.22
526.409	5602.23
526.776	5672.28
527.142	5644.03
527.508	5717.48
527.874	5736.69
528.241	5810.13
528.607	5778.04
528.973	5845.16
529.339	5844.93
529.705	5951.82
530.071	5885.38
530.437	5957.02
530.803	5989.33
531.169	5996.34
531.535	6009.45
531.901	6084.7
532.267	6134.19
532.632	6132.61
532.998	6157.92
533.364	6199.27
533.73	6209.22
534.095	6255.32
534.461	6248.31
534.826	6304.13
535.192	6313.39
535.557	6368.53
535.923	6423.9
536.288	6396.78
536.653	6450.34
537.019	6375.76
537.384	6480.17
537.749	6492.6
538.114	6538.02
538.479	6490.11
538.845	6562.88
539.21	6494.41
539.575	6672.25
539.94	6643.78
540.305	6706.6
540.67	6644.91
541.034	6705.25
541.399	6735.98
541.764	6799.48
542.129	6831.57
542.494	6799.03
542.858	6885.13
543.223	6928.74
543.587	6909.99
543.952	6935.3
544.316	6953.15
544.681	7016.2
545.045	7071.11
545.41	7120.38
545.774	7156.99
546.138	7100.72
546.503	7164.44
546.867	7156.99
547.231	7236.53
547.595	7287.38
547.959	7267.49
548.324	7355.85
548.688	7353.59
549.052	7371.9
549.416	7470.88
549.779	7446.02
550.143	7504.55
550.507	7595.39
550.871	7556.98
551.235	7641.72
551.599	7644.21
551.962	7769.63
552.326	7739.34
552.689	7782.73
553.053	7839.91
553.417	7907.93
553.78	7919.45
554.143	7918.1
554.507	8008.04
554.87	8111.76
555.234	8073.12
555.597	8164.64
555.96	8254.36
556.323	8260.91
556.686	8291.42
557.05	8386.56
557.413	8390.4
557.776	8442.83
558.139	8569.83
558.502	8574.8
558.865	8629.49
559.228	8685.99
559.59	8689.83
559.953	8794.01
560.316	8857.06
560.679	8935.92
561.041	9008.69
561.404	9066.77
561.767	9209.81
562.129	9229.02
562.492	9341.79
562.854	9379.3
563.217	9463.14
563.579	9539.3
563.941	9615.23
564.304	9685.73
564.666	9814.09
565.028	9945.16
565.39	9995.33
565.753	10066.51
566.115	10192.39
566.477	10264.48
566.839	10354.87
567.201	10473.28
567.563	10589.67
567.925	10771.13
568.287	10838.25
568.648	10940.39
569.01	11048.18
569.372	11214.51
569.734	11292.7
570.095	11367.95
570.457	11562.75
570.819	11750.09
571.18	11726.58
571.542	12007.25
571.903	12184.88
572.265	12271.88
572.626	12439.33
572.987	12657.63
573.349	12839.32
573.71	13008.58
574.071	13195.02
574.432	13400.44
574.794	13546.65
575.155	13731.73
575.516	13924.27
575.877	14214.2
576.238	14293.52
576.599	14621.88
576.96	14791.81
577.32	14995.42
577.681	15311.8
578.042	15575.75
578.403	15761.05
578.763	16121.5
579.124	16278.56
579.485	16657.3
579.845	16995.6
580.206	17168.48
580.566	17569.59
580.927	17876.93
581.287	18125.74
581.648	18325.05
582.008	18788.55
582.368	19004.81
582.728	19456.32
583.089	19724.34
583.449	20111.9
583.809	20412.01
584.169	20827.36
584.529	21110.97
584.889	21695.14
585.249	21879.99
585.609	22232.75
585.969	22733.98
586.329	23212.38
586.688	23669.55
587.048	23925.13
587.408	24294.39
587.768	24717.43
588.127	25087.14
588.487	25523.06
588.846	26102.25
589.206	26421.79
589.565	26873.98
589.925	27549.45
590.284	27791.25
590.643	28303.32
591.003	28751.9
591.362	29293.81
591.721	29692.44
592.08	30245.19
592.44	30762.69
592.799	31143.02
593.158	31478.38
593.517	32141.41
593.876	32492.37
594.235	33051.22
594.593	33580.47
594.952	34098.2
595.311	34282.38
595.67	34914.45
596.029	35575
596.387	36177.24
596.746	36474.41
597.104	36873.95
597.463	37218.34
597.822	37921.6
598.18	38130.41
598.538	38593
598.897	39184.17
599.255	39359.53
599.613	40275.66
599.972	40308.43
600.33	40862.09
600.688	41082.42
601.046	41873.81
601.404	42149.51
601.762	42481.71
602.12	43195.59
602.478	43486.65
602.836	43678.29
603.194	43925.51
603.552	44530.02
603.91	44670.58
604.268	45292.48
604.625	45376.1
604.983	45888.85
605.341	46123.65
605.698	46503.97
606.056	46763.86
606.413	47138.31
606.771	47554.57
607.128	47769.7
607.485	47894.67
607.843	48079.75
608.2	48545.73
608.557	48836.12
608.914	48972.84
609.272	49330.34
609.629	49582.31
609.986	49840.16
610.343	49821.18
610.7	50297.55
611.057	50293.71
611.414	50617.09
611.771	50774.37
612.127	51049.62
612.484	51090.52
612.841	51352.44
613.198	51325.54
613.554	51535.48
613.911	51856.6
614.267	51867
614.624	51924.17
614.98	52090.49
615.337	52272.18
615.693	52379.53
616.05	52509.24
616.406	52741.55
616.762	52733.42
617.118	52769.57
617.475	52949.46
617.831	53026.74
618.187	53169.56
618.543	53356.9
618.899	53428.76
619.255	53463.34
619.611	53520.29
619.967	53635.76
620.323	53783.11
620.678	53657.69
621.034	53663.79
621.39	53741.07
621.746	53774.52
622.101	54091.57
622.457	53941.97
622.812	54084.11
623.168	54202.08
623.523	54148.29
623.879	54293.83
624.234	54119.82
624.589	54337.89
624.945	54377.21
625.3	54381.73
625.655	54380.38
626.01	54411.11
626.365	54525.68
626.72	54535.63
627.075	54532.24
627.43	54641.39
627.785	54492.47
628.14	54618.79
628.495	54730.2
628.85	54645.68
629.205	54650.2
629.559	54886.35
629.914	54621.95
630.269	54735.85
630.623	54616.76
630.978	54675.74
631.332	54808.62
631.687	54813.36
632.041	54728.39
632.396	54809.07
632.75	54649.07
633.104	54726.81
633.459	54636.64
633.813	54638.9
634.167	54625.57
634.521	54640.03
634.875	54680.48
635.229	54680.48
635.583	54519.36
635.937	54577.21
636.291	54626.02
636.645	54510.09
636.999	54518
637.352	54671.67
637.706	54409.53
638.06	54559.13
638.413	54603.42
638.767	54503.76
639.121	54456.76
639.474	54297.22
639.828	54449.75
640.181	54397.55
640.534	54446.14
640.888	54365.24
641.241	54282.08
641.594	54352.58
641.947	54421.51
642.301	54289.76
642.654	54394.39
643.007	54377.89
643.36	54324.79
643.713	54339.93
644.066	54399.59
644.419	54167.73
644.771	54007.51
645.124	53765.7
645.477	53726.61
645.83	53596.22
646.182	53457.46
646.535	53392.61
646.888	53553.96
647.24	53378.6
647.593	53484.81
647.945	53492.72
648.298	53315.77
648.65	53202.1
649.002	53199.62
649.355	53424.02
649.707	53262.89
650.059	53373.85
650.411	53708.08
650.763	53784.91
651.115	54108.97
651.467	53986.49
651.819	53922.99
652.171	53914.18
652.523	53875.76
652.875	53864.91
653.227	53763.45
653.578	53951.01
653.93	53885.48
654.282	53754.41
654.633	53742.43
654.985	53837.34
655.337	53838.92
655.688	53865.82
656.039	53894.52
656.391	53704.46
656.742	53708.53
657.094	53812.48
657.445	53830.56
657.796	53860.39
658.147	53777.68
658.498	53798.7
658.849	53771.81
659.2	53768.42
659.551	53777.68
659.902	53819.49
660.253	53718.25
660.604	53746.04
660.955	53674.18
661.306	53805.25
661.656	53675.54
662.007	53734.07
662.358	53748.76
662.708	53819.26
663.059	53685.26
663.409	53533.85
663.76	53844.57
664.11	53700.85
664.461	53731.81
664.811	53734.29
665.161	53640.06
665.511	53540.63
665.862	53666.27
666.212	53708.98
666.562	53775.65
666.912	53640.28
667.262	53639.83
667.612	53581.53
667.962	53541.53
668.312	53544.24
668.662	53657.46
669.011	53527.75
669.361	53583.11
669.711	53487.97
670.06	53562.77
670.41	53391.93
670.76	53401.42
671.109	53499.27
671.459	53487.29
671.808	53384.02
672.157	53370.69
672.507	53217.92
672.856	53196.45
673.205	53337.24
673.554	53349.67
673.904	53268.77
674.253	53387.86
674.602	53166.62
674.951	52829.23
675.3	52758.05
675.649	53117.81
675.998	53093.86
676.346	53164.59
676.695	53206.4
677.044	53012.73
677.393	53005.05
677.741	53097.47
678.09	53067.87
678.438	52920.3
678.787	53045.95
679.135	52970.25
679.484	52740.42
679.832	52870.14
680.181	52749.69
680.529	52807.54
680.877	52747.43
681.225	52722.79
681.573	52874.88
681.922	52655.23
682.27	52544.49
682.618	52678.95
682.966	52542.01
683.314	52538.62
683.661	52426.76
684.009	52323.26
684.357	52230.38
684.705	52221.11
685.053	52277.38
685.4	52216.37
685.748	52027.9
686.095	52022.25
686.443	51929.82
686.79	51834.46
687.138	51955.13
687.485	51893.21
687.832	51750.39
688.18	51818.41
688.527	51552.66
688.874	51557.18
689.221	51567.8
689.568	51409.61
689.915	51288.71
690.262	51341.14
690.609	51201.48
690.956	51198.09
691.303	51076.96
691.65	50972.11
691.997	50904.76
692.344	50761.94
692.69	50721.04
693.037	50751.55
693.383	50508.62
693.73	50537.54
694.077	50385.45
694.423	50392.23
694.769	50246.48
695.116	50165.35
695.462	50223.65
695.808	49925.13
696.155	50144.33
696.501	49797.67
696.847	49741.63
697.193	49401.75
697.539	49684.46
697.885	49341.19
698.231	49177.58
698.577	49142.78
698.923	49174.41
699.269	49051.93
699.614	48764.25
699.96	48841.09
700.306	48701.21
700.651	48569.01
700.997	48390.25
701.342	48449.23
701.688	48432.96
702.033	48218.51
702.379	48198.39
702.724	47956.14
703.069	48164.95
703.415	47644.28
703.76	47733.1
704.105	47667.56
704.45	47585.98
704.795	47378.08
705.14	47212.88
705.485	47189.61
705.83	47131.3
706.175	46980.57
706.52	46902.61
706.865	46802.27
707.209	46756.4
707.554	46653.35
707.899	46729.96
708.243	46502.62
708.588	46366.35
708.932	46209.07
709.277	46104.89
709.621	46196.64
709.966	45827.83
710.31	45933.59
710.654	45542.87
710.998	45708.06
711.342	45751.23
711.687	45606.6
712.031	45404.79
712.375	45328.64
712.719	45316.21
713.063	45297.23
713.407	45404.34
713.75	45039.61
714.094	45173.39
714.438	44993.96
714.782	45002.09
715.125	44770.01
715.469	44917.12
715.812	44724.36
716.156	44568.21
716.499	44485.72
716.843	44429.91
717.186	44237.59
717.53	44446.4
717.873	44504.03
718.216	44284.6
718.559	44086.86
718.902	43843.93
719.246	44047.09
719.589	43757.83
719.932	43777.27
720.275	43726.42
720.617	43812.52
720.96	43388.35
721.303	43614.56
721.646	43608.23
721.989	43389.93
722.331	43507.9
722.674	43322.36
723.016	43364.62
723.359	43278.52
723.701	43301.57
724.044	42982.03
724.386	42884.86
724.729	43025.87
725.071	42963.28
725.413	42900
725.755	42844.41
726.097	42679.67
726.439	42479.45
726.782	42651.19
727.124	42754.47
727.465	42530.97
727.807	42429.28
728.149	42544.76
728.491	42320.81
728.833	42391.31
729.175	42292.56
729.516	42203.75
729.858	42151.1
730.199	42074.94
730.541	42183.64
730.882	42121.94
731.224	42064.77
731.565	41825.45
731.906	41964.89
732.248	42015.96
732.589	41702.07
732.93	41621.17
733.271	41637.89
733.612	41612.13
733.953	41695.29
734.294	41541.62
734.635	41481.51
734.976	41580.71
735.317	41362.87
735.658	41379.14
735.999	41510.21
736.339	41216.88
736.68	41328.52
737.021	41028.41
737.361	41084.68
737.702	41239.71
738.042	41075.19
738.383	41095.53
738.723	41044.46
739.063	41011.92
739.404	40993.84
739.744	40934.86
740.084	40669.55
740.424	40808.08
740.764	40613.73
741.104	40890.11
741.444	40606.73
741.784	40577.8
742.124	40570.12
742.464	40442.89
742.804	40556.33
743.143	40462.78
743.483	40452.16
743.823	40232.5
744.162	40212.61
744.502	40343.23
744.841	40154.99
745.181	40211.49
745.52	40232.28
745.86	40267.75
746.199	39993.86
746.538	40007.87
746.877	40061.21
747.216	39931.72
747.556	39981.43
747.895	39942.34
748.234	39633.87
748.573	39746.64
748.911	39683.14
749.25	39699.41
749.589	39506.64
749.928	39483.37
750.267	39567.43
750.605	39435.01
750.944	39312.98
751.283	39268.68
751.621	39438.62
751.96	39191.62
752.298	39101.01
752.636	38981.69
752.975	38922.03
753.313	38874.12
753.651	38869.6
753.989	38810.84
754.327	38651.53
754.666	38539.66
755.004	38529.72
755.342	38456.28
755.679	38369.05
756.017	38240.01
756.355	38359.78
756.693	38173.35
757.031	38229.84
757.368	38041.82
757.706	37913.92
758.044	37875.28
758.381	37903.07
758.719	37739.01
759.056	37691.55
759.394	37507.83
