Data from plate_ceramic_FLMS001491_060.txt Node
Date: Tue Feb 07 11:17:00 GMT 2017
User: dcchb
Spectrometer: FLMS00149
Trigger mode: 0
Integration Time (sec): 2.000000E-2
Scans to average: 10
Electric dark correction enabled: true
Nonlinearity correction enabled: false
Boxcar width: 0
XAxis mode: Wavelengths
Number of Pixels in Spectrum: 2048
>>>>>Begin Spectral Data<<<<<
341.393	-21.07
341.776	-21.07
342.16	-21.07
342.543	-70.11
342.927	-59.72
343.31	-53.61
343.693	-82.77
344.077	-49.32
344.46	-67.17
344.843	-57.68
345.226	-54.74
345.61	-31.02
345.993	-6.84
346.376	-2.77
346.759	13.95
347.142	32.71
347.525	46.04
347.908	52.82
348.291	77
348.674	76.1
349.057	107.29
349.44	123.33
349.823	128.98
350.206	167.85
350.588	182.99
350.971	241.75
351.354	249.2
351.737	250.78
352.119	237
352.502	283.55
352.884	279.94
353.267	290.56
353.65	315.19
354.032	340.05
354.414	324
354.797	307.96
355.179	333.95
355.562	341.63
355.944	366.71
356.326	348.18
356.709	363.1
357.091	373.72
357.473	348.41
357.855	352.02
358.238	372.14
358.62	365.81
359.002	349.09
359.384	371.46
359.766	345.47
360.148	369.88
360.53	371.46
360.912	355.87
361.294	358.35
361.676	352.48
362.057	368.52
362.439	361.74
362.821	365.36
363.203	387.96
363.584	364.23
363.966	352.7
364.348	372.59
364.729	351.12
365.111	366.94
365.493	360.16
365.874	347.96
366.256	356.09
366.637	355.19
367.019	351.57
367.4	364.68
367.781	331.23
368.163	324.68
368.544	358.13
368.925	349.54
369.306	363.1
369.688	339.82
370.069	371.69
370.45	357.67
370.831	346.6
371.212	362.42
371.593	357.22
371.974	368.75
372.355	360.39
372.736	366.71
373.117	380.27
373.498	401.74
373.879	378.69
374.26	364.91
374.641	384.79
375.021	375.3
375.402	371.23
375.783	363.55
376.163	399.71
376.544	380.95
376.925	391.8
377.305	390.89
377.686	378.01
378.066	406.26
378.447	392.93
378.827	413.72
379.208	387.05
379.588	416.66
379.968	448.52
380.349	404.23
380.729	410.78
381.109	416.43
381.489	432.93
381.87	414.85
382.25	438.8
382.63	425.02
383.01	438.8
383.39	447.84
383.77	445.81
384.15	443.1
384.53	442.64
384.91	437.45
385.29	446.03
385.67	458.69
386.049	465.92
386.429	454.39
386.809	476.77
387.189	467.5
387.568	498.01
387.948	478.57
388.328	498.24
388.707	485.58
389.087	468.41
389.466	497.78
389.846	493.94
390.225	505.92
390.605	502.53
390.984	507.5
391.363	520.38
391.743	528.52
392.122	515.41
392.501	540.04
392.881	531
393.26	539.14
393.639	568.97
394.018	552.7
394.397	567.39
394.776	572.13
395.155	536.65
395.534	578.46
395.913	567.61
396.292	562.87
396.671	597.22
397.05	601.96
397.429	614.16
397.808	633.37
398.186	610.1
398.565	611.68
398.944	619.59
399.323	614.39
399.701	621.17
400.08	648.06
400.458	658.46
400.837	654.84
401.215	654.84
401.594	657.1
401.972	673.15
402.351	642.86
402.729	679.25
403.107	654.16
403.486	718.12
403.864	684.22
404.242	711.11
404.62	699.36
404.999	708.63
405.377	730.09
405.755	740.26
406.133	720.6
406.511	754.5
406.889	762.41
407.267	759.7
407.645	770.09
408.023	807.83
408.401	785.69
408.779	812.58
409.156	810.32
409.534	824.55
409.912	834.95
410.29	858.68
410.667	855.97
411.045	896.87
411.422	872.01
411.8	901.61
412.178	903.2
412.555	895.06
412.933	935.06
413.31	947.49
413.687	943.87
414.065	964.89
414.442	976.64
414.819	991.78
415.197	994.49
415.574	989.3
415.951	1009.63
416.328	1034.49
416.705	1030.42
417.082	1033.36
417.46	1033.59
417.837	1066.36
418.214	1078.79
418.591	1085.34
418.967	1098.67
419.344	1099.35
419.721	1125.79
420.098	1114.72
420.475	1121.04
420.852	1130.99
421.228	1150.87
421.605	1171.21
421.982	1170.31
422.358	1211.44
422.735	1204.88
423.111	1207.82
423.488	1234.71
423.864	1245.33
424.241	1246.01
424.617	1283.53
424.994	1273.81
425.37	1300.25
425.746	1323.52
426.123	1330.98
426.499	1339.12
426.875	1350.42
427.251	1406.46
427.627	1381.15
428.003	1411.43
428.379	1443.07
428.756	1430.64
429.132	1481.03
429.507	1463.63
429.883	1488.04
430.259	1510.64
430.635	1534.59
431.011	1542.95
431.387	1587.92
431.763	1593.12
432.138	1622.5
432.514	1614.82
432.89	1638.54
433.265	1696.4
433.641	1727.58
434.016	1718.77
434.392	1759.45
434.767	1786.34
435.143	1771.65
435.518	1794.02
435.894	1845.54
436.269	1864.98
436.644	1907.01
437.02	1894.13
437.395	1900.68
437.77	1940.68
438.145	1987.01
438.52	1959.67
438.895	1996.05
439.271	1983.62
439.646	2051.19
440.021	2031.53
440.395	2072.88
440.77	2040.12
441.145	2080.79
441.52	2103.39
441.895	2113.33
442.27	2122.37
442.645	2138.19
443.019	2184.97
443.394	2204.86
443.769	2197.4
444.143	2193.11
444.518	2251.64
444.892	2229.72
445.267	2271.07
445.641	2253.22
446.016	2309.49
446.39	2326.21
446.764	2343.84
447.139	2309.94
447.513	2368.69
447.887	2367.34
448.262	2364.63
448.636	2406.66
449.01	2441.91
449.384	2467.9
449.758	2473.55
450.132	2513.1
450.506	2544.28
450.88	2518.52
451.254	2523.72
451.628	2582.47
452.002	2636.94
452.376	2626.99
452.75	2623.6
453.123	2691.4
453.497	2709.93
453.871	2771.4
454.244	2799.87
454.618	2822.24
454.992	2856.82
455.365	2843.94
455.739	2941.56
456.112	2959.64
456.486	2995.8
456.859	3002.12
457.232	3035.57
457.606	3095.91
457.979	3137.26
458.352	3236.47
458.725	3255.68
459.099	3232.85
459.472	3320.99
459.845	3339.97
460.218	3365.96
460.591	3397.37
460.964	3426.97
461.337	3523.92
461.71	3591.71
462.083	3590.58
462.456	3589.23
462.829	3661.32
463.201	3716.68
463.574	3704.7
463.947	3793.52
464.32	3838.49
464.692	3880.75
465.065	3919.16
465.438	3975.21
465.81	4052.27
466.183	4094.07
466.555	4220.4
466.928	4229.89
467.3	4262.88
467.672	4256.33
468.045	4377.68
468.417	4383.11
468.789	4413.16
469.161	4492.48
469.534	4542.65
469.906	4662.65
470.278	4692.93
470.65	4734.28
471.022	4828.07
471.394	4902.19
471.766	4980.6
472.138	5030.77
472.51	5190.77
472.882	5170.43
473.253	5271.9
473.625	5270.77
473.997	5489.97
474.369	5518.67
474.74	5572.68
475.112	5696.29
475.484	5713.24
475.855	5918.43
476.227	5978.32
476.598	6060.58
476.97	6211.08
477.341	6263.06
477.713	6350.29
478.084	6423.96
478.455	6573.33
478.827	6707.34
479.198	6803.61
479.569	6844.74
479.94	7098.74
480.311	7123.82
480.682	7305.97
481.053	7443.59
481.424	7507.99
481.795	7639.29
482.166	7763.58
482.537	7863.92
482.908	8040.64
483.279	8096.91
483.65	8334.64
484.021	8472.72
484.391	8539.15
484.762	8618.02
485.133	8742.31
485.503	8833.84
485.874	9049.42
486.244	9072.47
486.615	9287.38
486.985	9403.76
487.356	9565.57
487.726	9663.87
488.097	9871.1
488.467	9923.75
488.837	10100.47
489.207	10233.57
489.578	10425.21
489.948	10462.95
490.318	10632.66
490.688	10657.74
491.058	10852.77
491.428	11011.18
491.798	11176.6
492.168	11327.78
492.538	11411.17
492.908	11491.84
493.278	11691.39
493.648	11746.75
494.017	11874.43
494.387	12029.46
494.757	12108.1
495.126	12285.04
495.496	12276.91
495.866	12390.35
496.235	12535.43
496.605	12661.76
496.974	12719.38
497.344	12840.51
497.713	12993.95
498.082	13017.68
498.452	13160.5
498.821	13308.07
499.19	13317.56
499.559	13474.84
499.928	13511.23
500.298	13646.82
500.667	13825.79
501.036	13737.89
501.405	13975.62
501.774	13943.53
502.143	14126.58
502.512	14196.41
502.88	14340.81
503.249	14404.54
503.618	14529.28
503.987	14617.41
504.356	14776.28
504.724	14818.99
505.093	14833.68
505.462	14944.86
505.83	15150.05
506.199	15192.54
506.567	15382.82
506.936	15367.45
507.304	15590.95
507.672	15665.97
508.041	15664.16
508.409	15821
508.777	15972.86
509.145	16193.42
509.514	16191.61
509.882	16261.66
510.25	16358.16
510.618	16480.87
510.986	16542.11
511.354	16787.98
511.722	16903
512.09	17058.7
512.458	17002.43
512.826	17145.48
513.193	17304.8
513.561	17485.36
513.929	17707.95
514.297	17775.07
514.664	17957.21
515.032	17969.87
515.4	18183.42
515.767	18247.6
516.135	18393.13
516.502	18420.02
516.869	18691.2
517.237	18689.85
517.604	18644.2
517.972	18938.88
518.339	19123.96
518.706	19192.43
519.073	19288.48
519.44	19456.38
519.808	19624.06
520.175	19669.71
520.542	20032.41
520.909	20061.34
521.276	20032.41
521.643	20347.43
522.009	20451.38
522.376	20686.86
522.743	20787.87
523.11	21014.98
523.477	21196.67
523.843	21314.64
524.21	21593.5
524.577	21658.13
524.943	21824.45
525.31	21950.55
525.676	22117.55
526.043	22377.89
526.409	22300.83
526.776	22722.28
527.142	22827.82
527.508	22871.21
527.874	23153.46
528.241	23185.77
528.607	23432.1
528.973	23606.55
529.339	23520.68
529.705	23897.85
530.071	24031.18
530.437	24223.71
530.803	24450.83
531.169	24462.35
531.535	24421.67
531.901	24615.79
532.267	24717.71
532.632	24795
532.998	25016.46
533.364	25312.05
533.73	25315.89
534.095	25484.02
534.461	25686.73
534.826	25822.32
535.192	25887.17
535.557	25966.94
535.923	26148.63
536.288	26223.66
536.653	26381.85
537.019	26267.73
537.384	26465.91
537.749	26613.03
538.114	26730.09
538.479	26717.43
538.845	26918.56
539.21	26879.01
539.575	27101.83
539.94	27088.72
540.305	27362.61
540.67	27246.91
541.034	27359.22
541.399	27647.35
541.764	27772.77
542.129	27766.9
542.494	27934.8
542.858	27971.19
543.223	28079.88
543.587	28297.73
543.952	28273.78
544.316	28442.59
544.681	28341.12
545.045	28613.88
545.41	28622.24
545.774	28744.5
546.138	28835.57
546.503	28928.9
546.867	28909.24
547.231	29241.66
547.595	29229.91
547.959	29401.2
548.324	29490.92
548.688	29571.82
549.052	29685.94
549.416	29790.12
549.779	29972.04
550.143	30025.14
550.507	30169.77
550.871	30322.54
551.235	30159.6
551.599	30405.7
551.962	30592.13
552.326	30641.85
552.689	30937.21
553.053	30790.55
553.417	30867.38
553.78	31216.75
554.143	31230.76
554.507	31381.72
554.87	31478.44
555.234	31739.22
555.597	31720.47
555.96	31936.28
556.323	31939.44
556.686	32098.99
557.05	32387.11
557.413	32412.42
557.776	32533.78
558.139	32762.02
558.502	32895.12
558.865	33029.58
559.228	33146.19
559.59	33217.38
559.953	33304.38
560.316	33674.31
560.679	33707.31
561.041	33973.97
561.404	34053.51
561.767	34318.14
562.129	34227.07
562.492	34582.76
562.854	34683.1
563.217	34650.56
563.579	35018.23
563.941	35183.88
564.304	35248.06
564.666	35508.61
565.028	35570.53
565.39	35661.83
565.753	35878.1
566.115	36067.24
566.477	36246.9
566.839	36152.44
567.201	36468.36
567.563	36511.3
567.925	36668.13
568.287	36955.36
568.648	36789.26
569.01	36988.8
569.372	37354.22
569.734	37306.99
570.095	37479.86
570.457	37693.64
570.819	37679.4
571.18	37760.98
571.542	38011.15
571.903	38096.79
572.265	38353.51
572.626	38334.53
572.987	38580.62
573.349	38488.42
573.71	38612.26
574.071	38748.53
574.432	38797.12
574.794	39127.73
575.155	39131.57
575.516	39034.62
575.877	39397.1
576.238	39365.69
576.599	39474.84
576.96	39600.71
577.32	39662.18
577.681	39674.38
578.042	39821.27
578.403	39893.36
578.763	39902.4
579.124	40096.29
579.485	40138.55
579.845	40127.7
580.206	40119.34
580.566	40181.03
580.927	40177.42
581.287	40382.61
581.648	40317.53
582.008	40370.86
582.368	40312.33
582.728	40508.26
583.089	40317.98
583.449	40403.85
583.809	40333.12
584.169	40687.91
584.529	40544.19
584.889	40780.34
585.249	40566.79
585.609	40430.52
585.969	40692.88
586.329	40561.59
586.688	40600.01
587.048	40654.69
587.408	40730.17
587.768	40742.83
588.127	40753.9
588.487	40635.49
588.846	40976.72
589.206	40774.01
589.565	40537.41
589.925	40826.67
590.284	40749.61
590.643	40851.98
591.003	41058.98
591.362	40956.61
591.721	40905.08
592.08	40821.47
592.44	41028.02
592.799	41075.02
593.158	40898.08
593.517	41044.74
593.876	40914.57
594.235	40978.75
594.593	41033.21
594.952	41167.22
595.311	41072.54
595.67	41092.87
596.029	41259.42
596.387	41263.49
596.746	41436.14
597.104	41169.48
597.463	41242.93
597.822	41406.09
598.18	41250.16
598.538	41299.42
598.897	41479.76
599.255	41345.98
599.613	41763.82
599.972	41559.08
600.33	41693.99
600.688	41481.11
601.046	41699.64
601.404	41910.93
601.762	41826.41
602.12	41860.99
602.478	41885.85
602.836	41915.45
603.194	41671.62
603.552	41772.18
603.91	41764.5
604.268	41875
604.625	41875.45
604.983	42037.48
605.341	41842.91
605.698	42123.58
606.056	42170.13
606.413	42154.54
606.771	42262.11
607.128	42317.25
607.485	42070.25
607.843	42272.73
608.2	42457.36
608.557	42550.24
608.914	42399.51
609.272	42559.5
609.629	42682.44
609.986	42778.71
610.343	42485.15
610.7	42796.78
611.057	42843.34
611.414	42666.84
611.771	42723.11
612.127	43031.81
612.484	42825.03
612.841	43048.08
613.198	42888.99
613.554	43021.41
613.911	43183.89
614.267	43044.69
614.624	43092.14
614.98	43182.08
615.337	43354.74
615.693	43383.21
616.05	43392.47
616.406	43580.49
616.762	43455.07
617.118	43485.58
617.475	43460.95
617.831	43595.86
618.187	43560.83
618.543	43560.15
618.899	43679.92
619.255	43626.59
619.611	43755.4
619.967	43787.04
620.323	43864.33
620.678	43735.06
621.034	43527.61
621.39	43709.98
621.746	43690.09
622.101	44083.3
622.457	43767.38
622.812	43821.39
623.168	44042.4
623.523	44026.58
623.879	44137.09
624.234	43884.44
624.589	43939.81
624.945	44050.54
625.3	43934.16
625.655	43819.81
626.01	43919.69
626.365	43963.99
626.72	43772.13
627.075	43924.21
627.43	43875.17
627.785	43678.12
628.14	43795.63
628.495	43854.84
628.85	43840.37
629.205	43652.58
629.559	43886.7
629.914	43544.56
630.269	43767.15
630.623	43538.23
630.978	43512.92
631.332	43703.65
631.687	43671.11
632.041	43490.78
632.396	43470.21
632.75	43369.2
633.104	43495.97
633.459	43225.93
633.813	43243.1
634.167	43312.48
634.521	43215.08
634.875	43245.59
635.229	43123.78
635.583	42900.28
635.937	42925.82
636.291	42917.46
636.645	42983.45
636.999	42782.1
637.352	42989.55
637.706	42691.25
638.06	42993.16
638.413	42786.84
638.767	42634.53
639.121	42846.73
639.474	42437.02
639.828	42409.9
640.181	42506.85
640.534	42563.57
640.888	42449.9
641.241	42152.51
641.594	42307.76
641.947	42351.6
642.301	42218.27
642.654	42215.33
643.007	42086.97
643.36	42180.98
643.713	42015.56
644.066	42344.59
644.419	42004.94
644.771	41695.34
645.124	41238.63
645.477	41214.23
645.83	41004.74
646.182	40696.73
646.535	40648.37
646.888	40786.44
647.24	40665.31
647.593	40847.01
647.945	40809.49
648.298	40636.84
648.65	40538.09
649.002	40454.7
649.355	40476.85
649.707	40381.71
650.059	40579.67
650.411	41019.88
650.763	40915.93
651.115	41258.07
651.467	41244.73
651.819	41110.5
652.171	41049.71
652.523	40998.64
652.875	41153.89
653.227	40903.73
653.578	41120.44
653.93	41087.45
654.282	40929.71
654.633	40741.25
654.985	40816.95
655.337	40882.94
655.688	40732.66
656.039	40847.91
656.391	40479.78
656.742	40564.53
657.094	40486.79
657.445	40772.88
657.796	40614.47
658.147	40512.78
658.498	40615.6
658.849	40461.93
659.2	40529.5
659.551	40519.56
659.902	40589.38
660.253	40474.81
660.604	40640.46
660.955	40239.56
661.306	40587.8
661.656	40327.7
662.007	40367.7
662.358	40312.78
662.708	40261.03
663.059	40188.27
663.409	40065.56
663.76	40105.1
664.11	40074.6
664.461	40127.93
664.811	40224.65
665.161	40213.58
665.511	40129.06
665.862	40197.3
666.212	40334.02
666.562	40218.1
666.912	40091.77
667.262	40123.63
667.612	40104.43
667.962	40187.59
668.312	39880.48
668.662	40164.99
669.011	40150.07
669.361	40091.77
669.711	40142.16
670.06	39864.66
670.41	39814.04
670.76	39746.02
671.109	39943.07
671.459	39760.03
671.808	39832.12
672.157	39892.45
672.507	39578.11
672.856	39669.41
673.205	39659.47
673.554	39795.51
673.904	39530.2
674.253	39666.02
674.602	39651.33
674.951	39066.03
675.3	38969.31
675.649	39570.65
675.998	39407.95
676.346	39530.43
676.695	39609.98
677.044	39261.28
677.393	39453.82
677.741	39450.21
678.09	39325.01
678.438	39199.82
678.787	39319.14
679.135	39294.73
679.484	39061.06
679.832	39203.21
680.181	38934.51
680.529	39086.15
680.877	38838.7
681.225	38809.54
681.573	39058.13
681.922	38791.24
682.27	38635.09
682.618	38717.8
682.966	38679.6
683.314	38609.55
683.661	38465.37
684.009	38426.96
684.357	38252.72
684.705	38240.75
685.053	38330.69
685.4	38217.7
685.748	38015.89
686.095	38083.24
686.443	37831.94
686.79	37712.17
687.138	37913.75
687.485	38003.46
687.832	37868.55
688.18	37780.19
688.527	37679.86
688.874	37507.66
689.221	37289.58
689.568	37184.73
689.915	37156.71
690.262	37141.79
690.609	37164.84
690.956	37104.96
691.303	36936.37
691.65	36804.63
691.997	36765.53
692.344	36621.58
692.69	36738.19
693.037	36734.34
693.383	36472.2
693.73	36588.81
694.077	36336.16
694.423	36303.85
694.769	36349.04
695.116	36172.55
695.462	36060.69
695.808	35805.56
696.155	35824.76
696.501	35538.44
696.847	35633.36
697.193	35463.42
697.539	35436.75
697.885	35286.02
698.231	35074.95
698.577	35222.07
698.923	35123.54
699.269	34876.99
699.614	34574.18
699.96	34616.89
700.306	34635.19
700.651	34524.01
700.997	34489.43
701.342	34515.65
701.688	34297.57
702.033	34293.28
702.379	34307.74
702.724	34015.55
703.069	34151.14
703.415	33689.91
703.76	33714.31
704.105	33656.46
704.45	33608.78
704.795	33323.81
705.14	33342.57
705.485	33285.85
705.83	33255.11
706.175	33132.41
706.52	33187.77
706.865	33063.71
707.209	33049.02
707.554	32820.1
707.899	32824.17
708.243	32736.03
708.588	32687.67
708.932	32497.17
709.277	32457.17
709.621	32559.31
709.966	32328.81
710.31	32420.11
710.654	32037.52
710.998	32225.31
711.342	32198.42
711.687	32079.1
712.031	31833.23
712.375	31623.74
712.719	31906
713.063	31722.95
713.407	31885.88
713.75	31628.26
714.094	31640.92
714.438	31526.35
714.782	31595.04
715.125	31376.29
715.469	31432.11
715.812	31268.27
716.156	31126.13
716.499	31073.93
716.843	31077.77
717.186	30894.72
717.53	31105.11
717.873	31045.23
718.216	30998.45
718.559	30792.13
718.902	30648.18
719.246	30716.65
719.589	30572.25
719.932	30460.61
720.275	30417
720.617	30382.65
720.96	30414.74
721.303	30366.6
721.646	30396.88
721.989	30223.33
722.331	30212.93
722.674	30146.5
723.016	30310.56
723.359	30153.5
723.701	30078.25
724.044	29896.11
724.386	29805.71
724.729	30022.88
725.071	29803.23
725.413	29770.23
725.755	29697.69
726.097	29619.96
726.439	29520.98
726.782	29455.44
727.124	29575.66
727.465	29401.88
727.807	29391.04
728.149	29295.44
728.491	29259.74
728.833	29323.92
729.175	29059.52
729.516	29045.06
729.858	29086.41
730.199	29034.43
730.541	29045.73
730.882	28964.15
731.224	29101.78
731.565	28806.19
731.906	28827.21
732.248	28805.51
732.589	28759.41
732.93	28562.36
733.271	28679.87
733.612	28589.47
733.953	28599.87
734.294	28432.87
734.635	28466.77
734.976	28512.19
735.317	28371.63
735.658	28409.37
735.999	28350.84
736.339	28239.65
736.68	28260.22
737.021	28097.51
737.361	28045.76
737.702	28191.29
738.042	28128.92
738.383	27974.8
738.723	28002.15
739.063	27916.27
739.404	28029.26
739.744	27888.93
740.084	27775.94
740.424	27850.74
740.764	27788.37
741.104	27764.86
741.444	27571.87
741.784	27526.9
742.124	27543.63
742.464	27517.64
742.804	27478.99
743.143	27356.29
743.483	27403.29
743.823	27349.51
744.162	27255.5
744.502	27300.02
744.841	27081.94
745.181	27337.98
745.52	27133.69
745.86	27175.95
746.199	27056.86
746.538	26924.89
746.877	27022.96
747.216	26910.42
747.556	26800.59
747.895	26733.03
748.234	26739.13
748.573	26618.9
748.911	26695.96
749.25	26617.55
749.589	26436.31
749.928	26591.11
750.267	26488.51
750.605	26495.52
750.944	26258.01
751.283	26284
751.621	26284.22
751.96	26114.06
752.298	26290.55
752.636	26140.27
752.975	25982.31
753.313	25933.95
753.651	25969.2
