Data from plate_ceramic_FLMS001491_001.txt Node
Date: Tue Feb 07 11:16:13 GMT 2017
User: dcchb
Spectrometer: FLMS00149
Trigger mode: 0
Integration Time (sec): 2.000000E-2
Scans to average: 10
Electric dark correction enabled: true
Nonlinearity correction enabled: false
Boxcar width: 0
XAxis mode: Wavelengths
Number of Pixels in Spectrum: 2048
>>>>>Begin Spectral Data<<<<<
341.393	-31.37
341.776	-31.37
342.16	-31.37
342.543	-65.04
342.927	-96
343.31	-84.93
343.693	-73.18
344.077	-59.17
344.46	-72.05
344.843	-54.87
345.226	-34.53
345.61	-39.73
345.993	-15.78
346.376	-1.77
346.759	7.05
347.142	40.95
347.525	58.57
347.908	52.24
348.291	69.65
348.674	96.76
349.057	110.77
349.44	123.2
349.823	148.97
350.206	169.53
350.588	188.06
350.971	213.37
351.354	238
351.737	247.72
352.119	252.92
352.502	274.84
352.884	279.36
353.267	287.04
353.65	329.53
354.032	310.09
354.414	309.19
354.797	354.84
355.179	323.2
355.562	336.76
355.944	338.56
356.326	357.32
356.709	363.42
357.091	352.12
357.473	353.93
357.855	353.03
358.238	355.74
358.62	339.24
359.002	347.15
359.384	358.9
359.766	370.2
360.148	351.9
360.53	360.26
360.912	349.41
361.294	352.35
361.676	357.1
362.057	359.13
362.439	357.32
362.821	351.45
363.203	327.94
363.584	372.24
363.966	356.87
364.348	350.09
364.729	335.85
365.111	333.37
365.493	320.26
365.874	341.73
366.256	326.59
366.637	359.13
367.019	352.12
367.4	338.34
367.781	332.01
368.163	362.97
368.544	362.97
368.925	351.9
369.306	365
369.688	363.65
370.069	341.95
370.45	347.15
370.831	363.2
371.212	361.61
371.593	366.36
371.974	369.98
372.355	391.67
372.736	349.19
373.117	339.02
373.498	349.19
373.879	369.98
374.26	383.99
374.641	360.03
375.021	370.88
375.402	385.79
375.783	393.93
376.163	372.69
376.544	399.35
376.925	379.24
377.305	379.92
377.686	394.61
378.066	381.95
378.447	408.39
378.827	412.69
379.208	402.52
379.588	394.61
379.968	404.55
380.349	392.57
380.729	425.79
381.109	440.03
381.489	421.73
381.87	418.79
382.25	420.6
382.63	412.69
383.01	442.29
383.39	443.65
383.77	443.19
384.15	443.19
384.53	441.84
384.91	462.63
385.29	475.06
385.67	479.35
386.049	481.39
386.429	479.8
386.809	466.24
387.189	491.55
387.568	497.2
387.948	470.09
388.328	476.19
388.707	487.94
389.087	499.69
389.466	506.7
389.846	530.65
390.225	523.87
390.605	514.15
390.984	504.66
391.363	502.4
391.743	535.85
392.122	531.55
392.501	560.25
392.881	566.13
393.26	542.18
393.639	555.06
394.018	568.84
394.397	560.48
394.776	604.32
395.155	558.9
395.534	577.65
395.913	577.2
396.292	578.56
396.671	578.33
397.05	601.16
397.429	579.46
397.808	610.2
398.186	610.2
398.565	612.91
398.944	629.63
399.323	643.19
399.701	639.57
400.08	641.16
400.458	669.4
400.837	661.49
401.215	679.12
401.594	662.17
401.972	685.22
402.351	673.25
402.729	676.18
403.107	685.45
403.486	700.81
403.864	718.89
404.242	707.14
404.62	741.27
404.999	733.13
405.377	745.11
405.755	736.97
406.133	790.53
406.511	765.45
406.889	746.92
407.267	767.25
407.645	812.9
408.023	802.06
408.401	821.26
408.779	837.31
409.156	814.03
409.534	828.27
409.912	868.49
410.29	872.79
410.667	855.84
411.045	905.56
411.422	909.85
411.8	905.56
412.178	941.03
412.555	914.59
412.933	956.85
413.31	958.21
413.687	966.57
414.065	978.1
414.442	989.17
414.819	1003.18
415.197	1015.83
415.574	1011.99
415.951	1040.24
416.328	1062.39
416.705	1036.4
417.082	1058.77
417.46	1084.31
417.837	1085.21
418.214	1105.32
418.591	1111.2
418.967	1123.4
419.344	1136.51
419.721	1156.85
420.098	1146.9
420.475	1148.94
420.852	1176.51
421.228	1174.7
421.605	1205.66
421.982	1231.42
422.358	1253.57
422.735	1264.19
423.111	1281.14
423.488	1293.57
423.864	1289.05
424.241	1303.28
424.617	1315.94
424.994	1318.2
425.37	1341.25
425.746	1363.17
426.123	1370.63
426.499	1369.72
426.875	1380.8
427.251	1430.51
427.627	1471.42
428.003	1470.51
428.379	1466.9
428.756	1472.55
429.132	1526.33
429.507	1543.5
429.883	1580.11
430.259	1568.36
430.635	1617.17
431.011	1614.92
431.387	1646.78
431.763	1710.28
432.138	1673.9
432.514	1689.26
432.89	1708.02
433.265	1758.19
433.641	1771.07
434.016	1822.37
434.392	1821.69
434.767	1866.89
435.143	1870.05
435.518	1891.97
435.894	1932.42
436.269	1913.21
436.644	1946.66
437.02	1957.96
437.395	2011.29
437.77	1990.5
438.145	2036.37
438.52	2082.47
438.895	2091.96
439.271	2092.42
439.646	2124.28
440.021	2159.76
440.395	2168.12
440.77	2168.35
441.145	2160.66
441.52	2237.72
441.895	2260.1
442.27	2271.4
442.645	2299.19
443.019	2293.09
443.394	2259.87
443.769	2315.46
444.143	2274.11
444.518	2367.44
444.892	2339.64
445.267	2383.71
445.641	2390.26
446.016	2421.9
446.39	2418.96
446.764	2418.96
447.139	2450.6
447.513	2472.52
447.887	2495.34
448.262	2525.85
448.636	2565.85
449.01	2568.11
449.384	2593.19
449.758	2618.05
450.132	2665.06
450.506	2668.67
450.88	2709.8
451.254	2709.8
451.628	2710.03
452.002	2762.23
452.376	2753.19
452.75	2781.66
453.123	2843.36
453.497	2939.17
453.871	2892.62
454.244	2982.34
454.618	2978.27
454.992	3041.77
455.365	3039.06
455.739	3079.74
456.112	3132.39
456.486	3170.58
456.859	3192.73
457.232	3234.99
457.606	3248.09
457.979	3291.71
458.352	3367.64
458.725	3385.49
459.099	3443.34
459.472	3516.11
459.845	3527.63
460.218	3591.59
460.591	3582.55
460.964	3669.1
461.337	3682.66
461.71	3828.64
462.083	3840.85
462.456	3846.27
462.829	3888.75
463.201	3968.98
463.574	3921.75
463.947	4037.45
464.32	4093.95
464.692	4124.91
465.065	4164.23
465.438	4251.46
465.81	4316.77
466.183	4305.24
466.555	4417.55
466.928	4425.46
467.3	4461.85
467.672	4548.62
468.045	4689.18
468.417	4717.88
468.789	4759.92
469.161	4789.75
469.534	4822.51
469.906	4986.13
470.278	4997.2
470.65	5079.91
471.022	5178.89
471.394	5268.15
471.766	5330.3
472.138	5352.44
472.51	5490.97
472.882	5580.46
473.253	5646.45
473.625	5705.66
473.997	5840.79
474.369	5931.41
474.74	5992.65
475.112	6059.09
475.484	6137.73
475.855	6242.36
476.227	6342.02
476.598	6506.54
476.97	6521.9
477.341	6652.97
477.713	6836.47
478.084	6865.4
478.455	7049.12
478.827	7122.11
479.198	7316.91
479.569	7353.97
479.94	7531.37
480.311	7651.59
480.682	7820.63
481.053	8020.62
481.424	8084.35
481.795	8203.89
482.166	8333.16
482.537	8410.67
482.908	8666.71
483.279	8706.93
483.65	8846.36
484.021	9102.63
484.391	9139.01
484.762	9176.07
485.133	9316.41
485.503	9501.04
485.874	9656.51
486.244	9802.5
486.615	9952.32
486.985	10123.84
487.356	10321.35
487.726	10358.64
488.097	10594.57
488.467	10608.13
488.837	10848.12
489.207	11004.95
489.578	11153.2
489.948	11196.36
490.318	11406.3
490.688	11410.14
491.058	11643.35
491.428	11816.45
491.798	11836.79
492.168	12122.21
492.538	12230.46
492.908	12387.51
493.278	12604.23
493.648	12585.7
494.017	12728.52
494.387	12942.53
494.757	12949.31
495.126	13188.17
495.496	13197.21
495.866	13331.44
496.235	13474.04
496.605	13602.85
496.974	13650.53
497.344	13821.37
497.713	13902.73
498.082	13991.54
498.452	14220.46
498.821	14277.63
499.19	14314.47
499.559	14512.2
499.928	14585.2
500.298	14591.3
500.667	14878.97
501.036	14803.72
501.405	15037.39
501.774	14968.01
502.143	15211.39
502.512	15202.81
502.88	15340.2
503.249	15396.93
503.618	15643.02
503.987	15611.84
504.356	15764.15
504.724	15892.05
505.093	15998.49
505.462	16068.32
505.83	16141.99
506.199	16303.79
506.567	16496.11
506.936	16538.82
507.304	16685.71
507.672	16832.59
508.041	16870.56
508.409	17108.29
508.777	17225.8
509.145	17341.96
509.514	17361.62
509.882	17591.67
510.25	17594.38
510.618	17663.08
510.986	17862.17
511.354	18019
511.722	18182.39
512.09	18316.17
512.458	18310.97
512.826	18528.14
513.193	18604.3
513.561	18595.94
513.929	18952.54
514.297	19128.13
514.664	19180.55
515.032	19345.3
515.4	19586.65
515.767	19551.17
516.135	19663.93
516.502	19613.31
516.869	20024.15
517.237	20046.29
517.604	20035.67
517.972	20282.45
518.339	20552.72
518.706	20580.52
519.073	20689.22
519.44	20813.96
519.808	21088.98
520.175	21124.46
520.542	21398.58
520.909	21538.69
521.276	21540.72
521.643	21792.01
522.009	21973.93
522.376	22176.41
522.743	22254.82
523.11	22597.64
523.477	22780.01
523.843	22936.61
524.21	23143.16
524.577	23295.02
524.943	23362.59
525.31	23512.42
525.676	23725.52
526.043	23839.87
526.409	24008.9
526.776	24327.54
527.142	24381.55
527.508	24564.59
527.874	24794.19
528.241	24957.8
528.607	25035.32
528.973	25312.15
529.339	25257.91
529.705	25603.44
530.071	25767.27
530.437	25957.33
530.803	26104.89
531.169	26207.94
531.535	26209.52
531.901	26297.2
532.267	26482.74
532.632	26615.84
532.998	26663.3
533.364	27075.71
533.73	27085.43
534.095	27435.03
534.461	27371.07
534.826	27538.53
535.192	27611.97
535.557	27927.44
535.923	27902.59
536.288	27984.62
536.653	28160.21
537.019	28189.36
537.384	28297.38
537.749	28368.79
538.114	28539.18
538.479	28595.45
538.845	28815.1
539.21	28718.61
539.575	28917.93
539.94	29068.2
540.305	29284.92
540.67	29119.95
541.034	29353.17
541.399	29555.65
541.764	29604.01
542.129	29637.23
542.494	29802.2
542.858	29827.05
543.223	29940.5
543.587	30029.76
543.952	30199.93
544.316	30305.23
544.681	30279.25
545.045	30457.09
545.41	30665.22
545.774	30740.03
546.138	30727.6
546.503	30957.87
546.867	30992.67
547.231	31374.81
547.595	31210.52
547.959	31388.37
548.324	31476.95
548.688	31398.76
549.052	31623.17
549.416	31870.62
549.779	31810.96
550.143	31933.21
550.507	32164.62
550.871	32164.17
551.235	32340.21
551.599	32582.69
551.962	32491.17
552.326	32736.13
552.689	32812.06
553.053	32848.22
553.417	32980.42
553.78	33379.5
554.143	33342.44
554.507	33412.5
554.87	33593.96
555.234	33889.55
555.597	33637.8
555.96	33872.15
556.323	34216.32
556.686	34220.61
557.05	34415.86
557.413	34600.04
557.776	34638.91
558.139	34943.08
558.502	34897.66
558.865	34951.44
559.228	35349.17
559.59	35349.4
559.953	35529.96
560.316	35780.57
560.679	35920.91
561.041	35993.45
561.404	36315.47
561.767	36375.13
562.129	36294.68
562.492	36831.39
562.854	36880.88
563.217	37019.18
563.579	37039.52
563.941	37460.75
564.304	37487.64
564.666	37704.81
565.028	37700.97
565.39	38002.88
565.753	38125.59
566.115	38274.29
566.477	38206.95
566.839	38366.04
567.201	38664.34
567.563	38805.8
567.925	39079.92
568.287	39013.71
568.648	39006.93
569.01	39391.1
569.372	39545.67
569.734	39513.35
570.095	39844.87
570.457	39905.89
570.819	40094.13
571.18	40228.82
571.542	40418.87
571.903	40479.2
572.265	40548.13
572.626	40553.78
572.987	40684.17
573.349	40772.98
573.71	40923.94
574.071	40923.71
574.432	41076.93
574.794	41413.42
575.155	41448.22
575.516	41424.72
575.877	41626.97
576.238	41669.68
576.599	41739.74
576.96	41809.11
577.32	41979.28
577.681	42010.24
578.042	42015.89
578.403	42156.45
578.763	42276.22
579.124	42250.23
579.485	42509.43
579.845	42486.83
580.206	42581.97
580.566	42565.7
580.927	42619.94
581.287	42801.63
581.648	42642.31
582.008	42828.97
582.368	42704.91
582.728	42737.22
583.089	42584.23
583.449	42796.66
583.809	42816.09
584.169	42886.82
584.529	42763.89
584.889	43184.22
585.249	42772.03
585.609	42795.75
585.969	43017.22
586.329	42858.8
586.688	43019.02
587.048	43114.39
587.408	42913.94
587.768	43002.08
588.127	42998.01
588.487	42919.14
588.846	43249.98
589.206	43143.99
589.565	43045.69
589.925	43132.92
590.284	43122.3
590.643	43243.43
591.003	43387.83
591.362	43436.87
591.721	43245.91
592.08	43274.84
592.44	43413.14
592.799	43438.9
593.158	43457.66
593.517	43389.18
593.876	43459.69
594.235	43402.52
594.593	43248.4
594.952	43599.12
595.311	43418.34
595.67	43635.51
596.029	43619.23
596.387	43535.62
596.746	43675.73
597.104	43578.78
597.463	43619.91
597.822	43792.11
598.18	43712.11
598.538	43535.17
598.897	43850.41
599.255	43666.92
599.613	44264.19
599.972	43797.08
600.33	44050.41
600.688	43852.67
601.046	44075.27
601.404	44098.54
601.762	43961.15
602.12	44087.24
602.478	44061.71
602.836	44309.39
603.194	43910.98
603.552	44181.48
603.91	44088.37
604.268	44405.2
604.625	44241.82
604.983	44374.47
605.341	44346.45
605.698	44473.45
606.056	44476.84
606.413	44421.93
606.771	44569.04
607.128	44696.04
607.485	44531.07
607.843	44440.68
608.2	44689.94
608.557	44853.1
608.914	44803.38
609.272	44967
609.629	44942.36
609.986	45111.62
610.343	44864.85
610.7	45285.63
611.057	45137.16
611.414	45088.8
611.771	45211.28
612.127	45362.47
612.484	45509.35
612.841	45443.59
613.198	45198.63
613.554	45228.23
613.911	45500.77
614.267	45475.68
614.624	45456.02
614.98	45621.22
615.337	45788.22
615.693	45736.01
616.05	45549.58
616.406	45910.7
616.762	45739.4
617.118	45776.24
617.475	45859.63
617.831	46005.39
618.187	45978.72
618.543	46039.51
618.899	46143.91
619.255	46062.11
619.611	46029.57
619.967	46099.17
620.323	46241.99
620.678	46093.97
621.034	45941.43
621.39	46115.67
621.746	46143.91
622.101	46470.91
622.457	46177.59
622.812	46147.98
623.168	46336
623.523	46238.37
623.879	46453.96
624.234	46232.27
624.589	46321.08
624.945	46233.4
625.3	46362.89
625.655	46214.87
626.01	46353.85
626.365	46360.18
626.72	46236.57
627.075	46353.63
627.43	46190.69
627.785	46129.22
628.14	46131.48
628.495	46180.52
628.85	46125.16
629.205	45876.8
629.559	46222.56
629.914	46035.44
630.269	46058.27
630.623	46013.52
630.978	45955.9
631.332	45924.71
631.687	46098.94
632.041	45830.7
632.396	45932.62
632.75	45712.51
633.104	45679.07
633.459	45552.97
633.813	45568.56
634.167	45548.9
634.521	45595.91
634.875	45507.55
635.229	45465.29
635.583	45368.34
635.937	45356.59
636.291	45297.38
636.645	45301.22
636.999	45249.02
637.352	45373.54
637.706	45061.91
638.06	45401.33
638.413	45062.81
638.767	45030.5
639.121	44972.42
639.474	44782.37
639.828	44884.06
640.181	44787.57
640.534	44851.07
640.888	44826.89
641.241	44634.57
641.594	44500.57
641.947	44799.54
642.301	44706.44
642.654	44654.01
643.007	44663.95
643.36	44487.91
643.713	44371.08
644.066	44540.79
644.419	44285.43
644.771	44055.16
645.124	43798.21
645.477	43648.16
645.83	43158.91
646.182	43185.35
646.535	42883.89
646.888	43069.42
647.24	42944
647.593	43091.11
647.945	42987.61
648.298	42835.75
648.65	42649.77
649.002	42615.42
649.355	42763.21
649.707	42822.42
650.059	43081.62
650.411	43355.29
650.763	43265.57
651.115	43731.32
651.467	43593.25
651.819	43428.5
652.171	43344.67
652.523	43430.09
652.875	43299.02
653.227	43226.7
653.578	43509.63
653.93	43398
654.282	43097.89
654.633	43048.18
654.985	43060.83
655.337	43079.59
655.688	43061.73
656.039	43194.39
656.391	42786.26
656.742	42887.05
657.094	42931.34
657.445	43019.7
657.796	43014.96
658.147	42918.46
658.498	42844.57
658.849	42854.06
659.2	42822.87
659.551	42750.1
659.902	42828.29
660.253	42786.94
660.604	42697.68
660.955	42479.15
661.306	42651.8
661.656	42574.97
662.007	42537.45
662.358	42476.44
662.708	42492.71
663.059	42643.44
663.409	42244.13
663.76	42564.8
664.11	42430.79
664.461	42403
664.811	42431.24
665.161	42501.98
665.511	42420.4
665.862	42488.42
666.212	42542.65
666.562	42494.07
666.912	42396.22
667.262	42465.59
667.612	42247.75
667.962	42411.13
668.312	42328.19
668.662	42502.43
669.011	42247.75
669.361	42350.57
669.711	42308.31
670.06	42222.44
670.41	42153.74
670.76	42114.64
671.109	42160.52
671.459	42121.87
671.808	42108.77
672.157	42084.81
672.507	41927.98
672.856	41841.65
673.205	41955.55
673.554	41873.29
673.904	41817.93
674.253	42000.97
674.602	41866.29
674.951	41410.48
675.3	41125.06
675.649	41891.14
675.998	41665.61
676.346	41615.22
676.695	41871.48
677.044	41564.15
677.393	41668.55
677.741	41800.3
678.09	41462.91
678.438	41573.64
678.787	41619.06
679.135	41478.73
679.484	41276.02
679.832	41518.95
680.181	41280.09
680.529	41341.55
680.877	41184.72
681.225	41064.5
681.573	41370.71
681.922	41082.35
682.27	40954.45
682.618	41066.08
682.966	40906.76
683.314	40916.25
683.661	40695.92
684.009	40344.74
684.357	40527.34
684.705	40432.43
685.053	40644.62
685.4	40669.71
685.748	40269.04
686.095	40264.07
686.443	40187.23
686.79	39988.82
687.138	40066.33
687.485	39898.2
687.832	39926.22
688.18	40062.04
688.527	39709.28
688.874	39657.53
689.221	39580.02
689.568	39502.28
689.915	39386.58
690.262	39415.28
690.609	39330.08
690.956	39129.41
691.303	39098.9
691.65	38937.78
691.997	38954.5
692.344	38671.79
692.69	38658.46
693.037	38866.59
693.383	38595.64
693.73	38577.33
694.077	38325.36
694.423	38448.07
694.769	38301.86
695.116	38148.64
695.462	38204.24
695.808	38094.41
696.155	38015.09
696.501	37687.19
696.847	37611.26
697.193	37422.11
697.539	37659.62
697.885	37331.94
698.231	37353.41
698.577	37297.82
698.923	37107.54
699.269	36881.56
699.614	36734.22
699.96	36796.59
700.306	36848.11
700.651	36646.76
700.997	36588.91
701.342	36508.91
701.688	36416.26
702.033	36178.07
702.379	36190.28
702.724	36015.59
703.069	36100.34
703.415	35703.28
703.76	35788.48
704.105	35636.85
704.45	35523.4
704.795	35411.31
705.14	35144.2
705.485	35291.09
705.83	35112.57
706.175	35226.69
706.52	35179.68
706.865	35028.5
707.209	35017.65
707.554	34910.99
707.899	34852.23
708.243	34762.07
708.588	34675.29
708.932	34480.04
709.277	34449.98
709.621	34487.5
709.966	34241.18
710.31	34362.98
710.654	34085.25
710.998	34076.89
711.342	34065.14
711.687	33966.61
712.031	33764.35
712.375	33646.62
712.719	33697.01
713.063	33691.13
713.407	33780.17
713.75	33440.97
714.094	33553.06
714.438	33436.23
714.782	33386.74
715.125	33142.22
715.469	33267.64
715.812	33118.72
716.156	33018.38
716.499	32833.53
716.843	32991.72
717.186	32791.04
717.53	32848.44
717.873	32882.79
718.216	32795.79
718.559	32730.03
718.902	32553.08
719.246	32449.81
719.589	32436.7
719.932	32347.44
720.275	32508.57
720.617	32297.72
720.96	32365.29
721.303	32207.56
721.646	32084.62
721.989	32041.91
722.331	32042.82
722.674	31749.04
723.016	31970.95
723.359	31876.04
723.701	31771.64
724.044	31634.46
724.386	31421.82
724.729	31702.49
725.071	31527.12
725.413	31548.82
725.755	31393.57
726.097	31276.28
726.439	31253.01
726.782	31138.21
727.124	31277.19
727.465	31092.78
727.807	30942.73
728.149	30879.23
728.491	30958.32
728.833	31138.88
729.175	30851.21
729.516	30799.68
729.858	30836.75
730.199	30771.66
730.541	30846.01
730.882	30654.83
731.224	30591.55
731.565	30612.12
731.906	30428.85
732.248	30495.74
732.589	30331.45
732.93	30373.71
733.271	30242.86
733.612	30263.88
733.953	30427.72
734.294	30234.5
734.635	30135.07
734.976	30127.61
735.317	29926.94
735.658	30016.88
735.999	30011.46
736.339	29884.23
736.68	30027.05
737.021	29860.27
737.361	29640.39
737.702	29857.56
738.042	29698.24
738.383	29689.66
738.723	29642.2
739.063	29572.15
739.404	29558.36
739.744	29547.06
740.084	29420.51
740.424	29459.38
740.764	29422.09
741.104	29404.92
741.444	29151.82
741.784	29226.84
742.124	29220.29
742.464	29077.02
742.804	29057.36
743.143	28901.43
743.483	29010.58
743.823	28788.89
744.162	28820.53
744.502	28748.66
744.841	28686.29
745.181	28763.35
745.52	28683.13
745.86	28641.78
746.199	28450.82
746.538	28515.68
746.877	28564.72
747.216	28433.19
747.556	28354.1
747.895	28449.69
748.234	28265.06
748.573	28215.35
748.911	28197.72
749.25	28269.36
749.589	28071.17
749.928	28123.14
750.267	28037.5
750.605	27952.75
750.944	27937.61
751.283	27808.8
751.621	27868.91
751.96	27693.78
752.298	27611.29
752.636	27654.46
752.975	27422.37
753.313	27441.13
753.651	27561.35
