Data from plate_ceramic_FLMS001491_021.txt Node
Date: Tue Feb 07 11:16:31 GMT 2017
User: dcchb
Spectrometer: FLMS00149
Trigger mode: 0
Integration Time (sec): 2.000000E-2
Scans to average: 10
Electric dark correction enabled: true
Nonlinearity correction enabled: false
Boxcar width: 0
XAxis mode: Wavelengths
Number of Pixels in Spectrum: 2048
>>>>>Begin Spectral Data<<<<<
341.393	-7.26
341.776	-7.26
342.16	-7.26
342.543	-51.1
342.927	-51.78
343.31	-63.08
343.693	-60.59
344.077	-70.53
344.46	-79.12
344.843	-65.11
345.226	-58.33
345.61	-26.24
345.993	-18.56
346.376	-2.06
346.759	3.81
347.142	29.8
347.525	58.73
347.908	55.34
348.291	61.67
348.674	101.89
349.057	132.4
349.44	143.92
349.823	141.89
350.206	176.46
350.588	199.51
350.971	203.58
351.354	222.34
351.737	246.74
352.119	263.69
352.502	271.6
352.884	283.81
353.267	274.54
353.65	326.06
354.032	309.79
354.414	313.86
354.797	319.51
355.179	343.92
355.562	341.88
355.944	329.45
356.326	340.98
356.709	352.05
357.091	354.31
357.473	335.33
357.855	353.63
358.238	362
358.62	357.48
359.002	347.76
359.384	343.47
359.766	357.48
360.148	354.76
360.53	354.54
360.912	338.72
361.294	355.44
361.676	368.1
362.057	333.07
362.439	352.96
362.821	356.35
363.203	323.13
363.584	347.99
363.966	352.28
364.348	342.34
364.729	353.41
365.111	357.48
365.493	331.49
365.874	341.21
366.256	357.48
366.637	323.81
367.019	344.14
367.4	354.54
367.781	354.99
368.163	343.24
368.544	357.02
368.925	341.66
369.306	330.36
369.688	345.73
370.069	327.42
370.45	351.15
370.831	345.27
371.212	348.66
371.593	347.76
371.974	345.5
372.355	345.95
372.736	347.08
373.117	358.61
373.498	347.08
373.879	338.27
374.26	355.89
374.641	344.14
375.021	347.31
375.402	353.86
375.783	363.8
376.163	395.67
376.544	406.06
376.925	366.06
377.305	371.94
377.686	369.23
378.066	378.49
378.447	372.84
378.827	377.59
379.208	384.82
379.588	382.56
379.968	390.47
380.349	380.07
380.729	398.83
381.109	398.15
381.489	407.42
381.87	390.02
382.25	417.59
382.63	408.77
383.01	407.19
383.39	407.87
383.77	410.36
384.15	415.78
384.53	410.58
384.91	419.85
385.29	421.43
385.67	427.08
386.049	427.98
386.429	421.66
386.809	427.76
387.189	445.61
387.568	431.82
387.948	431.15
388.328	424.37
388.707	436.12
389.087	455.33
389.466	473.86
389.846	470.02
390.225	460.52
390.605	455.78
390.984	465.72
391.363	476.57
391.743	455.55
392.122	485.83
392.501	477.47
392.881	501.43
393.26	486.06
393.639	509.79
394.018	493.97
394.397	526.74
394.776	522.9
395.155	517.92
395.534	528.55
395.913	503.01
396.292	514.76
396.671	521.77
397.05	531.94
397.429	525.16
397.808	526.51
398.186	544.82
398.565	568.54
398.944	556.12
399.323	583.91
399.701	569
400.08	550.01
400.458	584.36
400.837	578.26
401.215	590.69
401.594	564.02
401.972	579.39
402.351	605.15
402.729	623.91
403.107	607.64
403.486	632.05
403.864	624.36
404.242	635.66
404.62	621.2
404.999	619.39
405.377	641.99
405.755	649.22
406.133	639.95
406.511	687.86
406.889	687.64
407.267	691.93
407.645	677.02
408.023	671.37
408.401	695.09
408.779	697.13
409.156	721.31
409.534	714.76
409.912	728.31
410.29	738.94
410.667	728.31
411.045	776.9
411.422	752.04
411.8	779.61
412.178	806.05
412.555	807.86
412.933	811.93
413.31	813.28
413.687	830.46
414.065	828.2
414.442	834.3
414.819	861.42
415.197	874.75
415.574	853.51
415.951	878.82
416.328	877.91
416.705	886.5
417.082	876.33
417.46	900.74
417.837	921.98
418.214	922.21
418.591	915.43
418.967	938.48
419.344	948.2
419.721	984.58
420.098	972.6
420.475	981.64
420.852	1011.47
421.228	1011.02
421.605	1023.45
421.982	1012.6
422.358	1038.81
422.735	1015.09
423.111	1032.26
423.488	1042.88
423.864	1059.38
424.241	1082.43
424.617	1083.11
424.994	1096.67
425.37	1116.78
425.746	1077.91
426.123	1133.5
426.499	1115.42
426.875	1142.09
427.251	1151.13
427.627	1181.86
428.003	1190.22
428.379	1227.06
428.756	1213.73
429.132	1245.59
429.507	1247.17
429.883	1276.32
430.259	1312.93
430.635	1311.58
431.011	1304.8
431.387	1348.18
431.763	1362.42
432.138	1373.72
432.514	1370.11
432.89	1392.25
433.265	1416.43
433.641	1470.89
434.016	1440.39
434.392	1446.26
434.767	1498.46
435.143	1521.51
435.518	1497.56
435.894	1501.63
436.269	1576.88
436.644	1584.79
437.02	1556.54
437.395	1575.52
437.77	1591.34
438.145	1642.87
438.52	1634.05
438.895	1655.52
439.271	1650.32
439.646	1676.99
440.021	1714.28
440.395	1708.4
440.77	1713.37
441.145	1700.94
441.52	1748.17
441.895	1782.3
442.27	1790.21
442.645	1773.71
443.019	1761.06
443.394	1803.77
443.769	1824.56
444.143	1834.73
444.518	1823.65
444.892	1862.75
445.267	1849.87
445.641	1887.15
446.016	1887.83
446.39	1865.01
446.764	1916.31
447.139	1910.2
447.513	1947.49
447.887	1931.9
448.262	1985.23
448.636	1995.85
449.01	2021.61
449.384	2020.71
449.758	2045.34
450.132	2066.36
450.506	2071.33
450.88	2071.33
451.254	2090.99
451.628	2122.18
452.002	2157.66
452.376	2170.99
452.75	2161.5
453.123	2202.85
453.497	2256.64
453.871	2248.95
454.244	2298.67
454.618	2295.96
454.992	2329.85
455.365	2301.83
455.739	2379.12
456.112	2437.42
456.486	2448.49
456.859	2465.67
457.232	2515.61
457.606	2538.21
457.979	2554.48
458.352	2599.45
458.725	2669.51
459.099	2643.07
459.472	2716.74
459.845	2691.88
460.218	2771.65
460.591	2775.72
460.964	2773.91
461.337	2818.2
461.71	2864.98
462.083	2874.02
462.456	2948.37
462.829	2976.84
463.201	3028.37
463.574	2966.45
463.947	3044.19
464.32	3126.9
464.692	3136.61
465.065	3205.31
465.438	3236.27
465.81	3250.06
466.183	3355.82
466.555	3370.28
466.928	3413.67
467.3	3403.95
467.672	3424.51
468.045	3546.55
468.417	3572.76
468.789	3582.25
469.161	3617.96
469.534	3724.39
469.906	3771.62
470.278	3764.84
470.65	3852.3
471.022	3916.7
471.394	3999.41
471.766	4019.08
472.138	4080.54
472.51	4145.63
472.882	4221.78
473.253	4271.95
473.625	4307.43
473.997	4402.79
474.369	4403.25
474.74	4468.55
475.112	4588.55
475.484	4689.57
475.855	4734.08
476.227	4776.57
476.598	4961.65
476.97	4945.6
477.341	5074.41
477.713	5088.2
478.084	5156.22
478.455	5323
478.827	5342.88
479.198	5502.43
479.569	5504.23
479.94	5691.8
480.311	5696.55
480.682	5836.65
481.053	6013.82
481.424	6064.45
481.795	6166.82
482.166	6222.63
482.537	6265.57
482.908	6415.62
483.279	6520.7
483.65	6638.89
484.021	6737.87
484.391	6839.79
484.762	6881.82
485.133	6973.57
485.503	7085.21
485.874	7218.99
486.244	7296.28
486.615	7444.97
486.985	7521.58
487.356	7675.93
487.726	7659.66
488.097	7882.48
488.467	7954.11
488.837	8153.43
489.207	8219.42
489.578	8323.14
489.948	8386.64
490.318	8491.27
490.688	8565.85
491.058	8619.86
491.428	8819.63
491.798	8890.36
492.168	9039.96
492.538	9055.33
492.908	9235.44
493.278	9380.97
493.648	9381.65
494.017	9474.75
494.387	9553.84
494.757	9681.3
495.126	9760.17
495.496	9881.97
495.866	9882.42
496.235	9988.86
496.605	10079.71
496.974	10147.95
497.344	10321.96
497.713	10384.33
498.082	10404.9
498.452	10521.28
498.821	10569.41
499.19	10603.31
499.559	10712.01
499.928	10840.14
500.298	10937.54
500.667	11045.11
501.036	10997.65
501.405	11042.39
501.774	11205.33
502.143	11212.33
502.512	11330.75
502.88	11469.27
503.249	11518.76
503.618	11598.99
503.987	11723.28
504.356	11627.46
504.724	11761.92
505.093	11861.81
505.462	11857.51
505.83	11999.88
506.199	12107.68
506.567	12252.98
506.936	12218.41
507.304	12446.88
507.672	12500.66
508.041	12612.75
508.409	12759.41
508.777	12827.43
509.145	12858.84
509.514	12933.64
509.882	13055
510.25	13080.98
510.618	13213.41
510.986	13232.39
511.354	13349.45
511.722	13484.36
512.09	13656.79
512.458	13567.07
512.826	13759.61
513.193	13863.56
513.561	13878.25
513.929	14037.57
514.297	14214.06
514.664	14243.89
515.032	14358.01
515.4	14414.96
515.767	14519.59
516.135	14607.95
516.502	14581.74
516.869	14892.91
517.237	14922.52
517.604	14927.04
517.972	15112.79
518.339	15214.03
518.706	15265.79
519.073	15395.27
519.44	15494.93
519.808	15683.18
520.175	15643.18
520.542	15889.72
520.909	15932.89
521.276	16034.8
521.643	16273.44
522.009	16358.19
522.376	16486.32
522.743	16612.19
523.11	16802.47
523.477	16968.11
523.843	17038.85
524.21	17114.32
524.577	17368.33
524.943	17486.74
525.31	17522.9
525.676	17637.25
526.043	17795.21
526.409	17922.44
526.776	18055.54
527.142	18094.64
527.508	18345.25
527.874	18388.64
528.241	18457.79
528.607	18543.21
528.973	18800.38
529.339	18716.32
529.705	18994.05
530.071	19213.7
530.437	19309.52
530.803	19351.33
531.169	19576.63
531.535	19470.42
531.901	19623.18
532.267	19669.74
532.632	19893.23
532.998	20010.97
533.364	20043.06
533.73	20131.19
534.095	20190.63
534.461	20466.1
534.826	20488.47
535.192	20639.88
535.557	20814.34
535.923	20770.27
536.288	20798.52
536.653	20883.72
537.019	20914.9
537.384	21099.3
537.749	21209.81
538.114	21239.64
538.479	21255.91
538.845	21362.57
539.21	21343.82
539.575	21525.06
539.94	21644.15
540.305	21718.5
540.67	21818.61
541.034	21944.03
541.399	21935.44
541.764	22041.88
542.129	22062.67
542.494	22269.44
542.858	22268.31
543.223	22330.01
543.587	22454.52
543.952	22517.35
544.316	22551.47
544.681	22528.19
545.045	22745.81
545.41	22907.39
545.774	22911.46
546.138	22892.48
546.503	23042.08
546.867	23086.14
547.231	23189.87
547.595	23287.5
547.959	23446.81
548.324	23484.78
548.688	23585.79
549.052	23664.43
549.416	23706.69
549.779	23768.16
550.143	23896.29
550.507	24089.51
550.871	24090.86
551.235	24180.13
551.599	24413.79
551.962	24326.34
552.326	24450.63
552.689	24595.71
553.053	24552.09
553.417	24632.54
553.78	24959.09
554.143	24797.51
554.507	24996.6
554.87	25089.03
555.234	25325.18
555.597	25222.13
555.96	25410.15
556.323	25531.05
556.686	25590.49
557.05	25856.02
557.413	25916.8
557.776	25896.24
558.139	26049.23
558.502	26206.51
558.865	26231.82
559.228	26446.96
559.59	26556.56
559.953	26642.66
560.316	26900.06
560.679	26919.49
561.041	27047.4
561.404	27262.53
561.767	27324.68
562.129	27263.21
562.492	27639.02
562.854	27639.02
563.217	27759.69
563.579	27781.16
563.941	28010.53
564.304	28093.24
564.666	28328.04
565.028	28377.08
565.39	28489.17
565.753	28547.02
566.115	28787.46
566.477	28769.16
566.839	28964.18
567.201	29066.1
567.563	29154.91
567.925	29302.48
568.287	29425.64
568.648	29459.76
569.01	29672.41
569.372	29929.35
569.734	29796.25
570.095	30122.12
570.457	30124.6
570.819	30263.58
571.18	30184.94
571.542	30372.05
571.903	30508.77
572.265	30590.58
572.626	30694.53
572.987	30810.24
573.349	30905.6
573.71	31092.94
574.071	31063.79
574.432	31209.55
574.794	31357.57
575.155	31207.74
575.516	31319.37
575.877	31527.73
576.238	31539.93
576.599	31689.08
576.96	31772.7
577.32	31785.35
577.681	31828.29
578.042	31915.29
578.403	31873.26
578.763	31987.61
579.124	31998.9
579.485	32105.79
579.845	32244.55
580.206	32242.29
580.566	32358.44
580.927	32219.01
581.287	32423.3
581.648	32313.7
582.008	32395.28
582.368	32419.46
582.728	32448.38
583.089	32434.37
583.449	32460.36
583.809	32438.44
584.169	32576.06
584.529	32395.28
584.889	32772.67
585.249	32540.36
585.609	32501.49
585.969	32821.26
586.329	32612.45
586.688	32766.57
587.048	32714.82
587.408	32701.94
587.768	32768.38
588.127	32736.74
588.487	32668.72
588.846	32907.58
589.206	32614.26
589.565	32776.74
589.925	32830.07
590.284	32656.29
590.643	32705.33
591.003	32863.74
591.362	32997.07
591.721	32819.22
592.08	32918.88
592.44	33138.31
592.799	33052.66
593.158	32942.16
593.517	32923.63
593.876	33029.61
594.235	32911.65
594.593	33112.32
594.952	33197.29
595.311	32999.1
595.67	33119.78
596.029	33263.28
596.387	33247.01
596.746	33302.82
597.104	33124.3
597.463	33170.85
597.822	33336.5
598.18	33190.74
598.538	33216.05
598.897	33364.07
599.255	33124.75
599.613	33559.09
599.972	33363.39
600.33	33550.73
600.688	33402.94
601.046	33522.25
601.404	33651.74
601.762	33586.66
602.12	33668.69
602.478	33721.57
602.836	33779.65
603.194	33509.6
603.552	33727.9
603.91	33693.32
604.268	33762.25
604.625	33735.81
604.983	33818.29
605.341	33480.67
605.698	33890.15
606.056	33993.88
606.413	34029.13
606.771	34013.31
607.128	33984.39
607.485	33972.64
607.843	34136.02
608.2	34277.49
608.557	34272.97
608.914	34157.72
609.272	34387.77
609.629	34393.19
609.986	34543.47
610.343	34482.68
610.7	34538.95
611.057	34478.39
611.414	34615.78
611.771	34450.82
612.127	34601.32
612.484	34646.29
612.841	34711.38
613.198	34630.7
613.554	34634.09
613.911	34884.03
614.267	34949.56
614.624	34809.9
614.98	34929.9
615.337	35060.52
615.693	34963.12
616.05	34966.74
616.406	35237.92
616.762	35145.04
617.118	34989.56
617.475	34993.63
617.831	35225.26
618.187	35282.43
618.543	35205.83
618.899	35462.32
619.255	35420.06
619.611	35307.74
619.967	35509.77
620.323	35466.61
620.678	35422.77
621.034	35383.22
621.39	35214.19
621.746	35257.12
622.101	35558.81
622.457	35335.77
622.812	35357.23
623.168	35439.94
623.523	35346.61
623.879	35550.22
624.234	35354.97
624.589	35478.81
624.945	35427.29
625.3	35504.12
625.655	35471.13
626.01	35545.48
626.365	35499.15
626.72	35409.66
627.075	35435.42
627.43	35360.4
627.785	35236.33
628.14	35442.43
628.495	35410.11
628.85	35432.49
629.205	35265.03
629.559	35511.81
629.914	35229.78
630.269	35341.64
630.623	35079.73
630.978	35065.94
631.332	35319.04
631.687	35252.6
632.041	34980.97
632.396	35190.91
632.75	34985.94
633.104	35074.53
633.459	34863.91
633.813	34923.35
634.167	34875.66
634.521	34827.76
634.875	34893.97
635.229	34874.76
635.583	34739.85
635.937	34731.26
636.291	34614.43
636.645	34554.32
636.999	34573.53
637.352	34737.82
637.706	34444.26
638.06	34596.58
638.413	34567.88
638.767	34343.93
639.121	34452.63
639.474	34185.74
639.828	34303.02
640.181	34262.12
640.534	34251.05
640.888	34187.77
641.241	34127.89
641.594	33943.94
641.947	34150.26
642.301	34108.68
642.654	33945.52
643.007	33997.5
643.36	33949.36
643.713	33837.05
644.066	34092.86
644.419	33665.98
644.771	33421.69
645.124	33218.31
645.477	32969.05
645.83	32981.48
646.182	32772.22
646.535	32769.05
646.888	32862.84
647.24	32607.93
647.593	32876.4
647.945	32810.41
648.298	32564.99
648.65	32486.12
649.002	32456.75
649.355	32674.82
649.707	32615.39
650.059	32612.45
650.411	32914.36
650.763	32924.08
651.115	33200.45
651.467	33247.69
651.819	33167.69
652.171	32941.7
652.523	32982.38
652.875	32958.88
653.227	32954.36
653.578	33098.08
653.93	32916.39
654.282	32898.54
654.633	32737.64
654.985	32873.23
655.337	32908.94
655.688	32876.62
656.039	32978.77
656.391	32665.78
656.742	32715.95
657.094	32590.08
657.445	32829.17
657.796	32772.44
658.147	32684.08
658.498	32566.57
658.849	32632.56
659.2	32651.32
659.551	32539.46
659.902	32550.98
660.253	32580.13
660.604	32602.28
660.955	32498.33
661.306	32488.84
661.656	32467.59
662.007	32456.97
662.358	32376.52
662.708	32322.29
663.059	32256.98
663.409	32288.84
663.76	32402.28
664.11	32327.48
664.461	32220.59
664.811	32383.53
665.161	32330.87
665.511	32173.36
665.862	32211.78
666.212	32264.21
666.562	32325.45
666.912	32202.06
667.262	32151.67
667.612	32115.74
667.962	32192.57
668.312	32028.73
668.662	32328.16
669.011	32191.89
669.361	32183.31
669.711	32151.44
670.06	32090.88
670.41	31952.58
670.76	31893.82
671.109	32040.03
671.459	31928.4
671.808	31914.39
672.157	32031.45
672.507	31737.89
672.856	31703.54
673.205	31844.56
673.554	31957.32
673.904	31781.28
674.253	32018.11
674.602	31786.71
674.951	31396.89
675.3	31179.04
675.649	31692.47
675.998	31626.48
676.346	31697.44
676.695	31785.8
677.044	31464.68
677.393	31608.86
677.741	31626.26
678.09	31518.69
678.438	31556.43
678.787	31503.78
679.135	31560.27
679.484	31351.92
679.832	31378.81
680.181	31294.97
680.529	31249.32
680.877	31193.28
681.225	31153.05
681.573	31421.29
681.922	31170
682.27	31092.04
682.618	31132.26
682.966	31049.1
683.314	31036.44
683.661	30882.1
684.009	30845.49
684.357	30740.41
684.705	30577.47
685.053	30627.64
685.4	30616.79
685.748	30470.58
686.095	30539.51
686.443	30363.69
686.79	30336.12
687.138	30336.8
687.485	30288.44
687.832	30222.23
688.18	30292.73
688.527	30012.74
688.874	29998.05
689.221	30002.35
689.568	29994.66
689.915	29817.72
690.262	29808.91
690.609	29808.91
690.956	29746.31
691.303	29639.87
691.65	29440.55
691.997	29517.61
692.344	29243.27
692.69	29397.39
693.037	29473.1
693.383	29123.27
693.73	29307.45
694.077	29130.73
694.423	29146.78
694.769	29057.29
695.116	28957.85
695.462	28818.88
695.808	28794.69
696.155	28708.6
696.501	28589.28
696.847	28557.86
697.193	28288.72
697.539	28459.56
697.885	28160.81
698.231	28144.54
698.577	28094.37
698.923	28194.26
699.269	27933.02
699.614	27796.08
699.96	27813.48
700.306	27870.43
700.651	27620.04
700.997	27559.47
701.342	27523.09
701.688	27503.88
702.033	27311.57
702.379	27351.57
702.724	27366.94
703.069	27214.17
703.415	26931.47
703.76	26958.81
704.105	26991.13
704.45	26923.33
704.795	26849.21
705.14	26785.03
705.485	26755.43
705.83	26565.83
706.175	26606.96
706.52	26588.88
706.865	26430.69
707.209	26420.75
707.554	26293.52
707.899	26333.29
708.243	26233.86
708.588	26308.66
708.932	25957.26
709.277	26046.07
709.621	26073.41
709.966	25858.73
710.31	25819.18
710.654	25683.36
710.998	25759.29
711.342	25666.87
711.687	25616.02
712.031	25580.99
712.375	25466.42
712.719	25496.02
713.063	25489.02
713.407	25529.47
713.75	25264.62
714.094	25334.9
714.438	25262.36
714.782	25219.42
715.125	25068.24
715.469	25184.85
715.812	24917.28
716.156	24921.35
716.499	24862.37
716.843	24957.51
717.186	24840
717.53	24831.18
717.873	24816.27
718.216	24766.55
718.559	24638.65
718.902	24482.72
719.246	24559.1
719.589	24388.48
719.932	24355.04
720.275	24247.02
720.617	24316.62
720.96	24218.09
721.303	24343.51
721.646	24130.64
721.989	24090.86
722.331	24181.71
722.674	23942.17
723.016	23969.96
723.359	23974.93
723.701	23962.05
724.044	23900.81
724.386	23762.74
724.729	23843.64
725.071	23765.45
725.413	23703.3
725.755	23751.21
726.097	23586.47
726.439	23463.54
726.782	23535.85
727.124	23612.46
727.465	23566.81
727.807	23485.46
728.149	23370.43
728.491	23507.38
728.833	23404.55
729.175	23271.68
729.516	23224.67
729.858	23169.76
730.199	23298.12
730.541	23165.46
730.882	23111.68
731.224	23122.3
731.565	23123.66
731.906	22955.3
732.248	23021.97
732.589	22861.74
732.93	22859.94
733.271	22923.21
733.612	22894.06
733.953	22907.84
734.294	22788.07
734.635	22632.15
734.976	22747.4
735.317	22637.12
735.658	22586.5
735.999	22630.79
736.339	22510.34
736.68	22548.98
737.021	22466.27
737.361	22508.76
737.702	22394.86
738.042	22324.13
738.383	22388.54
738.723	22280.74
739.063	22243.45
739.404	22287.52
739.744	22149.67
740.084	22131.82
740.424	22203.91
740.764	22109.22
741.104	22146.28
741.444	21965.72
741.784	21965.27
742.124	22084.81
742.464	21976.57
742.804	21835.56
743.143	21794.43
743.483	21873.52
743.823	21719.63
744.162	21741.1
744.502	21763.24
744.841	21772.05
745.181	21621.78
745.52	21602.12
745.86	21633.98
746.199	21618.84
746.538	21565.51
746.877	21555.11
747.216	21462.23
747.556	21446.41
747.895	21358.28
748.234	21248.68
748.573	21302.69
748.911	21205.97
749.25	21130.72
749.589	21003.94
749.928	21064.5
750.267	21223.59
750.605	21019.08
750.944	20972.3
751.283	20898.41
751.621	20949.7
751.96	20820.44
752.298	20873.77
752.636	20855.69
752.975	20805.3
753.313	20727.11
753.651	20700.9
