Data from plate_porcelain_FLMS001491_021.txt Node
Date: Tue Feb 07 11:19:01 GMT 2017
User: dcchb
Spectrometer: FLMS00149
Trigger mode: 0
Integration Time (sec): 2.000000E-2
Scans to average: 10
Electric dark correction enabled: true
Nonlinearity correction enabled: false
Boxcar width: 0
XAxis mode: Wavelengths
Number of Pixels in Spectrum: 2048
>>>>>Begin Spectral Data<<<<<
341.393	-2.15
341.776	-2.15
342.16	-2.15
342.543	-67
342.927	-76.95
343.31	-78.3
343.693	-92.77
344.077	-57.29
344.46	-48.02
344.843	-32.65
345.226	-38.3
345.61	-29.04
345.993	-17.06
346.376	-7.57
346.759	7.12
347.142	34.24
347.525	52.32
347.908	43.05
348.291	76.27
348.674	81.92
349.057	106.1
349.44	114.01
349.823	142.03
350.206	162.14
350.588	214.12
350.971	237.17
351.354	259.32
351.737	264.51
352.119	275.36
352.502	289.6
352.884	298.41
353.267	331.4
353.65	317.39
354.032	345.41
354.414	326.21
354.797	339.54
355.179	368.46
355.562	371.85
355.944	372.31
356.326	376.37
356.709	364.4
357.091	362.82
357.473	393.1
357.855	379.99
358.238	380.22
358.62	395.13
359.002	400.33
359.384	390.39
359.766	383.38
360.148	394.9
360.53	395.81
360.912	371.18
361.294	370.27
361.676	396.94
362.057	373.66
362.439	387.45
362.821	386.32
363.203	390.61
363.584	375.7
363.966	387.45
364.348	394.45
364.729	407.56
365.111	394
365.493	390.16
365.874	374.34
366.256	384.96
366.637	376.83
367.019	378.63
367.4	399.65
367.781	395.36
368.163	419.09
368.544	393.32
368.925	401.01
369.306	402.36
369.688	393.55
370.069	405.3
370.45	392.19
370.831	385.19
371.212	399.42
371.593	409.37
371.974	415.92
372.355	411.63
372.736	420.67
373.117	438.75
373.498	402.59
373.879	404.4
374.26	409.37
374.641	400.55
375.021	428.35
375.402	403.49
375.783	438.75
376.163	468.8
376.544	450.5
376.925	462.02
377.305	454.56
377.686	445.3
378.066	466.32
378.447	464.96
378.827	450.04
379.208	497.5
379.588	461.57
379.968	488.24
380.349	490.95
380.729	491.85
381.109	481.46
381.489	521
381.87	525.3
382.25	506.31
382.63	509.48
383.01	506.09
383.39	506.77
383.77	518.07
384.15	519.2
384.53	544.51
384.91	538.86
385.29	551.28
385.67	539.99
386.049	567.1
386.429	541.79
386.809	566.88
387.189	582.02
387.568	577.72
387.948	574.79
388.328	599.65
388.707	593.32
389.087	611.17
389.466	625.18
389.846	627.22
390.225	620.21
390.605	641.9
390.984	629.47
391.363	678.74
391.743	637.38
392.122	650.94
392.501	652.75
392.881	667.89
393.26	675.8
393.639	705.18
394.018	700.66
394.397	693.65
394.776	731.85
395.155	721.22
395.534	706.54
395.913	737.49
396.292	716.25
396.671	747.21
397.05	761.9
397.429	751.51
397.808	765.97
398.186	794.67
398.565	781.11
398.944	809.58
399.323	798.28
399.701	795.35
400.08	785.63
400.458	821.11
400.837	834.22
401.215	838.28
401.594	830.83
401.972	865.63
402.351	845.51
402.729	865.4
403.107	871.5
403.486	888.9
403.864	887.55
404.242	918.28
404.62	940.65
404.999	927.09
405.377	938.39
405.755	958.73
406.133	977.04
406.511	967.09
406.889	996.47
407.267	1012.74
407.645	1022.91
408.023	1024.49
408.401	1062.68
408.779	1059.29
409.156	1074.89
409.534	1066.98
409.912	1108.56
410.29	1154.66
410.667	1172.51
411.045	1177.26
411.422	1140.42
411.8	1182.91
412.178	1219.52
412.555	1218.39
412.933	1232.4
413.31	1260.42
413.687	1282.11
414.065	1293.64
414.442	1332.73
414.819	1333.64
415.197	1347.65
415.574	1390.81
415.951	1373.86
416.328	1394.88
416.705	1396.91
417.082	1407.76
417.46	1452.05
417.837	1456.12
418.214	1482.56
418.591	1498.15
418.967	1489.11
419.344	1499.28
419.721	1509.45
420.098	1530.02
420.475	1581.77
420.852	1567.76
421.228	1596.68
421.605	1613.86
421.982	1625.83
422.358	1665.38
422.735	1665.15
423.111	1694.53
423.488	1714.19
423.864	1739.95
424.241	1767.3
424.617	1748.09
424.994	1726.85
425.37	1799.39
425.746	1791.93
426.123	1816.56
426.499	1846.17
426.875	1877.58
427.251	1891.59
427.627	1958.48
428.003	1978.37
428.379	2012.49
428.756	2031.47
429.132	2086.84
429.507	2101.98
429.883	2097.23
430.259	2103.79
430.635	2123.9
431.011	2158.02
431.387	2235.99
431.763	2268.08
432.138	2275.08
432.514	2339.49
432.89	2354.85
433.265	2371.58
433.641	2413.61
434.016	2448.41
434.392	2472.59
434.767	2544
435.143	2544.45
435.518	2584.9
435.894	2605.47
436.269	2630.1
436.644	2682.75
437.02	2695.86
437.395	2709.19
437.77	2739.02
438.145	2787.61
438.52	2811.56
438.895	2846.37
439.271	2858.12
439.646	2938.11
440.021	2930.66
440.395	2966.36
440.77	2950.54
441.145	2993.03
441.52	3029.41
441.895	3094.27
442.27	3051.78
442.645	3088.17
443.019	3131.56
443.394	3175.85
443.769	3190.76
444.143	3207.71
444.518	3248.16
444.892	3226.02
445.267	3293.13
445.641	3303.53
446.016	3329.52
446.39	3371.78
446.764	3375.62
447.139	3375.62
447.513	3417.88
447.887	3423.75
448.262	3456.97
448.636	3496.29
449.01	3576.74
449.384	3614.93
449.758	3640.92
450.132	3635.72
450.506	3651.99
450.88	3722.5
451.254	3740.35
451.628	3740.35
452.002	3824.19
452.376	3848.83
452.75	3916.85
453.123	3916.39
453.497	4009.05
453.871	4010.63
454.244	4136.95
454.618	4087.24
454.992	4207.23
455.365	4207.91
455.739	4306.89
456.112	4381.24
456.486	4456.94
456.859	4440.9
457.232	4506.89
457.606	4583.72
457.979	4611.07
458.352	4703.94
458.725	4753.43
459.099	4758.63
459.472	4897.84
459.845	4954.33
460.218	4983.48
460.591	5064.39
460.964	5061.9
461.337	5223.03
461.71	5248.11
462.083	5348.45
462.456	5363.59
462.829	5375.34
463.201	5540.76
463.574	5531.72
463.947	5615.33
464.32	5732.84
464.692	5789.79
465.065	5870.02
465.438	5926.74
465.81	5997.47
466.183	6058.48
466.555	6213.73
466.928	6248.76
467.3	6258.25
467.672	6379.15
468.045	6603.56
468.417	6527.17
468.789	6634.74
469.161	6746.15
469.534	6779.14
469.906	6969.2
470.278	7041.74
470.65	7157.89
471.022	7294.16
471.394	7398.56
471.766	7420.48
472.138	7582.74
472.51	7760.81
472.882	7867.48
473.253	7877.65
473.625	8042.39
473.997	8260.91
474.369	8285.09
474.74	8405.32
475.112	8570.74
475.484	8751.07
475.855	8894.34
476.227	8907.9
476.598	9172.75
476.97	9256.14
477.341	9457.27
477.713	9649.35
478.084	9645.51
478.455	9957.37
478.827	10058.15
479.198	10376.79
479.569	10392.38
479.94	10659.27
480.311	10774.74
480.682	11058.13
481.053	11313.26
481.424	11436.87
481.795	11525.69
482.166	11705.34
482.537	11821.05
482.908	12216.29
483.279	12360.24
483.65	12602.27
484.021	12797.52
484.391	12928.59
484.762	13047.45
485.133	13246.54
485.503	13381.68
485.874	13636.14
486.244	13882.46
486.615	14023.93
486.985	14179.4
487.356	14563.8
487.726	14700.97
488.097	14995.42
488.467	15005.14
488.837	15433.38
489.207	15516.99
489.578	15770.55
489.948	16008.05
490.318	16175.28
490.688	16177.31
491.058	16483.75
491.428	16777.07
491.798	16893.91
492.168	17236.27
492.538	17398.3
492.908	17431.07
493.278	17785.18
493.648	17857.04
494.017	18111.5
494.387	18264.94
494.757	18333.64
495.126	18650.92
495.496	18704.93
495.866	18884.59
496.235	19052.04
496.605	19277.57
496.974	19325.93
497.344	19541.75
497.713	19668.97
498.082	19900.83
498.452	20123.2
498.821	20289.3
499.19	20201.84
499.559	20451.78
499.928	20618.55
500.298	20773.35
500.667	21042.5
501.036	20974.7
501.405	21308.25
501.774	21356.39
502.143	21584.4
502.512	21619.21
502.88	21832.53
503.249	21852.42
503.618	22115.92
503.987	22137.38
504.356	22337.38
504.724	22541.44
505.093	22618.05
505.462	22733.3
505.83	22844.26
506.199	23107.75
506.567	23410.8
506.936	23331.7
507.304	23600.4
507.672	23795.65
508.041	23905.7
508.409	24147.5
508.777	24266.59
509.145	24515.63
509.514	24474.72
509.882	24746.35
510.25	24841.04
510.618	25108.15
510.986	25275.61
511.354	25465.66
511.722	25668.59
512.09	25951.75
512.458	25799.66
512.826	26022.25
513.193	26291.17
513.561	26396.26
513.929	26666.08
514.297	26921.21
514.664	27127.99
515.032	27305.84
515.4	27521.2
515.767	27694.98
516.135	27925.71
516.502	27732.49
516.869	28142.65
517.237	28264.91
517.604	28346.94
517.972	28698.34
518.339	28934.04
518.706	29002.51
519.073	29273.47
519.44	29365.22
519.808	29927.01
520.175	29871.87
520.542	30266.44
520.909	30367.9
521.276	30318.86
521.643	30810.15
522.009	31015.12
522.376	31270.7
522.743	31506.18
523.11	31894.64
523.477	31981.87
523.843	32194.75
524.21	32634.06
524.577	32854.16
524.943	32910.21
525.31	33155.17
525.676	33586.35
526.043	33650.08
526.409	33954.25
526.776	34206.45
527.142	34422.48
527.508	34650.05
527.874	34870.38
528.241	35130.49
528.607	35230.83
528.973	35579.06
529.339	35649.8
529.705	35997.36
530.071	36355.32
530.437	36486.39
530.803	36749.43
531.169	36821.74
531.535	36870.78
531.901	37104.9
532.267	37186.93
532.632	37526.36
532.998	37638.9
533.364	37923.18
533.73	37991.88
534.095	38322.72
534.461	38300.12
534.826	38562.71
535.192	38675.71
535.557	39084.51
535.923	39046.32
536.288	39200.66
536.653	39480.66
537.019	39459.87
537.384	39599.07
537.749	39698.05
538.114	39961.32
538.479	40006.74
538.845	40234.54
539.21	40188.89
539.575	40561.08
539.94	40642.43
540.305	40866.38
540.67	40738.25
541.034	41049.2
541.399	41149.77
541.764	41332.81
542.129	41479.25
542.494	41608.51
542.858	41897.32
543.223	41722.86
543.587	42125.33
543.952	42076.29
544.316	42317.87
544.681	42334.59
545.045	42567.58
545.41	42682.61
545.774	42773.23
546.138	42858.42
546.503	42951.3
546.867	43137.96
547.231	43365.53
547.595	43528.23
547.959	43687.78
548.324	43776.14
548.688	43745.86
549.052	43910.37
549.416	44061.33
549.779	44136.58
550.143	44326.41
550.507	44689.11
550.871	44619.5
551.235	44806.62
551.599	45114.18
551.962	45226.49
552.326	45344.68
552.689	45581.74
553.053	45420.84
553.417	45545.58
553.78	46115.28
554.143	45950.32
554.507	46109.86
554.87	46299.91
555.234	46636.17
555.597	46496.74
555.96	46754.82
556.323	46930.18
556.686	47046.79
557.05	47235.71
557.413	47347.12
557.776	47538.98
558.139	47724.73
558.502	47887.67
558.865	47862.58
559.228	48302.35
559.59	48357.49
559.953	48416.02
560.316	48812.16
560.679	48846.96
561.041	49124.25
561.404	49252.38
561.767	49531.24
562.129	49327.4
562.492	49867.5
562.854	49884.23
563.217	49862.08
563.579	50015.07
563.941	50220.94
564.304	50467.26
564.666	50637.43
565.028	50675.84
565.39	50820.25
565.753	51015.27
566.115	51111.09
566.477	51343.85
566.839	51269.73
567.201	51512.43
567.563	51687.57
567.925	51852.99
568.287	51853.21
568.648	51904.74
569.01	52088.23
569.372	52281.68
569.734	52215.24
570.095	52445.97
570.457	52554.66
570.819	52673.08
571.18	52683.02
571.542	52831.49
571.903	52977.25
572.265	53073.07
572.626	53104.25
572.987	53219.28
573.349	53348.77
573.71	53408.43
574.071	53516.45
574.432	53555.54
574.794	53792.14
575.155	53728.42
575.516	53669.89
575.877	53904.46
576.238	53948.52
576.599	53936.55
576.96	53993.04
577.32	54070.1
577.681	54183.55
578.042	54199.14
578.403	54281.17
578.763	54302.87
579.124	54360.94
579.485	54460.83
579.845	54574.5
580.206	54484.56
580.566	54484.33
580.927	54617.66
581.287	54700.6
581.648	54577.66
582.008	54691.78
582.368	54637.09
582.728	54772.01
583.089	54648.17
583.449	54710.99
583.809	54706.25
584.169	54856.07
584.529	54688.84
584.889	54856.52
585.249	54764.32
585.609	54761.38
585.969	54864.66
586.329	54761.16
586.688	54870.08
587.048	54810.88
587.408	54732.46
587.768	54741.72
588.127	54732.01
588.487	54793.7
588.846	54998.67
589.206	54779.69
589.565	54812.46
589.925	54978.55
590.284	54821.04
590.643	54965.45
591.003	55041.6
591.362	55028.95
591.721	55011.77
592.08	54991.66
592.44	55151.21
592.799	55059.68
593.158	55009.74
593.517	55029.85
593.876	55052.68
594.235	54992.57
594.593	54998.21
594.952	55071.21
595.311	55035.73
595.67	55093.81
596.029	55265.78
596.387	55255.38
596.746	55200.7
597.104	55155.5
597.463	55234.14
597.822	55303.74
598.18	55222.39
598.538	55183.97
598.897	55433.01
599.255	55135.39
599.613	55534.7
599.972	55286.12
600.33	55422.61
600.688	55381.26
601.046	55461.71
601.404	55602.04
601.762	55455.6
602.12	55592.32
602.478	55641.14
602.836	55688.59
603.194	55509.39
603.552	55505.32
603.91	55475.49
604.268	55587.8
604.625	55544.19
604.983	55708.48
605.341	55568.37
605.698	55730.17
606.056	55785.31
606.413	55775.82
606.771	55831.87
607.128	55881.81
607.485	55802.49
607.843	55799.78
608.2	55963.16
608.557	56019.21
608.914	55917.96
609.272	56063.27
609.629	56153.89
609.986	56111.63
610.343	56012.43
610.7	56266.88
611.057	56265.07
611.414	56310.72
611.771	56212.65
612.127	56359.08
612.484	56315.92
612.841	56401.12
613.198	56332.19
613.554	56373.09
613.911	56543.71
614.267	56538.29
614.624	56465.07
614.98	56519.53
615.337	56707.77
615.693	56621.45
616.05	56592.52
616.406	56671.39
616.762	56603.6
617.118	56661
617.475	56639.08
617.831	56691.73
618.187	56728.79
618.543	56753.87
618.899	56917.71
619.255	56873.19
619.611	56804.95
619.967	56865.51
620.323	56959.75
620.678	56848.34
621.034	56787.09
621.39	56808.34
621.746	56774.44
622.101	57114.09
622.457	56852.63
622.812	56853.53
623.168	56882.69
623.523	56960.88
623.879	57016.24
624.234	56875.23
624.589	56973.76
624.945	56941.67
625.3	57049.23
625.655	56925.62
626.01	56903.93
626.365	56998.39
626.72	56888.56
627.075	56965.17
627.43	56859.63
627.785	56866.64
628.14	56887.88
628.495	56904.38
628.85	56847.21
629.205	56740.32
629.559	56889.24
629.914	56747.32
630.269	56733.99
630.623	56721.33
630.978	56694.22
631.332	56745.51
631.687	56799.07
632.041	56667.78
632.396	56752.75
632.75	56648.12
633.104	56653.09
633.459	56514.56
633.813	56552.98
634.167	56502.36
634.521	56490.38
634.875	56548
635.229	56431.17
635.583	56369.93
635.937	56277.5
636.291	56255.36
636.645	56364.73
636.999	56215.36
637.352	56265.53
637.706	56147.34
638.06	56229.14
638.413	56134.91
638.767	56145.76
639.121	56234.79
639.474	55985.08
639.828	55980.34
640.181	55940.34
640.534	55971.52
640.888	55910.28
641.241	55792.54
641.594	55876.84
641.947	55903.05
642.301	55855.59
642.654	55804.75
643.007	55773.79
643.36	55823.5
643.713	55612.44
644.066	55792.54
644.419	55621.93
644.771	55430.75
645.124	55215.16
645.477	55049.51
645.83	54923.19
646.182	54814.49
646.535	54650.2
646.888	54751.89
647.24	54674.16
647.593	54725.91
647.945	54651.56
648.298	54488.62
648.65	54472.35
649.002	54334.96
649.355	54485.23
649.707	54477.78
650.059	54616.76
650.411	54873.47
650.763	54967.71
651.115	55170.64
651.467	55096.74
651.819	55050.64
652.171	54997.54
652.523	54941.95
652.875	54875.28
653.227	54769.97
653.578	54934.26
653.93	54859.46
654.282	54773.59
654.633	54646.81
654.985	54772.68
655.337	54759.58
655.688	54666.7
656.039	54775.4
656.391	54532.92
656.742	54611.78
657.094	54660.6
657.445	54726.81
657.796	54657.43
658.147	54578.11
658.498	54532.46
658.849	54543.99
659.2	54514.39
659.551	54454.95
659.902	54649.07
660.253	54511.9
660.604	54530.66
660.955	54328.4
661.306	54405.46
661.656	54320.94
662.007	54369.76
662.358	54358.01
662.708	54315.07
663.059	54331.79
663.409	54069.65
663.76	54339.02
664.11	54344.67
664.461	54308.97
664.811	54330.89
665.161	54354.39
665.511	54219.7
665.862	54313.49
666.212	54321.4
666.562	54337.67
666.912	54178.12
667.262	54187.39
667.612	54231.23
667.962	54286.82
668.312	54168.41
668.662	54321.62
669.011	54206.82
669.361	54160.5
669.711	54137.67
670.06	54080.95
670.41	54061.06
670.76	54016.32
671.109	54170.89
671.459	54006.38
671.808	53976.77
672.157	54007.05
672.507	53883.89
672.856	53922.99
673.205	53963.21
673.554	53883.67
673.904	53889.32
674.253	53958.92
674.602	53859.26
674.951	53475.09
675.3	53346.73
675.649	53729.1
675.998	53708.98
676.346	53763.67
676.695	53837.79
677.044	53682.09
677.393	53816.1
677.741	53700.17
678.09	53661.07
678.438	53528.88
678.787	53681.87
679.135	53588.31
679.484	53471.02
679.832	53498.59
680.181	53305.38
680.529	53417.47
680.877	53293.63
681.225	53269.9
681.573	53484.13
681.922	53208.43
682.27	53116
682.618	53203.91
682.966	53082.33
683.314	53054.54
683.661	52985.16
684.009	52849.12
684.357	52835.11
684.705	52845.05
685.053	52811.38
685.4	52789.01
685.748	52666.07
686.095	52478.51
686.443	52342.47
686.79	52370.71
687.138	52375.68
687.485	52490.71
687.832	52211.17
688.18	52364.16
688.527	52208.23
688.874	52145.86
689.221	52004.85
689.568	51916.26
689.915	51852.53
690.262	51845.53
690.609	51751.97
690.956	51629.94
691.303	51521.02
691.65	51439.21
691.997	51428.59
692.344	51225.88
692.69	51252.32
693.037	51262.95
693.383	50994.03
693.73	51004.65
694.077	50771.21
694.423	50882.16
694.769	50694.15
695.116	50703.41
695.462	50675.39
695.808	50588.39
696.155	50513.14
696.501	50265.23
696.847	50383.42
697.193	50068.85
697.539	50219.81
697.885	49954.73
698.231	49817.33
698.577	49815.07
698.923	49638.13
699.269	49494.86
699.614	49294.86
699.96	49289.21
700.306	49397.46
700.651	49331.92
700.997	49114.75
701.342	48954.31
701.688	48897.36
702.033	48789.56
702.379	48671.38
702.724	48589.12
703.069	48728.1
703.415	48488.33
703.76	48323.81
704.105	48238.17
704.45	48154.1
704.795	48000.21
705.14	47763.6
705.485	47773.09
705.83	47621.69
706.175	47610.39
706.52	47440
706.865	47331.52
707.209	47413.1
707.554	47341.24
707.899	47485.19
708.243	47130.17
708.588	47185.31
708.932	46835.27
709.277	46804.08
709.621	46887.69
709.966	46693.57
710.31	46701.71
710.654	46247.48
710.998	46422.85
711.342	46415.62
711.687	46250.65
712.031	46011.78
712.375	45961.39
712.719	46044.1
713.063	45855.18
713.407	45927.27
713.75	45784.67
714.094	45763.88
714.438	45626.03
714.782	45624.9
715.125	45271.92
715.469	45363.44
715.812	45156.89
716.156	44956.67
716.499	45016.33
716.843	44881.42
717.186	44712.38
717.53	44819.95
717.873	44897.69
718.216	44797.81
718.559	44750.12
718.902	44644.36
719.246	44529.11
719.589	44438.94
719.932	44330.7
720.275	44276.46
720.617	44158.73
720.96	44157.82
721.303	43980.88
721.646	44139.97
721.989	43806.64
722.331	43989.69
722.674	43841.45
723.016	43764.84
723.359	43481.68
723.701	43660.66
724.044	43499.08
724.386	43256.6
724.729	43394.45
725.071	43300.44
725.413	43236.49
725.755	43134.35
726.097	42965.54
726.439	42852.55
726.782	42829.95
727.124	42955.59
727.465	42733
727.807	42692.78
728.149	42574.36
728.491	42486.91
728.833	42693.68
729.175	42381.15
729.516	42316.29
729.858	42310.19
730.199	42299.34
730.541	42257.31
730.882	42095.28
731.224	42096.18
731.565	41953.81
731.906	42083.98
732.248	41865.23
732.589	41719.92
732.93	41639.02
733.271	41639.47
733.612	41758.56
733.953	41694.61
734.294	41437.89
734.635	41316.54
734.976	41402.19
735.317	41185.7
735.658	41030.22
735.999	41245.81
736.339	41140.73
736.68	41218.69
737.021	40968.75
737.361	40874.29
737.702	41075.19
738.042	40848.53
738.383	40746.39
738.723	40763.11
739.063	40697.12
739.404	40709.55
739.744	40596.56
740.084	40458.94
740.424	40296.68
740.764	40293.52
741.104	40409.22
741.444	40122.45
741.784	40173.07
742.124	40133.75
742.464	40121.54
742.804	40026.18
743.143	39941.44
743.483	39961.55
743.823	39762.46
744.162	39648.34
744.502	39732.85
744.841	39668.45
745.181	39629.58
745.52	39518.17
745.86	39539.86
746.199	39586.64
746.538	39393.88
746.877	39235.92
747.216	39249.48
747.556	39172.42
747.895	39075.02
748.234	38890.16
748.573	38894.46
748.911	38703.05
749.25	38889.26
749.589	38724.74
749.928	38734.91
750.267	38640.45
750.605	38588.7
750.944	38442.94
751.283	38346.45
751.621	38444.98
751.96	38086.34
752.298	38159.56
752.636	38118.66
