Data from plate_porcelain_FLMS001491_005.txt Node
Date: Tue Feb 07 11:18:38 GMT 2017
User: dcchb
Spectrometer: FLMS00149
Trigger mode: 0
Integration Time (sec): 2.000000E-2
Scans to average: 10
Electric dark correction enabled: true
Nonlinearity correction enabled: false
Boxcar width: 0
XAxis mode: Wavelengths
Number of Pixels in Spectrum: 2048
>>>>>Begin Spectral Data<<<<<
341.393	-18.46
341.776	-18.46
342.16	-18.46
342.543	-61.4
342.927	-65.01
343.31	-62.07
343.693	-55.07
344.077	-53.04
344.46	-60.04
344.843	-76.54
345.226	-32.47
345.61	-40.38
345.993	-17.1
346.376	3.23
346.759	5.27
347.142	36.45
347.525	32.61
347.908	41.2
348.291	72.16
348.674	92.05
349.057	113.74
349.44	121.88
349.823	144.25
350.206	163
350.588	248.2
350.971	231.7
351.354	265.6
351.737	257.24
352.119	273.28
352.502	309.67
352.884	311.02
353.267	324.13
353.65	326.84
354.032	333.17
354.414	364.81
354.797	341.53
355.179	355.54
355.562	351.25
355.944	360.97
356.326	344.92
356.709	371.36
357.091	380.63
357.473	386.95
357.855	385.82
358.238	382.43
358.62	379.95
359.002	391.47
359.384	391.47
359.766	394.86
360.148	379.5
360.53	374.98
360.912	410.46
361.294	372.72
361.676	395.09
362.057	389.89
362.439	392.15
362.821	360.51
363.203	376.56
363.584	382.43
363.966	392.6
364.348	375.43
364.729	379.72
365.111	390.57
365.493	368.87
365.874	400.29
366.256	377.24
366.637	405.26
367.019	414.52
367.4	386.5
367.781	387.63
368.163	392.6
368.544	399.16
368.925	399.61
369.306	402.77
369.688	396.67
370.069	417.23
370.45	419.04
370.831	414.3
371.212	416.78
371.593	417.69
371.974	425.82
372.355	417.91
372.736	434.86
373.117	421.08
373.498	417.23
373.879	423.11
374.26	415.43
374.641	411.36
375.021	412.26
375.402	441.64
375.783	440.74
376.163	478.93
376.544	471.47
376.925	434.64
377.305	463.79
377.686	445.26
378.066	463.79
378.447	487.52
378.827	483
379.208	472.15
379.588	473.5
379.968	464.47
380.349	490
380.729	487.74
381.109	505.59
381.489	490
381.87	494.97
382.25	530.9
382.63	518.48
383.01	523.67
383.39	501.07
383.77	525.48
384.15	528.64
384.53	527.97
384.91	520.51
385.29	559.15
385.67	565.03
386.049	565.25
386.429	584.01
386.809	581.3
387.189	577.68
387.568	573.61
387.948	588.76
388.328	616.33
388.707	602.09
389.087	619.26
389.466	624.91
389.846	628.53
390.225	629.88
390.605	653.84
390.984	622.65
391.363	651.8
391.743	660.17
392.122	673.05
392.501	673.73
392.881	662.2
393.26	693.16
393.639	717.79
394.018	687.28
394.397	729.32
394.776	722.54
395.155	715.76
395.534	754.4
395.913	746.04
396.292	753.5
396.671	750.79
397.05	767.28
397.429	772.48
397.808	771.35
398.186	794.63
398.565	808.18
398.944	802.99
399.323	835.08
399.701	814.06
400.08	842.31
400.458	848.86
400.837	852.48
401.215	863.78
401.594	856.09
401.972	876.43
402.351	863.32
402.729	891.12
403.107	891.8
403.486	929.09
403.864	919.37
404.242	907.39
404.62	946.49
404.999	942.19
405.377	954.4
405.755	963.89
406.133	986.71
406.511	1014.73
406.889	1017.22
407.267	1031.23
407.645	1031.46
408.023	1081.4
408.401	1084.11
408.779	1087.5
409.156	1079.59
409.534	1097.44
409.912	1120.27
410.29	1130.66
410.667	1179.02
411.045	1213.6
411.422	1205.69
411.8	1207.72
412.178	1225.8
412.555	1245.24
412.933	1258.34
413.31	1289.08
413.687	1295.63
414.065	1319.36
414.442	1325.69
414.819	1332.92
415.197	1392.35
415.574	1387.6
415.951	1388.28
416.328	1423.08
416.705	1459.69
417.082	1435.74
417.46	1469.18
417.837	1468.96
418.214	1481.16
418.591	1510.77
418.967	1503.31
419.344	1515.51
419.721	1558.67
420.098	1549.86
420.475	1575.85
420.852	1590.09
421.228	1640.03
421.605	1659.91
421.982	1631.67
422.358	1700.59
422.735	1712.34
423.111	1713.92
423.488	1721.61
423.864	1751.21
424.241	1779.01
424.617	1804.09
424.994	1802.06
425.37	1828.95
425.746	1836.18
426.123	1869.85
426.499	1871.66
426.875	1911.21
427.251	1929.74
427.627	1967.7
428.003	2016.51
428.379	2038.21
428.756	2068.26
429.132	2073.69
429.507	2100.35
429.883	2156.62
430.259	2176.51
430.635	2182.84
431.011	2199.11
431.387	2235.27
431.763	2302.83
432.138	2319.78
432.514	2346.9
432.89	2376.51
433.265	2412.21
433.641	2434.36
434.016	2476.16
434.392	2540.34
434.767	2606.1
435.143	2528.14
435.518	2602.94
435.894	2637.74
436.269	2650.17
436.644	2704.86
437.02	2729.94
437.395	2758.87
437.77	2806.32
438.145	2826.66
438.52	2860.56
438.895	2916.6
439.271	2930.39
439.646	2987.34
440.021	3010.61
440.395	2996.83
440.77	2979.65
441.145	3053.78
441.52	3093.77
441.895	3099.2
442.27	3183.72
442.645	3186.43
443.019	3202.02
443.394	3174.9
443.769	3222.58
444.143	3206.09
444.518	3304.62
444.892	3278.63
445.267	3313.2
445.641	3384.39
446.016	3340.1
446.39	3423.94
446.764	3409.92
447.139	3415.8
447.513	3462.58
447.887	3517.27
448.262	3531.05
448.636	3545.97
449.01	3604.27
449.384	3641.56
449.758	3630.26
450.132	3677.71
450.506	3723.81
450.88	3742.57
451.254	3749.12
451.628	3800.65
452.002	3908.44
452.376	3922.91
452.75	3946.41
453.123	3926.07
453.497	4052.62
453.871	4080.42
454.244	4188.21
454.618	4171.94
454.992	4259.39
455.365	4238.6
455.739	4379.62
456.112	4409.45
456.486	4421.88
456.859	4521.08
457.232	4574.41
457.606	4576.22
457.979	4611.02
458.352	4766.5
458.725	4848.98
459.099	4847.85
459.472	4977.34
459.845	5021.18
460.218	5031.12
460.591	5090.56
460.964	5118.13
461.337	5233.61
461.71	5344.79
462.083	5418.23
462.456	5433.83
462.829	5475.86
463.201	5596.99
463.574	5584.1
463.947	5685.34
464.32	5819.8
464.692	5840.82
465.065	5885.79
465.438	5976.64
465.81	6073.58
466.183	6155.16
466.555	6278.55
466.928	6291.88
467.3	6272.67
467.672	6439.22
468.045	6549.28
468.417	6643.06
468.789	6672.89
469.161	6749.27
469.534	6893.22
469.906	6976.16
470.278	7116.49
470.65	7211.86
471.022	7323.95
471.394	7411.4
471.766	7542.47
472.138	7632.86
472.51	7802.58
472.882	7945.4
473.253	7940.65
473.625	8119.86
473.997	8293.41
474.369	8360.75
474.74	8438.94
475.112	8625.15
475.484	8786.96
475.855	8899.27
476.227	8983.79
476.598	9286.15
476.97	9385.81
477.341	9535.64
477.713	9725.92
478.084	9705.8
478.455	10027.83
478.827	10093.59
479.198	10409.74
479.569	10448.61
479.94	10802.95
480.311	10898.32
480.682	11148.25
481.053	11352.54
481.424	11490.16
481.795	11612.65
482.166	11808.8
482.537	11922.02
482.908	12282.46
483.279	12392.74
483.65	12665.27
484.021	12850.81
484.391	13014.42
484.762	13234.07
485.133	13273.39
485.503	13449.89
485.874	13741.4
486.244	13878.35
486.615	14213.26
486.985	14378.45
487.356	14619.8
487.726	14733.92
488.097	15017.08
488.467	15119.9
488.837	15425.43
489.207	15608.47
489.578	15894.34
489.948	16057.95
490.318	16315.57
490.688	16271.28
491.058	16614.1
491.428	16802.11
491.798	16958.27
492.168	17313.97
492.538	17456.79
492.908	17686.39
493.278	17837.57
493.648	17941.29
494.017	18129.76
494.387	18296.99
494.757	18593.71
495.126	18645
495.496	18745.79
495.866	18945.79
496.235	19218.32
496.605	19314.37
496.974	19544.19
497.344	19721.13
497.713	19811.08
498.082	20028.92
498.452	20131.07
498.821	20361.8
499.19	20370.61
499.559	20622.35
499.928	20788.9
500.298	20918.39
500.667	21090.14
501.036	21078.16
501.405	21403.35
501.774	21395.44
502.143	21611.48
502.512	21734.64
502.88	21925.37
503.249	21921.98
503.618	22176.89
503.987	22242.42
504.356	22507.05
504.724	22589.53
505.093	22745.46
505.462	22804.89
505.83	22995.4
506.199	23194.49
506.567	23501.15
506.936	23492.79
507.304	23727.58
507.672	23840.12
508.041	24013.68
508.409	24157.85
508.777	24449.82
509.145	24589.03
509.514	24727.78
509.882	24917.38
510.25	24998.96
510.618	25147.21
510.986	25298.39
511.354	25633.07
511.722	25796.91
512.09	25980.4
512.458	25997.13
512.826	26198.93
513.193	26373.84
513.561	26524.34
513.929	26791.46
514.297	27075.97
514.664	27139.24
515.032	27485
515.4	27503.08
515.767	27737.42
516.135	28002.95
516.502	27826.01
516.869	28409.04
517.237	28409.04
517.604	28379.66
517.972	28858.52
518.339	29137.16
518.706	29120.89
519.073	29370.82
519.44	29462.57
519.808	29850.59
520.175	29872.51
520.542	30368.54
520.909	30608.98
521.276	30488.76
521.643	30933.49
522.009	31127.61
522.376	31236.76
522.743	31475.85
523.11	31886.69
523.477	32177.08
523.843	32337.3
524.21	32702.26
524.577	32862.48
524.943	33082.82
525.31	33261.12
525.676	33722.8
526.043	33820.65
526.409	33863.36
526.776	34278.27
527.142	34456.57
527.508	34721.64
527.874	35125.93
528.241	35216.09
528.607	35324.34
528.973	35647.27
529.339	35676.42
529.705	36161.15
530.071	36264.43
530.437	36529.96
530.803	36738.31
531.169	36835.26
531.535	36986.67
531.901	37241.35
532.267	37290.84
532.632	37658.74
532.998	37782.13
533.364	37983.7
533.73	38134.21
534.095	38433.41
534.461	38439.74
534.826	38840.41
535.192	39126.5
535.557	39395.42
535.923	39247.85
536.288	39335.08
536.653	39640.16
537.019	39702.08
537.384	39751.34
537.749	39971
538.114	40002.63
538.479	40060.94
538.845	40490.98
539.21	40429.97
539.575	40627.25
539.94	40753.12
540.305	40948.37
540.67	40905.89
541.034	41161.02
541.399	41335.25
541.764	41361.92
542.129	41572.99
542.494	41670.61
542.858	41830.38
543.223	42013.88
543.587	42277.83
543.952	42245.74
544.316	42473.53
544.681	42499.29
545.045	42620.19
545.41	42816.35
545.774	42902.22
546.138	42949.68
546.503	43101.99
546.867	43100.86
547.231	43643.67
547.595	43662.43
547.959	43871.23
548.324	43736.55
548.688	43932.02
549.052	44094.28
549.416	44285.69
549.779	44264.9
550.143	44425.57
550.507	44795.95
550.871	44883.41
551.235	45028.49
551.599	45220.58
551.962	45391.65
552.326	45387.13
552.689	45623.05
553.053	45586.67
553.417	45670.73
553.78	46187.78
554.143	46061.01
554.507	46365.18
554.87	46420.09
555.234	46823.7
555.597	46681.56
555.96	46840.42
556.323	47004.03
556.686	47066.4
557.05	47455.09
557.413	47519.5
557.776	47639.5
558.139	47923.1
558.502	47880.17
558.865	48129.88
559.228	48278.8
559.59	48400.15
559.953	48653.71
560.316	48915.85
560.679	48910.87
561.041	49107.48
561.404	49376.85
561.767	49579.33
562.129	49468.6
562.492	49893.45
562.854	49928.48
563.217	49919.66
563.579	50170.28
563.941	50397.62
564.304	50510.61
564.666	50772.97
565.028	50826.98
565.39	50947.88
565.753	51180.87
566.115	51234.88
566.477	51350.81
566.839	51354.43
567.201	51598.49
567.563	51684.14
567.925	52041.41
568.287	51946.28
568.648	52040.96
569.01	52206.83
569.372	52407.51
569.734	52370.45
570.095	52615.41
570.457	52743.77
570.819	52780.15
571.18	52782.64
571.542	53058.11
571.903	53057.43
572.265	53083.87
572.626	53279.12
572.987	53219.69
573.349	53375.84
573.71	53593.24
574.071	53533.13
574.432	53585.1
574.794	53858.32
575.155	53805.21
575.516	53734.7
575.877	53977.18
576.238	54028.48
576.599	54173.11
576.96	54096.5
577.32	54136.05
577.681	54245.65
578.042	54363.61
578.403	54447.23
578.763	54453.33
579.124	54481.12
579.485	54522.03
579.845	54579.43
580.206	54632.31
580.566	54588.69
580.927	54609.48
581.287	54758.63
581.648	54610.39
582.008	54818.52
582.368	54736.48
582.728	54873.2
583.089	54754.11
583.449	54730.16
583.809	54788.91
584.169	54799.31
584.529	54774.45
584.889	54969.7
585.249	54841.79
585.609	54717.73
585.969	54899.19
586.329	54851.96
586.688	54814
587.048	54912.75
587.408	54863.71
587.768	54827.33
588.127	54823.04
588.487	54792.75
588.846	55033.2
589.206	54832.98
589.565	54813.32
589.925	55084.72
590.284	54962.47
590.643	54999.75
591.003	55071.16
591.362	55079.98
591.721	55031.39
592.08	55034.33
592.44	55161.33
592.799	55111.62
593.158	55139.19
593.517	55105.06
593.876	55115.23
594.235	55048.57
594.593	55075.01
594.952	55240.43
595.311	55105.29
595.67	55119.53
596.029	55311.61
596.387	55285.17
596.746	55275
597.104	55162.69
597.463	55258.73
597.822	55341.67
598.18	55242.46
598.538	55295.79
598.897	55422.12
599.255	55187.09
599.613	55635.9
599.972	55353.64
600.33	55475
600.688	55331.5
601.046	55513.41
601.404	55683.13
601.762	55564.03
602.12	55600.87
602.478	55707.98
602.836	55739.4
603.194	55516.8
603.552	55626.18
603.91	55574.65
604.268	55634.99
604.625	55614.65
604.983	55824.59
605.341	55706.18
605.698	55806.51
606.056	55863.46
606.413	55795.89
606.771	55853.29
607.128	56017.13
607.485	55806.51
607.843	55873.86
608.2	55978.03
608.557	56085.83
608.914	55920.86
609.272	56168.09
609.629	56153.62
609.986	56233.17
610.343	56095.54
610.7	56271.81
611.057	56279.49
611.414	56279.95
611.771	56293.73
612.127	56347.06
612.484	56366.5
612.841	56357.68
613.198	56302.32
613.554	56405.37
613.911	56506.38
614.267	56521.97
614.624	56451.47
614.98	56590
615.337	56664.34
615.693	56588.41
616.05	56619.6
616.406	56782.98
616.762	56537.12
617.118	56678.81
617.475	56653.72
617.831	56736.43
618.187	56745.7
618.543	56792.7
618.899	56936.43
619.255	56876.54
619.611	56824.79
619.967	56947.73
620.323	56963.54
620.678	56832.02
621.034	56807.39
621.39	56761.29
621.746	56795.19
622.101	57138.68
622.457	56830.89
622.812	56910.89
623.168	57037.44
623.523	56972.36
623.879	57100.49
624.234	56911.12
624.589	57042.64
624.945	56956.09
625.3	57005.35
625.655	56877.9
626.01	56883.77
626.365	57065.24
626.72	56963.54
627.075	56897.11
627.43	56898.24
627.785	56801.97
628.14	56916.09
628.495	56874.73
628.85	56875.86
629.205	56750.22
629.559	56856.43
629.914	56817.79
630.269	56819.59
630.623	56769.88
630.978	56672.7
631.332	56764.45
631.687	56795.87
632.041	56679.71
632.396	56734.4
632.75	56621.86
633.104	56697.79
633.459	56510.68
633.813	56566.49
634.167	56554.52
634.521	56513.84
634.875	56569.43
635.229	56458.7
635.583	56324.92
635.937	56373.05
636.291	56287.63
636.645	56295.99
636.999	56229.33
637.352	56277.01
637.706	56159.95
638.06	56252.15
638.413	56198.82
638.767	56111.82
639.121	56222.55
639.474	55982.33
639.828	55971.93
640.181	56066.39
640.534	55972.16
640.888	55963.12
641.241	55869.56
641.594	55861.2
641.947	55954.08
642.301	55853.29
642.654	55858.49
643.007	55811.71
643.36	55789.56
643.713	55707.53
644.066	55778.04
644.419	55625.95
644.771	55451.04
645.124	55180.99
645.477	55129.69
645.83	54955.91
646.182	54804.73
646.535	54662.59
646.888	54763.38
647.24	54627.56
647.593	54776.94
647.945	54687.45
648.298	54502.59
648.65	54407.23
649.002	54405.87
649.355	54502.59
649.707	54467.11
650.059	54576.04
650.411	54963.37
650.763	54909.59
651.115	55188.45
651.467	55084.5
651.819	55002.01
652.171	55061
652.523	54891.28
652.875	54858.06
653.227	54723.83
653.578	54981.22
653.93	54772.87
654.282	54658.97
654.633	54690.38
654.985	54634.79
655.337	54714.34
655.688	54710.72
656.039	54750.72
656.391	54582.82
656.742	54695.36
657.094	54612.65
657.445	54703.27
657.796	54675.24
658.147	54585.75
658.498	54600.89
658.849	54596.83
659.2	54453.55
659.551	54402.71
659.902	54507.79
660.253	54488.13
660.604	54504.4
660.955	54424.18
661.306	54434.12
661.656	54264.41
662.007	54355.7
662.358	54411.3
662.708	54348.92
663.059	54306.44
663.409	54070.29
663.76	54310.06
664.11	54189.15
664.461	54366.78
664.811	54257.18
665.161	54334.91
665.511	54180.34
665.862	54206.55
666.212	54277.51
666.562	54301.92
666.912	54230.96
667.262	54195.71
667.612	54136.73
667.962	54202.49
668.312	54188.25
668.662	54241.58
669.011	54127.46
669.361	54138.08
669.711	54059.21
670.06	54069.16
670.41	54030.51
670.76	53912.55
671.109	54028.93
671.459	53980.35
671.808	53920.91
672.157	53982.15
672.507	53917.97
672.856	53908.71
673.205	53892.89
673.554	53913.91
673.904	53808.15
674.253	54004.3
674.602	53808.6
674.951	53398.67
675.3	53369.97
675.649	53813.57
675.998	53777.64
676.346	53802.72
676.695	53788.26
677.044	53600.7
677.393	53678.66
677.741	53809.96
678.09	53656.74
678.438	53539.91
678.787	53555.5
679.135	53586.68
679.484	53407.93
679.832	53544.88
680.181	53314.15
680.529	53485.44
680.877	53282.74
681.225	53235.96
681.573	53470.76
681.922	53245.68
682.27	53168.62
682.618	53123.87
682.966	53007.94
683.314	53157.32
683.661	52977.21
684.009	52770.66
684.357	52760.04
684.705	52698.35
685.053	52774.73
685.4	52777.21
685.748	52595.07
686.095	52551.23
686.443	52358.69
686.79	52332.03
687.138	52356.43
687.485	52374.74
687.832	52180.62
688.18	52365.25
688.527	52050
688.874	52021.53
689.221	51874.41
689.568	51929.33
689.915	51794.64
690.262	51754.64
690.609	51692.5
690.956	51619.73
691.303	51519.17
691.65	51320.98
691.997	51363.01
692.344	51264.49
692.69	51246.86
693.037	51263.58
693.383	50974.55
693.73	51053.19
694.077	50799.86
694.423	50761.45
694.769	50690.04
695.116	50655.46
695.462	50555.8
695.808	50501.34
696.155	50515.8
696.501	50252.99
696.847	50320.33
697.193	49983.16
697.539	50138.19
697.885	49920.79
698.231	49739.55
698.577	49830.4
698.923	49727.8
699.269	49650.06
699.614	49229.74
699.96	49272.9
700.306	49256.4
700.651	49229.28
700.997	49094.37
701.342	48930.76
701.688	48837.43
702.033	48729.64
702.379	48662.75
702.724	48474.73
703.069	48660.26
703.415	48290.33
703.76	48257.11
704.105	48144.12
704.45	48072.48
704.795	47776.89
705.14	47634.75
705.485	47734.18
705.83	47555.66
706.175	47734.18
706.52	47585.03
706.865	47310.69
707.209	47256.46
707.554	47376.45
707.899	47265.49
708.243	47120.87
708.588	46956.8
708.932	46745.51
709.277	46640.88
709.621	46835.68
709.966	46566.3
710.31	46745.51
710.654	46311.62
710.998	46223.26
711.342	46368.12
711.687	46155.47
712.031	45961.12
712.375	45945.53
712.719	45915.02
713.063	45856.04
713.407	45844.74
713.75	45696.72
714.094	45585.99
714.438	45570.17
714.782	45505.54
715.125	45317.75
715.469	45327.47
715.812	45132.22
716.156	44891.55
716.499	44969.74
716.843	44898.1
717.186	44688.39
717.53	44870.76
717.873	44842.28
718.216	44652
718.559	44567.26
718.902	44333.59
719.246	44483.42
719.589	44333.59
719.932	44254.5
720.275	44176.31
720.617	44012.02
720.96	43863.55
721.303	43888.41
721.646	43943.77
721.989	43777.9
722.331	43854.96
722.674	43712.37
723.016	43638.92
723.359	43516.89
723.701	43525.03
724.044	43405.03
724.386	43266.5
724.729	43401.42
725.071	43131.82
725.413	43027.19
725.755	43043.91
726.097	42895.21
726.439	42701.77
726.782	42684.82
727.124	42951.94
727.465	42652.73
727.807	42574.32
728.149	42453.19
728.491	42340.88
728.833	42566.41
729.175	42160.54
729.516	42326.64
729.858	42133.43
730.199	42212.97
730.541	42108.34
730.882	42059.3
731.224	42090.72
731.565	41864.28
731.906	41911.06
732.248	41899.08
732.589	41592.65
732.93	41652.76
733.271	41761.91
733.612	41495.93
733.953	41604.17
734.294	41340
734.635	41382.94
734.976	41325.99
735.317	41130.74
735.658	41128.03
735.999	41007.13
736.339	41085.09
736.68	41063.4
737.021	40865.89
737.361	40820.01
737.702	40839.9
738.042	40727.81
738.383	40764.87
738.723	40771.88
739.063	40536.63
739.404	40520.36
739.744	40355.39
740.084	40180.03
740.424	40386.35
740.764	40225
741.104	40387.94
741.444	40093.93
741.784	40074.05
742.124	39988.85
742.464	39861.62
742.804	39881.28
743.143	39775.07
743.483	39812.81
743.823	39674.73
744.162	39641.74
744.502	39610.33
744.841	39360.39
745.181	39578.69
745.52	39447.17
745.86	39503.44
746.199	39376.21
746.538	39173.5
746.877	39271.58
747.216	38962.66
747.556	39037.01
747.895	39092.38
748.234	38834.3
748.573	38774.42
748.911	38691.26
749.25	38601.77
749.589	38646.06
749.928	38470.7
750.267	38523.8
750.605	38350.02
750.944	38342.34
751.283	38329.68
751.621	38284.94
751.96	38100.99
752.298	38018.05
752.636	38053.31
752.975	37908
753.313	37643.83
