Data from plate_porcelain_FLMS001491_035.txt Node
Date: Tue Feb 07 11:19:13 GMT 2017
User: dcchb
Spectrometer: FLMS00149
Trigger mode: 0
Integration Time (sec): 2.000000E-2
Scans to average: 10
Electric dark correction enabled: true
Nonlinearity correction enabled: false
Boxcar width: 0
XAxis mode: Wavelengths
Number of Pixels in Spectrum: 2048
>>>>>Begin Spectral Data<<<<<
341.393	-21.12
341.776	-21.12
342.16	-21.12
342.543	-59.31
342.927	-76.03
343.31	-88.68
343.693	-54.56
344.077	-73.54
344.46	-72.19
344.843	-43.49
345.226	-31.06
345.61	-28.12
345.993	-6.43
346.376	-9.59
346.759	6.45
347.142	30.18
347.525	38.32
347.908	45.55
348.291	71.76
348.674	84.42
349.057	130.97
349.44	159.9
349.823	135.26
350.206	174.36
350.588	234.92
350.971	245.32
351.354	283.96
351.737	256.62
352.119	299.55
352.502	301.36
352.884	301.81
353.267	316.28
353.65	344.52
354.032	343.85
354.414	359.44
354.797	366.45
355.179	376.39
355.562	373
355.944	371.64
356.326	376.39
356.709	392.43
357.091	388.82
357.473	380.23
357.855	373
358.238	400.79
358.62	387.46
359.002	377.97
359.384	398.53
359.766	398.53
360.148	380.23
360.53	396.95
360.912	396.27
361.294	379.33
361.676	382.49
362.057	406.22
362.439	373.9
362.821	391.76
363.203	393.56
363.584	384.3
363.966	375.26
364.348	369.61
364.729	414.58
365.111	397.4
365.493	396.95
365.874	401.7
366.256	397.86
366.637	399.44
367.019	384.75
367.4	396.5
367.781	408.7
368.163	382.72
368.544	396.95
368.925	391.76
369.306	430.85
369.688	403.28
370.069	391.08
370.45	392.89
370.831	396.5
371.212	402.6
371.593	423.17
371.974	408.25
372.355	434.24
372.736	412.32
373.117	441.25
373.498	424.07
373.879	436.5
374.26	412.55
374.641	426.78
375.021	404.41
375.402	416.61
375.783	437.63
376.163	469.95
376.544	461.36
376.925	449.38
377.305	444.18
377.686	460.91
378.066	465.2
378.447	452.32
378.827	474.69
379.208	486.44
379.588	488.02
379.968	488.7
380.349	492.32
380.729	490.96
381.109	495.93
381.489	504.07
381.87	474.92
382.25	529.15
382.63	516.95
383.01	518.98
383.39	526.67
383.77	537.51
384.15	527.12
384.53	532.99
384.91	538.87
385.29	536.61
385.67	567.8
386.049	541.13
386.429	544.29
386.809	589.49
387.189	554.46
387.568	557.85
387.948	563.28
388.328	591.3
388.707	632.43
389.087	589.26
389.466	589.04
389.846	605.76
390.225	624.07
390.605	636.27
390.984	630.84
391.363	647.12
391.743	666.1
392.122	648.92
392.501	651.41
392.881	673.56
393.26	683.5
393.639	683.5
394.018	689.83
394.397	727.34
394.776	705.65
395.155	714.68
395.534	717.17
395.913	717.4
396.292	719.66
396.671	752.42
397.05	746.77
397.429	760.11
397.808	750.39
398.186	765.3
398.565	780.22
398.944	789.03
399.323	791.29
399.701	811.41
400.08	810.05
400.458	834
400.837	826.55
401.215	859.09
401.594	857.73
401.972	847.11
402.351	873.32
402.729	859.77
403.107	878.75
403.486	894.57
403.864	911.06
404.242	922.59
404.62	925.3
404.999	942.93
405.377	921.23
405.755	966.2
406.133	975.24
406.511	975.02
406.889	1006.88
407.267	1003.26
407.645	1025.41
408.023	1029.7
408.401	1049.37
408.779	1044.39
409.156	1096.37
409.534	1078.29
409.912	1109.48
410.29	1128.01
410.667	1155.12
411.045	1118.06
411.422	1191.06
411.8	1190.6
412.178	1188.57
412.555	1208.68
412.933	1226.31
413.31	1266.76
413.687	1276.93
414.065	1284.39
414.442	1273.99
414.819	1299.53
415.197	1345.63
415.574	1369.13
415.951	1361.67
416.328	1358.06
416.705	1395.8
417.082	1379.98
417.46	1417.72
417.837	1431.5
418.214	1460.43
418.591	1472.63
418.967	1498.39
419.344	1508.79
419.721	1529.35
420.098	1560.54
420.475	1587.43
420.852	1560.31
421.228	1582.46
421.605	1586.07
421.982	1629.46
422.358	1654.09
422.735	1662.91
423.111	1665.62
423.488	1679.86
423.864	1706.07
424.241	1736.35
424.617	1747.65
424.994	1798.05
425.37	1794.66
425.746	1802.11
426.123	1859.51
426.499	1832.85
426.875	1872.39
427.251	1886.18
427.627	1924.6
428.003	1958.72
428.379	1992.62
428.756	2021.32
429.132	2038.27
429.507	2073.52
429.883	2040.75
430.259	2095.89
430.635	2165.27
431.011	2161.88
431.387	2232.38
431.763	2256.34
432.138	2250.24
432.514	2305.83
432.89	2328.2
433.265	2378.6
433.641	2401.42
434.016	2409.33
434.392	2466.05
434.767	2522.77
435.143	2516.45
435.518	2555.09
435.894	2570.91
436.269	2629.66
436.644	2675.54
437.02	2682.09
437.395	2719.6
437.77	2720.96
438.145	2761.64
438.52	2749.66
438.895	2802.31
439.271	2819.94
439.646	2880.96
440.021	2940.39
440.395	2927.73
440.77	2926.38
441.145	2979.03
441.52	3052.25
441.895	3050.22
442.27	3044.34
442.645	3066.04
443.019	3146.49
443.394	3116.88
443.769	3173.83
444.143	3163.66
444.518	3215.18
444.892	3210.21
445.267	3223.55
445.641	3293.15
446.016	3282.98
446.39	3316.65
446.764	3364.78
447.139	3349.64
447.513	3426.93
447.887	3425.8
448.262	3438.45
448.636	3429.42
449.01	3522.07
449.384	3558.68
449.758	3585.8
450.132	3625.34
450.506	3675.28
450.88	3651.78
451.254	3683.65
451.628	3726.81
452.002	3799.58
452.376	3838.22
452.75	3890.42
453.123	3941.04
453.497	3977.65
453.871	3999.34
454.244	4065.56
454.618	4111.66
454.992	4159.79
455.365	4181.49
455.739	4295.61
456.112	4317.3
456.486	4404.31
456.859	4422.84
457.232	4495.38
457.606	4479.11
457.979	4573.11
458.352	4660.12
458.725	4717.29
459.099	4743.51
459.472	4829.83
459.845	4968.13
460.218	4927
460.591	5018.75
460.964	4988.47
461.337	5080.67
461.71	5225.53
462.083	5294.45
462.456	5310.95
462.829	5318.63
463.201	5435.46
463.574	5519.3
463.947	5561.11
464.32	5672.07
464.692	5779.86
465.065	5750.26
465.438	5867.09
465.81	5960.87
466.183	6034.09
466.555	6191.83
466.928	6198.38
467.3	6196.57
467.672	6253.75
468.045	6470.47
468.417	6501.2
468.789	6553.18
469.161	6668.43
469.534	6762.44
469.906	6895.54
470.278	6912.49
470.65	7074.97
471.022	7154.74
471.394	7261.41
471.766	7386.6
472.138	7476.31
472.51	7653.94
472.882	7829.3
473.253	7907.94
473.625	8017.77
473.997	8137.09
474.369	8206.01
474.74	8318.33
475.112	8561.94
475.484	8546.57
475.855	8822.04
476.227	8861.36
476.598	9154.24
476.97	9178.42
477.341	9377.96
477.713	9496.83
478.084	9623.6
478.455	9816.82
478.827	10008.23
479.198	10256.35
479.569	10240.76
479.94	10627.42
480.311	10687.08
480.682	10865.15
481.053	11134.52
481.424	11336.33
481.795	11404.57
482.166	11580.84
482.537	11775.86
482.908	11994.39
483.279	12202.29
483.65	12407.71
484.021	12605.22
484.391	12775.61
484.762	12924.76
485.133	13020.12
485.503	13196.16
485.874	13557.28
486.244	13650.84
486.615	13943.72
486.985	14096.25
487.356	14454.44
487.726	14462.12
488.097	14888.78
488.467	14951.6
488.837	15281.31
489.207	15302.32
489.578	15607.17
489.948	15748.19
490.318	16043.32
490.688	16158.57
491.058	16247.84
491.428	16530.31
491.798	16687.6
492.168	17020.47
492.538	17118.1
492.908	17381.82
493.278	17579.78
493.648	17647.35
494.017	17918.07
494.387	18107.9
494.757	18308.35
495.126	18293.21
495.496	18507.21
495.866	18579.53
496.235	18895.68
496.605	19021.55
496.974	19156.01
497.344	19341.54
497.713	19541.53
498.082	19572.49
498.452	19941.07
498.821	19992.37
499.19	20087.06
499.559	20234.4
499.928	20424.22
500.298	20669.64
500.667	20761.39
501.036	20755.29
501.405	21056.97
501.774	21106.01
502.143	21278.44
502.512	21332.67
502.88	21585.77
503.249	21691.31
503.618	21820.34
503.987	21896.5
504.356	22114.35
504.724	22238.19
505.093	22350.5
505.462	22539.87
505.83	22651.06
506.199	22866.64
506.567	23143.25
506.936	23093.08
507.304	23470.47
507.672	23609.9
508.041	23718.15
508.409	23763.12
508.777	24046.5
509.145	24220.28
509.514	24308.64
509.882	24538.46
510.25	24476.55
510.618	24817.1
510.986	24841.28
511.354	25132.8
511.722	25312
512.09	25649.85
512.458	25518.55
512.826	25853.68
513.193	26038.54
513.561	26025.43
513.929	26415.48
514.297	26610.95
514.664	26826.09
515.032	27061.56
515.4	27198.96
515.767	27362.35
516.135	27499.97
516.502	27318.05
516.869	27876
517.237	28023.8
517.604	28073.06
517.972	28335.88
518.339	28616.32
518.706	28629.88
519.073	28737.45
519.44	28986.94
519.808	29442.97
520.175	29430.31
520.542	29853.13
520.909	29978.77
521.276	30045.44
521.643	30450.63
522.009	30686.33
522.376	30794.57
522.743	31161.57
523.11	31352.75
523.477	31673.87
523.843	31832.74
524.21	32158.38
524.577	32458.71
524.943	32586.16
525.31	32820.96
525.676	33085.58
526.043	33273.15
526.409	33464.11
526.776	33922.4
527.142	33932.57
527.508	34174.6
527.874	34542.5
528.241	34532.55
528.607	34685.09
528.973	35113.1
529.339	35027.91
529.705	35435.13
530.071	35763.48
530.437	35926.19
530.803	36085.05
531.169	36281.43
531.535	36425.16
531.901	36537.92
532.267	36689.56
532.632	37042.54
532.998	37108.76
533.364	37456.77
533.73	37571.57
534.095	37804.78
534.461	37838.23
534.826	38324.32
535.192	38383.3
535.557	38564.08
535.923	38559.57
536.288	38770.41
536.653	38982.38
537.019	38869.39
537.384	39157.97
537.749	39243.16
538.114	39404.29
538.479	39443.38
538.845	39796.59
539.21	39677.73
539.575	39973.31
539.94	39992.3
540.305	40417.6
540.67	40413.08
541.034	40426.18
541.399	40689
541.764	40909.56
542.129	40909.79
542.494	41012.83
542.858	41186.61
543.223	41276.78
543.587	41477
543.952	41509.32
544.316	41674.74
544.681	41812.14
545.045	42016.42
545.41	42183.2
545.774	42290.09
546.138	42296.64
546.503	42352.23
546.867	42520.82
547.231	42956.74
547.595	42954.7
547.959	42988.38
548.324	43089.16
548.688	43198.54
549.052	43408.25
549.416	43531.41
549.779	43510.62
550.143	43707.9
550.507	44041.68
550.871	44340.2
551.235	44073.09
551.599	44586.53
551.962	44517.83
552.326	44569.58
552.689	44971.37
553.053	44811.6
553.417	45007.76
553.78	45395.77
554.143	45355.32
554.507	45597.57
554.87	45804.35
555.234	46169.99
555.597	45925.25
555.96	46245.46
556.323	46471.67
556.686	46278.01
557.05	46635.29
557.413	46821.27
557.776	46872.79
558.139	47174.48
558.502	47284.31
558.865	47279.11
559.228	47530.18
559.59	47763.62
559.953	47872.31
560.316	48324.51
560.679	48308.24
561.041	48498.74
561.404	48695.12
561.767	48955.22
562.129	48740.09
562.492	49211.49
562.854	49191.15
563.217	49326.97
563.579	49510.24
563.941	49811.25
564.304	49956.55
564.666	50114.29
565.028	50230.44
565.39	50210.11
565.753	50595.41
566.115	50621.62
566.477	50732.13
566.839	50792.46
567.201	51036.98
567.563	51112.23
567.925	51283.07
568.287	51377.08
568.648	51345.67
569.01	51670.18
569.372	51813.91
569.734	51673.57
570.095	52042.6
570.457	52072.66
570.819	52168.25
571.18	52186.1
571.542	52394.68
571.903	52419.54
572.265	52565.07
572.626	52583.38
572.987	52684.62
573.349	52901.79
573.71	52901.56
574.071	52924.16
574.432	53070.37
574.794	53332.06
575.155	53257.03
575.516	53174.77
575.877	53467.87
576.238	53519.4
576.599	53580.87
576.96	53473.75
577.32	53540.19
577.681	53751.26
578.042	53806.62
578.403	53757.13
578.763	53887.75
579.124	53828.54
579.485	53906.28
579.845	54042.1
580.206	53960.97
580.566	53962.78
580.927	54045.94
581.287	54093.62
581.648	54056.56
582.008	54268.53
582.368	54143.34
582.728	54244.35
583.089	54176.1
583.449	54170.45
583.809	54244.8
584.169	54271.02
584.529	54253.39
584.889	54451.58
585.249	54288.87
585.609	54179.04
585.969	54330.68
586.329	54348.98
586.688	54345.82
587.048	54351.47
587.408	54353.5
587.768	54307.17
588.127	54327.74
588.487	54296.55
588.846	54425.14
589.206	54299.49
589.565	54327.96
589.925	54491.12
590.284	54462.88
590.643	54415.19
591.003	54534.06
591.362	54521.18
591.721	54479.15
592.08	54478.24
592.44	54654.74
592.799	54594.62
593.158	54531.8
593.517	54590.56
593.876	54632.59
594.235	54462.42
594.593	54556.88
594.952	54617
595.311	54497.68
595.67	54626.26
596.029	54760.95
596.387	54703.32
596.746	54755.75
597.104	54676.88
597.463	54740.16
597.822	54864.22
598.18	54771.79
598.538	54721.4
598.897	54841.62
599.255	54645.92
599.613	54972.92
599.972	54797.56
600.33	54949.87
600.688	54868.97
601.046	54998.23
601.404	55060.37
601.762	54913.94
602.12	55174.04
602.478	55050.21
602.836	55128.4
603.194	54988.96
603.552	55080.94
603.91	54985.12
604.268	55186.47
604.625	55155.06
604.983	55244.32
605.341	55054.27
605.698	55274.15
606.056	55205.91
606.413	55260.82
606.771	55429.63
607.128	55485.9
607.485	55353.02
607.843	55376.98
608.2	55461.04
608.557	55520.93
608.914	55497.88
609.272	55591.21
609.629	55611.09
609.986	55717.08
610.343	55568.61
610.7	55789.17
611.057	55755.72
611.414	55718.44
611.771	55765.44
612.127	55807.02
612.484	55850.86
612.841	55984.42
613.198	55811.31
613.554	55826.23
613.911	56003.17
614.267	56021.7
614.624	55988.26
614.98	55963.63
615.337	56183.51
615.693	56105.54
616.05	56062.83
616.406	56272.32
616.762	56088.37
617.118	56150.97
617.475	56183.28
617.831	56283.39
618.187	56234.13
618.543	56247.69
618.899	56413.33
619.255	56379.44
619.611	56300.34
619.967	56409.27
620.323	56415.37
620.678	56417.85
621.034	56328.82
621.39	56292.21
621.746	56300.34
622.101	56553.89
622.457	56294.01
622.812	56380.34
623.168	56473.22
623.523	56432.32
623.879	56544.4
624.234	56386.67
624.589	56446.55
624.945	56423.05
625.3	56529.71
625.655	56452.2
626.01	56424.86
626.365	56504.63
626.72	56467.12
627.075	56450.39
627.43	56365.42
627.785	56368.81
628.14	56317.97
628.495	56433.9
628.85	56326.33
629.205	56228.48
629.559	56437.06
629.914	56262.15
630.269	56297.4
630.623	56213.79
630.978	56082.04
631.332	56192.55
631.687	56322.26
632.041	56212.66
632.396	56298.08
632.75	56055.83
633.104	56185.99
633.459	55988.03
633.813	55966.11
634.167	56000.24
634.521	56051.08
634.875	56065.32
635.229	55947.13
635.583	55840.24
635.937	55910.97
636.291	55792.33
636.645	55877.98
636.999	55732.45
637.352	55826.91
637.706	55658.32
638.06	55758.44
638.413	55644.77
638.767	55627.37
639.121	55708.94
639.474	55466.69
639.828	55435.96
640.181	55517.99
640.534	55525.22
640.888	55348.73
641.241	55266.02
641.594	55381.04
641.947	55451.78
642.301	55313.25
642.654	55321.84
643.007	55314.15
643.36	55185.34
643.713	55226.47
644.066	55244.1
644.419	55061.5
644.771	54896.31
645.124	54693.6
645.477	54600.27
645.83	54424.23
646.182	54190.34
646.535	54119.61
646.888	54145.82
647.24	54076.9
647.593	54096.56
647.945	54202.77
648.298	53971.82
648.65	53935.43
649.002	53772.95
649.355	54012.72
649.707	53921.87
650.059	54044.58
650.411	54332.71
650.763	54351.47
651.115	54655.87
651.467	54526.15
651.819	54528.86
652.171	54422.65
652.523	54382.65
652.875	54319.6
653.227	54244.35
653.578	54401.18
653.93	54253.39
654.282	54149.89
654.633	54096.78
654.985	54108.53
655.337	54172.71
655.688	54176.78
656.039	54217.23
656.391	53912.61
656.742	54057.91
657.094	53977.69
657.445	54128.87
657.796	54049.33
658.147	53987.86
658.498	53982.66
658.849	53978.59
659.2	53948.54
659.551	53863.8
659.902	53944.92
660.253	53932.95
660.604	53996.9
660.955	53749.45
661.306	53897.02
661.656	53808.66
662.007	53774.53
662.358	53783.35
662.708	53759.84
663.059	53786.96
663.409	53496.57
663.76	53810.46
664.11	53650.02
664.461	53652.5
664.811	53647.08
665.161	53683.46
665.511	53574.76
665.862	53642.33
666.212	53653.63
666.562	53691.6
666.912	53618.15
667.262	53616.8
667.612	53583.58
667.962	53676.68
668.312	53708.32
668.662	53742.22
669.011	53573.18
669.361	53512.62
669.711	53542.45
670.06	53466.07
670.41	53489.79
670.76	53432.62
671.109	53508.55
671.459	53419.29
671.808	53387.65
672.157	53466.29
672.507	53258.61
672.856	53224.49
673.205	53304.04
673.554	53392.4
673.904	53250.25
674.253	53358.5
674.602	53243.25
674.951	52909.24
675.3	52739.53
675.649	53154.66
675.998	53101.78
676.346	53152.63
676.695	53251.16
677.044	52987.21
677.393	53140.88
677.741	53157.6
678.09	53004.61
678.438	52984.5
678.787	53008.45
679.135	52923.93
679.484	52811.17
679.832	52856.36
680.181	52728.46
680.529	52760.77
680.877	52715.13
681.225	52645.52
681.573	52885.52
681.922	52619.08
682.27	52568.24
682.618	52490.27
682.966	52517.39
683.314	52550.16
683.661	52423.16
684.009	52281.24
684.357	52193.78
684.705	52122.82
685.053	52067.91
685.4	52129.83
685.748	51907.69
686.095	51959.89
686.443	51759.67
686.79	51680.8
687.138	51760.35
687.485	51781.59
687.832	51641.48
688.18	51686.23
688.527	51516.29
688.874	51405.1
689.221	51420.24
689.568	51243.3
689.915	51187.93
690.262	51154.26
690.609	51019.8
690.956	50950.65
691.303	50950.43
691.65	50835.17
691.997	50672.47
692.344	50510.66
692.69	50572.36
693.037	50573.94
693.383	50204.46
693.73	50413.72
694.077	50295.75
694.423	50022.31
694.769	49995.42
695.116	49919.49
695.462	49930.57
695.808	49809.44
696.155	49852.38
696.501	49539.62
696.847	49548.88
697.193	49297.81
697.539	49430.92
697.885	49172.39
698.231	49158.83
698.577	49136.91
698.923	48954.77
699.269	48774.21
699.614	48663.48
699.96	48537.61
700.306	48634.55
700.651	48492.86
700.997	48277.05
701.342	48248.8
701.688	48087.22
702.033	47976.27
702.379	47871.64
702.724	47884.29
703.069	47814.01
703.415	47498.31
703.76	47511.42
704.105	47520.69
704.45	47303.52
704.795	46953.02
705.14	47035.05
705.485	47000.02
705.83	46800.03
706.175	46833.92
706.52	46835.28
706.865	46685
707.209	46643.65
707.554	46467.61
707.899	46668.73
708.243	46382.86
708.588	46272.58
708.932	45890.22
709.277	45956.66
709.621	46028.52
709.966	45689.1
710.31	45859.26
710.654	45562.77
710.998	45640.96
711.342	45558.7
711.687	45373.4
712.031	45186.28
712.375	45100.64
712.719	45134.99
713.063	45079.85
713.407	45120.07
713.75	44903.81
714.094	44877.82
714.438	44659.07
714.782	44711.72
715.125	44499.52
715.469	44480.31
715.812	44198.29
716.156	44063.83
716.499	44133.88
716.843	44131.4
717.186	43930.27
717.53	44004.39
717.873	44127.1
718.216	43944.06
718.559	43780.9
718.902	43521.69
719.246	43748.58
719.589	43570.96
719.932	43374.58
720.275	43284.19
720.617	43295.03
720.96	43205.32
721.303	43225.43
721.646	43151.08
721.989	42905.67
722.331	43099.56
722.674	42901.6
723.016	42896.85
723.359	42756.97
723.701	42829.28
724.044	42589.97
724.386	42495.28
724.729	42630.64
725.071	42427.26
725.413	42417.32
725.755	42191.33
726.097	42123.54
726.439	42068.85
726.782	42147.49
727.124	42101.39
727.465	41962.64
727.807	41766.94
728.149	41809.42
728.491	41692.36
728.833	41791.12
729.175	41599.26
729.516	41442.2
729.858	41435.2
730.199	41481.07
730.541	41339.83
730.882	41239.72
731.224	41359.94
731.565	41131.7
731.906	41054.87
732.248	41170.8
732.589	40923.8
732.93	40791.14
733.271	41002.44
733.612	40925.15
733.953	40932.38
734.294	40696.46
734.635	40547.76
734.976	40738.04
735.317	40580.3
735.658	40404.49
735.999	40349.8
736.339	40350.48
736.68	40343.47
737.021	40169.24
737.361	40080.2
737.702	40193.65
738.042	40023.71
738.383	39879.08
738.723	40061.9
739.063	39894.9
739.404	39985.52
739.744	39804.5
740.084	39621.23
740.424	39603.38
740.764	39601.57
741.104	39685.41
741.444	39404.06
741.784	39307.57
742.124	39280.45
742.464	39324.29
742.804	39264.18
743.143	39019.21
743.483	39121.36
743.823	38969.27
744.162	38898.54
744.502	38914.13
744.841	38689.28
745.181	38830.07
745.52	38653.12
745.86	38673.46
746.199	38727.02
746.538	38532.9
746.877	38666
747.216	38452.22
747.556	38294.94
747.895	38320.25
748.234	38030.31
748.573	38034.83
748.911	37922.75
749.25	38002.97
749.589	37747.38
749.928	37896.76
750.267	37722.07
750.605	37492.47
750.944	37632.13
751.283	37387.84
751.621	37534.51
751.96	37244.12
752.298	37305.13
752.636	37345.36
752.975	36985.14
