Data from plate_porcelain_FLMS001491_033.txt Node
Date: Tue Feb 07 11:19:12 GMT 2017
User: dcchb
Spectrometer: FLMS00149
Trigger mode: 0
Integration Time (sec): 2.000000E-2
Scans to average: 10
Electric dark correction enabled: true
Nonlinearity correction enabled: false
Boxcar width: 0
XAxis mode: Wavelengths
Number of Pixels in Spectrum: 2048
>>>>>Begin Spectral Data<<<<<
341.393	-6.06
341.776	-6.06
342.16	-6.06
342.543	-80.63
342.927	-74.53
343.31	-49.45
343.693	-48.32
344.077	-70.24
344.46	-77.7
344.843	-46.51
345.226	-20.07
345.61	-50.13
345.993	-30.92
346.376	-6.51
346.759	8.4
347.142	23.54
347.525	49.31
347.908	53.15
348.291	62.19
348.674	86.37
349.057	116.88
349.44	135.18
349.823	147.84
350.206	190.77
350.588	225.57
350.971	228.51
351.354	248.62
351.737	266.93
352.119	278.45
352.502	285.68
352.884	292.46
353.267	322.97
353.65	328.4
354.032	348.28
354.414	363.42
354.797	343.31
355.179	381.5
355.562	369.75
355.944	387.83
356.326	369.07
356.709	384.21
357.091	391.67
357.473	387.15
357.855	382.86
358.238	396.64
358.62	402.29
359.002	384.89
359.384	389.18
359.766	409.3
360.148	396.42
360.53	398.22
360.912	399.35
361.294	403.2
361.676	397.77
362.057	411.33
362.439	377.89
362.821	375.63
363.203	393.03
363.584	388.28
363.966	404.78
364.348	397.32
364.729	394.61
365.111	408.39
365.493	399.13
365.874	392.57
366.256	393.48
366.637	404.78
367.019	401.39
367.4	381.95
367.781	388.73
368.163	417.21
368.544	384.67
368.925	402.07
369.306	402.52
369.688	414.27
370.069	390.77
370.45	376.53
370.831	411.11
371.212	408.39
371.593	405
371.974	418.34
372.355	420.82
372.736	421.73
373.117	419.24
373.498	432.35
373.879	422.86
374.26	428.05
374.641	448.17
375.021	406.81
375.402	442.06
375.783	423.53
376.163	475.51
376.544	478
376.925	455.4
377.305	481.84
377.686	452.91
378.066	457.88
378.447	482.97
378.827	476.41
379.208	479.35
379.588	478.45
379.968	486.13
380.349	470.76
380.729	475.06
381.109	491.55
381.489	517.32
381.87	490.88
382.25	528.39
382.63	517.09
383.01	510.99
383.39	520.71
383.77	539.01
384.15	517.54
384.53	534.94
384.91	545.11
385.29	547.37
385.67	559.35
386.049	566.81
386.429	580.37
386.809	566.36
387.189	573.81
387.568	596.64
387.948	571.55
388.328	593.02
388.707	606.35
389.087	615.17
389.466	607.26
389.846	603.64
390.225	626.69
390.605	643.64
390.984	633.25
391.363	655.39
391.743	640.7
392.122	653.13
392.501	654.04
392.881	686.13
393.26	692.91
393.639	679.12
394.018	703.53
394.397	689.97
394.776	695.39
395.155	709.18
395.534	720.48
395.913	737.42
396.292	744.43
396.671	760.7
397.05	777.88
397.429	765.67
397.808	771.55
398.186	760.47
398.565	805.44
398.944	788.72
399.323	809.96
399.701	814.48
400.08	812.68
400.458	819.23
400.837	843.64
401.215	857.87
401.594	833.69
401.972	837.08
402.351	869.17
402.729	865.56
403.107	889.28
403.486	868.27
403.864	917.53
404.242	901.04
404.62	926.8
404.999	943.52
405.377	949.62
405.755	971.54
406.133	969.28
406.511	991.2
406.889	990.98
407.267	1002.28
407.645	1022.39
408.023	1045.21
408.401	1041.6
408.779	1083.4
409.156	1053.57
409.534	1108.94
409.912	1092.22
410.29	1129.5
410.667	1143.29
411.045	1170.18
411.422	1185.55
411.8	1209.28
412.178	1205.66
412.555	1222.38
412.933	1228.48
413.31	1256.51
413.687	1265.55
414.065	1283.4
414.442	1291.08
414.819	1324.08
415.197	1328.14
415.574	1367.92
415.951	1411.76
416.328	1367.92
416.705	1411.3
417.082	1413.56
417.46	1440.46
417.837	1443.85
418.214	1440.46
418.591	1462.38
418.967	1488.14
419.344	1520.45
419.721	1545.09
420.098	1498.53
420.475	1548.48
420.852	1578.76
421.228	1567.91
421.605	1602.71
421.982	1606.33
422.358	1637.06
422.735	1660.56
423.111	1642.94
423.488	1699.66
423.864	1672.09
424.241	1722.71
424.617	1734.01
424.994	1783.72
425.37	1802.71
425.746	1800.22
426.123	1810.84
426.499	1849.49
426.875	1856.72
427.251	1895.36
427.627	1941.91
428.003	1989.37
428.379	1973.55
428.756	1991.18
429.132	2012.64
429.507	2087.22
429.883	2090.16
430.259	2120.44
430.635	2181.91
431.011	2123.15
431.387	2199.53
431.763	2251.73
432.138	2287.89
432.514	2310.04
432.89	2312.07
433.265	2382.58
433.641	2412.86
434.016	2435.68
434.392	2468
434.767	2520.2
435.143	2508.68
435.518	2544.38
435.894	2550.94
436.269	2613.31
436.644	2646.98
437.02	2658.28
437.395	2701.44
437.77	2751.16
438.145	2773.08
438.52	2780.08
438.895	2816.24
439.271	2841.32
439.646	2914.09
440.021	2930.59
440.395	2941.89
440.77	2903.47
441.145	2981.66
441.52	3011.04
441.895	3038.61
442.27	3084.26
442.645	3073.63
443.019	3136.23
443.394	3122.22
443.769	3139.62
444.143	3163.58
444.518	3201.77
444.892	3195.66
445.267	3251.93
445.641	3307.3
446.016	3273.18
446.39	3359.28
446.764	3339.39
447.139	3331.25
447.513	3399.95
447.887	3401.99
448.262	3440.18
448.636	3479.27
449.01	3522.21
449.384	3577.12
449.758	3570.34
450.132	3655.31
450.506	3642.21
450.88	3715.65
451.254	3714.52
451.628	3732.6
452.002	3764.69
452.376	3835.42
452.75	3862.77
453.123	3907.06
453.497	3962.42
453.871	3973.27
454.244	4072.25
454.618	4149.99
454.992	4181.4
455.365	4196.99
455.739	4259.14
456.112	4334.84
456.486	4411
456.859	4406.25
457.232	4487.83
457.606	4472.47
457.979	4575.74
458.352	4685.12
458.725	4709.75
459.099	4714.95
459.472	4828.16
459.845	4897.31
460.218	4944.55
460.591	5051.21
460.964	5044.2
461.337	5126.46
461.71	5212.33
462.083	5294.82
462.456	5312.9
462.829	5335.27
463.201	5433.12
463.574	5494.36
463.947	5560.12
464.32	5669.95
464.692	5731.42
465.065	5822.26
465.438	5841.24
465.81	5989.26
466.183	6024.52
466.555	6131.41
466.928	6140.22
467.3	6195.81
467.672	6331.63
468.045	6445.3
468.417	6483.26
468.789	6558.97
469.161	6693.88
469.534	6764.61
469.906	6871.27
470.278	6969.8
470.65	7055.22
471.022	7196.92
471.394	7345.61
471.766	7368.44
472.138	7463.8
472.51	7733.4
472.882	7734.98
473.253	7930
473.625	7971.58
473.997	8158.92
474.369	8164.8
474.74	8317.79
475.112	8457
475.484	8602.98
475.855	8774.27
476.227	8800.04
476.598	9096.53
476.97	9216.75
477.341	9355.5
477.713	9504.43
478.084	9609.51
478.455	9912.1
478.827	9908.71
479.198	10225.76
479.569	10301.24
479.94	10548.69
480.311	10686.32
480.682	10943.26
481.053	11183.25
481.424	11318.61
481.795	11459.85
482.166	11595.44
482.537	11803.12
482.908	12070.46
483.279	12214.86
483.65	12420.05
484.021	12602.87
484.391	12778.69
484.762	12922.87
485.133	13078.34
485.503	13136.19
485.874	13577.99
486.244	13734.6
486.615	13992.89
486.985	14141.14
487.356	14418.65
487.726	14483.5
488.097	14792.65
488.467	14851.4
488.837	15248.45
489.207	15377.49
489.578	15566.41
489.948	15773.86
490.318	15989
490.688	16117.36
491.058	16315.32
491.428	16568.65
491.798	16718.47
492.168	17097.22
492.538	17082.53
492.908	17342.86
493.278	17557.32
493.648	17693.36
494.017	17905.11
494.387	18046.8
494.757	18252.67
495.126	18469.39
495.496	18555.49
495.866	18669.83
496.235	18844.29
496.605	19120.9
496.974	19199.09
497.344	19308.69
497.713	19517.95
498.082	19611.28
498.452	19824.83
498.821	19905.28
499.19	20061.66
499.559	20237.25
499.928	20370.81
500.298	20528.09
500.667	20798.82
501.036	20725.37
501.405	20998.13
501.774	21000.17
502.143	21295.53
502.512	21406.26
502.88	21590.44
503.249	21613.94
503.618	21766.25
503.987	21913.36
504.356	22126.92
504.724	22196.29
505.093	22381.6
505.462	22493.91
505.83	22638.54
506.199	22915.37
506.567	23162.15
506.936	23154.01
507.304	23484.17
507.672	23533.89
508.041	23709.93
508.409	23946.31
508.777	24070.82
509.145	24259.29
509.514	24280.76
509.882	24422.45
510.25	24538.61
510.618	24876.9
510.986	24951.93
511.354	25261.75
511.722	25419.49
512.09	25618.35
512.458	25561.18
512.826	25877.33
513.193	25980.6
513.561	26189.86
513.929	26482.06
514.297	26577.2
514.664	26909.17
515.032	27007.69
515.4	27207.91
515.767	27469.15
516.135	27528.13
516.502	27449.72
516.869	27932.64
517.237	27958.18
517.604	28068.23
517.972	28417.15
518.339	28652.62
518.706	28795.44
519.073	28825.95
519.44	29104.14
519.808	29398.59
520.175	29408.53
520.542	29914.74
520.909	30022.98
521.276	29955.86
521.643	30510.2
522.009	30639.46
522.376	30846.46
522.743	31107.92
523.11	31313.8
523.477	31563.96
523.843	31875.14
524.21	32071.52
524.577	32309.48
524.943	32548.79
525.31	32802.34
525.676	33045.95
526.043	33346.28
526.409	33478.03
526.776	33828.53
527.142	33806.16
527.508	34166.15
527.874	34539.25
528.241	34624.89
528.607	34828.05
528.973	35150.76
529.339	35018.56
529.705	35492.44
530.071	35821.7
530.437	35959.77
530.803	36162.26
531.169	36375.81
531.535	36350.72
531.901	36490.83
532.267	36807.21
532.632	36891.73
532.998	37120.42
533.364	37468.66
533.73	37565.16
534.095	37781.65
534.461	37869.56
534.826	38141.86
535.192	38228.19
535.557	38727.16
535.923	38569.88
536.288	38663.43
536.653	38939.58
537.019	38908.62
537.384	39093.48
537.749	39258.45
538.114	39544.77
538.479	39528.95
538.845	39770.07
539.21	39809.39
539.575	40018.2
539.94	40158.31
540.305	40433.78
540.67	40299.32
541.034	40554.23
541.399	40579.31
541.764	40864.28
542.129	40899.53
542.494	41045.06
542.858	41290.48
543.223	41352.85
543.587	41528.89
543.952	41597.82
544.316	41668.33
544.681	41769.57
545.045	41899.05
545.41	42090.69
545.774	42252.04
546.138	42358.7
546.503	42465.37
546.867	42414.52
547.231	42745.59
547.595	42800.27
547.959	43017.89
548.324	43069.19
548.688	43186.03
549.052	43396.64
549.416	43431.44
549.779	43622.62
550.143	43754.6
550.507	43969.06
550.871	44272.1
551.235	44199.78
551.599	44589.15
551.962	44556.84
552.326	44588.93
552.689	44893.78
553.053	44814.23
553.417	44875.25
553.78	45546.42
554.143	45306.65
554.507	45664.15
554.87	45680.65
555.234	46229.56
555.597	45941.21
555.96	46175.78
556.323	46330.35
556.686	46425.04
557.05	46714.52
557.413	46815.08
557.776	46978.02
558.139	47153.38
558.502	47194.73
558.865	47373.49
559.228	47763.98
559.59	47867.03
559.953	47933.92
560.316	48297.3
560.679	48218.66
561.041	48462.95
561.404	48690.74
561.767	48895.71
562.129	48844.41
562.492	49293.21
562.854	49269.03
563.217	49320.55
563.579	49514.9
563.941	49833.76
564.304	49847.09
564.666	50061.55
565.028	50196.46
565.39	50298.83
565.753	50517.13
566.115	50662.44
566.477	50742.89
566.839	50817.01
567.201	51080.96
567.563	51082.09
567.925	51317.79
568.287	51359.37
568.648	51421.29
569.01	51540.83
569.372	51821.96
569.734	51795.97
570.095	51965
570.457	52143.98
570.819	52142.17
571.18	52185.34
571.542	52404.54
571.903	52473.24
572.265	52574.71
572.626	52621.94
572.987	52693.35
573.349	52769.73
573.71	52929.95
574.071	52980.57
574.432	53004.3
574.794	53255.14
575.155	53180.79
575.516	53163.84
575.877	53338.53
576.238	53438.86
576.599	53542.14
576.96	53493.78
577.32	53563.83
577.681	53611.51
578.042	53817.84
578.403	53773.54
578.763	53895.35
579.124	53862.58
579.485	53985.06
579.845	53935.8
580.206	53985.06
580.566	54031.39
580.927	54006.53
581.287	54175.34
581.648	53959.75
582.008	54239.52
582.368	54097.83
582.728	54308.22
583.089	54158.84
583.449	54225.74
583.809	54249.46
584.169	54313.87
584.529	54260.08
584.889	54476.8
585.249	54172.18
585.609	54108.45
585.969	54358.61
586.329	54263.7
586.688	54326.52
587.048	54365.84
587.408	54243.36
587.768	54333.98
588.127	54323.36
588.487	54209.24
588.846	54459.18
589.206	54310.25
589.565	54381.44
589.925	54469.12
590.284	54418.5
590.643	54472.96
591.003	54529.68
591.362	54549.34
591.721	54460.76
592.08	54520.42
592.44	54588.66
592.799	54612.17
593.158	54524.71
593.517	54554.09
593.876	54569.91
594.235	54520.64
594.593	54545.05
594.952	54594.54
595.311	54604.93
595.67	54642.22
596.029	54770.81
596.387	54734.42
596.746	54815.1
597.104	54783.01
597.463	54747.76
597.822	54839.5
598.18	54683.8
598.538	54702.78
598.897	54879.73
599.255	54609.23
599.613	55051.93
599.972	54868.2
600.33	54855.78
600.688	54865.72
601.046	54970.35
601.404	55097.8
601.762	54940.97
602.12	55178.93
602.478	55119.27
602.836	55112.72
603.194	55027.75
603.552	55125.15
603.91	54949.78
604.268	55160.63
604.625	55128.99
604.983	55225.93
605.341	55209.89
605.698	55280.17
606.056	55265.93
606.413	55255.99
606.771	55395.42
607.128	55408.08
607.485	55306.61
607.843	55335.54
608.2	55441.75
608.557	55572.14
608.914	55488.53
609.272	55619.37
609.629	55650.1
609.986	55726.03
610.343	55550.22
610.7	55772.36
611.057	55768.07
611.414	55834.28
611.771	55796.54
612.127	55926.93
612.484	55717.9
612.841	55962.19
613.198	55762.87
613.554	55885.13
613.911	55989.98
614.267	56015.07
614.624	55992.02
614.98	56037.89
615.337	56162.41
615.693	56131
616.05	56140.94
616.406	56213.25
616.762	56098.45
617.118	56118.57
617.475	56193.37
617.831	56234.04
618.187	56211.67
618.543	56259.81
618.899	56373.02
619.255	56367.37
619.611	56283.31
619.967	56431.55
620.323	56503.87
620.678	56361.5
621.034	56247.83
621.39	56368.96
621.746	56266.59
622.101	56567.82
622.457	56385.9
622.812	56384.32
623.168	56461.16
623.523	56510.65
623.879	56560.59
624.234	56380.93
624.589	56432.68
624.945	56514.26
625.3	56462.96
625.655	56451.21
626.01	56452.12
626.365	56425
626.72	56441.95
627.075	56426.13
627.43	56412.34
627.785	56331.67
628.14	56339.13
628.495	56371.22
628.85	56326.7
629.205	56249.41
629.559	56419.12
629.914	56291.22
630.269	56319.92
630.623	56220.49
630.978	56098.68
631.332	56304.78
631.687	56304.32
632.041	56206.02
632.396	56242.18
632.75	56138.23
633.104	56037.89
633.459	56062.07
633.813	56016.2
634.167	55951.79
634.521	56077.66
634.875	56061.85
635.229	55969.42
635.583	55824.34
635.937	55856.65
636.291	55817.11
636.645	55816.65
636.999	55783.89
637.352	55814.85
637.706	55729.65
638.06	55752.47
638.413	55647.39
638.767	55634.51
639.121	55653.27
639.474	55512.71
639.828	55517.23
640.181	55526.27
640.534	55504.12
640.888	55413.95
641.241	55321.07
641.594	55282.88
641.947	55459.83
642.301	55246.5
642.654	55305.48
643.007	55257.12
643.36	55211.7
643.713	55182.09
644.066	55317.23
644.419	55028.43
644.771	54875.21
645.124	54659.62
645.477	54645.39
645.83	54413.07
646.182	54284.26
646.535	54115.23
646.888	54216.47
647.24	54055.34
647.593	54265.73
647.945	54132.63
648.298	54001.56
648.65	53934.44
649.002	53812.19
649.355	53969.7
649.707	53893.31
650.059	54077.04
650.411	54388.44
650.763	54331.72
651.115	54591.38
651.467	54504.15
651.819	54442.23
652.171	54442.9
652.523	54394.32
652.875	54359.52
653.227	54214.21
653.578	54359.29
653.93	54216.02
654.282	54211.72
654.633	54037.72
654.985	54165.85
655.337	54119.98
655.688	54071.84
656.039	54327.43
656.391	53997.49
656.742	54002.46
657.094	54025.74
657.445	54138.05
657.796	54085.63
658.147	53910.49
658.498	53996.14
658.849	53993.88
659.2	53981.67
659.551	53896.93
659.902	53964.27
660.253	53976.25
660.604	53908.91
660.955	53750.27
661.306	53872.07
661.656	53864.84
662.007	53769.48
662.358	53812.41
662.708	53796.82
663.059	53724.51
663.409	53567.9
663.76	53766.31
664.11	53640.89
664.461	53693.55
664.811	53765.41
665.161	53681.57
665.511	53632.76
665.862	53593.44
666.212	53704.62
666.562	53713.21
666.912	53677.28
667.262	53593.66
667.612	53642.02
667.962	53641.8
668.312	53641.12
668.662	53635.69
669.011	53644.28
669.361	53606.77
669.711	53439.09
670.06	53533.78
670.41	53445.87
670.76	53379.43
671.109	53550.05
671.459	53394.34
671.808	53418.52
672.157	53487.68
672.507	53220.56
672.856	53265.31
673.205	53367.23
673.554	53466.66
673.904	53321.8
674.253	53366.55
674.602	53299.43
674.951	52842.49
675.3	52721.37
675.649	53215.82
675.998	53106.22
676.346	53160.9
676.695	53272.77
677.044	52978.76
677.393	53143.28
677.741	53181.92
678.09	53056.05
678.438	52989.61
678.787	53006.78
679.135	53005.88
679.484	52848.37
679.832	52931.31
680.181	52731.31
680.529	52863.51
680.877	52737.19
681.225	52648.15
681.573	52895.6
681.922	52666.23
682.27	52565.67
682.618	52564.08
682.966	52508.94
683.314	52498.77
683.661	52390.53
684.009	52221.95
684.357	52172.46
684.705	52090.65
685.053	52275.96
685.4	52161.16
685.748	51918.45
686.095	51913.93
686.443	51805.69
686.79	51712.81
687.138	51766.82
687.485	51776.08
687.832	51600.04
688.18	51674.16
688.527	51499.71
688.874	51528.41
689.221	51371.12
689.568	51153.73
689.915	51169.32
690.262	51218.58
690.609	51032.6
690.956	50950.34
691.303	50902.88
691.65	50738.37
691.997	50669.22
692.344	50456.12
692.69	50477.36
693.037	50566.17
693.383	50285.95
693.73	50435.1
694.077	50184.49
694.423	50103.36
694.769	49979.75
695.116	49848.68
695.462	49973.87
695.808	49834.44
696.155	49847.77
696.501	49562.58
696.847	49585.63
697.193	49349.71
697.539	49383.15
697.885	49050.5
698.231	49139.77
698.577	49164.4
698.923	48999.88
699.269	48761.47
699.614	48531.42
699.96	48494.59
700.306	48512.67
700.651	48429.73
700.997	48383.4
701.342	48261.37
701.688	48183.63
702.033	47964.2
702.379	47837.88
702.724	47767.6
703.069	47827.94
703.415	47465.91
703.76	47643.76
704.105	47517.21
704.45	47301.4
704.795	47044.46
705.14	47011.46
705.485	47029.09
705.83	46924.01
706.175	46982.54
706.52	46757.46
706.865	46647.18
707.209	46586.84
707.554	46576.22
707.899	46483.34
708.243	46174.87
708.588	46396.34
708.932	45939.4
709.277	46084.71
709.621	46062.56
709.966	45733.76
710.31	45914.77
710.654	45565.85
710.998	45527.66
711.342	45439.98
711.687	45424.38
712.031	45183.26
712.375	45066.65
712.719	45210.83
713.063	44985.53
713.407	45171.28
713.75	44844.29
714.094	44865.53
714.438	44634.35
714.782	44623.05
715.125	44439.78
715.469	44545.76
715.812	44202.27
716.156	44051.99
716.499	44130.41
716.843	44038.21
717.186	43872.34
717.53	44221.48
717.873	44001.82
718.216	44033.46
718.559	43870.75
718.902	43697.42
719.246	43700.81
719.589	43670.53
719.932	43428.73
720.275	43420.82
720.617	43343.08
720.96	43108.51
721.303	43246.59
721.646	43128.4
721.989	42876.88
722.331	42996.43
722.674	42995.75
723.016	42901.74
723.359	42834.4
723.701	42712.82
724.044	42618.81
724.386	42482.32
724.729	42554.86
725.071	42420.62
725.413	42329.32
725.755	42323.45
726.097	42015.89
726.439	41906.74
726.782	42046.17
727.124	42048.43
727.465	41924.36
727.807	41823.58
728.149	41740.87
728.491	41496.35
728.833	41781.09
729.175	41531.83
729.516	41556.01
729.858	41385.62
730.199	41380.65
730.541	41351.5
730.882	41259.52
731.224	41311.27
731.565	41013.88
731.906	41040.09
732.248	41127.1
732.589	40911.51
732.93	40776.37
733.271	40890.04
733.612	40831.51
733.953	40905.41
734.294	40593.33
734.635	40663.61
734.976	40700.22
735.317	40390.39
735.658	40440.56
735.999	40457.96
736.339	40327.34
736.68	40280.11
737.021	40280.79
737.361	40044.41
737.702	40136.84
738.042	40084.41
738.383	39992.89
738.723	40075.37
739.063	39854.59
739.404	39892.78
739.744	39729.62
740.084	39553.8
740.424	39700.24
740.764	39604.42
741.104	39683.29
741.444	39362.62
741.784	39345
742.124	39211.67
742.464	39108.39
742.804	39220.03
743.143	39090.09
743.483	39088.51
743.823	38874.95
744.162	38908.17
744.502	38875.18
744.841	38745.01
745.181	38817.33
745.52	38784.11
745.86	38826.82
746.199	38843.09
746.538	38606.48
746.877	38484.45
747.216	38408.75
747.556	38294.63
747.895	38320.62
748.234	37999.72
748.573	38065.03
748.911	38005.6
749.25	37867.3
749.589	37799.73
749.928	37880.18
750.267	37721.08
750.605	37619.17
750.944	37572.61
751.283	37453.97
751.621	37522.67
751.96	37236.8
752.298	37265.05
752.636	37258.95
