Data from plate_ceramic_FLMS001491_086.txt Node
Date: Tue Feb 07 11:17:25 GMT 2017
User: dcchb
Spectrometer: FLMS00149
Trigger mode: 0
Integration Time (sec): 2.000000E-2
Scans to average: 10
Electric dark correction enabled: true
Nonlinearity correction enabled: false
Boxcar width: 0
XAxis mode: Wavelengths
Number of Pixels in Spectrum: 2048
>>>>>Begin Spectral Data<<<<<
341.393	-25.2
341.776	-25.2
342.16	-25.2
342.543	-65.65
342.927	-61.35
343.31	-73.33
343.693	-78.53
344.077	-49.6
344.46	-44.86
344.843	-65.42
345.226	-59.77
345.61	-34.91
345.993	-8.7
346.376	-16.16
346.759	12.99
347.142	39.66
347.525	56.38
347.908	53.67
348.291	66.33
348.674	95.7
349.057	106.55
349.44	106.55
349.823	141.13
350.206	183.84
350.588	203.72
350.971	227.45
351.354	242.59
351.737	253.67
352.119	248.69
352.502	272.42
352.884	281.91
353.267	303.16
353.65	291.18
354.032	311.29
354.414	328.69
354.797	322.82
355.179	316.71
355.562	334.79
355.944	335.02
356.326	341.57
356.709	332.53
357.091	346.54
357.473	347.9
357.855	363.27
358.238	342.7
358.62	373.66
359.002	375.02
359.384	354.23
359.766	359.65
360.148	364.4
360.53	374.57
360.912	357.39
361.294	368.01
361.676	358.07
362.057	349.03
362.439	345.19
362.821	343.61
363.203	343.83
363.584	351.52
363.966	335.02
364.348	346.09
364.729	353.78
365.111	337.96
365.493	357.17
365.874	350.16
366.256	363.72
366.637	341.35
367.019	354.23
367.4	339.31
367.781	347.22
368.163	363.72
368.544	342.25
368.925	336.6
369.306	335.7
369.688	352.42
370.069	347.22
370.45	345.41
370.831	349.03
371.212	351.06
371.593	330.95
371.974	350.61
372.355	355.58
372.736	363.72
373.117	347.9
373.498	353.55
373.879	337.28
374.26	370.05
374.641	353.78
375.021	358.3
375.402	358.3
375.783	381.35
376.163	365.08
376.544	403.49
376.925	377.5
377.305	370.27
377.686	385.41
378.066	379.76
378.447	393.77
378.827	379.31
379.208	385.19
379.588	400.1
379.968	402.14
380.349	403.72
380.729	412.08
381.109	391.97
381.489	407.11
381.87	410.5
382.25	424.06
382.63	421.57
383.01	423.15
383.39	413.21
383.77	447.78
384.15	416.6
384.53	425.64
384.91	418.41
385.29	429.93
385.67	443.04
386.049	448.69
386.429	436.94
386.809	451.4
387.189	452.53
387.568	467.22
387.948	466.32
388.328	454.79
388.707	486.65
389.087	485.52
389.466	483.72
389.846	492.76
390.225	476.03
390.605	502.92
390.984	503.38
391.363	494.34
391.743	510.61
392.122	512.87
392.501	514.45
392.881	529.36
393.26	515.13
393.639	529.82
394.018	497.28
394.397	537.73
394.776	536.6
395.155	556.48
395.534	539.31
395.913	545.86
396.292	579.76
396.671	569.36
397.05	563.49
397.429	553.32
397.808	544.96
398.186	575.92
398.565	567.1
398.944	601.23
399.323	602.13
399.701	605.29
400.08	581.57
400.458	603.26
400.837	606.65
401.215	598.06
401.594	605.52
401.972	633.99
402.351	634.9
402.729	648.01
403.107	647.1
403.486	652.07
403.864	659.98
404.242	664.5
404.62	670.83
404.999	681.68
405.377	682.35
405.755	686.65
406.133	705.41
406.511	710.6
406.889	733.65
407.267	720.09
407.645	716.7
408.023	751.73
408.401	750.38
408.779	741.79
409.156	770.49
409.534	787.89
409.912	768.23
410.29	810.49
410.667	792.41
411.045	826.53
411.422	845.51
411.8	840.99
412.178	850.71
412.555	866.53
412.933	863.37
413.31	887.55
413.687	903.14
414.065	892.52
414.442	857.04
414.819	923.48
415.197	898.85
415.574	921.22
415.951	937.94
416.328	945.4
416.705	970.26
417.082	960.09
417.46	989.01
417.837	977.49
418.214	1008
418.591	1026.07
418.967	1030.82
419.344	1021.78
419.721	1031.05
420.098	1055
420.475	1059.97
420.852	1080.31
421.228	1091.16
421.605	1071.27
421.982	1074.66
422.358	1097.94
422.735	1098.84
423.111	1123.93
423.488	1140.2
423.864	1134.77
424.241	1150.14
424.617	1163.25
424.994	1198.73
425.37	1184.04
425.746	1200.08
426.123	1254.54
426.499	1244.6
426.875	1263.58
427.251	1265.39
427.627	1281.44
428.003	1302.9
428.379	1320.3
428.756	1306.75
429.132	1354.88
429.507	1375.67
429.883	1386.07
430.259	1403.47
430.635	1410.02
431.011	1432.17
431.387	1455.67
431.763	1492.05
432.138	1481.66
432.514	1508.55
432.89	1499.96
433.265	1544.48
433.641	1556
434.016	1577.47
434.392	1623.12
434.767	1621.09
435.143	1620.86
435.518	1664.48
435.894	1645.27
436.269	1682.55
436.644	1711.71
437.02	1739.5
437.395	1746.73
437.77	1730.69
438.145	1771.82
438.52	1814.3
438.895	1807.3
439.271	1818.6
439.646	1855.88
440.021	1901.53
440.395	1867.63
440.77	1893.62
441.145	1887.07
441.52	1928.42
441.895	1956.45
442.27	1925.49
442.645	1961.87
443.019	1959.61
443.394	2000.74
443.769	2046.16
444.143	1992.38
444.518	2052.49
444.892	2033.96
445.267	2042.09
445.641	2058.59
446.016	2081.64
446.39	2103.56
446.764	2104.92
447.139	2103.56
447.513	2156.44
447.887	2127.29
448.262	2176.78
448.636	2165.48
449.01	2215.65
449.384	2239.38
449.758	2233.73
450.132	2272.82
450.506	2293.61
450.88	2289.09
451.254	2309.88
451.628	2347.62
452.002	2397.79
452.376	2381.97
452.75	2406.83
453.123	2410.67
453.497	2443.66
453.871	2489.54
454.244	2491.8
454.618	2559.37
454.992	2593.94
455.365	2556.43
455.739	2652.02
456.112	2678.01
456.486	2683.66
456.859	2721.17
457.232	2771.57
457.606	2783.77
457.979	2793.94
458.352	2863.77
458.725	2922.75
459.099	2918.91
459.472	2934.05
459.845	2988.96
460.218	3034.16
460.591	3066.25
460.964	3085.46
461.337	3136.75
461.71	3205.45
462.083	3245.45
462.456	3276.41
462.829	3240.48
463.201	3342.17
463.574	3331.78
463.947	3384.2
464.32	3479.12
464.692	3483.41
465.065	3537.42
465.438	3579.45
465.81	3633.46
466.183	3646.34
466.555	3749.84
466.928	3764.99
467.3	3747.36
467.672	3868.49
468.045	3951.65
468.417	3947.35
468.789	3943.96
469.161	4054.24
469.534	4103.73
469.906	4170.62
470.278	4184.64
470.65	4233.45
471.022	4310.51
471.394	4450.39
471.766	4454.23
472.138	4516.38
472.51	4614.45
472.882	4666.2
473.253	4717.96
473.625	4812.87
473.997	4864.84
474.369	4896.93
474.74	4976.03
475.112	5048.34
475.484	5166.98
475.855	5248.34
476.227	5286.98
476.598	5441.33
476.97	5505.73
477.341	5558.16
477.713	5661.66
478.084	5675.44
478.455	5859.39
478.827	5888.55
479.198	6070.91
479.569	6125.38
479.94	6306.84
480.311	6357.46
480.682	6447.18
481.053	6619.37
481.424	6742.76
481.795	6831.35
482.166	6920.16
482.537	6989.08
482.908	7112.92
483.279	7281.5
483.65	7348.17
484.021	7466.13
484.391	7511.55
484.762	7629.06
485.133	7758.55
485.503	7871.32
485.874	8009.85
486.244	8139.56
486.615	8288.71
486.985	8406.45
487.356	8509.49
487.726	8558.08
488.097	8720.79
488.467	8761.24
488.837	8933.44
489.207	9020.44
489.578	9245.07
489.948	9309.92
490.318	9490.48
490.688	9509.24
491.058	9589.69
491.428	9734.09
491.798	9807.76
492.168	10035.56
492.538	10103.12
492.908	10193.74
493.278	10360.29
493.648	10380.63
494.017	10505.6
494.387	10601.64
494.757	10659.27
495.126	10854.06
495.496	10836.44
495.866	11009.32
496.235	11091.35
496.605	11221.29
496.974	11234.17
497.344	11358.23
497.713	11395.52
498.082	11548.51
498.452	11660.15
498.821	11794.61
499.19	11750.09
499.559	11862.63
499.928	12010.64
500.298	12049.97
500.667	12158.89
501.036	12228.72
501.405	12351.43
501.774	12301.48
502.143	12405.44
502.512	12549.16
502.88	12684.53
503.249	12734.02
503.618	12762.26
503.987	12844.97
504.356	12975.37
504.724	13070.96
505.093	13081.8
505.462	13164.96
505.83	13279.31
506.199	13406.31
506.567	13531.28
506.936	13634.78
507.304	13778.06
507.672	13781.22
508.041	13906.87
508.409	13973.98
508.777	14112.74
509.145	14247.87
509.514	14218.72
509.882	14300.3
510.25	14462.78
510.618	14602.21
510.986	14599.05
511.354	14768.31
511.722	14870.23
512.09	15017.35
512.458	15021.86
512.826	15109.55
513.193	15255.08
513.561	15295.08
513.929	15381.63
514.297	15624.79
514.664	15763.31
515.032	15748.4
515.4	15904.78
515.767	16049.63
516.135	16059.58
516.502	16063.42
516.869	16433.58
517.237	16535.27
517.604	16444.88
517.972	16660.69
518.339	16802.38
518.706	16896.39
519.073	16946.79
519.44	17064.75
519.808	17229.26
520.175	17349.26
520.542	17717.39
520.909	17640.33
521.276	17659.08
521.643	17956.7
522.009	18052.75
522.376	18148.56
522.743	18212.74
523.11	18410.02
523.477	18583.58
523.843	18761.2
524.21	18902.21
524.577	19123.45
524.943	19246.61
525.31	19323.9
525.676	19441.64
526.043	19608.64
526.409	19704.68
526.776	19956.88
527.142	19986.71
527.508	20092.24
527.874	20271.22
528.241	20455.17
528.607	20508.73
528.973	20732.68
529.339	20661.26
529.705	20867.36
530.071	21026.9
530.437	21156.84
530.803	21447.68
531.169	21414.69
531.535	21481.58
531.901	21599.09
532.267	21733.55
532.632	21847.22
532.998	21924.28
533.364	22115.92
533.73	22188.23
534.095	22406.08
534.461	22407.21
534.826	22571.04
535.192	22730.36
535.557	22852.39
535.923	22893.07
536.288	22851.94
536.653	23065.72
537.019	23097.58
537.384	23204.25
537.749	23301.2
538.114	23325.83
538.479	23447.63
538.845	23545.93
539.21	23510.68
539.575	23759.04
539.94	23819.83
540.305	23949.77
540.67	23897.11
541.034	24119.7
541.399	24218.46
541.764	24298.23
542.129	24381.62
542.494	24439.7
542.858	24574.16
543.223	24525.12
543.587	24674.04
543.952	24819.35
544.316	24826.8
544.681	24869.29
545.045	25085.56
545.41	25177.76
545.774	25178.43
546.138	25186.57
546.503	25262.27
546.867	25350.86
547.231	25670.17
547.595	25552.21
547.959	25955.81
548.324	25869.26
548.688	25884.63
549.052	26064.51
549.416	26102.03
549.779	26206.88
550.143	26434.22
550.507	26541.34
550.871	26594.22
551.235	26594.22
551.599	26778.62
551.962	26798.5
552.326	26802.57
552.689	27131.83
553.053	27028.78
553.417	27114.88
553.78	27475.77
554.143	27378.38
554.507	27529.11
554.87	27593.51
555.234	27965.71
555.597	27807.74
555.96	27897.68
556.323	28088.41
556.686	28153.5
557.05	28387.62
557.413	28462.87
557.776	28665.35
558.139	28753.93
558.502	28906.7
558.865	28999.35
559.228	29002.51
559.59	29239.34
559.953	29224.43
560.316	29553.46
560.679	29645.44
561.041	29743.51
561.404	29902.38
561.767	30275.7
562.129	30072.09
562.492	30534.9
562.854	30517.28
563.217	30496.94
563.579	30703.03
563.941	30925.63
564.304	31026.64
564.666	31109.13
565.028	31128.56
565.39	31420.3
565.753	31625.04
566.115	31667.98
566.477	31764.02
566.839	31825.04
567.201	32131.02
567.563	32209.21
567.925	32533.27
568.287	32401.29
568.648	32630.67
569.01	32755.41
569.372	32923.32
569.734	32839.48
570.095	33027.72
570.457	33219.13
570.819	33168.96
571.18	33281.27
571.542	33481.94
571.903	33643.97
572.265	33694.82
572.626	33812.56
572.987	33918.54
573.349	34152.21
573.71	34184.98
574.071	34195.37
574.432	34307.91
574.794	34666.77
575.155	34553.33
575.516	34531.41
575.877	34596.49
576.238	34937.73
576.599	35003.94
576.96	34950.61
577.32	35087.78
577.681	35217.04
578.042	35300.43
578.403	35154.89
578.763	35298.39
579.124	35441.22
579.485	35434.21
579.845	35611.15
580.206	35665.39
580.566	35533.19
580.927	35589.23
581.287	35666.75
581.648	35650.48
582.008	35703.58
582.368	35747.42
582.728	35579.52
583.089	35631.04
583.449	35879.85
583.809	35711.72
584.169	35925.5
584.529	35883.01
584.889	36158.71
585.249	36012.95
585.609	35820.64
585.969	36197.81
586.329	35860.86
586.688	36033.74
587.048	36084.59
587.408	35946.51
587.768	35982.67
588.127	35914.87
588.487	35911.26
588.846	36202.1
589.206	35968.66
589.565	35923.24
589.925	36162.55
590.284	35962.11
590.643	36260.63
591.003	36177.24
591.362	36396.22
591.721	36150.57
592.08	36319.61
592.44	36487.97
592.799	36321.19
593.158	36306.05
593.517	36383.56
593.876	36407.29
594.235	36228.76
594.593	36452.94
594.952	36466.5
595.311	36298.37
595.67	36427.86
596.029	36673.95
596.387	36710.79
596.746	36644.57
597.104	36619.49
597.463	36640.05
597.822	36600.73
598.18	36532.03
598.538	36710.11
598.897	36822.65
599.255	36508.53
599.613	37098.8
599.972	36817
600.33	36901.52
600.688	36743.55
601.046	36882.53
601.404	37128.85
601.762	36947.84
602.12	37105.8
602.478	37024.68
602.836	37139.7
603.194	36957.11
603.552	37184.67
603.91	37022.19
604.268	37281.39
604.625	37068.52
604.983	37280.04
605.341	37164.33
605.698	37415.85
606.056	37484.33
606.413	37420.37
606.771	37560.03
607.128	37550.99
607.485	37353.93
607.843	37577.88
608.2	37602.74
608.557	37740.82
608.914	37487.71
609.272	37852
609.629	37812.68
609.986	37981.71
610.343	37796.18
610.7	38040.69
611.057	38037.3
611.414	38013.8
611.771	37950.08
612.127	38119.79
612.484	38196.4
612.841	38200.69
613.198	38180.58
613.554	38234.14
613.911	38440.01
614.267	38385.54
614.624	38426.45
614.98	38449.72
615.337	38665.54
615.693	38574.01
616.05	38530.17
616.406	38778.08
616.762	38611.53
617.118	38611.53
617.475	38473.9
617.831	38647.46
618.187	38760.68
618.543	38760.68
618.899	38861.24
619.255	38742.15
619.611	38757.06
619.967	38988.92
620.323	38991.4
620.678	38881.35
621.034	38741.69
621.39	38752.99
621.746	38679.77
622.101	39185.07
622.457	38937.39
622.812	39080.67
623.168	39032.31
623.523	39018.75
623.879	39048.8
624.234	38885.64
624.589	38941.69
624.945	39004.51
625.3	39045.19
625.655	38963.61
626.01	38986.43
626.365	39082.48
626.72	39061.46
627.075	39051.97
627.43	39061.46
627.785	38891.75
628.14	39027.79
628.495	38914.57
628.85	38981.91
629.205	38859.2
629.559	38926.77
629.914	38908.24
630.269	38944.4
630.623	38766.33
630.978	38649.72
631.332	38741.02
631.687	38853.78
632.041	38579.44
632.396	38677.97
632.75	38616.72
633.104	38782.6
633.459	38495.37
633.813	38483.85
634.167	38358.88
634.521	38480.01
634.875	38454.47
635.229	38587.12
635.583	38010.41
635.937	38195.72
636.291	38262.38
636.645	38238.66
636.999	38134.93
637.352	38269.62
637.706	37973.13
638.06	38058.32
638.413	37977.65
638.767	37875.05
639.121	37897.65
639.474	37696.3
639.828	37660.59
640.181	37759.12
640.534	37791.21
640.888	37733.36
641.241	37542.4
641.594	37658.11
641.947	37672.34
642.301	37534.27
642.654	37527.49
643.007	37612.91
643.36	37399.58
643.713	37461.73
644.066	37490.2
644.419	37135.63
644.771	36806.38
645.124	36505.59
645.477	36428.99
645.83	36299.72
646.182	36137.24
646.535	36048.66
646.888	36301.98
647.24	36064.25
647.593	36285.26
647.945	36172.72
648.298	36040.97
648.65	35846.18
649.002	35761.43
649.355	35889.79
649.707	35918.49
650.059	36069
650.411	36306.28
650.763	36339.5
651.115	36664.69
651.467	36516.67
651.819	36584.46
652.171	36481.64
652.523	36436.9
652.875	36466.95
653.227	36381.53
653.578	36515.54
653.93	36400.74
654.282	36370.68
654.633	36229.44
654.985	36323.23
655.337	36243.68
655.688	36307.63
656.039	36263.11
656.391	35847.76
656.742	36067.19
657.094	35963.01
657.445	36110.58
657.796	36076.9
658.147	35917.81
658.498	35933.63
658.849	35936.12
659.2	35897.93
659.551	35847.08
659.902	35989.9
660.253	35937.25
660.604	35966.85
660.955	35754.2
661.306	35880.98
661.656	35690.93
662.007	35795.56
662.358	35831.71
662.708	35759.17
663.059	35635.11
663.409	35629.68
663.76	35819.51
664.11	35778.83
664.461	35796.91
664.811	35744.48
665.161	35698.16
665.511	35615.9
665.862	35562.34
666.212	35631.72
666.562	35694.99
666.912	35669.91
667.262	35516.92
667.612	35600.31
667.962	35419.52
668.312	35489.58
668.662	35511.95
669.011	35502.46
669.361	35359.64
669.711	35444.6
670.06	35379.3
670.41	35247.32
670.76	35073.32
671.109	35360.77
671.459	35273.76
671.808	35208.9
672.157	35187.66
672.507	35075.12
672.856	35075.8
673.205	35044.16
673.554	35181.33
673.904	35040.77
674.253	35289.35
674.602	35178.17
674.951	34681.91
675.3	34474.69
675.649	35029.93
675.998	35015.24
676.346	34944.73
676.695	35101.11
677.044	34847.56
677.393	34954.9
677.741	35038.74
678.09	34779.76
678.438	34748.58
678.787	34803.04
679.135	34733.66
679.484	34595.59
679.832	34773.66
680.181	34525.31
680.529	34651.41
680.877	34508.13
681.225	34525.98
681.573	34579.99
681.922	34407.8
682.27	34192.43
682.618	34350.62
682.966	34234.69
683.314	34332.54
683.661	34272.66
684.009	34017.98
684.357	33944.53
684.705	33904.98
685.053	33871.31
685.4	33857.98
685.748	33629.74
686.095	33778.66
686.443	33612.79
686.79	33691.2
687.138	33427.03
687.485	33469.74
687.832	33476.52
688.18	33523.3
688.527	33292.8
688.874	33221.84
689.221	33131.22
689.568	33091.45
689.915	32954.95
690.262	32940.72
690.609	32840.15
690.956	32769.65
691.303	32866.59
691.65	32749.08
691.997	32666.37
692.344	32376.21
692.69	32493.72
693.037	32473.84
693.383	32349.77
693.73	32371.92
694.077	31980.29
694.423	32220.96
694.769	31994.53
695.116	31940.52
695.462	31918.14
695.808	31706.62
696.155	31805.83
696.501	31490.36
696.847	31517.48
697.193	31324.49
697.539	31446.52
697.885	31173.53
698.231	31185.51
698.577	31127.2
698.923	31050.82
699.269	30806.08
699.614	30801.56
699.96	30668.91
700.306	30709.14
700.651	30625.97
700.997	30546.2
701.342	30463.94
701.688	30497.62
702.033	30274.35
702.379	30285.64
702.724	30180.34
703.069	30281.12
703.415	29908.25
703.76	29802.04
704.105	30027.8
704.45	29816.28
704.795	29620.8
705.14	29567.47
705.485	29460.81
705.83	29361.6
706.175	29515.27
706.52	29462.39
706.865	29323.18
707.209	29277.54
707.554	28978.56
707.899	29203.86
708.243	29026.69
708.588	28964.78
708.932	28862.63
709.277	28769.3
709.621	28776.31
709.966	28566.59
710.31	28744.44
710.654	28441.17
710.998	28438.01
711.342	28581.73
711.687	28293.15
712.031	28245.7
712.375	28179.94
712.719	28227.17
713.063	28197.34
713.407	28167.06
713.75	27956.89
714.094	27971.35
714.438	27780.4
714.782	28026.72
715.125	27851.13
715.469	27852.26
715.812	27568.88
716.156	27482.33
716.499	27544.02
716.843	27612.04
717.186	27386.29
717.53	27531.37
717.873	27409.34
718.216	27404.59
718.559	27238.27
718.902	27175.22
719.246	27228.32
719.589	27043.02
719.932	26964.6
720.275	26903.59
720.617	26855.23
720.96	26849.12
721.303	26812.74
721.646	26860.65
721.989	26672.86
722.331	26725.74
722.674	26685.29
723.016	26602.13
723.359	26511.28
723.701	26567.78
724.044	26372.07
724.386	26270.61
724.729	26405.75
725.071	26374.79
725.413	26327.1
725.755	26234
726.097	26162.59
726.439	26123.04
726.782	26039.88
727.124	26156.04
727.465	26025.42
727.807	25910.84
728.149	25960.11
728.491	25838.53
728.833	25820.68
729.175	25823.39
729.516	25786.33
729.858	25776.61
730.199	25714.47
730.541	25575.49
730.882	25520.8
731.224	25733.9
731.565	25540.01
731.906	25549.27
732.248	25412.33
732.589	25254.36
732.93	25288.71
733.271	25267.47
733.612	25286.68
733.953	25297.53
734.294	25169.17
734.635	25152.9
734.976	25182.5
735.317	25116.74
735.658	25137.53
735.999	25112.67
736.339	24966.24
736.68	25063.86
737.021	25022.28
737.361	24873.13
737.702	24956.52
738.042	24800.36
738.383	24784.32
738.723	24872.45
739.063	24727.6
739.404	24768.05
739.744	24742.97
740.084	24557.89
740.424	24516.08
740.764	24467.72
741.104	24577.09
741.444	24450.54
741.784	24418.91
742.124	24421.39
742.464	24352.92
742.804	24240.61
743.143	24293.03
743.483	24165.35
743.823	24000.61
744.162	24076.09
744.502	24215.75
744.841	23962.65
745.181	24089.88
745.52	23951.8
745.86	23964.23
746.199	23858.24
746.538	23915.64
746.877	23834.29
747.216	23826.38
747.556	23705.7
747.895	23766.27
748.234	23549.1
748.573	23585.93
748.911	23745.25
749.25	23581.19
749.589	23460.29
749.928	23479.5
750.267	23408.76
750.605	23368.76
750.944	23255.32
751.283	23163.12
751.621	23315.43
751.96	23121.76
752.298	23060.07
752.636	23078.83
752.975	22917.25
753.313	22937.36
753.651	22996.12
753.989	22882.45
