Data from plate_porcelain_FLMS001491_022.txt Node
Date: Tue Feb 07 11:19:01 GMT 2017
User: dcchb
Spectrometer: FLMS00149
Trigger mode: 0
Integration Time (sec): 2.000000E-2
Scans to average: 10
Electric dark correction enabled: true
Nonlinearity correction enabled: false
Boxcar width: 0
XAxis mode: Wavelengths
Number of Pixels in Spectrum: 2048
>>>>>Begin Spectral Data<<<<<
341.393	-30.85
341.776	-30.85
342.16	-30.85
342.543	-51.19
342.927	-74.01
343.31	-74.01
343.693	-86.21
344.077	-59.32
344.46	-56.61
344.843	-44.41
345.226	-35.37
345.61	-24.07
345.993	-15.93
346.376	0.34
346.759	12.09
347.142	28.13
347.525	46.44
347.908	53.22
348.291	80.11
348.674	91.86
349.057	83.73
349.44	122.6
349.823	160.33
350.206	159.2
350.588	230.62
350.971	240.11
351.354	245.53
351.737	274.91
352.119	293.21
352.502	301.8
352.884	317.17
353.267	320.78
353.65	341.8
354.032	333.21
354.414	339.09
354.797	368.92
355.179	354.45
355.562	358.75
355.944	385.19
356.326	394.23
356.709	396.49
357.091	408.92
357.473	398.07
357.855	367.56
358.238	384.96
358.62	389.26
359.002	400.55
359.384	387.22
359.766	398.75
360.148	387.9
360.53	394.9
360.912	384.51
361.294	386.32
361.676	399.65
362.057	417.5
362.439	409.37
362.821	389.03
363.203	401.46
363.584	396.94
363.966	385.87
364.348	378.86
364.729	397.39
365.111	386.77
365.493	394
365.874	388.13
366.256	387.45
366.637	393.77
367.019	393.1
367.4	384.74
367.781	406.43
368.163	409.14
368.544	396.94
368.925	412.31
369.306	415.24
369.688	406.66
370.069	399.88
370.45	421.34
370.831	427.67
371.212	412.53
371.593	427.9
371.974	420.21
372.355	423.6
372.736	432.19
373.117	447.11
373.498	418.63
373.879	426.54
374.26	424.73
374.641	404.4
375.021	418.86
375.402	415.92
375.783	451.63
376.163	468.8
376.544	472.19
376.925	455.24
377.305	448.91
377.686	469.03
378.066	471.74
378.447	460.44
378.827	493.89
379.208	486.65
379.588	478.29
379.968	487.56
380.349	469.93
380.729	483.04
381.109	506.09
381.489	487.56
381.87	509.03
382.25	500.66
382.63	514.22
383.01	509.7
383.39	532.08
383.77	506.09
384.15	521
384.53	525.07
384.91	544.51
385.29	551.51
385.67	536.6
386.049	576.37
386.429	564.84
386.809	570.72
387.189	564.62
387.568	570.04
387.948	590.61
388.328	616.59
388.707	629.25
389.087	611.85
389.466	595.35
389.846	619.76
390.225	634.45
390.605	617.5
390.984	633.77
391.363	625.86
391.743	652.53
392.122	656.37
392.501	662.69
392.881	685.07
393.26	660.89
393.639	680.1
394.018	715.35
394.397	737.04
394.776	722.13
395.155	702.24
395.534	737.72
395.913	743.82
396.292	742.69
396.671	756.7
397.05	767.55
397.429	777.49
397.808	791.96
398.186	796.02
398.565	776.59
398.944	788.34
399.323	800.54
399.701	823.14
400.08	815.23
400.458	824.95
400.837	838.74
401.215	837.61
401.594	839.86
401.972	870.37
402.351	860.66
402.729	893.42
403.107	903.14
403.486	909.92
403.864	896.13
404.242	917.15
404.62	944.49
404.999	937.49
405.377	963.03
405.755	962.8
406.133	960.54
406.511	996.7
406.889	984.49
407.267	1027.88
407.645	1049.58
408.023	1027.88
408.401	1066.53
408.779	1062.23
409.156	1108.56
409.534	1077.82
409.912	1160.76
410.29	1151.27
410.667	1136.35
411.045	1178.16
411.422	1190.36
411.8	1173.42
412.178	1224.94
412.555	1247.54
412.933	1268.55
413.31	1262.68
413.687	1272.62
414.065	1293.41
414.442	1310.36
414.819	1340.42
415.197	1342.45
415.574	1366.4
415.951	1388.1
416.328	1392.62
416.705	1390.13
417.082	1414.77
417.46	1460.64
417.837	1454.99
418.214	1460.87
418.591	1490.92
418.967	1506.29
419.344	1490.47
419.721	1534.76
420.098	1542.67
420.475	1585.38
420.852	1599.39
421.228	1595.33
421.605	1611.14
421.982	1637.36
422.358	1635.32
422.735	1690.69
423.111	1673.74
423.488	1710.58
423.864	1735.66
424.241	1762.1
424.617	1761.42
424.994	1789.67
425.37	1801.65
425.746	1834.87
426.123	1839.84
426.499	1882.55
426.875	1881.65
427.251	1919.84
427.627	1952.83
428.003	2006.39
428.379	2031.92
428.756	2026.27
429.132	2068.76
429.507	2095.65
429.883	2129.32
430.259	2170
430.635	2215.42
431.011	2194.86
431.387	2224.01
431.763	2249.32
432.138	2275.53
432.514	2322.09
432.89	2357.79
433.265	2370.9
433.641	2416.55
434.016	2433.27
434.392	2495.87
434.767	2565.02
435.143	2537.67
435.518	2565.02
435.894	2631.23
436.269	2640.04
436.644	2683.88
437.02	2708.52
437.395	2714.62
437.77	2790.1
438.145	2800.49
438.52	2870.55
438.895	2844.78
439.271	2845.24
439.646	2931.79
440.021	2931.56
440.395	2963.88
440.77	2933.37
441.145	3012.01
441.52	3039.58
441.895	3119.13
442.27	3084.78
442.645	3100.82
443.019	3158.22
443.394	3114.16
443.769	3167.04
444.143	3198.9
444.518	3230.08
444.892	3238.9
445.267	3283.64
445.641	3307.14
446.016	3344.21
446.39	3400.93
446.764	3377.65
447.139	3368.61
447.513	3400.25
447.887	3455.16
448.262	3488.83
448.636	3519.79
449.01	3562.73
449.384	3633.92
449.758	3581.71
450.132	3677.3
450.506	3679.11
450.88	3724.53
451.254	3757.08
451.628	3796.62
452.002	3833.46
452.376	3859.45
452.75	3921.14
453.123	3936.73
453.497	4013.79
453.871	4042.72
454.244	4121.13
454.618	4134.92
454.992	4235.93
455.365	4198.42
455.739	4345.08
456.112	4388.92
456.486	4473.67
456.859	4433.67
457.232	4558.19
457.606	4585.76
457.979	4631.4
458.352	4707.11
458.725	4800.89
459.099	4826.2
459.472	4880.66
459.845	4980.77
460.218	5005.63
460.591	5109.36
460.964	5111.17
461.337	5147.32
461.71	5291.95
462.083	5335.57
462.456	5389.8
462.829	5441.78
463.201	5513.41
463.574	5547.09
463.947	5641.55
464.32	5751.6
464.692	5769.45
465.065	5811.94
465.438	5947.3
465.81	6063.23
466.183	6092.38
466.555	6230.23
466.928	6225.49
467.3	6337.12
467.672	6426.61
468.045	6555.42
468.417	6547.29
468.789	6647.17
469.161	6679.94
469.534	6849.88
469.906	6944.56
470.278	7041.06
470.65	7159.92
471.022	7291.45
471.394	7444.66
471.766	7426.36
472.138	7548.84
472.51	7720.59
472.882	7876.97
473.253	7939.34
473.625	8088.49
473.997	8222.72
474.369	8306.56
474.74	8415.26
475.112	8548.59
475.484	8732.31
475.855	8847.11
476.227	8978.41
476.598	9191.74
476.97	9256.82
477.341	9505.17
477.713	9614.1
478.084	9717.37
478.455	9987.65
478.827	10022
479.198	10383.34
479.569	10401.65
479.94	10715.99
480.311	10773.84
480.682	11020.16
481.053	11298.35
481.424	11425.35
481.795	11541.05
482.166	11720.48
482.537	11961.61
482.908	12142.62
483.279	12294.03
483.65	12623.06
484.021	12780.12
484.391	12896.5
484.762	13022.37
485.133	13156.15
485.503	13452.64
485.874	13724.72
486.244	13810.82
486.615	14156.35
486.985	14325.39
487.356	14573.06
487.726	14773.51
488.097	14969.89
488.467	15063.67
488.837	15345.92
489.207	15609.42
489.578	15765.8
489.948	15961.05
490.318	16216.18
490.688	16237.2
491.058	16543.86
491.428	16724.64
491.798	17016.84
492.168	17309.26
492.538	17329.37
492.908	17491.86
493.278	17663.38
493.648	17862.92
494.017	18149.24
494.387	18221.33
494.757	18400.99
495.126	18582.68
495.496	18717.59
495.866	18920.97
496.235	19089.33
496.605	19241.87
496.974	19369.77
497.344	19567.06
497.713	19686.6
498.082	19847.73
498.452	20033.26
498.821	20205.68
499.19	20283.65
499.559	20447.94
499.928	20665.33
500.298	20752.34
500.667	21000.69
501.036	21004.76
501.405	21193.91
501.774	21244.53
502.143	21531.52
502.512	21554.12
502.88	21833.44
503.249	21824.17
503.618	22000.44
503.987	22249.25
504.356	22456.47
504.724	22471.84
505.093	22640.42
505.462	22716.8
505.83	22944.59
506.199	23137.36
506.567	23435.2
506.936	23488.99
507.304	23609.66
507.672	23754.74
508.041	23880.62
508.409	24130.55
508.777	24293.71
509.145	24435.18
509.514	24554.04
509.882	24801.95
510.25	24858.44
510.618	25002.85
510.986	25144.31
511.354	25498.88
511.722	25658.42
512.09	25794.69
512.458	25884.63
512.826	26031.52
513.193	26315.13
513.561	26576.59
513.929	26666.08
514.297	26983.13
514.664	27238.94
515.032	27224.03
515.4	27533.85
515.767	27730.91
516.135	27759.61
516.502	27774.52
516.869	28310.56
517.237	28511.91
517.604	28415.19
517.972	28780.15
518.339	28969.07
518.706	29057.43
519.073	29082.51
519.44	29473.69
519.808	29750.52
520.175	29896.28
520.542	30127.91
520.909	30295.14
521.276	30381.91
521.643	30827.33
522.009	31089.47
522.376	31331.72
522.743	31388.89
523.11	31671.82
523.477	32135.09
523.843	32193.84
524.21	32661.4
524.577	32750.66
524.943	32945.46
525.31	33159.24
525.676	33508.16
526.043	33781.37
526.409	33904.98
526.776	34294.35
527.142	34355.37
527.508	34699.99
527.874	35003.26
528.241	35047.1
528.607	35329.13
528.973	35416.58
529.339	35497.26
529.705	35885.95
530.071	36310.8
530.437	36506.05
530.803	36701.29
531.169	36761.86
531.535	36868.52
531.901	37088.4
532.267	37259.02
532.632	37430.99
532.998	37666.02
533.364	37829.4
533.73	37957.08
534.095	38370.86
534.461	38393.23
534.826	38655.14
535.192	38801.35
535.557	39119.99
535.923	39031.63
536.288	39254.45
536.653	39484.27
537.019	39533.31
537.384	39673.65
537.749	39753.64
538.114	39900.76
538.479	40080.42
538.845	40332.61
539.21	40208.77
539.575	40565.83
539.94	40602.21
540.305	40853.73
540.67	40859.83
541.034	41151.57
541.399	41121.74
541.764	41264.11
542.129	41516.54
542.494	41629.53
542.858	41659.81
543.223	41733.93
543.587	41989.52
543.952	42147.25
544.316	42428.6
544.681	42218.21
545.045	42564.42
545.41	42701.14
545.774	42875.37
546.138	42794.92
546.503	43042.15
546.867	43067
547.231	43558.52
547.595	43495.01
547.959	43681.45
548.324	43683.48
548.688	43748.79
549.052	43872.18
549.416	44045.51
549.779	44198.5
550.143	44315.11
550.507	44715.1
550.871	44815.43
551.235	44808.88
551.599	45101.07
551.962	45246.15
552.326	45226.49
552.689	45507.17
553.053	45414.51
553.417	45524.79
553.78	46111.44
554.143	46019.24
554.507	46279.35
554.87	46362.74
555.234	46725.44
555.597	46503.3
555.96	46787.81
556.323	47035.94
556.686	47095.6
557.05	47282.49
557.413	47386.44
557.776	47517.96
558.139	47825.3
558.502	47763.15
558.865	47944.62
559.228	48273.87
559.59	48303.02
559.953	48430.48
560.316	48753.18
560.679	48762.45
561.041	49157.46
561.404	49184.81
561.767	49470.45
562.129	49322.66
562.492	49827.28
562.854	49864.56
563.217	49792.02
563.579	49934.85
563.941	50161.28
564.304	50430.43
564.666	50619.57
565.028	50657.09
565.39	50841.94
565.753	51087.81
566.115	51121.48
566.477	51310.18
566.839	51370.51
567.201	51589.04
567.563	51563.73
567.925	51812.54
568.287	51880.1
568.648	51983.6
569.01	52163.49
569.372	52315.12
569.734	52246.2
570.095	52514.66
570.457	52669.69
570.819	52630.59
571.18	52641.67
571.542	52871.04
571.903	52973.86
572.265	53045.72
572.626	53119.17
572.987	53187.87
573.349	53378.37
573.71	53457.69
574.071	53497.24
574.432	53563.45
574.794	53748.98
575.155	53687.97
575.516	53686.84
575.877	53806.61
576.238	53938.58
576.599	54031.69
576.96	54057.22
577.32	54030.56
577.681	54231.91
578.042	54258.12
578.403	54296.31
578.763	54388.51
579.124	54342.19
579.485	54538.11
579.845	54503.31
580.206	54523.43
580.566	54554.16
580.927	54649.75
581.287	54633.7
581.648	54534.27
582.008	54738.79
582.368	54633.03
582.728	54757.32
583.089	54654.5
583.449	54586.7
583.809	54699.47
584.169	54787.6
584.529	54708.28
584.889	54951.21
585.249	54688.17
585.609	54692.91
585.969	54830.99
586.329	54781.5
586.688	54828.28
587.048	54821.72
587.408	54817.2
587.768	54783.31
588.127	54816.3
588.487	54794.38
588.846	54960.02
589.206	54857.88
589.565	54833.47
589.925	54930.65
590.284	54888.39
590.643	54922.28
591.003	54977.42
591.362	55068.72
591.721	54950.98
592.08	54997.31
592.44	55071.66
592.799	55038.67
593.158	54988.05
593.517	55041.83
593.876	55082.96
594.235	55002.28
594.593	55094.48
594.952	55120.25
595.311	55042.73
595.67	55072.34
596.029	55254.25
596.387	55204.31
596.746	55297.64
597.104	55101.94
597.463	55225.55
597.822	55317.98
598.18	55209.28
598.538	55193.01
598.897	55412.22
599.255	55140.36
599.613	55567.24
599.972	55350.07
600.33	55484.98
600.688	55327.02
601.046	55471.42
601.404	55623.96
601.762	55490.63
602.12	55627.35
602.478	55725.43
602.836	55684.3
603.194	55506.68
603.552	55536.73
603.91	55496.73
604.268	55731.3
604.625	55587.13
604.983	55777.63
605.341	55587.35
605.698	55701.7
606.056	55756.16
606.413	55778.08
606.771	55922.94
607.128	55871.41
607.485	55739.21
607.843	55769.72
608.2	55954.57
608.557	56040
608.914	55937.85
609.272	56084.74
609.629	56137.39
609.986	56163.61
610.343	56025.53
610.7	56256.49
611.057	56264.85
611.414	56233.44
611.771	56246.32
612.127	56425.3
612.484	56319.76
612.841	56498.74
613.198	56402.47
613.554	56383.94
613.911	56462.58
614.267	56433.88
614.624	56400.66
614.98	56569.47
615.337	56642.24
615.693	56592.98
616.05	56616.03
616.406	56729.24
616.762	56611.96
617.118	56624.16
617.475	56671.84
617.831	56670.49
618.187	56671.17
618.543	56707.1
618.899	56917.03
619.255	56851.05
619.611	56833.65
619.967	56905.74
620.323	56901.67
620.678	56856.25
621.034	56779.86
621.39	56824.83
621.746	56898.96
622.101	57040.2
622.457	56837.04
622.812	56893.31
623.168	56921.1
623.523	56963.81
623.879	57007.88
624.234	56902.35
624.589	57084.26
624.945	56951.38
625.3	57042.23
625.655	56934.89
626.01	56932.85
626.365	57033.19
626.72	56940.31
627.075	56995.22
627.43	56960.42
627.785	56821.22
628.14	56915.68
628.495	56892.18
628.85	56822.8
629.205	56748.9
629.559	56865.28
629.914	56780.99
630.269	56844.27
630.623	56768.56
630.978	56713.88
631.332	56740.99
631.687	56813.76
632.041	56699.87
632.396	56720.2
632.75	56639.53
633.104	56592.3
633.459	56495.12
633.813	56543.26
634.167	56538.29
634.521	56496.25
634.875	56524.73
635.229	56511.62
635.583	56285.86
635.937	56418.06
636.291	56322.25
636.645	56332.42
636.999	56240.89
637.352	56282.25
637.706	56119.99
638.06	56200.67
638.413	56265.3
638.767	56119.99
639.121	56108.69
639.474	55954.35
639.828	56054.68
640.181	56052.42
640.534	56007.45
640.888	55916.38
641.241	55794.35
641.594	55854.01
641.947	56007.91
642.301	55793.67
642.654	55798.87
643.007	55797.97
643.36	55720.91
643.713	55730.63
644.066	55802.94
644.419	55600.46
644.771	55434.14
645.124	55192.11
645.477	55117.31
645.83	54928.84
646.182	54801.61
646.535	54665.34
646.888	54730.2
647.24	54590.32
647.593	54712.12
647.945	54691.78
648.298	54564.78
648.65	54465.12
649.002	54437.1
649.355	54515.06
649.707	54457.66
650.059	54608.62
650.411	54927.48
650.763	54997.76
651.115	55229.4
651.467	55113.24
651.819	55075.73
652.171	54985.56
652.523	54954.15
652.875	54914.6
653.227	54708.73
653.578	54969.06
653.93	54822.17
654.282	54717.32
654.633	54658.79
654.985	54741.05
655.337	54691.33
655.688	54715.96
656.039	54759.58
656.391	54548.96
656.742	54553.48
657.094	54682.52
657.445	54754.61
657.796	54658.79
658.147	54579.69
658.498	54607.04
658.849	54589.64
659.2	54537.44
659.551	54428.29
659.902	54619.47
660.253	54466.48
660.604	54512.8
660.955	54343.77
661.306	54438
661.656	54461.73
662.007	54360.27
662.358	54355.07
662.708	54349.64
663.059	54402.52
663.409	54137.22
663.76	54433.94
664.11	54255.41
664.461	54299.48
664.811	54346.48
665.161	54287.95
665.511	54216.54
665.862	54283.66
666.212	54329.76
666.562	54379.25
666.912	54213.15
667.262	54282.75
667.612	54234.17
667.962	54314.17
668.312	54201.63
668.662	54268.97
669.011	54172.25
669.361	54121.18
669.711	54162.98
670.06	54107.84
670.41	53985.59
670.76	53976.77
671.109	54086.37
671.459	54079.37
671.808	54003.89
672.157	54085.02
672.507	53859.71
672.856	53878.92
673.205	53932.93
673.554	53988.75
673.904	53880.5
674.253	54009.54
674.602	53886.15
674.951	53395.32
675.3	53281.88
675.649	53795.08
675.998	53652.71
676.346	53725.71
676.695	53755.99
677.044	53560.29
677.393	53821.3
677.741	53753.5
678.09	53625.37
678.438	53595.09
678.787	53687.97
679.135	53645.48
679.484	53411.14
679.832	53592.38
680.181	53344.7
680.529	53467.86
680.877	53260.86
681.225	53288.43
681.573	53438.48
681.922	53275.32
682.27	53139.05
682.618	53198.04
682.966	53103.35
683.314	53147.87
683.661	53017.25
684.009	52838.5
684.357	52845.96
684.705	52737.94
685.053	52801.21
685.4	52733.87
685.748	52566.87
686.095	52538.17
686.443	52390.6
686.79	52262.47
687.138	52411.39
687.485	52408.45
687.832	52224.95
688.18	52319.87
688.527	52123.26
688.874	52150.38
689.221	52116.26
689.568	51953.1
689.915	51985.41
690.262	51840.56
690.609	51718.75
690.956	51712.43
691.303	51547.68
691.65	51326.22
691.997	51401.7
692.344	51136.4
692.69	51249.16
693.037	51215.49
693.383	50995.61
693.73	51162.16
694.077	50853.69
694.423	50860.02
694.769	50587.03
695.116	50655.28
695.462	50618.9
695.808	50546.35
696.155	50507.71
696.501	50329.64
696.847	50262.97
697.193	49991.34
697.539	50207.15
697.885	49965.35
698.231	49853.04
698.577	49796.77
698.923	49713.61
699.269	49506.83
699.614	49296.67
699.96	49339.83
700.306	49392.49
700.651	49199.72
700.997	49117.24
701.342	49102.78
701.688	48924.7
702.033	48773.52
702.379	48770.13
702.724	48612.17
703.069	48807.19
703.415	48255.12
703.76	48329.01
704.105	48268.67
704.45	48096.48
704.795	47980.55
705.14	47850.15
705.485	47834.11
705.83	47656.26
706.175	47715.47
706.52	47536.94
706.865	47438.41
707.209	47380.34
707.554	47326.78
707.899	47367.46
708.243	47226.22
708.588	47118.65
708.932	46714.82
709.277	46969.95
709.621	46977.63
709.966	46585.1
710.31	46661.71
710.654	46350.31
710.998	46396.86
711.342	46497.65
711.687	46199.8
712.031	46096.53
712.375	45972.24
712.719	45976.31
713.063	45925.01
713.407	46008.62
713.75	45794.16
714.094	45574.28
714.438	45634.17
714.782	45643.88
715.125	45282.09
715.469	45485.92
715.812	45230.56
716.156	44917.58
716.499	44994.18
716.843	45058.36
717.186	44720.75
717.53	44970.23
717.873	44895.66
718.216	44626.28
718.559	44656.79
718.902	44515.55
719.246	44574.31
719.589	44387.87
719.932	44306.07
720.275	44273.98
720.617	44129.35
720.96	44205.73
721.303	43975
721.646	44112.85
721.989	43852.29
722.331	43977.04
722.674	43899.3
723.016	43754.89
723.359	43735.23
723.701	43704.5
724.044	43409.14
724.386	43316.04
724.729	43412.53
725.071	43263.16
725.413	43288.92
725.755	43089.6
726.097	42986.78
726.439	42844.18
726.782	42845.09
727.124	42904.75
727.465	42791.08
727.807	42620.24
728.149	42609.16
728.491	42481.26
728.833	42554.25
729.175	42447.13
729.516	42340.24
729.858	42279.45
730.199	42297.53
730.541	42228.83
730.882	42133.69
731.224	42162.62
731.565	41990.87
731.906	41766.92
732.248	41964.66
732.589	41785.23
732.93	41566.93
733.271	41587.95
733.612	41691.45
733.953	41679.47
734.294	41391.57
734.635	41327.16
734.976	41504.78
735.317	41241.74
735.658	41323.32
735.999	41223.66
736.339	41065.25
736.68	41201.52
737.021	41075.64
737.361	40871.35
737.702	41171.91
738.042	40973.72
738.383	40746.39
738.723	40889.66
739.063	40597.69
739.404	40566.05
739.744	40486.73
740.084	40433.4
740.424	40451.25
740.764	40311.6
741.104	40601.76
741.444	40281.54
741.784	40055.78
742.124	40041.09
742.464	40059.85
742.804	40002.9
743.143	39950.93
743.483	39967.88
743.823	39677.04
744.162	39652.18
744.502	39694.21
744.841	39629.35
745.181	39697.37
745.52	39541.9
745.86	39615.57
746.199	39464.16
746.538	39419.19
746.877	39342.81
747.216	39316.37
747.556	39117.5
747.895	39182.81
748.234	38905.53
748.573	38992.76
748.911	38882.03
749.25	38878.64
749.589	38717.06
749.928	38710.73
750.267	38598.87
750.605	38487.91
750.944	38469.84
751.283	38262.61
751.621	38384.19
751.96	38049.96
752.298	38160.69
752.636	38165.89
