Data from plate_ceramic_FLMS001491_085.txt Node
Date: Tue Feb 07 11:17:25 GMT 2017
User: dcchb
Spectrometer: FLMS00149
Trigger mode: 0
Integration Time (sec): 2.000000E-2
Scans to average: 10
Electric dark correction enabled: true
Nonlinearity correction enabled: false
Boxcar width: 0
XAxis mode: Wavelengths
Number of Pixels in Spectrum: 2048
>>>>>Begin Spectral Data<<<<<
341.393	-17.34
341.776	-17.34
342.16	-17.34
342.543	-52.37
342.927	-76.55
343.31	-53.73
343.693	-68.64
344.077	-51.24
344.46	-50.34
344.843	-37
345.226	-58.93
345.61	-40.85
345.993	-25.48
346.376	1.41
346.759	-2.43
347.142	24.91
347.525	35.54
347.908	50.68
348.291	79.83
348.674	86.61
349.057	109.66
349.44	125.93
349.823	141.52
350.206	161.41
350.588	212.93
350.971	214.74
351.354	260.39
351.737	239.37
352.119	266.49
352.502	264.68
352.884	292.93
353.267	303.1
353.65	287.73
354.032	310.33
354.414	316.43
354.797	311.46
355.179	331.57
355.562	334.51
355.944	334.51
356.326	348.07
356.709	349.88
357.091	346.04
357.473	367.96
357.855	366.37
358.238	349.88
358.62	353.49
359.002	372.48
359.384	347.84
359.766	358.69
360.148	370.67
360.53	354.85
360.912	368.86
361.294	351.23
361.676	346.04
362.057	351.46
362.439	345.81
362.821	343.1
363.203	340.39
363.584	334.28
363.966	338.8
364.348	331.57
364.729	341.29
365.111	335.64
365.493	330.44
365.874	343.78
366.256	350.33
366.637	362.08
367.019	334.74
367.4	340.39
367.781	329.09
368.163	341.74
368.544	339.71
368.925	339.93
369.306	345.36
369.688	350.56
370.069	346.26
370.45	332.25
370.831	342.87
371.212	354.85
371.593	358.92
371.974	361.63
372.355	369.31
372.736	369.76
373.117	382.42
373.498	346.49
373.879	353.04
374.26	361.18
374.641	351.23
375.021	350.1
375.402	373.61
375.783	374.06
376.163	406.6
376.544	399.14
376.925	357.56
377.305	390.78
377.686	390.33
378.066	388.52
378.447	393.94
378.827	379.93
379.208	403.44
379.588	401.18
379.968	377.22
380.349	400.05
380.729	398.46
381.109	419.71
381.489	406.15
381.87	425.81
382.25	399.82
382.63	406.6
383.01	417.22
383.39	412.25
383.77	430.78
384.15	440.27
384.53	426.94
384.91	438.92
385.29	435.3
385.67	445.92
386.049	438.46
386.429	443.89
386.809	445.47
387.189	455.41
387.568	439.59
387.948	469.42
388.328	482.53
388.707	483.21
389.087	486.6
389.466	464.45
389.846	487.28
390.225	489.99
390.605	489.31
390.984	481.17
391.363	489.31
391.743	504.45
392.122	499.03
392.501	500.16
392.881	514.85
393.26	526.37
393.639	524.11
394.018	531.79
394.397	536.31
394.776	522.3
395.155	552.13
395.534	543.77
395.913	546.48
396.292	562.53
396.671	556.65
397.05	550.55
397.429	552.13
397.808	577.89
398.186	594.17
398.565	578.57
398.944	582.41
399.323	598.46
399.701	610.66
400.08	638.23
400.458	604.79
400.837	612.7
401.215	634.84
401.594	649.53
401.972	645.24
402.351	631
402.729	647.95
403.107	638.46
403.486	657.89
403.864	648.63
404.242	649.98
404.62	677.78
404.999	667.16
405.377	671.45
405.755	684.56
406.133	703.54
406.511	711.9
406.889	702.41
407.267	720.26
407.645	724.56
408.023	732.92
408.401	731.34
408.779	740.15
409.156	760.71
409.534	789.64
409.912	793.93
410.29	788.96
410.667	811.79
411.045	828.51
411.422	822.86
411.8	842.97
412.178	843.42
412.555	838.45
412.933	856.31
413.31	886.59
413.687	860.15
414.065	867.6
414.442	898.56
414.819	923.87
415.197	913.93
415.574	947.15
415.951	924.1
416.328	967.26
416.705	963.65
417.082	969.52
417.46	947.38
417.837	968.84
418.214	1000.03
418.591	1020.59
418.967	1022.18
419.344	1038.67
419.721	1023.53
420.098	1032.57
420.475	1051.55
420.852	1077.09
421.228	1061.72
421.605	1109.18
421.982	1094.94
422.358	1116.64
422.735	1127.26
423.111	1136.52
423.488	1160.7
423.864	1150.31
424.241	1157.09
424.617	1194.83
424.994	1185.11
425.37	1188.73
425.746	1207.93
426.123	1223.08
426.499	1247.93
426.875	1253.13
427.251	1266.24
427.627	1290.87
428.003	1327.48
428.379	1306.01
428.756	1338.78
429.132	1364.09
429.507	1334.71
429.883	1408.38
430.259	1397.53
430.635	1418.78
431.011	1406.8
431.387	1458.78
431.763	1473.01
432.138	1466.91
432.514	1506.01
432.89	1514.14
433.265	1554.14
433.641	1564.99
434.016	1572.22
434.392	1604.76
434.767	1620.58
435.143	1630.07
435.518	1666
435.894	1668.94
436.269	1696.74
436.644	1676.62
437.02	1706.9
437.395	1743.06
437.77	1755.94
438.145	1771.54
438.52	1771.08
438.895	1810.4
439.271	1798.88
439.646	1866.67
440.021	1880.01
440.395	1896.73
440.77	1870.29
441.145	1873.68
441.52	1928.37
441.895	1946.22
442.27	1940.34
442.645	1966.78
443.019	1985.77
443.394	1963.62
443.769	1963.39
444.143	1979.89
444.518	2033
444.892	2026.22
445.267	2049.04
445.641	2059.66
446.016	2088.59
446.39	2110.96
446.764	2129.04
447.139	2118.42
447.513	2118.42
447.887	2117.97
448.262	2183.28
448.636	2185.76
449.01	2214.46
449.384	2213.11
449.758	2246.1
450.132	2272.77
450.506	2274.35
450.88	2293.56
451.254	2314.12
451.628	2289.26
452.002	2364.29
452.376	2377.17
452.75	2372.88
453.123	2431.86
453.497	2466.66
453.871	2482.03
454.244	2548.92
454.618	2573.77
454.992	2569.03
455.365	2560.67
455.739	2625.07
456.112	2636.82
456.486	2707.78
456.859	2758.63
457.232	2792.3
457.606	2763.15
457.979	2779.64
458.352	2887.44
458.725	2908.45
459.099	2901.9
459.472	2980.32
459.845	3015.34
460.218	3057.15
460.591	3081.56
460.964	3032.07
461.337	3183.25
461.71	3213.76
462.083	3250.59
462.456	3262.12
462.829	3260.31
463.201	3330.14
463.574	3292.85
463.947	3367.2
464.32	3452.4
464.692	3510.47
465.065	3524.03
465.438	3564.93
465.81	3592.73
466.183	3634.31
466.555	3755.44
466.928	3753.18
467.3	3759.96
467.672	3842.67
468.045	3943.91
468.417	3929.9
468.789	3950.46
469.161	3989.33
469.534	4046.28
469.906	4216.89
470.278	4193.84
470.65	4251.7
471.022	4321.07
471.394	4418.7
471.766	4420.96
472.138	4512.03
472.51	4617.79
472.882	4684.68
473.253	4729.65
473.625	4784.34
473.997	4870.21
474.369	4939.36
474.74	4989.3
475.112	5073.14
475.484	5172.12
475.855	5246.25
476.227	5291.44
476.598	5404.89
476.97	5442.63
477.341	5581.38
477.713	5677.65
478.084	5728.72
478.455	5909.96
478.827	5927.13
479.198	6115.15
479.569	6146.79
479.94	6277.86
480.311	6325.31
480.682	6506.55
481.053	6595.14
481.424	6750.61
481.795	6757.84
482.166	6896.15
482.537	6979.99
482.908	7100.43
483.279	7186.08
483.65	7347.89
484.021	7499.52
484.391	7578.39
484.762	7665.17
485.133	7669.01
485.503	7873.75
485.874	7991.71
486.244	8084.59
486.615	8257.69
486.985	8297.47
487.356	8536.56
487.726	8594.86
488.097	8734.52
488.467	8789.66
488.837	8969.54
489.207	9074.85
489.578	9137.67
489.948	9332.01
490.318	9472.12
490.688	9466.93
491.058	9601.39
491.428	9732.68
491.798	9868.95
492.168	10035.27
492.538	10072.33
492.908	10245.44
493.278	10395.49
493.648	10373.57
494.017	10494.24
494.387	10542.6
494.757	10637.06
495.126	10809.72
495.496	10853.33
495.866	11013.33
496.235	11110.95
496.605	11183.27
496.974	11252.87
497.344	11370.83
497.713	11395.24
498.082	11506.87
498.452	11717.04
498.821	11655.8
499.19	11771.72
499.559	11929.69
499.928	11976.24
500.298	12063.24
500.667	12146.18
501.036	12233.18
501.405	12394.53
501.774	12377.13
502.143	12502.78
502.512	12578.26
502.88	12688.31
503.249	12719.04
503.618	12843.11
503.987	12855.31
504.356	12993.61
504.724	13011.01
505.093	13111.35
505.462	13145.7
505.83	13270.44
506.199	13460.27
506.567	13640.6
506.936	13619.59
507.304	13755.4
507.672	13753.37
508.041	13875.17
508.409	13915.85
508.777	14051.89
509.145	14341.37
509.514	14260.25
509.882	14435.61
510.25	14436.29
510.618	14567.36
510.986	14705.21
511.354	14749.5
511.722	14903.85
512.09	14978.65
512.458	14965.09
512.826	15150.84
513.193	15321.69
513.561	15332.99
513.929	15391.52
514.297	15546.54
514.664	15716.48
515.032	15735.24
515.4	16029.69
515.767	16027.66
516.135	16113.98
516.502	15990.37
516.869	16344.49
517.237	16476.46
517.604	16447.76
517.972	16693.18
518.339	16837.35
518.706	16853.85
519.073	16956.45
519.44	17109.44
519.808	17287.74
520.175	17251.81
520.542	17630.1
520.909	17540.84
521.276	17749.87
521.643	17979.47
522.009	18056.08
522.376	18146.02
522.743	18230.54
523.11	18441.15
523.477	18560.25
523.843	18791.88
524.21	18887.92
524.577	19124.3
524.943	19173.56
525.31	19299.66
525.676	19507.57
526.043	19582.37
526.409	19728.8
526.776	19876.6
527.142	20003.6
527.508	20157.04
527.874	20330.14
528.241	20399.07
528.607	20476.58
528.973	20667.76
529.339	20706.18
529.705	20886.96
530.071	21121.54
530.437	21193.62
530.803	21412.37
531.169	21596.1
531.535	21480.17
531.901	21656.66
532.267	21726.04
532.632	21901.63
532.998	21892.81
533.364	22156.99
533.73	22117.22
534.095	22340.26
534.461	22433.36
534.826	22589.75
535.192	22727.82
535.557	22821.15
535.923	22854.14
536.288	22985.44
536.653	23009.85
537.019	23068.15
537.384	23216.17
537.749	23386.33
538.114	23401.7
538.479	23282.61
538.845	23578.65
539.21	23505.65
539.575	23698.64
539.94	23741.81
540.305	23935.7
540.67	23896.38
541.034	24041.46
541.399	24165.3
541.764	24265.86
542.129	24308.8
542.494	24432.86
542.858	24597.38
543.223	24500.66
543.587	24837.14
543.952	24738.62
544.316	24963.69
544.681	24758.28
545.045	25043.92
545.41	25143.35
545.774	25110.13
546.138	25160.3
546.503	25363.23
546.867	25446.17
547.231	25699.49
547.595	25738.14
547.959	25908.3
548.324	25732.26
548.688	25904.01
549.052	26101.29
549.416	26186.71
549.779	26252.02
550.143	26261.96
550.507	26448.85
550.871	26499.25
551.235	26549.41
551.599	26861.72
551.962	26802.97
552.326	26855.85
552.689	27034.83
553.053	27046.13
553.417	27131.09
553.78	27537.41
554.143	27426.23
554.507	27581.7
554.87	27598.88
555.234	27785.77
555.597	27853.79
555.96	27929.27
556.323	28069.37
556.686	28171.29
557.05	28594.33
557.413	28555.69
557.776	28583.49
558.139	28745.06
558.502	28837.04
558.865	28870.94
559.228	29084.72
559.59	29236.35
559.953	29273.19
560.316	29656
560.679	29613.97
561.041	29784.81
561.404	29953.39
561.767	30190.22
562.129	30177.57
562.492	30388.18
562.854	30528.29
563.217	30654.62
563.579	30638.12
563.941	31031.78
564.304	31045.12
564.666	31107.94
565.028	31234.94
565.39	31518.55
565.753	31537.08
566.115	31544.54
566.477	31761.48
566.839	31813.68
567.201	32109.49
567.563	32162.83
567.925	32580.67
568.287	32531.86
568.648	32436.72
569.01	32702.7
569.372	32898.4
569.734	32805.75
570.095	33269.46
570.457	33215.68
570.819	33303.36
571.18	33289.12
571.542	33497.25
571.903	33517.14
572.265	33657.25
572.626	33840.07
572.987	33980.63
573.349	33999.61
573.71	34258.14
574.071	34283.22
574.432	34372.03
574.794	34643.44
575.155	34532.71
575.516	34460.39
575.877	34708.97
576.238	34844.79
576.599	34769.99
576.96	34886.14
577.32	34947.61
577.681	35059.02
578.042	35218.34
578.403	35297.89
578.763	35331.33
579.124	35367.26
579.485	35486.36
579.845	35555.51
580.206	35538.56
580.566	35560.25
580.927	35539.91
581.287	35652.9
581.648	35503.98
582.008	35689.97
582.368	35532.91
582.728	35688.16
583.089	35786.01
583.449	35742.39
583.809	35941.03
584.169	35932.22
584.529	35815.84
584.889	36012.89
585.249	35896.97
585.609	35974.7
585.969	36102.84
586.329	35891.32
586.688	36039.33
587.048	35948.04
587.408	35800.92
587.768	36023.29
588.127	35923.86
588.487	35935.83
588.846	36194.36
589.206	35925.67
589.565	36015.83
589.925	36115.04
590.284	36065.1
590.643	36070.07
591.003	36269.84
591.362	36330.85
591.721	36205.66
592.08	36300.12
592.44	36376.05
592.799	36468.48
593.158	36280.91
593.517	36339.44
593.876	36447.69
594.235	36415.37
594.593	36407.01
594.952	36554.58
595.311	36347.35
595.67	36564.97
596.029	36729.49
596.387	36621.92
596.746	36701.46
597.104	36512.32
597.463	36603.16
597.822	36715.48
598.18	36549.6
598.538	36618.98
598.897	36745.76
599.255	36562.94
599.613	37025.3
599.972	36846.77
600.33	37020.78
600.688	36847
601.046	36945.53
601.404	37089.48
601.762	37018.97
602.12	37092.87
602.478	37170.15
602.836	37091.06
603.194	37058.97
603.552	37117.72
603.91	37024.85
604.268	37364.95
604.625	37065.97
604.983	37218.96
605.341	37213.99
605.698	37451.05
606.056	37351.84
606.413	37365.18
606.771	37499.41
607.128	37570.59
607.485	37398.62
607.843	37566.98
608.2	37675.68
608.557	37572.4
608.914	37589.12
609.272	37708.22
609.629	37806.07
609.986	37944.6
610.343	37654.21
610.7	38179.84
611.057	38032.73
611.414	37938.27
611.771	37973.75
612.127	38295.32
612.484	38126.96
612.841	38234.98
613.198	38149.34
613.554	38244.7
613.911	38328.77
614.267	38351.59
614.624	38378.48
614.98	38523.56
615.337	38623.45
615.693	38523.79
616.05	38460.06
616.406	38763.33
616.762	38523.56
617.118	38570.57
617.475	38590
617.831	38654.86
618.187	38728.08
618.543	38614.86
618.899	38945.7
619.255	38729.89
619.611	38854.85
619.967	38930.33
620.323	39095.53
620.678	38883.33
621.034	38844.46
621.39	38796.78
621.746	38858.24
622.101	39339.14
622.457	38880.16
622.812	39088.07
623.168	39173.72
623.523	39046.71
623.879	39155.64
624.234	38838.81
624.589	39085.13
624.945	38992.03
625.3	39034.51
625.655	38877.23
626.01	39035.41
626.365	38928.52
626.72	39005.13
627.075	39030.67
627.43	38929.88
627.785	38890.56
628.14	38914.06
628.495	38923.55
628.85	38938.47
629.205	38800.62
629.559	39087.39
629.914	38780.51
630.269	38972.59
630.623	38809.88
630.978	38676.78
631.332	38852.82
631.687	38839.26
632.041	38562.43
632.396	38835.42
632.75	38538.93
633.104	38601.75
633.459	38559.72
633.813	38437.24
634.167	38390.46
634.521	38486.05
634.875	38333.96
635.229	38373.06
635.583	38225.04
635.937	38297.58
636.291	38160.64
636.645	38292.61
636.999	38143.91
637.352	38281.54
637.706	38011.71
638.06	38082.22
638.413	38015.1
638.767	37896.01
639.121	37910.25
639.474	37687.88
639.828	37759.29
640.181	37702.57
640.534	37878.38
640.888	37647.2
641.241	37510.71
641.594	37558.62
641.947	37600.88
642.301	37421.67
642.654	37579.18
643.007	37516.81
643.36	37461.22
643.713	37362.24
644.066	37476.81
644.419	37259.19
644.771	36795.25
645.124	36446.1
645.477	36297.86
645.83	36233.23
646.182	36266.67
646.535	36153.91
646.888	36351.19
647.24	36040.46
647.593	36320.91
647.945	36229.16
648.298	35955.72
648.65	35970.41
649.002	35858.1
649.355	35994.14
649.707	35888.38
650.059	35915.27
650.411	36164.08
650.763	36209.95
651.115	36767
651.467	36569.26
651.819	36751.63
652.171	36547.57
652.523	36423.96
652.875	36470.51
653.227	36175.6
653.578	36472.32
653.93	36339.21
654.282	36228.71
654.633	36204.98
654.985	36267.58
655.337	36236.84
655.688	36203.17
656.039	36239.56
656.391	35898.77
656.742	35986.68
657.094	35900.36
657.445	36214.7
657.796	36076.4
658.147	35842.05
658.498	35898.77
658.849	36074.14
659.2	35906.46
659.551	35842.73
659.902	35944.42
660.253	35957.08
660.604	35918.43
660.955	35817.65
661.306	35767.93
661.656	35813.35
662.007	35725.22
662.358	35768.16
662.708	35719.8
663.059	35750.3
663.409	35482.29
663.76	35706.01
664.11	35788.27
664.461	35836.63
664.811	35660.59
665.161	35804.54
665.511	35672.79
665.862	35744.43
666.212	35681.6
666.562	35715.05
666.912	35636.63
667.262	35480.48
667.612	35524.77
667.962	35493.59
668.312	35328.85
668.662	35581.04
669.011	35408.39
669.361	35405.23
669.711	35365.91
670.06	35437.77
670.41	35302.86
670.76	35207.72
671.109	35321.61
671.459	35322.07
671.808	35287.49
672.157	35261.73
672.507	35108.29
672.856	35021.28
673.205	35106.03
673.554	35288.62
673.904	34993.26
674.253	35158
674.602	35217.21
674.951	34714.85
675.3	34512.82
675.649	35057.21
675.998	35043.65
676.346	34871.46
676.695	35131.34
677.044	34861.74
677.393	34933.6
677.741	35003.66
678.09	34902.64
678.438	34607.73
678.787	34824.23
679.135	34834.85
679.484	34514.86
679.832	34719.14
680.181	34459.49
680.529	34543.55
680.877	34452.48
681.225	34511.47
681.573	34732.93
681.922	34447.29
682.27	34300.85
682.618	34335.65
682.966	34102.21
683.314	34386.27
683.661	34092.27
684.009	34120.74
684.357	33907.19
684.705	33912.84
685.053	33804.37
685.4	33864.93
685.748	33735.21
686.095	33649.12
686.443	33661.77
686.79	33544.71
687.138	33547.2
687.485	33570.25
687.832	33427.43
688.18	33350.14
688.527	33248.22
688.874	33198.05
689.221	33173.2
689.568	33010.26
689.915	33033.54
690.262	33014.1
690.609	32891.85
690.956	32797.61
691.303	32772.98
691.65	32701.34
691.997	32618.18
692.344	32421.12
692.69	32459.54
693.037	32481.91
693.383	32102.49
693.73	32450.73
694.077	32161.02
694.423	32077.86
694.769	32045.32
695.116	31987.92
695.462	31750.63
695.808	31770.75
696.155	31756.96
696.501	31432.9
696.847	31543.63
697.193	31290.99
697.539	31320.14
697.885	31180.48
698.231	31230.2
698.577	31142.06
698.923	30921.28
699.269	30868.85
699.614	30683.77
699.96	30593.15
700.306	30755.63
700.651	30609.42
700.997	30539.14
701.342	30537.56
701.688	30361.97
702.033	30292.14
702.379	30217.79
702.724	30123.33
703.069	30228.64
703.415	29897.12
703.76	29852.6
704.105	29952.94
704.45	29823
704.795	29649.22
705.14	29597.02
705.485	29548.21
705.83	29495.78
706.175	29561.99
706.52	29419.85
706.865	29378.72
707.209	29225.28
707.554	29018.28
707.899	29103.47
708.243	29136.92
708.588	29103.47
708.932	28840.88
709.277	28823.25
709.621	28868
709.966	28657.83
710.31	28697.38
710.654	28543.94
710.998	28625.29
711.342	28521.57
711.687	28304.17
712.031	28292.42
712.375	28150.5
712.719	28319.31
713.063	28128.36
713.407	28229.37
713.75	27939.66
714.094	28041.58
714.438	27888.36
714.782	27940.34
715.125	27740.34
715.469	27881.13
715.812	27694.7
716.156	27507.13
716.499	27499.67
716.843	27604.98
717.186	27408.38
717.53	27477.07
717.873	27483.63
718.216	27400.69
718.559	27316.17
718.902	27066.24
719.246	27271.2
719.589	27055.62
719.932	27030.53
720.275	27047.48
720.617	26857.43
720.96	26898.78
721.303	26856.53
721.646	26843.87
721.989	26596.42
722.331	26777.21
722.674	26625.35
723.016	26728.17
723.359	26538.57
723.701	26728.62
724.044	26330.44
724.386	26331.57
724.729	26460.83
725.071	26372.02
725.413	26252.02
725.755	26263.09
726.097	26099.94
726.439	26025.13
726.782	26027.85
727.124	26150.33
727.465	26013.16
727.807	25957.11
728.149	25937.45
728.491	25927.06
728.833	25880.05
729.175	25786.27
729.516	25690.45
729.858	25753.5
730.199	25773.39
730.541	25762.09
730.882	25719.38
731.224	25772.94
731.565	25584.24
731.906	25480.74
732.248	25400.07
732.589	25337.92
732.93	25253.86
733.271	25395.09
733.612	25184.71
733.953	25311.71
734.294	25307.87
734.635	25196.68
734.976	25246.4
735.317	25148.77
735.658	25084.82
735.999	25091.37
736.339	25071.94
736.68	25043.01
737.021	24939.06
737.361	24800.99
737.702	24999.63
738.042	24778.61
738.383	24831.95
738.723	24753.08
739.063	24754.21
739.404	24810.93
739.744	24603.93
740.084	24543.82
740.424	24708.79
740.764	24556.02
741.104	24659.97
741.444	24456.14
741.784	24411.84
742.124	24411.17
742.464	24378.17
742.804	24268.12
743.143	24240.32
743.483	24194.9
743.823	24104.06
744.162	24115.58
744.502	24158.29
744.841	24044.62
745.181	24062.02
745.52	23932.31
745.86	23907.22
746.199	23944.29
746.538	23910.16
746.877	23839.88
747.216	23814.35
747.556	23660
747.895	23810.73
748.234	23627.23
748.573	23648.02
748.911	23593.33
749.25	23541.36
749.589	23450.74
749.928	23466.11
750.267	23511.08
750.605	23222.72
750.944	23221.59
751.283	23159.45
751.621	23288.26
751.96	23164.42
752.298	23064.76
752.636	23141.59
752.975	22988.15
753.313	23011.2
753.651	23031.77
