Data from plate_porcelain_FLMS001491_071.txt Node
Date: Tue Feb 07 11:19:51 GMT 2017
User: dcchb
Spectrometer: FLMS00149
Trigger mode: 0
Integration Time (sec): 2.000000E-2
Scans to average: 10
Electric dark correction enabled: true
Nonlinearity correction enabled: false
Boxcar width: 0
XAxis mode: Wavelengths
Number of Pixels in Spectrum: 2048
>>>>>Begin Spectral Data<<<<<
341.393	-14.05
341.776	-14.05
342.16	-14.05
342.543	-58.8
342.927	-77.33
343.31	-71.9
343.693	-70.55
344.077	-68.29
344.46	-55.63
344.843	-39.14
345.226	-46.14
345.61	-49.98
345.993	2.67
346.376	-7.27
346.759	0.18
347.142	24.14
347.525	40.41
347.908	60.52
348.291	69.33
348.674	107.53
349.057	104.14
349.44	128.77
349.823	142.55
350.206	165.6
350.588	252.38
350.971	276.56
351.354	263
351.737	299.16
352.119	286.05
352.502	314.53
352.884	346.16
353.267	329.21
353.65	346.62
354.032	349.1
354.414	360.85
354.797	337.12
355.179	371.47
355.562	388.42
355.944	413.73
356.326	380.74
356.709	380.06
357.091	377.12
357.473	400.63
357.855	412.38
358.238	396.56
358.62	390.91
359.002	403.79
359.384	430.91
359.766	424.13
360.148	411.02
360.53	421.64
360.912	403.56
361.294	396.33
361.676	400.17
362.057	408.08
362.439	404.69
362.821	415.77
363.203	396.33
363.584	413.73
363.966	418.03
364.348	411.02
364.729	408.76
365.111	395.2
365.493	389.55
365.874	416.22
366.256	402.43
366.637	428.42
367.019	413.28
367.4	413.05
367.781	424.81
368.163	411.92
368.544	422.55
368.925	421.42
369.306	435.43
369.688	418.7
370.069	429.1
370.45	423
370.831	445.37
371.212	456.22
371.593	432.49
371.974	438.82
372.355	424.81
372.736	427.29
373.117	444.69
373.498	441.3
373.879	455.31
374.26	433.17
374.641	439.72
375.021	451.02
375.402	455.76
375.783	479.27
376.163	504.35
376.544	491.7
376.925	477.69
377.305	488.76
377.686	498.93
378.066	505.93
378.447	497.57
378.827	508.19
379.208	510.23
379.588	496.67
379.968	508.42
380.349	529.89
380.729	520.4
381.109	518.59
381.489	538.25
381.87	538.02
382.25	562.2
382.63	544.8
383.01	559.72
383.39	546.61
383.77	557.68
384.15	573.28
384.53	597
384.91	589.55
385.29	595.42
385.67	605.82
386.049	620.96
386.429	609.89
386.809	643.33
387.189	624.35
387.568	645.59
387.948	654.86
388.328	648.3
388.707	649.21
389.087	670.9
389.466	664.57
389.846	676.78
390.225	681.07
390.605	696.66
390.984	678.58
391.363	708.64
391.743	722.88
392.122	723.78
392.501	736.21
392.881	756.77
393.26	762.65
393.639	778.24
394.018	752.25
394.397	773.95
394.776	773.27
395.155	793.61
395.534	770.78
395.913	814.85
396.292	806.49
396.671	833.83
397.05	840.16
397.429	854.4
397.808	855.08
398.186	859.6
398.565	868.86
398.944	869.54
399.323	851.46
399.701	902.98
400.08	906.6
400.458	917.9
400.837	945.92
401.215	937.33
401.594	948.18
401.972	951.35
402.351	973.04
402.729	997.45
403.107	996.54
403.486	985.02
403.864	1001.06
404.242	1023.21
404.62	1026.15
404.999	1057.33
405.377	1064.79
405.755	1108.63
406.133	1096.88
406.511	1092.36
406.889	1124
407.267	1126.26
407.645	1144.33
408.023	1143.66
408.401	1179.59
408.779	1204.9
409.156	1225.24
409.534	1265.01
409.912	1273.14
410.29	1279.02
410.667	1321.05
411.045	1297.1
411.422	1340.04
411.8	1364.67
412.178	1345.91
412.555	1386.14
412.933	1394.27
413.31	1425.23
413.687	1453.03
414.065	1488.05
414.442	1510.65
414.819	1511.78
415.197	1517.66
415.574	1570.99
415.951	1585.9
416.328	1573.02
416.705	1594.04
417.082	1591.78
417.46	1618.67
417.837	1643.3
418.214	1662.29
418.591	1688.95
418.967	1681.27
419.344	1713.81
419.721	1747.26
420.098	1757.43
420.475	1759.46
420.852	1806.46
421.228	1821.15
421.605	1806.69
421.982	1844.43
422.358	1880.81
422.735	1910.87
423.111	1901.83
423.488	1941.83
423.864	1978.89
424.241	1999.45
424.617	2016.4
424.994	2022.96
425.37	2041.49
425.746	2065.44
426.123	2096.17
426.499	2104.31
426.875	2136.62
427.251	2204.19
427.627	2226.34
428.003	2250.29
428.379	2288.94
428.756	2318.09
429.132	2333.91
429.507	2343.85
429.883	2434.02
430.259	2478.54
430.635	2453.68
431.011	2484.19
431.387	2577.07
431.763	2592.88
432.138	2623.39
432.514	2708.59
432.89	2680.11
433.265	2717.85
433.641	2737.51
434.016	2784.29
434.392	2847.79
434.767	2905.64
435.143	2932.99
435.518	2952.65
435.894	2978.41
436.269	3024.28
436.644	3106.99
437.02	3119.42
437.395	3109.48
437.77	3172.98
438.145	3220.89
438.52	3224.28
438.895	3254.11
439.271	3254.11
439.646	3365.74
440.021	3382.92
440.395	3377.95
440.77	3396.93
441.145	3435.35
441.52	3481.9
441.895	3484.16
442.27	3557.15
442.645	3539.98
443.019	3653.19
443.394	3651.84
443.769	3698.39
444.143	3639.64
444.518	3719.63
444.892	3731.16
445.267	3736.36
445.641	3810.25
446.016	3828.11
446.39	3835.11
446.764	3890.02
447.139	3899.29
447.513	3906.97
447.887	3936.58
448.262	3978.61
448.636	3998.5
449.01	4079.85
449.384	4110.58
449.758	4118.27
450.132	4196.01
450.506	4230.58
450.88	4263.12
451.254	4306.29
451.628	4360.75
452.002	4396.45
452.376	4428.77
452.75	4478.94
453.123	4471.93
453.497	4623.56
453.871	4618.37
454.244	4715.54
454.618	4748.99
454.992	4861.52
455.365	4772.94
455.739	4991.92
456.112	5042.54
456.486	5108.3
456.859	5120.5
457.232	5235.98
457.606	5202.53
457.979	5341.74
458.352	5472.36
458.725	5473.94
459.099	5492.92
459.472	5596.19
459.845	5693.82
460.218	5766.59
460.591	5846.58
460.964	5800.26
461.337	5979.91
461.71	6108.27
462.083	6156.41
462.456	6134.94
462.829	6223.75
463.201	6281.37
463.574	6369.06
463.947	6488.15
464.32	6611.99
464.692	6659.67
465.065	6767.92
465.438	6800.68
465.81	6936.5
466.183	7016.95
466.555	7170.39
466.928	7179.66
467.3	7213.1
467.672	7326.77
468.045	7581.91
468.417	7588.23
468.789	7608.8
469.161	7790.26
469.534	7865.51
469.906	8101.44
470.278	8140.31
470.65	8201.32
471.022	8399.96
471.394	8545.04
471.766	8606.74
472.138	8726.06
472.51	8865.04
472.882	9069.1
473.253	9163.56
473.625	9305.7
473.997	9484.68
474.369	9558.12
474.74	9658.01
475.112	9851
475.484	10074.27
475.855	10188.16
476.227	10392.9
476.598	10569.17
476.97	10729.17
477.341	10967.35
477.713	11104.07
478.084	11194.24
478.455	11514.91
478.827	11553.1
479.198	12009.81
479.569	11999.87
479.94	12307.43
480.311	12446.41
480.682	12750.81
481.053	13033.29
481.424	13263.34
481.795	13329.32
482.166	13538.36
482.537	13733.83
482.908	14010.66
483.279	14207.27
483.65	14399.13
484.021	14740.81
484.391	14877.31
484.762	15068.04
485.133	15156.17
485.503	15507.8
485.874	15788.24
486.244	15910.05
486.615	16230.27
486.985	16435.46
487.356	16755.45
487.726	16907.54
488.097	17254.65
488.467	17331.93
488.837	17653.5
489.207	17952.03
489.578	18222.53
489.948	18441.96
490.318	18683.08
490.688	18757.88
491.058	19001.72
491.428	19278.09
491.798	19463.4
492.168	19958.98
492.538	19988.36
492.908	20228.13
493.278	20544.05
493.648	20534.11
494.017	20827.21
494.387	21011.38
494.757	21220.42
495.126	21386.97
495.496	21516.45
495.866	21591.93
496.235	22041.64
496.605	22128.87
496.974	22312.37
497.344	22482.08
497.713	22612.92
498.082	22856.98
498.452	23242.51
498.821	23254.71
499.19	23315.73
499.559	23528.6
499.928	23602.5
500.298	23871.87
500.667	24150.51
501.036	24156.61
501.405	24443.38
501.774	24484.96
502.143	24778.29
502.512	24888.79
502.88	25063.48
503.249	25137.6
503.618	25430.93
503.987	25419.85
504.356	25782.1
504.724	25816.68
505.093	25910.69
505.462	26185.26
505.83	26276.33
506.199	26560.16
506.567	26872.7
506.936	26798.35
507.304	27192.46
507.672	27335.28
508.041	27497.77
508.409	27631.1
508.777	27861.37
509.145	28049.39
509.514	28255.71
509.882	28379.32
510.25	28499.77
510.618	28827.9
510.986	28861.57
511.354	29197.38
511.722	29471.95
512.09	29689.35
512.458	29672.4
512.826	29911.71
513.193	30021.32
513.561	30243.68
513.929	30557.8
514.297	30891.35
514.664	31082.98
515.032	31302.64
515.4	31496.53
515.767	31694.27
516.135	31948.72
516.502	31667.15
516.869	32351.2
517.237	32446.34
517.604	32311.88
517.972	32861.47
518.339	33119.76
518.706	33243.83
519.073	33331.06
519.44	33682.46
519.808	34075.9
520.175	34150.25
520.542	34660.74
520.909	34743.45
521.276	34773.05
521.643	35277.67
522.009	35435.64
522.376	35736.87
522.743	35893.7
523.11	36291.43
523.477	36713.12
523.843	36906.33
524.21	37248.92
524.577	37522.81
524.943	37593.32
525.31	37763.48
525.676	38215.68
526.043	38534.99
526.409	38588.32
526.776	39120.74
527.142	39331.35
527.508	39453.38
527.874	39737.22
528.241	40107.6
528.607	40023.09
528.973	40594.6
529.339	40643.86
529.705	40933.12
530.071	41241.13
530.437	41401.13
530.803	41762.48
531.169	41992.3
531.535	41992.07
531.901	42120.21
532.267	42358.39
532.632	42719.96
532.998	42787.99
533.364	43067.98
533.73	43304.13
534.095	43461.19
534.461	43644.46
534.826	43866.15
535.192	43972.59
535.557	44489.64
535.923	44314.72
536.288	44480.82
536.653	44737.09
537.019	44711.55
537.384	44925.56
537.749	45135.72
538.114	45177.75
538.479	45399.22
538.845	45632.2
539.21	45552.66
539.575	45747.68
539.94	45891.41
540.305	46181.79
540.67	46157.16
541.034	46330.72
541.399	46548.79
541.764	46635.34
542.129	46702.23
542.494	46909.68
542.858	47067.42
543.223	47085.05
543.587	47473.51
543.952	47387.86
544.316	47586.28
544.681	47635.99
545.045	47801.64
545.41	48022.2
545.774	48019.03
546.138	48188.75
546.503	48328.63
546.867	48305.81
547.231	48680.49
547.595	48758.45
547.959	48963.42
548.324	48964.09
548.688	49081.6
549.052	49192.34
549.416	49358.66
549.779	49337.87
550.143	49541.25
550.507	49817.18
550.871	49917.74
551.235	49907.8
551.599	50203.61
551.962	50238.18
552.326	50209.71
552.689	50598.63
553.053	50485.18
553.417	50638.4
553.78	50986.41
554.143	50869.81
554.507	51063.93
554.87	51266.18
555.234	51654.64
555.597	51507.76
555.96	51609.9
556.323	51822.1
556.686	51867.07
557.05	52119.94
557.413	52152.71
557.776	52237.68
558.139	52496.66
558.502	52502.31
558.865	52607.39
559.228	52789.53
559.59	52887.61
559.953	52979.81
560.316	53287.14
560.679	53347.71
561.041	53465.44
561.404	53610.07
561.767	53826.79
562.129	53709.28
562.492	54028.14
562.854	54103.39
563.217	54188.14
563.579	54332.99
563.941	54529.37
564.304	54612.98
564.666	54836.03
565.028	54807.78
565.39	54961.9
565.753	55055.23
566.115	55166.64
566.477	55320.31
566.839	55372.96
567.201	55589.91
567.563	55572.96
567.925	55819.96
568.287	55882.33
568.648	55887.75
569.01	55997.36
569.372	56246.39
569.734	56152.15
570.095	56363
570.457	56488.87
570.819	56527.28
571.18	56501.75
571.542	56727.28
571.903	56666.72
572.265	56873.04
572.626	56856.77
572.987	56934.96
573.349	57012.7
573.71	57050.66
574.071	57204.78
574.432	57248.62
574.794	57464.21
575.155	57379.01
575.516	57339.47
575.877	57482.29
576.238	57509.41
576.599	57668.72
576.96	57644.77
577.32	57682.28
577.681	57756.63
578.042	57812.22
578.403	57926.8
578.763	57941.03
579.124	57996.17
579.485	58025.78
579.845	58054.25
580.206	58022.16
580.566	58028.94
580.927	58028.04
581.287	58203.17
581.648	58116.4
582.008	58257.86
582.368	58165.21
582.728	58248.82
583.089	58214.7
583.449	58189.61
583.809	58208.14
584.169	58326.79
584.529	58287.46
584.889	58431.64
585.249	58342.6
585.609	58176.28
585.969	58393.22
586.329	58270.97
586.688	58398.42
587.048	58397.97
587.408	58373.11
587.768	58323.17
588.127	58314.13
588.487	58276.84
588.846	58426.44
589.206	58240.01
589.565	58317.75
589.925	58483.62
590.284	58421.47
590.643	58480.23
591.003	58467.8
591.362	58508.25
591.721	58462.15
592.08	58532.66
592.44	58541.02
592.799	58604.29
593.158	58448.14
593.517	58438.65
593.876	58497.4
594.235	58475.93
594.593	58531.98
594.952	58620.11
595.311	58496.05
595.67	58576.27
596.029	58660.34
596.387	58705.76
596.746	58652.2
597.104	58583.73
597.463	58637.74
597.822	58697.85
598.18	58718.64
598.538	58693.78
598.897	58855.81
599.255	58653.33
599.613	58996.37
599.972	58749.37
600.33	58845.19
600.688	58809.94
601.046	58864.85
601.404	58955.92
601.762	58956.83
602.12	58986.66
602.478	59053.55
602.836	59039.99
603.194	58904.4
603.552	58953.44
603.91	58872.53
604.268	59090.38
604.625	59039.76
604.983	59168.8
605.341	58999.76
605.698	59181.23
606.056	59194.56
606.413	59191.17
606.771	59252.86
607.128	59279.53
607.485	59205.41
607.843	59239.76
608.2	59302.58
608.557	59345.97
608.914	59334.67
609.272	59503.93
609.629	59475.91
609.986	59507.32
610.343	59392.75
610.7	59603.81
611.057	59512.97
611.414	59502.8
611.771	59480.2
612.127	59617.6
612.484	59636.81
612.841	59708.9
613.198	59667.77
613.554	59698.27
613.911	59852.85
614.267	59728.78
614.624	59752.28
614.98	59865.5
615.337	59959.29
615.693	59941.43
616.05	59884.03
616.406	59938.72
616.762	59948.66
617.118	59963.35
617.475	59919.51
617.831	59970.81
618.187	59988.44
618.543	60006.52
618.899	60170.8
619.255	60147.75
619.611	60063.24
619.967	60182.56
620.323	60213.29
620.678	60100.52
621.034	60040.41
621.39	60092.39
621.746	60047.42
622.101	60386.62
622.457	60114.31
622.812	60184.59
623.168	60202.67
623.523	60192.5
623.879	60300.29
624.234	60129.68
624.589	60242.44
624.945	60209.67
625.3	60210.58
625.655	60116.34
626.01	60219.62
626.365	60232.72
626.72	60202.44
627.075	60174.87
627.43	60150.92
627.785	60112.28
628.14	60110.02
628.495	60188.88
628.85	60065.04
629.205	60031.6
629.559	60124.25
629.914	60049
630.269	60142.33
630.623	60042.9
630.978	59925.16
631.332	60006.06
631.687	60008.78
632.041	59953.41
632.396	59952.96
632.75	59871.6
633.104	59933.75
633.459	59797.26
633.813	59750.25
634.167	59864.6
634.521	59807.88
634.875	59787.76
635.229	59724.04
635.583	59656.47
635.937	59626.19
636.291	59568.11
636.645	59615.34
636.999	59537.6
637.352	59567.66
637.706	59415.57
638.06	59542.8
638.413	59462.35
638.767	59494.44
639.121	59505.51
639.474	59243.82
639.828	59256.93
640.181	59305.74
640.534	59307.1
640.888	59229.81
641.241	59154.79
641.594	59171.96
641.947	59202.47
642.301	59129.48
642.654	59119.31
643.007	59142.81
643.36	59084.05
643.713	59046.31
644.066	59070.49
644.419	58957.05
644.771	58840.9
645.124	58585.99
645.477	58491.53
645.83	58322.27
646.182	58190.07
646.535	58176.28
646.888	58234.13
647.24	58057.87
647.593	58212.44
647.945	58181.48
648.298	58034.14
648.65	57974.48
649.002	57798.21
649.355	57990.3
649.707	57873.92
650.059	57989.39
650.411	58357.07
650.763	58301.7
651.115	58539.66
651.467	58440.68
651.819	58402.94
652.171	58395.71
652.523	58343.06
652.875	58274.58
653.227	58162.95
653.578	58339.44
653.93	58239.78
654.282	58152.78
654.633	58082.05
654.985	58154.13
655.337	58068.04
655.688	58143.74
656.039	58212.44
656.391	57979.68
656.742	58023.74
657.094	58080.69
657.445	58141.03
657.796	58183.29
658.147	58026.68
658.498	58002.73
658.849	58016.74
659.2	57982.61
659.551	57882.73
659.902	58007.7
660.253	57985.78
660.604	57923.86
660.955	57800.02
661.306	57983.07
661.656	57894.48
662.007	57854.03
662.358	57860.81
662.708	57845.89
663.059	57812.9
663.409	57659.23
663.76	57752.11
664.11	57695.84
664.461	57783.97
664.811	57823.75
665.161	57715.05
665.511	57650.42
665.862	57715.28
666.212	57801.83
666.562	57792.11
666.912	57761.83
667.262	57690.87
667.612	57635.05
667.962	57737.2
668.312	57659.46
668.662	57774.94
669.011	57647.26
669.361	57587.14
669.711	57619.46
670.06	57582.4
670.41	57563.42
670.76	57545.56
671.109	57587.6
671.459	57514.6
671.808	57490.88
672.157	57542.4
672.507	57369.07
672.856	57365.91
673.205	57413.36
673.554	57544.66
673.904	57435.28
674.253	57516.86
674.602	57406.81
674.951	57031.45
675.3	56927.05
675.649	57380.82
675.998	57249.3
676.346	57287.72
676.695	57315.96
677.044	57158.23
677.393	57349.86
677.741	57265.57
678.09	57252.92
678.438	57195.06
678.787	57178.79
679.135	57166.82
679.484	57060.6
679.832	57209.3
680.181	56939.48
680.529	57060.38
680.877	56922.98
681.225	56921.17
681.573	56987.16
681.922	56932.25
682.27	56730.67
682.618	56724.12
682.966	56709.43
683.314	56676.66
683.661	56641.18
684.009	56489.77
684.357	56425.82
684.705	56402.32
685.053	56429.43
685.4	56331.81
685.748	56268.53
686.095	56198.48
686.443	56166.62
686.79	56051.59
687.138	56129.33
687.485	56137.92
687.832	56069.44
688.18	56062.89
688.527	55924.14
688.874	55822.44
689.221	55757.14
689.568	55683.69
689.915	55603.69
690.262	55619.74
690.609	55533.41
690.956	55406.64
691.303	55449.12
691.65	55177.72
691.997	55331.84
692.344	55136.81
692.69	55117.38
693.037	55161.45
693.383	54941.79
693.73	55009.13
694.077	54778.86
694.423	54833.77
694.769	54711.74
695.116	54675.81
695.462	54576.83
695.808	54498.41
696.155	54616.83
696.501	54349.94
696.847	54448.02
697.193	54038.76
697.539	54246.67
697.885	54005.77
698.231	53929.61
698.577	53984.07
698.923	53927.81
699.269	53665.44
699.614	53584.76
699.96	53514.03
700.306	53522.39
700.651	53420.47
700.997	53275.17
701.342	53234.49
701.688	53280.14
702.033	53103.19
702.379	53053.03
702.724	52976.64
703.069	53041.95
703.415	52734.84
703.76	52726.48
704.105	52622.75
704.45	52603.09
704.795	52432.48
705.14	52228.87
705.485	52313.84
705.83	52219.38
706.175	52230.45
706.52	52061.64
706.865	51975.31
707.209	51961.76
707.554	51829.33
707.899	51800.4
708.243	51728.54
708.588	51755.21
708.932	51473.41
709.277	51461.88
709.621	51493.07
709.966	51334.43
710.31	51328.55
710.654	50997.26
710.998	51095.11
711.342	51049.69
711.687	50932.18
712.031	50750.94
712.375	50697.61
712.719	50753.65
713.063	50710.94
713.407	50655.57
713.75	50536.26
714.094	50603.82
714.438	50449.7
714.782	50367.22
715.125	50315.02
715.469	50239.09
715.812	50089.94
716.156	49871.64
716.499	49874.58
716.843	49791.64
717.186	49684.07
717.53	49805.43
717.873	49775.37
718.216	49640.23
718.559	49614.25
718.902	49379.9
719.246	49508.26
719.589	49306.91
719.932	49207.25
720.275	49160.25
720.617	49092.23
720.96	49051.32
721.303	48989.86
721.646	48997.09
721.989	48798.9
722.331	48825.34
722.674	48724.55
723.016	48773.82
723.359	48535.4
723.701	48577.66
724.044	48295.41
724.386	48162.76
724.729	48367.05
725.071	48224.23
725.413	48179.93
725.755	48151.91
726.097	48029.88
726.439	47807.51
726.782	47796.22
727.124	47969.77
727.465	47634.86
727.807	47641.64
728.149	47539.05
728.491	47513.74
728.833	47614.98
729.175	47323.23
729.516	47428.99
729.858	47356.9
730.199	47307.19
730.541	47173.63
730.882	47197.13
731.224	47223.12
731.565	46816.13
731.906	46967.99
732.248	47030.59
732.589	46806.64
732.93	46696.58
733.271	46641.44
733.612	46663.59
733.953	46762.57
734.294	46460.2
734.635	46469.24
734.976	46492.75
735.317	46257.27
735.658	46195.35
735.999	46234.67
736.339	46162.81
736.68	46195.13
737.021	46034.68
737.361	45729.83
737.702	46081.68
738.042	45885.76
738.383	45759.88
738.723	45765.53
739.063	45666.55
739.404	45754.69
739.744	45631.3
740.084	45455.03
740.424	45499.1
740.764	45369.61
741.104	45483.73
741.444	45233.12
741.784	45005.78
742.124	45101.14
742.464	44996.74
742.804	44975.05
743.143	44962.39
743.483	44772.11
743.823	44708.39
744.162	44658.44
744.502	44647.6
744.841	44346.81
745.181	44544.78
745.52	44332.58
745.86	44381.39
746.199	44344.78
746.538	44369.86
746.877	44249.42
747.216	44095.07
747.556	43938.24
747.895	44009.87
748.234	43772.82
748.573	43706.61
748.911	43720.16
749.25	43778.24
749.589	43420.51
749.928	43620.96
750.267	43493.96
750.605	43348.42
750.944	43218.71
751.283	43026.17
751.621	43329.67
751.96	43133.51
752.298	42834.54
