Data from plate_ceramic_FLMS001491_098.txt Node
Date: Tue Feb 07 11:17:35 GMT 2017
User: dcchb
Spectrometer: FLMS00149
Trigger mode: 0
Integration Time (sec): 2.000000E-2
Scans to average: 10
Electric dark correction enabled: true
Nonlinearity correction enabled: false
Boxcar width: 0
XAxis mode: Wavelengths
Number of Pixels in Spectrum: 2048
>>>>>Begin Spectral Data<<<<<
341.393	-5.71
341.776	-5.71
342.16	-5.71
342.543	-60.39
342.927	-65.59
343.31	-59.04
343.693	-83.67
344.077	-81.86
344.46	-67.4
344.843	-36.67
345.226	-37.8
345.61	-31.92
345.993	-12.71
346.376	-17.46
346.759	11.02
347.142	22.54
347.525	34.52
347.908	62.09
348.291	79.94
348.674	105.48
349.057	112.93
349.44	112.48
349.823	135.08
350.206	166.27
350.588	232.93
350.971	229.32
351.354	227.51
351.737	262.99
352.119	260.28
352.502	274.51
352.884	288.3
353.267	312.03
353.65	319.03
354.032	315.87
354.414	336.88
354.797	317.9
355.179	331.01
355.562	338.69
355.944	355.41
356.326	334.62
356.709	368.07
357.091	345.02
357.473	374.62
357.855	397
358.238	355.19
358.62	359.03
359.002	362.42
359.384	365.58
359.766	376.43
360.148	377.33
360.53	336.66
360.912	350.44
361.294	366.71
361.676	366.04
362.057	367.84
362.439	356.77
362.821	383.44
363.203	371.46
363.584	366.49
363.966	369.88
364.348	351.8
364.729	353.15
365.111	361.74
365.493	340.5
365.874	360.61
366.256	357.67
366.637	357
367.019	350.67
367.4	359.71
367.781	345.47
368.163	349.31
368.544	352.7
368.925	380.72
369.306	348.86
369.688	353.83
370.069	382.08
370.45	370.56
370.831	382.98
371.212	369.2
371.593	362.19
371.974	361.97
372.355	358.58
372.736	392.25
373.117	391.8
373.498	360.84
373.879	374.85
374.26	344.34
374.641	357.67
375.021	375.07
375.402	382.08
375.783	375.07
376.163	401.74
376.544	410.55
376.925	403.55
377.305	393.38
377.686	391.12
378.066	398.58
378.447	385.7
378.827	415.07
379.208	446.49
379.588	411.23
379.968	416.2
380.349	418.92
380.729	404
381.109	416.66
381.489	419.59
381.87	438.12
382.25	427.05
382.63	427.28
383.01	415.98
383.39	447.39
383.77	446.03
384.15	458.24
384.53	447.16
384.91	462.08
385.29	456.2
385.67	489.87
386.049	464.79
386.429	483.77
386.809	499.59
387.189	464.79
387.568	478.8
387.948	475.86
388.328	487.16
388.707	485.13
389.087	516.31
389.466	531.23
389.846	518.8
390.225	506.6
390.605	515.86
390.984	518.57
391.363	539.36
391.743	526.71
392.122	542.75
392.501	542.3
392.881	552.7
393.26	567.16
393.639	559.02
394.018	551.34
394.397	577.78
394.776	570.1
395.155	586.59
395.534	585.46
395.913	589.08
396.292	595.18
396.671	591.57
397.05	597.67
397.429	613.26
397.808	621.85
398.186	612.36
398.565	617.78
398.944	645.12
399.323	629.08
399.701	648.51
400.08	655.52
400.458	653.49
400.837	670.21
401.215	670.21
401.594	688.96
401.972	686.25
402.351	685.8
402.729	691
403.107	709.53
403.486	729.64
403.864	711.56
404.242	704.33
404.62	730.55
404.999	728.96
405.377	736.87
405.755	756.31
406.133	743.2
406.511	752.01
406.889	787.95
407.267	788.17
407.645	794.27
408.023	811
408.401	817.78
408.779	823.2
409.156	818.68
409.534	848.28
409.912	870.43
410.29	863.2
410.667	876.3
411.045	902.07
411.422	888.51
411.8	918.56
412.178	899.81
412.555	948.17
412.933	954.72
413.31	968.51
413.687	964.66
414.065	980.48
414.442	1002.85
414.819	989.3
415.197	1004.44
415.574	1017.32
415.951	1022.74
416.328	1053.7
416.705	1083.76
417.082	1069.07
417.46	1071.33
417.837	1082.85
418.214	1085.11
418.591	1112.23
418.967	1112.91
419.344	1133.25
419.721	1120.14
420.098	1129.86
420.475	1180.7
420.852	1184.32
421.228	1181.16
421.605	1211.44
421.982	1182.29
422.358	1208.73
422.735	1215.05
423.111	1249.18
423.488	1258.89
423.864	1253.92
424.241	1278.33
424.617	1309.06
424.994	1306.35
425.37	1294.37
425.746	1350.19
426.123	1359.23
426.499	1324.2
426.875	1361.72
427.251	1399.68
427.627	1426.8
428.003	1421.83
428.379	1474.71
428.756	1480.81
429.132	1498.89
429.507	1523.07
429.883	1535.04
430.259	1575.95
430.635	1573.46
431.011	1577.98
431.387	1626.79
431.763	1646.68
432.138	1636.28
432.514	1676.28
432.89	1689.16
433.265	1728.03
433.641	1721.93
434.016	1774.59
434.392	1774.59
434.767	1821.14
435.143	1836.28
435.518	1870.63
435.894	1859.1
436.269	1898.42
436.644	1921.02
437.02	1938.42
437.395	1924.41
437.77	1979.78
438.145	1978.42
438.52	2034.24
438.895	2046.9
439.271	2065.65
439.646	2073.11
440.021	2095.93
440.395	2107.23
440.77	2095.26
441.145	2114.46
441.52	2144.75
441.895	2175.03
442.27	2193.56
442.645	2186.33
443.019	2258.42
443.394	2250.73
443.769	2285.53
444.143	2226.1
444.518	2320.33
444.892	2295.93
445.267	2293.67
445.641	2356.04
446.016	2370.73
446.39	2384.51
446.764	2373.89
447.139	2381.8
447.513	2410.5
447.887	2414.57
448.262	2413.89
448.636	2461.12
449.01	2506.32
449.384	2559.2
449.758	2495.02
450.132	2557.62
450.506	2541.57
450.88	2589.93
451.254	2623.15
451.628	2641.23
452.002	2685.07
452.376	2679.65
452.75	2714.22
453.123	2745.41
453.497	2774.11
453.871	2807.33
454.244	2876.7
454.618	2870.15
454.992	2888.91
455.365	2912.41
455.739	2999.64
456.112	3020.66
456.486	3036.02
456.859	3048.68
457.232	3146.75
457.606	3141.56
457.979	3176.58
458.352	3288.44
458.725	3337.48
459.099	3338.39
459.472	3369.12
459.845	3386.52
460.218	3436.24
460.591	3472.62
460.964	3535.22
461.337	3552.84
461.71	3582.45
462.083	3676.01
462.456	3660.86
462.829	3734.99
463.201	3754.42
463.574	3761.43
463.947	3840.29
464.32	3921.65
464.692	3997.13
465.065	4002.55
465.438	4065.15
465.81	4101.98
466.183	4179.95
466.555	4252.04
466.928	4295.42
467.3	4310.56
467.672	4346.04
468.045	4459.94
468.417	4486.15
468.789	4504.91
469.161	4601.18
469.534	4681.63
469.906	4737.22
470.278	4789.42
470.65	4855.64
471.022	4938.57
471.394	5038.91
471.766	5099.02
472.138	5160.71
472.51	5243.42
472.882	5313.25
473.253	5401.16
473.625	5432.57
473.997	5635.73
474.369	5609.74
474.74	5656.29
475.112	5820.13
475.484	5907.36
475.855	5990.97
476.227	6072.78
476.598	6223.96
476.97	6295.37
477.341	6475.25
477.713	6515.48
478.084	6564.06
478.455	6756.38
478.827	6794.57
479.198	7014
479.569	7017.39
479.94	7230.04
480.311	7279.75
480.682	7417.6
481.053	7614.88
481.424	7702.57
481.795	7763.81
482.166	7935.1
482.537	8022.78
482.908	8255.32
483.279	8324.02
483.65	8489.21
484.021	8626.16
484.391	8717.68
484.762	8828.19
485.133	8885.13
485.503	9004.9
485.874	9215.75
486.244	9257.1
486.615	9436.31
486.985	9645.34
487.356	9802.62
487.726	9840.14
488.097	10062.96
488.467	10103.41
488.837	10287.13
489.207	10460.69
489.578	10617.52
489.948	10652.09
490.318	10838.98
490.688	10876.49
491.058	11028.35
491.428	11208.24
491.798	11275.35
492.168	11555.35
492.538	11612.97
492.908	11698.39
493.278	11886.86
493.648	11966.63
494.017	12156.01
494.387	12244.82
494.757	12354.42
495.126	12380.63
495.496	12541.76
495.866	12653.17
496.235	12760.06
496.605	12870.11
496.974	13012.26
497.344	13094.51
497.713	13164.8
498.082	13271.91
498.452	13397.33
498.821	13504
499.19	13531.79
499.559	13733.59
499.928	13791.22
500.298	13954.15
500.667	14052.91
501.036	14011.55
501.405	14161.83
501.774	14256.74
502.143	14444.76
502.512	14492.9
502.88	14625.32
503.249	14548.49
503.618	14826.9
503.987	14903.28
504.356	15020.57
504.724	15023.73
505.093	15104.18
505.462	15219.66
505.83	15301.01
506.199	15492.87
506.567	15654.45
506.936	15680.89
507.304	15860.54
507.672	15940.09
508.041	16028.45
508.409	16203.36
508.777	16310.93
509.145	16305.96
509.514	16421.21
509.882	16539.85
510.25	16675.66
510.618	16841.99
510.986	16874.98
511.354	17080.62
511.722	17274.74
512.09	17418.02
512.458	17352.71
512.826	17567.39
513.193	17716.54
513.561	17712.47
513.929	17893.26
514.297	18009.19
514.664	18176.87
515.032	18305.9
515.4	18543.64
515.767	18571.88
516.135	18679.45
516.502	18661.15
516.869	18914.7
517.237	19067.24
517.604	18993.57
517.972	19334.12
518.339	19422.03
518.706	19432.43
519.073	19556.94
519.44	19803.94
519.808	20045.97
520.175	20069.47
520.542	20380.65
520.909	20397.15
521.276	20428.33
521.643	20596.69
522.009	20892.73
522.376	20954.87
522.743	21092.27
523.11	21405.71
523.477	21539.72
523.843	21659.26
524.21	21919.82
524.577	22071
524.943	22256.99
525.31	22255.4
525.676	22503.76
526.043	22582.17
526.409	22682.96
526.776	23108.26
527.142	23193.23
527.508	23350.06
527.874	23477.29
528.241	23642.49
528.607	23735.59
528.973	23910.95
529.339	23986.43
529.705	24207.44
530.071	24522.69
530.437	24617.38
530.803	24740.54
531.169	24966.29
531.535	24872.74
531.901	24938.04
532.267	25033.86
532.632	25380.52
532.998	25415.77
533.364	25551.36
533.73	25634.52
534.095	25891.69
534.461	26026.15
534.826	26166.49
535.192	26258.01
535.557	26412.13
535.923	26387.95
536.288	26633.14
536.653	26681.5
537.019	26642.86
537.384	26822.97
537.749	26921.5
538.114	27046.46
538.479	27101.38
538.845	27275.16
539.21	27316.29
539.575	27443.97
539.94	27572.78
540.305	27629.05
540.67	27729.84
541.034	27948.81
541.399	28074.91
541.764	28086.21
542.129	28116.04
542.494	28285.3
542.858	28358.75
543.223	28494.11
543.587	28632.64
543.952	28736.59
544.316	28690.49
544.681	28823.82
545.045	28923.25
545.41	29176.35
545.774	29198.05
546.138	29362.56
546.503	29321.88
546.867	29594.19
547.231	29782.44
547.595	29743.57
547.959	29842.32
548.324	29849.78
548.688	29958.03
549.052	30095.2
549.416	30184.91
549.779	30231.01
550.143	30360.05
550.507	30581.74
550.871	30756.42
551.235	30822.18
551.599	30986.7
551.962	30978.79
552.326	31185.11
552.689	31366.58
553.053	31306.01
553.417	31322.28
553.78	31757.07
554.143	31699.22
554.507	31862.38
554.87	31925.43
555.234	32371.3
555.597	32101.92
555.96	32309.38
556.323	32521.8
556.686	32598.86
557.05	32741.68
557.413	32860.1
557.776	33044.27
558.139	33325.39
558.502	33338.5
558.865	33415.56
559.228	33796.12
559.59	33724.93
559.953	33803.12
560.316	34219.38
560.679	34209.67
561.041	34447.63
561.404	34582.09
561.767	34732.82
562.129	34693.04
562.492	35127.38
562.854	35232.92
563.217	35188.85
563.579	35441.5
563.941	35706.12
564.304	35817.53
564.666	36054.59
565.028	36156.73
565.39	36246.67
565.753	36459.55
566.115	36680.56
566.477	36643.05
566.839	36821.12
567.201	37042.13
567.563	37045.52
567.925	37210.72
568.287	37333.65
568.648	37429.47
569.01	37781.77
569.372	38069.9
569.734	37778.84
570.095	38112.16
570.457	38374.53
570.819	38357.8
571.18	38493.62
571.542	38699.72
571.903	38777
572.265	38931.12
572.626	38877.11
572.987	39041.85
573.349	39127.5
573.71	39373.15
574.071	39345.58
574.432	39475.29
574.794	39789.86
575.155	39764.1
575.516	39687.94
575.877	39877.99
576.238	39945.79
576.599	40158.44
576.96	40127.7
577.32	40158.66
577.681	40272.56
578.042	40468.71
578.403	40460.12
578.763	40484.53
579.124	40604.75
579.485	40701.25
579.845	40814.69
580.206	40755.71
580.566	40778.08
580.927	40863.73
581.287	40904.18
581.648	40812.88
582.008	40855.59
582.368	40889.26
582.728	40945.08
583.089	41028.24
583.449	41095.36
583.809	41025.53
584.169	41246.54
584.529	41041.8
584.889	41313.21
585.249	41121.8
585.609	41123.83
585.969	41402.24
586.329	41077.06
586.688	41280.89
587.048	41304.39
587.408	41149.14
587.768	41161.8
588.127	41188.69
588.487	41172.42
588.846	41578.96
589.206	41231.85
589.565	41252.42
589.925	41449.48
590.284	41401.11
590.643	41586.19
591.003	41455.8
591.362	41642.01
591.721	41526.31
592.08	41590.49
592.44	41694.67
592.799	41693.76
593.158	41566.53
593.517	41664.38
593.876	41600.88
594.235	41635.23
594.593	41758.85
594.952	41876.36
595.311	41640.43
595.67	41713.2
596.029	41789.81
596.387	41903.02
596.746	41923.59
597.104	41794.1
597.463	41942.57
597.822	42041.32
598.18	41805.85
598.538	41879.97
598.897	42085.84
599.255	41787.09
599.613	42372.61
599.972	42059.18
600.33	42241.54
600.688	42189.57
601.046	42254.43
601.404	42401.31
601.762	42251.94
602.12	42493.52
602.478	42455.55
602.836	42465.72
603.194	42303.92
603.552	42420.75
603.91	42284.48
604.268	42608.31
604.625	42615.32
604.983	42633.85
605.341	42545.72
605.698	42864.81
606.056	42869.55
606.413	42787.97
606.771	42895.09
607.128	42938.02
607.485	42775.09
607.843	42814.41
608.2	43006.27
608.557	43142.54
608.914	43024.12
609.272	43336.66
609.629	43186.38
609.986	43492.36
610.343	43260.95
610.7	43564.67
611.057	43315.87
611.414	43409.65
611.771	43435.86
612.127	43396.77
612.484	43542.75
612.841	43820.94
613.198	43588.85
613.554	43592.7
613.911	43805.35
614.267	43772.58
614.624	43671.79
614.98	43901.61
615.337	43993.36
615.693	43951.78
616.05	43992.23
616.406	44114.26
616.762	44003.53
617.118	43928.05
617.475	44038.79
617.831	44129.18
618.187	44101.83
618.543	44173.47
618.899	44514.93
619.255	44301.83
619.611	44244.43
619.967	44506.57
620.323	44531.2
620.678	44222.74
621.034	44371.88
621.39	44395.16
621.746	44352.22
622.101	44779.33
622.457	44514.71
622.812	44608.71
623.168	44608.04
623.523	44537.98
623.879	44547.47
624.234	44493.24
624.589	44514.03
624.945	44576.17
625.3	44548.6
625.655	44500.24
626.01	44532.11
626.365	44598.77
626.72	44594.03
627.075	44463.41
627.43	44509.28
627.785	44395.16
628.14	44507.25
628.495	44488.94
628.85	44469.96
629.205	44323.98
629.559	44566.46
629.914	44344.09
630.269	44317.42
630.623	44273.13
630.978	44219.12
631.332	44546.57
631.687	44275.39
632.041	44315.84
632.396	44150.87
632.75	44055.28
633.104	44086.47
633.459	43851.45
633.813	43819.36
634.167	44024.77
634.521	43912.91
634.875	44014.83
635.229	43795.18
635.583	43408.29
635.937	43697.55
636.291	43645.58
636.645	43519.7
636.999	43475.86
637.352	43505.24
637.706	43402.64
638.06	43490.78
638.413	43341.85
638.767	43288.75
639.121	43394.28
639.474	43107.28
639.828	43198.13
640.181	43209.65
640.534	43210.78
640.888	43018.02
641.241	42783.45
641.594	42928.76
641.947	43000.85
642.301	42865.94
642.654	42921.3
643.007	43042.2
643.36	42872.94
643.713	42795.88
644.066	42906.16
644.419	42507.3
644.771	42255.1
645.124	42048.1
645.477	41876.58
645.83	41686.31
646.182	41369.7
646.535	41466.65
646.888	41564.95
647.24	41331.51
647.593	41665.29
647.945	41461
648.298	41227.56
648.65	41122.03
649.002	40952.77
649.355	41073.44
649.707	41039.54
650.059	41176.71
650.411	41732.18
650.763	41628.23
651.115	42105.96
651.467	41907.99
651.819	41919.52
652.171	41819.18
652.523	41737.15
652.875	41626.87
653.227	41573.99
653.578	41777.83
653.93	41706.19
654.282	41492.86
654.633	41386.43
654.985	41520.21
655.337	41532.86
655.688	41507.33
656.039	41486.54
656.391	41233.89
656.742	41218.75
657.094	41302.13
657.445	41432.53
657.796	41249.03
658.147	41253.55
658.498	41122.03
658.849	41184.62
659.2	41150.73
659.551	41047
659.902	41115.7
660.253	41085.19
660.604	41073.67
660.955	40855.37
661.306	41084.74
661.656	41056.49
662.007	40855.82
662.358	40904.4
662.708	40854.91
663.059	40858.08
663.409	40698.99
663.76	40754.13
664.11	40836.38
664.461	40778.98
664.811	40905.76
665.161	40840.45
665.511	40692.88
665.862	40672.77
666.212	40832.99
666.562	40953.44
666.912	40779.44
667.262	40833.9
667.612	40735.6
667.962	40732.66
668.312	40704.64
668.662	40970.84
669.011	40653.56
669.361	40674.35
669.711	40678.42
670.06	40560.91
670.41	40442.5
670.76	40424.87
671.109	40416.06
671.459	40455.6
671.808	40249.51
672.157	40554.58
672.507	40410.63
672.856	40410.86
673.205	40317.98
673.554	40337.41
673.904	40197.3
674.253	40430.52
674.602	40363.4
674.951	39772.68
675.3	39474.84
675.649	40090.19
675.998	40073.24
676.346	39923.41
676.695	40108.49
677.044	39927.26
677.393	39929.06
677.741	40158.21
678.09	39936.29
678.438	39895.17
678.787	39933.81
679.135	39934.94
679.484	39773.59
679.832	39932.45
680.181	39584.44
680.529	39782.63
680.877	39663.99
681.225	39454.05
681.573	39756.19
681.922	39486.59
682.27	39364.33
682.618	39460.6
682.966	39315.52
683.314	39325.92
683.661	39135.41
684.009	38947.62
684.357	38927.73
684.705	38896.77
685.053	38929.54
685.4	38953.72
685.748	38800.05
686.095	38671.7
686.443	38500.63
686.79	38409.1
687.138	38429.44
687.485	38583.56
687.832	38287.75
688.18	38461.53
688.527	38358.93
688.874	38154.42
689.221	37956.46
689.568	37956.91
689.915	37831.27
690.262	37984.71
690.609	37919.4
690.956	37819.29
691.303	37711.95
691.65	37588.33
691.997	37541.78
692.344	37323.48
692.69	37201.9
693.037	37307.44
693.383	36964.62
693.73	37109.48
694.077	36844.62
694.423	36957.39
694.769	36913.55
695.116	36866.32
695.462	36743.84
695.808	36601.69
696.155	36562.37
696.501	36194.47
696.847	36337.97
697.193	35903.63
697.539	36298.88
697.885	35911.77
698.231	35776.4
698.577	35872.9
698.923	35765.33
699.269	35438.11
699.614	35201.5
699.96	35252.8
700.306	35418
700.651	35328.28
700.997	35166.7
701.342	35123.54
701.688	35013.49
702.033	34826.37
702.379	34785.47
702.724	34726.94
703.069	34742.08
703.415	34326.95
703.76	34409.89
704.105	34432.03
704.45	34197.46
704.795	34037.01
705.14	33933.74
705.485	33977.58
705.83	33937.13
706.175	33876.11
706.52	33812.16
706.865	33699.4
707.209	33583.69
707.554	33528.33
707.899	33594.09
708.243	33378.05
708.588	33248.33
708.932	33196.36
709.277	33111.84
709.621	33084.5
709.966	32935.8
710.31	32948.91
710.654	32743.04
710.998	32805.86
711.342	32789.14
711.687	32706.65
712.031	32526.09
712.375	32368.58
712.719	32430.28
713.063	32503.5
713.407	32429.15
713.75	32272.99
714.094	32266.44
714.438	32166.1
714.782	32158.42
715.125	32093.34
715.469	32176.05
715.812	31916.17
716.156	31789.84
716.499	31639.56
716.843	31657.64
717.186	31534.48
717.53	31745.55
717.873	31601.37
718.216	31599.11
718.559	31392.11
718.902	31217.2
719.246	31397.54
719.589	31227.82
719.932	31153.02
720.275	31062.18
720.617	31086.81
720.96	30953.93
721.303	30934.95
721.646	30960.94
721.989	30744.67
722.331	30874.16
722.674	30741.96
723.016	30841.39
723.359	30653.37
723.701	30603.43
724.044	30450.44
724.386	30412.93
724.729	30434.17
725.071	30319.6
725.413	30289.32
725.755	30270.11
726.097	30176.1
726.439	30015.2
726.782	29998.02
727.124	30159.6
727.465	29918.93
727.807	29911.7
728.149	29779.73
728.491	29751.48
728.833	29892.04
729.175	29745.6
729.516	29611.59
729.858	29508.77
730.199	29639.84
730.541	29628.32
730.882	29409.34
731.224	29655.66
731.565	29409.57
731.906	29361.66
732.248	29297.25
732.589	29215.45
732.93	29074.89
733.271	29158.72
733.612	29102.91
733.953	29166.63
734.294	29013.64
734.635	29020.65
734.976	29025.85
735.317	28913.76
735.658	28913.08
735.999	28922.57
736.339	28804.61
736.68	28909.47
737.021	28669.02
737.361	28638.51
737.702	28800.32
738.042	28581.11
738.383	28546.31
738.723	28689.13
739.063	28519.65
739.404	28462.02
739.744	28353.32
740.084	28267.22
740.424	28466.54
740.764	28319.65
741.104	28466.31
741.444	28189.71
741.784	28089.37
742.124	28142.71
742.464	28044.4
742.804	28027.46
743.143	27932.09
743.483	28007.79
743.823	27851.87
744.162	27802.83
744.502	27859.78
744.841	27656.17
745.181	27693.68
745.52	27668.82
745.86	27607.58
746.199	27511.76
746.538	27519.9
746.877	27501.59
747.216	27464.76
747.556	27374.59
747.895	27349.05
748.234	27243.97
748.573	27173.47
748.911	27130.98
749.25	27207.36
749.589	26957.2
749.928	27126.46
750.267	27150.64
750.605	26971.66
750.944	26865.9
751.283	26762.18
751.621	26832.01
751.96	26624.78
752.298	26531.9
752.636	26691.67
752.975	26456.65
753.313	26427.27
753.651	26541.17
753.989	26340.04
