Data from plate_ceramic_FLMS001491_025.txt Node
Date: Tue Feb 07 11:16:31 GMT 2017
User: dcchb
Spectrometer: FLMS00149
Trigger mode: 0
Integration Time (sec): 2.000000E-2
Scans to average: 10
Electric dark correction enabled: true
Nonlinearity correction enabled: false
Boxcar width: 0
XAxis mode: Wavelengths
Number of Pixels in Spectrum: 2048
>>>>>Begin Spectral Data<<<<<
341.393	-5.95
341.776	-5.95
342.16	-5.95
342.543	-60.86
342.927	-37.58
343.31	-91.14
343.693	-73.52
344.077	-53.85
344.46	-48.66
344.843	-78.49
345.226	-35.1
345.61	-33.06
345.993	-28.32
346.376	-8.66
346.759	18.91
347.142	20.72
347.525	47.16
347.908	74.5
348.291	72.92
348.674	100.04
349.057	116.54
349.44	135.75
349.823	143.43
350.206	160.38
350.588	220.26
350.971	204.9
351.354	223.43
351.737	253.93
352.119	280.15
352.502	272.46
352.884	295.97
353.267	310.43
353.65	290.77
354.032	301.16
354.414	330.32
354.797	351.33
355.179	327.15
355.562	343.65
355.944	343.65
356.326	358.79
356.709	349.98
357.091	355.63
357.473	340.71
357.855	348.39
358.238	375.96
358.62	371.45
359.002	367.38
359.384	368.73
359.766	359.47
360.148	353.14
360.53	362.63
360.912	344.1
361.294	374.61
361.676	357.89
362.057	361.28
362.439	369.41
362.821	341.16
363.203	326.25
363.584	360.82
363.966	341.39
364.348	360.15
364.729	359.69
365.111	367.83
365.493	333.71
365.874	332.58
366.256	341.84
366.637	333.03
367.019	375.06
367.4	376.87
367.781	339.36
368.163	343.2
368.544	360.37
368.925	361.73
369.306	369.64
369.688	347.26
370.069	349.52
370.45	368.28
370.831	361.73
371.212	342.07
371.593	366.25
371.974	337.55
372.355	355.4
372.736	346.13
373.117	365.34
373.498	365.34
373.879	356.76
374.26	365.12
374.641	335.97
375.021	346.81
375.402	368.73
375.783	354.95
376.163	392.24
376.544	398.34
376.925	374.83
377.305	356.76
377.686	384.33
378.066	385.91
378.447	381.84
378.827	370.99
379.208	371.45
379.588	379.35
379.968	403.31
380.349	404.66
380.729	409.64
381.109	402.86
381.489	409.64
381.87	410.31
382.25	401.05
382.63	400.6
383.01	403.99
383.39	432.01
383.77	425.68
384.15	421.16
384.53	414.61
384.91	424.55
385.29	430.2
385.67	420.48
386.049	449.18
386.429	436.3
386.809	472.01
387.189	455.74
387.568	447.83
387.948	436.3
388.328	436.75
388.707	458.9
389.087	450.54
389.466	479.01
389.846	485.34
390.225	484.21
390.605	465.91
390.984	477.2
391.363	486.7
391.743	480.59
392.122	487.83
392.501	493.02
392.881	509.52
393.26	510.88
393.639	514.72
394.018	512.46
394.397	497.77
394.776	523.53
395.155	525.57
395.534	510.42
395.913	535.28
396.292	535.51
396.671	541.38
397.05	531.67
397.429	531.21
397.808	519.92
398.186	575.96
398.565	550.65
398.944	580.25
399.323	554.49
399.701	534.38
400.08	569.18
400.458	596.3
400.837	581.61
401.215	600.59
401.594	595.17
401.972	597.43
402.351	608.05
402.729	612.34
403.107	598.56
403.486	615.96
403.864	623.19
404.242	628.16
404.62	648.05
404.999	648.27
405.377	639.91
405.755	650.99
406.133	646.92
406.511	690.53
406.889	701.83
407.267	688.95
407.645	704.32
408.023	711.78
408.401	717.88
408.779	698.89
409.156	725.11
409.534	728.27
409.912	738.67
410.29	740.25
410.667	744.99
411.045	780.47
411.422	773.92
411.8	779.8
412.178	803.98
412.555	784.32
412.933	823.41
413.31	804.65
413.687	856.86
414.065	867.03
414.442	841.04
414.819	841.94
415.197	875.16
415.574	861.38
415.951	903.63
416.328	892.56
416.705	872.67
417.082	896.18
417.46	935.72
417.837	921.04
418.214	936.4
418.591	937.53
418.967	931.88
419.344	928.04
419.721	956.97
420.098	973.92
420.475	943.18
420.852	966.68
421.228	985.89
421.605	1019.79
421.982	1005.33
422.358	1025.21
422.735	1048.72
423.111	1054.82
423.488	1060.24
423.864	1062.5
424.241	1081.26
424.617	1091.65
424.994	1095.04
425.37	1104.31
425.746	1131.43
426.123	1147.02
426.499	1138.88
426.875	1180.92
427.251	1165.1
427.627	1194.7
428.003	1201.25
428.379	1205.77
428.756	1212.78
429.132	1257.07
429.507	1293.23
429.883	1269.27
430.259	1271.99
430.635	1314.7
431.011	1312.44
431.387	1370.51
431.763	1347.01
432.138	1395.37
432.514	1372.32
432.89	1389.5
433.265	1432.66
433.641	1448.48
434.016	1462.94
434.392	1485.99
434.767	1504.75
435.143	1535.48
435.518	1500.45
435.894	1553.56
436.269	1573.22
436.644	1555.14
437.02	1559.21
437.395	1602.37
437.77	1601.47
438.145	1663.61
438.52	1666.78
438.895	1673.78
439.271	1665.2
439.646	1704.29
440.021	1707.68
440.395	1740.67
440.77	1717.85
441.145	1754.46
441.52	1796.72
441.895	1780.9
442.27	1750.62
442.645	1772.54
443.019	1800.79
443.394	1782.71
443.769	1801.01
444.143	1814.57
444.518	1869.94
444.892	1856.15
445.267	1859.54
445.641	1892.53
446.016	1897.96
446.39	1894.57
446.764	1913.33
447.139	1933.44
447.513	1927.34
447.887	1951.06
448.262	1972.76
448.636	1996.26
449.01	2003.94
449.384	2029.93
449.758	2045.98
450.132	2087.78
450.506	2048.92
450.88	2125.75
451.254	2093.89
451.628	2093.89
452.002	2149.03
452.376	2140.66
452.75	2203.71
453.123	2196.03
453.497	2196.26
453.871	2281.9
454.244	2311.51
454.618	2271.28
454.992	2343.37
455.365	2310.15
455.739	2405.06
456.112	2413.65
456.486	2455.46
456.859	2462.01
457.232	2505.63
457.606	2498.62
457.979	2535.91
458.352	2603.02
458.725	2657.03
459.099	2694.77
459.472	2697.03
459.845	2725.06
460.218	2720.54
460.591	2776.58
460.964	2788.56
461.337	2870.36
461.71	2911.04
462.083	2975.22
462.456	2943.81
462.829	2979.74
463.201	3027.65
463.574	3047.53
463.947	3033.07
464.32	3139.96
464.692	3177.47
465.065	3179.96
465.438	3239.84
465.81	3297.24
466.183	3299.96
466.555	3379.05
466.928	3374.98
467.3	3400.29
467.672	3470.12
468.045	3573.39
468.417	3593.06
468.789	3588.08
469.161	3670.57
469.534	3671.92
469.906	3776.78
470.278	3761.64
470.65	3827.85
471.022	3925.7
471.394	4017
471.766	3998.69
472.138	4088.86
472.51	4179.93
472.882	4217.45
473.253	4246.6
473.625	4306.71
473.997	4434.16
474.369	4407.27
474.74	4500.6
475.112	4565.23
475.484	4675.06
475.855	4710.54
476.227	4796.19
476.598	4892.68
476.97	4952.12
477.341	5072.34
477.713	5128.61
478.084	5133.13
478.455	5312.11
478.827	5341.71
479.198	5552.55
479.569	5517.07
479.94	5684.75
480.311	5741.7
480.682	5888.81
481.053	5980.34
481.424	6088.81
481.795	6155.93
482.166	6286.54
482.537	6333.1
482.908	6443.6
483.279	6499.65
483.65	6635.91
484.021	6750.26
484.391	6870.26
484.762	6908.45
485.133	6986.19
485.503	7075.9
485.874	7219.63
486.244	7289
486.615	7467.98
486.985	7496.91
487.356	7681.08
487.726	7766.73
488.097	7885.82
488.467	7917.69
488.837	8122.88
489.207	8204.46
489.578	8336.43
489.948	8415.53
490.318	8543.21
490.688	8546.37
491.058	8699.59
491.428	8803.54
491.798	8836.31
492.168	9035.4
492.538	9124.66
492.908	9223.19
493.278	9314.03
493.648	9342.06
494.017	9452.11
494.387	9575.72
494.757	9631.54
495.126	9787.47
495.496	9840.8
495.866	9911.53
496.235	10008.48
496.605	10128.25
496.974	10192.2
497.344	10338.64
497.713	10310.39
498.082	10447.34
498.452	10524.62
498.821	10610.5
499.19	10577.05
499.559	10749.48
499.928	10830.61
500.298	10915.8
500.667	11058.85
501.036	11000.32
501.405	11138.85
501.774	11141.78
502.143	11314.21
502.512	11341.55
502.88	11372.06
503.249	11507.88
503.618	11545.61
503.987	11634.2
504.356	11724.37
504.724	11746.97
505.093	11862.22
505.462	11923.46
505.83	12068.31
506.199	12110.12
506.567	12254.75
506.936	12337.68
507.304	12441.18
507.672	12471.24
508.041	12601.18
508.409	12663.78
508.777	12803.43
509.145	12923.21
509.514	12925.47
509.882	13106.7
510.25	13078.23
510.618	13129.3
510.986	13195.74
511.354	13391.89
511.722	13489.07
512.09	13609.97
512.458	13617.2
512.826	13766.57
513.193	13828.49
513.561	13948.72
513.929	13927.7
514.297	14200.46
514.664	14270.29
515.032	14402.71
515.4	14443.62
515.767	14507.57
516.135	14682.48
516.502	14562.48
516.869	14827.11
517.237	14920.44
517.604	14821.69
517.972	15162.02
518.339	15290.83
518.706	15305.29
519.073	15364.05
519.44	15439.98
519.808	15635.22
520.175	15659.86
520.542	15869.57
520.909	16000.41
521.276	16100.52
521.643	16189.56
522.009	16352.72
522.376	16380.06
522.743	16574.63
523.11	16670.68
523.477	16884.91
523.843	17012.82
524.21	17196.77
524.577	17330.1
524.943	17473.82
525.31	17535.06
525.676	17704.1
526.043	17815.05
526.409	17822.96
526.776	18095.27
527.142	18200.58
527.508	18294.14
527.874	18447.35
528.241	18479.67
528.607	18583.62
528.973	18790.4
529.339	18833.33
529.705	18909.26
530.071	19187
530.437	19323.94
530.803	19402.36
531.169	19516.93
531.535	19588.11
531.901	19612.75
532.267	19718.28
532.632	19865.17
532.998	19894.55
533.364	20115.33
533.73	20157.82
534.095	20353.29
534.461	20410.24
534.826	20466.51
535.192	20601.42
535.557	20860.62
535.923	20793.05
536.288	20803.22
536.653	20986.27
537.019	20974.75
537.384	21122.31
537.749	21149.43
538.114	21237.56
538.479	21255.64
538.845	21461.06
539.21	21409.99
539.575	21597.78
539.94	21600.04
540.305	21800.26
540.67	21753.48
541.034	21877.09
541.399	21967.94
541.764	22094.94
542.129	22224.43
542.494	22286.12
542.858	22298.55
543.223	22331.55
543.587	22409.51
543.952	22540.58
544.316	22489.51
544.681	22626.23
545.045	22784.87
545.41	22854.92
545.774	23015.82
546.138	23063.96
546.503	22921.36
546.867	23155.25
547.231	23345.53
547.595	23360.22
547.959	23376.72
548.324	23399.31
548.688	23537.16
549.052	23700.1
549.416	23650.38
549.779	23764.95
550.143	23873.88
550.507	24077.04
550.871	24163.59
551.235	24017.38
551.599	24301.66
551.962	24425.73
552.326	24333.98
552.689	24635.44
553.053	24530.58
553.417	24570.36
553.78	24945.26
554.143	24935.54
554.507	24937.13
554.87	25151.13
555.234	25427.96
555.597	25248.53
555.96	25295.54
556.323	25517.9
556.686	25581.86
557.05	25797.44
557.413	25805.58
557.776	25887.61
558.139	26210.54
558.502	26169.18
558.865	26322.4
559.228	26453.25
559.59	26579.57
559.953	26591.77
560.316	26859.11
560.679	26856.85
561.041	27117.41
561.404	27202.38
561.767	27454.8
562.129	27329.38
562.492	27641.46
562.854	27691.18
563.217	27669.94
563.579	27841.46
563.941	27991.28
564.304	28118.96
564.666	28275.57
565.028	28369.13
565.39	28500.65
565.753	28607.31
566.115	28652.28
566.477	28929.11
566.839	28961.88
567.201	29115.1
567.563	29215.43
567.925	29346.95
568.287	29458.59
568.648	29480.51
569.01	29593.28
569.372	29867.39
569.734	29872.14
570.095	30117.56
570.457	30072.13
570.819	30239.13
571.18	30347.83
571.542	30527.26
571.903	30516.19
572.265	30696.3
572.626	30694.49
572.987	30705.56
573.349	30880.7
573.71	31008.38
574.071	31017.64
574.432	31142.16
574.794	31456.5
575.155	31446.79
575.516	31416.28
575.877	31523.17
576.238	31452.21
576.599	31585.31
576.96	31639.78
577.32	31724.97
577.681	31825.31
578.042	31967.45
578.403	32052.42
578.763	31944.85
579.124	32036.83
579.485	32173.09
579.845	32281.11
580.206	32231.4
580.566	32250.38
580.927	32355.24
581.287	32346.65
581.648	32278.18
582.008	32512.29
582.368	32369.47
582.728	32496.02
583.089	32501
583.449	32411.51
583.809	32520.88
584.169	32564.04
584.529	32463.71
584.889	32696.92
585.249	32679.52
585.609	32620.54
585.969	32726.75
586.329	32775.34
586.688	32786.64
587.048	32729.69
587.408	32770.59
587.768	32643.14
588.127	32774.89
588.487	32551.39
588.846	32848.78
589.206	32665.29
589.565	32714.32
589.925	32907.76
590.284	32722.01
590.643	32843.81
591.003	32911.61
591.362	32870.03
591.721	32931.04
592.08	32925.39
592.44	32866.64
592.799	32939.85
593.158	32884.26
593.517	32977.59
593.876	33075.22
594.235	32814.43
594.593	33063.24
594.952	33083.13
595.311	32939.4
595.67	33091.71
596.029	33301.65
596.387	33238.83
596.746	33345.49
597.104	33195.21
597.463	33126.06
597.822	33340.3
598.18	33338.94
598.538	33271.6
598.897	33353.4
599.255	33208.32
599.613	33654.19
599.972	33442.44
600.33	33533.28
600.688	33371.93
601.046	33467.07
601.404	33600.18
601.762	33629.1
602.12	33687.41
602.478	33770.57
602.836	33649.44
603.194	33622.32
603.552	33649.67
603.91	33446.51
604.268	33830.68
604.625	33691.47
604.983	33776.89
605.341	33754.3
605.698	33875.87
606.056	33954.74
606.413	33922.65
606.771	34080.39
607.128	34027.06
607.485	33785.48
607.843	34099.37
608.2	34147.28
608.557	34327.39
608.914	34110.44
609.272	34368.74
609.629	34406.26
609.986	34522.64
610.343	34268.41
610.7	34705.46
611.057	34493.94
611.414	34534.84
611.771	34463.66
612.127	34669.3
612.484	34602.18
612.841	34759.24
613.198	34655.74
613.554	34628.62
613.911	34883.31
614.267	34814.61
614.624	34697.1
614.98	34930.99
615.337	35017.54
615.693	35077.88
616.05	35056.18
616.406	35119.01
616.762	35061.83
617.118	35075.62
617.475	35116.52
617.831	35113.13
618.187	35208.95
618.543	35218.89
618.899	35492.56
619.255	35272.9
619.611	35290.75
619.967	35304.76
620.323	35590.41
620.678	35335.05
621.034	35226.12
621.39	35280.58
621.746	35117.42
622.101	35571.65
622.457	35374.14
622.812	35355.61
623.168	35470.64
623.523	35503.4
623.879	35486.45
624.234	35370.07
624.589	35518.77
624.945	35575.94
625.3	35461.37
625.655	35471.31
626.01	35524.42
626.365	35532.78
626.72	35386.8
627.075	35492.1
627.43	35475.61
627.785	35341.15
628.14	35386.34
628.495	35463.4
628.85	35452.56
629.205	35257.53
629.559	35398.55
629.914	35192.45
630.269	35435.38
630.623	35263.63
630.978	35106.12
631.332	35239.68
631.687	35249.85
632.041	35016.18
632.396	35387.47
632.75	35092.79
633.104	34987.94
633.459	34952.23
633.813	34904.77
634.167	34895.74
634.521	34850.09
634.875	35036.97
635.229	34956.52
635.583	34583.88
635.937	34705.01
636.291	34687.83
636.645	34624.33
636.999	34549.08
637.352	34718.79
637.706	34473.37
638.06	34651.9
638.413	34516.76
638.767	34330.78
639.121	34435.18
639.474	34260.5
639.828	34205.13
640.181	34361.96
640.534	34175.53
640.888	34214.4
641.241	34010.79
641.594	34004.01
641.947	33978.7
642.301	33994.97
642.654	34107.28
643.007	34058.92
643.36	33956.55
643.713	33973.5
644.066	33920.17
644.419	33843.33
644.771	33423.23
645.124	33145.5
645.477	33038.16
645.83	32929.91
646.182	32810.37
646.535	32782.12
646.888	32723.36
647.24	32644.49
647.593	32830.7
647.945	32822.57
648.298	32565.4
648.65	32545.29
649.002	32296.03
649.355	32572.86
649.707	32581.9
650.059	32503.93
650.411	32904.6
650.763	32982.79
651.115	33376.68
651.467	33216.68
651.819	33159.74
652.171	33153.18
652.523	33029.8
652.875	33017.82
653.227	32867.99
653.578	33042.45
653.93	32965.16
654.282	32874.77
654.633	32757.03
654.985	32827.99
655.337	32720.65
655.688	32916.8
656.039	32902.12
656.391	32650.14
656.742	32662.57
657.094	32777.15
657.445	32719.97
657.796	32780.54
658.147	32529.24
658.498	32683.36
658.849	32751.61
659.2	32595.46
659.551	32632.07
659.902	32702.12
660.253	32441.79
660.604	32628.22
660.955	32402.24
661.306	32372.86
661.656	32439.98
662.007	32278.85
662.358	32422.81
662.708	32453.09
663.059	32262.13
663.409	32168.35
663.76	32413.99
664.11	32291.06
664.461	32308.91
664.811	32358.17
665.161	32310.72
665.511	32145.98
665.862	32254.22
666.212	32350.27
666.562	32296.93
666.912	32125.41
667.262	32165.19
667.612	32163.83
667.962	32101.68
668.312	32047.22
668.662	32253.77
669.011	32207.22
669.361	32027.34
669.711	32138.29
670.06	32113.21
670.41	32006.32
670.76	31911.86
671.109	32033.44
671.459	31993.44
671.808	31990.95
672.157	32072.76
672.507	31697.4
672.856	31786.89
673.205	31882.25
673.554	31996.38
673.904	31880.9
674.253	31955.25
674.602	31982.37
674.951	31287.02
675.3	31264.87
675.649	31597.97
675.998	31705.76
676.346	31665.99
676.695	31802.26
677.044	31465.77
677.393	31540.57
677.741	31675.48
678.09	31513.45
678.438	31473
678.787	31676.61
679.135	31593
679.484	31286.79
679.832	31378.99
680.181	31127.25
680.529	31489.04
680.877	31188.49
681.225	31139.22
681.573	31423.28
681.922	31063.75
682.27	30924.31
682.618	31098.32
682.966	31024.42
683.314	31020.81
683.661	30912.79
684.009	30714.38
684.357	30718.22
684.705	30646.81
685.053	30661.95
685.4	30583.76
685.748	30559.8
686.095	30501.5
686.443	30296.76
686.79	30391.45
687.138	30380.15
687.485	30362.29
687.832	30200.04
688.18	30216.76
688.527	30116.43
688.874	30038.69
689.221	29997.11
689.568	30034.39
689.915	29843.44
690.262	29839.6
690.609	29814.74
690.956	29634.63
691.303	29639.15
691.65	29468.08
691.997	29513.5
692.344	29396.9
692.69	29482.54
693.037	29387.41
693.383	29208.88
693.73	29264.24
694.077	29080.29
694.423	29179.05
694.769	29034.87
695.116	29011.14
695.462	28909.23
695.808	28752.39
696.155	28757.14
696.501	28592.17
696.847	28544.26
697.193	28264.72
697.539	28376.13
697.885	28273.31
698.231	28043.49
698.577	28196.7
698.923	28073.99
699.269	28019.98
699.614	27833.32
699.96	27680.11
700.306	27748.35
700.651	27688.24
700.997	27522.82
701.342	27511.07
701.688	27488.7
702.033	27420.68
702.379	27356.27
702.724	27263.39
703.069	27323.05
703.415	27104.75
703.76	26987.69
704.105	27028.6
704.45	26937.75
704.795	26853.69
705.14	26826.34
705.485	26759.23
705.83	26666.12
706.175	26684.88
706.52	26513.13
706.865	26389.29
707.209	26354.49
707.554	26296.41
707.899	26308.39
708.243	26225.23
708.588	26155.63
708.932	26149.3
709.277	25971.9
709.621	26111.79
709.966	25873.83
710.31	25959.7
710.654	25713.6
710.998	25780.27
711.342	25674.28
711.687	25752.7
712.031	25529.88
712.375	25417.79
712.719	25520.84
713.063	25349.77
713.407	25459.6
713.75	25344.8
714.094	25205.37
714.438	25147.06
714.782	25156.33
715.125	25047.18
715.469	25130.12
715.812	25027.97
716.156	24873.63
716.499	24922.66
716.843	24973.06
717.186	24814.19
717.53	24869.11
717.873	24877.02
718.216	24799.73
718.559	24666.85
718.902	24479.51
719.246	24536.01
719.589	24444.03
719.932	24391.83
720.275	24328.33
720.617	24275.22
720.96	24336.24
721.303	24248.11
721.646	24231.38
721.989	24118.84
722.331	24099.63
722.674	24123.59
723.016	23998.62
723.359	24010.15
723.701	23976.25
724.044	23749.81
724.386	23819.19
724.729	23914.55
725.071	23731.51
725.413	23730.6
725.755	23654.9
726.097	23610.38
726.439	23566.99
726.782	23546.2
727.124	23590.72
727.465	23494.45
727.807	23486.54
728.149	23465.3
728.491	23366.09
728.833	23326.1
729.175	23306.89
729.516	23226.89
729.858	23195.93
730.199	23228.47
730.541	23163.16
730.882	23114.35
731.224	23133.78
731.565	23130.39
731.906	22997.97
732.248	22863.28
732.589	22937.41
732.93	22839.1
733.271	22826.22
733.612	22839.55
733.953	22791.19
734.294	22811.76
734.635	22645.89
734.976	22770.18
735.317	22667.81
735.658	22608.83
735.999	22586.91
736.339	22440.47
736.68	22604.31
737.021	22443.18
737.361	22237.99
737.702	22450.64
738.042	22360.92
738.383	22414.48
738.723	22346.69
739.063	22325.44
739.404	22343.52
739.744	22270.76
740.084	22066.24
740.424	22197.99
740.764	22174.26
741.104	22243.19
741.444	22015.62
741.784	22048.16
742.124	21962.97
742.464	21904.66
742.804	21847.72
743.143	21848.85
743.483	21853.14
743.823	21558.23
744.162	21618.8
744.502	21739.02
744.841	21611.56
745.181	21705.12
745.52	21617.44
745.86	21624.9
746.199	21513.94
746.538	21497.44
746.877	21537.44
747.216	21537.44
747.556	21487.05
747.895	21471.91
748.234	21313.95
748.573	21344.68
748.911	21232.14
749.25	21229.65
749.589	21151.46
749.928	21127.28
750.267	21183.78
750.605	21059.49
750.944	21025.82
751.283	20954.63
751.621	20953.05
751.96	20970.45
752.298	20853.62
752.636	20841.42
752.975	20619.5
753.313	20740.4
753.651	20850
753.989	20580.41
754.327	20508.54
