Data from plate_ceramic_FLMS001491_011.txt Node
Date: Tue Feb 07 11:16:22 GMT 2017
User: dcchb
Spectrometer: FLMS00149
Trigger mode: 0
Integration Time (sec): 2.000000E-2
Scans to average: 10
Electric dark correction enabled: true
Nonlinearity correction enabled: false
Boxcar width: 0
XAxis mode: Wavelengths
Number of Pixels in Spectrum: 2048
>>>>>Begin Spectral Data<<<<<
341.393	-2.97
341.776	-2.97
342.16	-2.97
342.543	-45.9
342.927	-59.91
343.31	-66.02
343.693	-68.05
344.077	-70.08
344.46	-42.96
344.843	-59.46
345.226	-52.46
345.61	-14.94
345.993	-30.31
346.376	-4.55
346.759	19.41
347.142	20.99
347.525	32.51
347.908	52.63
348.291	75.45
348.674	96.01
349.057	111.83
349.44	127.43
349.823	128.78
350.206	179.18
350.588	220.98
350.971	217.59
351.354	226.63
351.737	277.03
352.119	248.78
352.502	273.86
352.884	297.59
353.267	320.19
353.65	323.81
354.032	309.34
354.414	326.29
354.797	307.99
355.179	340.53
355.562	349.79
355.944	367.65
356.326	352.05
356.709	368.32
357.091	366.52
357.473	360.41
357.855	362.67
358.238	352.5
358.62	353.18
359.002	357.7
359.384	376.46
359.766	361.77
360.148	354.99
360.53	381.66
360.912	376.91
361.294	360.64
361.676	343.24
362.057	372.39
362.439	368.1
362.821	362
363.203	365.84
363.584	348.66
363.966	349.57
364.348	367.19
364.729	347.99
365.111	353.18
365.493	345.73
365.874	350.25
366.256	364.26
366.637	361.77
367.019	359.51
367.4	346.86
367.781	360.87
368.163	369.45
368.544	357.7
368.925	360.19
369.306	350.7
369.688	352.5
370.069	364.48
370.45	367.65
370.831	362.9
371.212	353.86
371.593	367.42
371.974	359.96
372.355	401.77
372.736	370.36
373.117	375.56
373.498	398.83
373.879	377.36
374.26	396.57
374.641	357.93
375.021	375.1
375.402	366.06
375.783	390.02
376.163	409.23
376.544	414.65
376.925	406.97
377.305	405.84
377.686	429.34
378.066	425.27
378.447	421.2
378.827	416.68
379.208	399.74
379.588	417.59
379.968	423.92
380.349	417.59
380.729	425.5
381.109	410.36
381.489	418.94
381.87	395.44
382.25	426.63
382.63	444.25
383.01	423.01
383.39	418.27
383.77	441.09
384.15	472.95
384.53	468.21
384.91	444.71
385.29	457.36
385.67	473.18
386.049	460.52
386.429	469.56
386.809	477.93
387.189	480.19
387.568	500.3
387.948	491.48
388.328	486.51
388.707	488.55
389.087	503.46
389.466	500.07
389.846	504.59
390.225	493.07
390.605	529.45
390.984	534.87
391.363	540.3
391.743	534.19
392.122	541.65
392.501	545.95
392.881	555.89
393.26	562.89
393.639	574.42
394.018	594.53
394.397	564.25
394.776	577.81
395.155	597.92
395.534	600.18
395.913	599.5
396.292	565.61
396.671	621.65
397.05	612.16
397.429	612.39
397.808	621.65
398.186	633.63
398.565	618.94
398.944	657.36
399.323	637.02
399.701	639.95
400.08	626.85
400.458	649.67
400.837	662.55
401.215	665.04
401.594	654.64
401.972	687.19
402.351	700.07
402.729	703
403.107	709.11
403.486	711.82
403.864	686.06
404.242	727.41
404.62	733.51
404.999	760.63
405.377	739.61
405.755	754.75
406.133	760.4
406.511	776.9
406.889	796.79
407.267	819.16
407.645	797.24
408.023	833.85
408.401	807.18
408.779	833.62
409.156	836.79
409.534	856.9
409.912	861.64
410.29	875.88
410.667	860.97
411.045	914.07
411.422	905.26
411.8	898.71
412.178	948.65
412.555	929.66
412.933	951.59
413.31	985.48
413.687	997.69
414.065	982.77
414.442	989.32
414.819	1021.87
415.197	1023
415.574	1046.95
415.951	1053.73
416.328	1052.37
416.705	1065.71
417.082	1047.18
417.46	1072.49
417.837	1075.42
418.214	1126.04
418.591	1142.09
418.967	1132.82
419.344	1136.44
419.721	1150.45
420.098	1147.06
420.475	1168.75
420.852	1185.7
421.228	1177.57
421.605	1195.87
421.982	1222.99
422.358	1232.71
422.735	1255.53
423.111	1212.14
423.488	1287.85
423.864	1276.77
424.241	1299.37
424.617	1318.13
424.994	1334.63
425.37	1335.98
425.746	1353.61
426.123	1376.21
426.499	1383.44
426.875	1402.19
427.251	1429.31
427.627	1452.81
428.003	1438.58
428.379	1492.36
428.756	1497.33
429.132	1534.62
429.507	1510.89
429.883	1525.58
430.259	1591.34
430.635	1573.04
431.011	1616.88
431.387	1658.46
431.763	1681.51
432.138	1687.84
432.514	1707.27
432.89	1691
433.265	1760.6
433.641	1764.67
434.016	1792.47
434.392	1794.5
434.767	1842.86
435.143	1872.46
435.518	1843.99
435.894	1872.01
436.269	1922.18
436.644	1935.74
437.02	1971.45
437.395	1924.89
437.77	2011.44
438.145	1994.5
438.52	2044.66
438.895	2073.59
439.271	2053.48
439.646	2109.75
440.021	2094.61
440.395	2133.02
440.77	2113.14
441.145	2147.03
441.52	2208.95
441.895	2210.76
442.27	2194.72
442.645	2210.76
443.019	2240.14
443.394	2263.64
443.769	2282.85
444.143	2276.52
444.518	2309.74
444.892	2331.89
445.267	2344.09
445.641	2359.46
446.016	2352
446.39	2386.58
446.764	2415.95
447.139	2392.23
447.513	2428.83
447.887	2473.81
448.262	2479.45
448.636	2475.61
449.01	2527.81
449.384	2545.22
449.758	2551.09
450.132	2580.92
450.506	2611.43
450.88	2630.64
451.254	2649.17
451.628	2672.9
452.002	2703.18
452.376	2703.63
452.75	2734.59
453.123	2774.59
453.497	2812.55
453.871	2865.21
454.244	2930.52
454.618	2879.22
454.992	2967.35
455.365	2944.3
455.739	3053.45
456.112	3064.52
456.486	3059.1
456.859	3119.89
457.232	3186.33
457.606	3213.9
457.979	3208.7
458.352	3286.66
458.725	3327.79
459.099	3367.79
459.472	3408.47
459.845	3462.71
460.218	3514.91
460.591	3541.57
460.964	3543.38
461.337	3607.33
461.71	3689.14
462.083	3746.09
462.456	3752.87
462.829	3738.18
463.201	3847.78
463.574	3829.02
463.947	3909.02
464.32	4031.73
464.692	3995.57
465.065	4072.86
465.438	4143.59
465.81	4163.93
466.183	4218.17
466.555	4315.56
466.928	4338.16
467.3	4327.77
467.672	4404.83
468.045	4474.88
468.417	4541.32
468.789	4580.64
469.161	4652.05
469.534	4758.72
469.906	4850.01
470.278	4836
470.65	4897.7
471.022	5004.59
471.394	5104.7
471.766	5167.75
472.138	5209.1
472.51	5344.24
472.882	5412.71
473.253	5451.58
473.625	5577.68
473.997	5711.91
474.369	5699.26
474.74	5734.51
475.112	5832.59
475.484	6007.05
475.855	6092.47
476.227	6147.15
476.598	6281.39
476.97	6351.22
477.341	6481.84
477.713	6581.72
478.084	6645.9
478.455	6863.75
478.827	6837.76
479.198	7100.58
479.569	7142.38
479.94	7293.79
480.311	7426.22
480.682	7607.68
481.053	7702.14
481.424	7853.78
481.795	7927.9
482.166	7981
482.537	8139.64
482.908	8298.74
483.279	8466.42
483.65	8594.32
484.021	8731.27
484.391	8867.76
484.762	8947.31
485.133	9013.52
485.503	9132.39
485.874	9381.42
486.244	9476.11
486.615	9632.03
486.985	9855.53
487.356	9924.46
487.726	10014.62
488.097	10187.95
488.467	10274.5
488.837	10457.55
489.207	10646.47
489.578	10769.18
489.948	10899.57
490.318	11036.29
490.688	11016.63
491.058	11237.64
491.428	11417.3
491.798	11543.4
492.168	11699.78
492.538	11782.94
492.908	11940.22
493.278	12106.77
493.648	12087.79
494.017	12368.01
494.387	12430.83
494.757	12518.51
495.126	12733.87
495.496	12748.79
495.866	12871.95
496.235	13046.41
496.605	13085.28
496.974	13186.74
497.344	13260.19
497.713	13390.35
498.082	13449.79
498.452	13641.65
498.821	13793.06
499.19	13838.93
499.559	13880.96
499.928	13990.11
500.298	14155.53
500.667	14280.5
501.036	14147.17
501.405	14452.02
501.774	14428.52
502.143	14660.38
502.512	14660.6
502.88	14760.94
503.249	14763.88
503.618	15036.86
503.987	15121.61
504.356	15229.85
504.724	15351.43
505.093	15299.91
505.462	15457.42
505.83	15623.29
506.199	15747.58
506.567	15866.9
506.936	15917.52
507.304	16132.2
507.672	16154.58
508.041	16249.71
508.409	16364.29
508.777	16517.28
509.145	16697.39
509.514	16710.72
509.882	16828.91
510.25	16923.37
510.618	17022.8
510.986	17093.76
511.354	17349.8
511.722	17501.88
512.09	17753.86
512.458	17621.88
512.826	17858.71
513.193	17933.06
513.561	18011.7
513.929	18146.39
514.297	18386.38
514.664	18585.92
515.032	18589.54
515.4	18818.23
515.767	18934.16
516.135	18986.82
516.502	18913.82
516.869	19275.4
517.237	19277.66
517.604	19397.88
517.972	19629.74
518.339	19789.96
518.706	19791.09
519.073	19915.15
519.44	20012.1
519.808	20343.62
520.175	20329.83
520.542	20682.14
520.909	20775.47
521.276	20750.16
521.643	20925.07
522.009	21130.26
522.376	21291.39
522.743	21455.68
523.11	21717.82
523.477	21951.48
523.843	22097.02
524.21	22315.09
524.577	22473.51
524.943	22528.87
525.31	22719.83
525.676	22932.02
526.043	23028.74
526.409	23243.2
526.776	23365.01
527.142	23489.52
527.508	23715.51
527.874	23821.72
528.241	23932
528.607	24111.43
528.973	24342.38
529.339	24289.28
529.705	24627.57
530.071	24820.79
530.437	24973.33
530.803	25138.52
531.169	25275.01
531.535	25205.18
531.901	25299.42
532.267	25605.63
532.632	25605.85
532.998	25825.73
533.364	26066.63
533.73	26205.84
534.095	26379.17
534.461	26442.89
534.826	26595.2
535.192	26665.94
535.557	26816.67
535.923	26794.75
536.288	26993.39
536.653	27147.05
537.019	27110.9
537.384	27302.76
537.749	27422.75
538.114	27501.17
538.479	27604.67
538.845	27802.63
539.21	27728.28
539.575	27985.45
539.94	27962.4
540.305	28326.46
540.67	28135.73
541.034	28353.12
541.399	28521.93
541.764	28517.64
542.129	28627.02
542.494	28741.36
542.858	28881.02
543.223	29006.21
543.587	29139.77
543.952	29027.46
544.316	29174.8
544.681	29266.32
545.045	29494.79
545.41	29626.31
545.774	29589.48
546.138	29778.17
546.503	29870.6
546.867	29953.08
547.231	30223.36
547.595	30205.28
547.959	30346.74
548.324	30362.11
548.688	30472.84
549.052	30524.37
549.416	30771.59
549.779	30708.99
550.143	30874.87
550.507	31165.25
550.871	31245.93
551.235	31264.01
551.599	31471.69
551.962	31581.29
552.326	31725.47
552.689	31826.71
553.053	31797.33
553.417	31899.02
553.78	32268.28
554.143	32179.69
554.507	32349.86
554.87	32502.17
555.234	32816.51
555.597	32695.16
555.96	32897.41
556.323	33067.35
556.686	33120.68
557.05	33301.47
557.413	33423.5
557.776	33545.3
558.139	33731.97
558.502	33935.12
558.865	33947.33
559.228	34237.49
559.59	34373.08
559.953	34265.06
560.316	34720.19
560.679	34880.41
561.041	35033.85
561.404	35158.6
561.767	35411.7
562.129	35361.98
562.492	35764.46
562.854	35582.31
563.217	35812.59
563.579	36090.55
563.941	36299.58
564.304	36447.15
564.666	36699.12
565.028	36738.21
565.39	36842.62
565.753	37051.2
566.115	37241.03
566.477	37220.91
566.839	37362.15
567.201	37633.78
567.563	37615.48
567.925	37879.43
568.287	38054.79
568.648	38025.19
569.01	38171.85
569.372	38414.1
569.734	38447.77
570.095	38775.68
570.457	38991.49
570.819	38977.93
571.18	39061.32
571.542	39307.86
571.903	39442.32
572.265	39508.31
572.626	39400.52
572.987	39673.05
573.349	39819.72
573.71	39960.28
574.071	39987.17
574.432	39911.46
574.794	40289.76
575.155	40210.21
575.516	40259.03
575.877	40421.06
576.238	40492.47
576.599	40654.72
576.96	40824.44
577.32	40814.04
577.681	40892.68
578.042	41040.47
578.403	41096.74
578.763	41114.6
579.124	41080.25
579.485	41397.98
579.845	41486.34
580.206	41267.81
580.566	41524.53
580.927	41396.85
581.287	41694.47
581.648	41527.02
582.008	41666.9
582.368	41591.87
582.728	41601.82
583.089	41586.67
583.449	41603.17
583.809	41837.52
584.169	41842.04
584.529	41696.5
584.889	41965.42
585.249	41798.65
585.609	41587.58
585.969	41999.09
586.329	41754.35
586.688	41891.53
587.048	41908.7
587.408	41828.93
587.768	41804.07
588.127	41968.81
588.487	41905.54
588.846	42166.32
589.206	41943.05
589.565	41956.83
589.925	42053.56
590.284	41887.46
590.643	42115.47
591.003	42304.4
591.362	42252.19
591.721	42207.22
592.08	42225.98
592.44	42390.72
592.799	42323.15
593.158	42273.89
593.517	42389.59
593.876	42319.76
594.235	42268.92
594.593	42445.86
594.952	42514.33
595.311	42328.12
595.67	42424.17
596.029	42672.07
596.387	42549.36
596.746	42549.36
597.104	42484.5
597.463	42668.23
597.822	42749.58
598.18	42545.07
598.538	42585.74
598.897	42685.18
599.255	42545.97
599.613	43151.15
599.972	42747.32
600.33	42947.54
600.688	42840.43
601.046	42866.87
601.404	43136.01
601.762	42952.06
602.12	43256.46
602.478	43065.51
602.836	42977.82
603.194	42964.49
603.552	42943.7
603.91	42992.06
604.268	43202.45
604.625	43259.63
604.983	43330.58
605.341	43138.95
605.698	43364.48
606.056	43511.82
606.413	43399.51
606.771	43651.25
607.128	43595.44
607.485	43352.73
607.843	43504.82
608.2	43654.42
608.557	43712.72
608.914	43671.59
609.272	43851.7
609.629	43858.03
609.986	44073.16
610.343	43751.36
610.7	44181.18
611.057	43984.13
611.414	44004.69
611.771	44179.6
612.127	44167.85
612.484	44220.5
612.841	44414.85
613.198	44256.89
613.554	44204.69
613.911	44427.05
614.267	44353.16
614.624	44374.4
614.98	44524.22
615.337	44759.92
615.693	44744.78
616.05	44583.21
616.406	44923.08
616.762	44733.48
617.118	44662.3
617.475	44670.44
617.831	44897.77
618.187	44943.65
618.543	44876.76
618.899	45152.46
619.255	44931.22
619.611	44864.33
619.967	45101.16
620.323	45334.37
620.678	45092.57
621.034	44989.3
621.39	44968.05
621.746	45016.87
622.101	45436.29
622.457	45120.59
622.812	45186.35
623.168	45201.27
623.523	45380.93
623.879	45347.93
624.234	45172.34
624.589	45510.87
624.945	45298.44
625.3	45261.83
625.655	45118.79
626.01	45201.5
626.365	45293.7
626.72	45209.18
627.075	45287.82
627.43	45110.2
627.785	45136.86
628.14	45182.29
628.495	45263.19
628.85	45097.54
629.205	44949.75
629.559	45227.26
629.914	44999.69
630.269	45128.28
630.623	44941.39
630.978	44883.54
631.332	45095.96
631.687	45011.67
632.041	44901.62
632.396	44881.96
632.75	44661.4
633.104	44745.24
633.459	44509.08
633.813	44681.28
634.167	44599.03
634.521	44527.84
634.875	44610.55
635.229	44582.08
635.583	44261.63
635.937	44305.7
636.291	44253.72
636.645	44344.79
636.999	44319.26
637.352	44292.59
637.706	43935.54
638.06	44280.62
638.413	44109.55
638.767	43977.8
639.121	44017.35
639.474	43832.04
639.828	43871.59
640.181	43785.94
640.534	43735.09
640.888	43759.05
641.241	43549.34
641.594	43600.41
641.947	43813.96
642.301	43565.83
642.654	43631.37
643.007	43607.41
643.36	43630.24
643.713	43552.72
644.066	43620.52
644.419	43320.64
644.771	42964.04
645.124	42668
645.477	42438.18
645.83	42314.34
646.182	42089.03
646.535	42034.57
646.888	42167.9
647.24	41962.03
647.593	42170.84
647.945	42047.91
648.298	41987.57
648.65	41881.13
649.002	41720.91
649.355	41764.52
649.707	41733.11
650.059	41809.04
650.411	42453.09
650.763	42393.66
651.115	42772.63
651.467	42609.25
651.819	42559.53
652.171	42315.02
652.523	42379.42
652.875	42315.24
653.227	42219.88
653.578	42505.52
653.93	42292.42
654.282	42150.5
654.633	42040.22
654.985	42304.17
655.337	42219.43
655.688	42166.09
656.039	42283.61
656.391	41729.72
656.742	41947.8
657.094	41928.36
657.445	42071.63
657.796	42036.15
658.147	41938.3
658.498	41702.38
658.849	42017.62
659.2	41905.76
659.551	41793
659.902	41744.86
660.253	41714.13
660.604	41831.19
660.955	41623.28
661.306	41784.41
661.656	41741.25
662.007	41718.2
662.358	41585.77
662.708	41557.52
663.059	41555.49
663.409	41267.14
663.76	41629.61
664.11	41442.05
664.461	41537.18
664.811	41550.29
665.161	41565.43
665.511	41306.46
665.862	41377.19
666.212	41643.4
666.562	41529.95
666.912	41467.58
667.262	41437.98
667.612	41463.29
667.962	41516.85
668.312	41443.4
668.662	41473.01
669.011	41525.21
669.361	41356.4
669.711	41220.81
670.06	41274.37
670.41	41183.97
670.76	41125.9
671.109	41192.33
671.459	41086.35
671.808	41003.41
672.157	41066.01
672.507	41004.09
672.856	41157.08
673.205	41036.63
673.554	40927.48
673.904	40775.85
674.253	41066.46
674.602	40805.45
674.951	40493.37
675.3	40189.65
675.649	40889.07
675.998	40793.25
676.346	40726.58
676.695	40821.95
677.044	40666.47
677.393	40741.73
677.741	40750.31
678.09	40699.01
678.438	40572.24
678.787	40573.37
679.135	40648.17
679.484	40367.05
679.832	40459.47
680.181	40368.4
680.529	40356.65
680.877	40313.26
681.225	40186.94
681.573	40333.37
681.922	40037.56
682.27	40115.75
682.618	40226.03
682.966	40003.21
683.314	40052.03
683.661	39836.21
684.009	39479.39
684.357	39593.05
684.705	39566.84
685.053	39739.04
685.4	39541.08
685.748	39263.35
686.095	39340.18
686.443	39107.64
686.79	39127.53
687.138	39105.16
687.485	39000.3
687.832	39121.88
688.18	39068.1
688.527	38955.33
688.874	38942.68
689.221	38702.68
689.568	38478.28
689.915	38553.08
690.262	38539.98
690.609	38437.61
690.956	38341.34
691.303	38209.14
691.65	38057.95
691.997	38093.43
692.344	37940.44
692.69	37968.24
693.037	38000.55
693.383	37759.88
693.73	37819.09
694.077	37584.75
694.423	37654.12
694.769	37398.99
695.116	37344.98
695.462	37326.9
695.808	37149.05
696.155	37268.6
696.501	36937.76
696.847	36791.77
697.193	36639.46
697.539	36785.67
697.885	36542.51
698.231	36390.2
698.577	36567.6
698.923	36408.73
699.269	36003.32
699.614	35889.2
699.96	35853.04
700.306	35989.08
700.651	35970.55
700.997	35850.78
701.342	35733.5
701.688	35680.16
702.033	35392.71
702.379	35315.65
702.724	35477.01
703.069	35444.24
703.415	34958.37
703.76	35061.87
704.105	34999.05
704.45	34685.61
704.795	34589.12
705.14	34500.31
705.485	34597.48
705.83	34351.16
706.175	34460.99
706.52	34413.3
706.865	34249.69
707.209	34166.53
707.554	34110.26
707.899	34113.88
708.243	34095.12
708.588	33927.44
708.932	33837.27
709.277	33792.53
709.621	33689.93
709.966	33559.32
710.31	33523.61
710.654	33345.76
710.998	33527.68
711.342	33478.87
711.687	33361.58
712.031	33051.31
712.375	33069.16
712.719	33058.99
713.063	33128.82
713.407	33063.96
713.75	32755.49
714.094	32790.52
714.438	32749.39
714.782	32741.71
715.125	32556.86
715.469	32748.04
715.812	32546.23
716.156	32262.63
716.499	32386.24
716.843	32347.6
717.186	32149.63
717.53	32242.06
717.873	32319.8
718.216	32174.04
718.559	31995.29
718.902	31909.87
719.246	31848.4
719.589	31888.17
719.932	31760.04
720.275	31712.58
720.617	31721.17
720.96	31550.33
721.303	31591.91
721.646	31654.73
721.989	31343.1
722.331	31430.11
722.674	31416.32
723.016	31406.83
723.359	31193.28
723.701	31230.11
724.044	31013.39
724.386	30832.16
724.729	30946.28
725.071	30957.12
725.413	30949.67
725.755	31015.88
726.097	30711.25
726.439	30672.84
726.782	30636
727.124	30572.95
727.465	30560.52
727.807	30602.56
728.149	30551.94
728.491	30384.94
728.833	30471.71
729.175	30318.95
729.516	30346.74
729.858	30196.92
730.199	30175.45
730.541	30246.18
730.882	30218.61
731.224	30288.67
731.565	30048.9
731.906	30079.86
732.248	30079.86
732.589	29906.53
732.93	29768.45
733.271	29806.87
733.612	29887.32
733.953	29793.54
734.294	29650.72
734.635	29579.98
734.976	29797.15
735.317	29461.57
735.658	29505.18
735.999	29493.89
736.339	29489.37
736.68	29615.46
737.021	29381.8
737.361	29194.01
737.702	29370.95
738.042	29314.91
738.383	29147
738.723	29141.8
739.063	29092.99
739.404	29029.49
739.744	28984.29
740.084	28949.95
740.424	29016.84
740.764	28857.74
741.104	28963.28
741.444	28769.84
741.784	28645.55
742.124	28661.14
742.464	28859.1
742.804	28657.3
743.143	28594.93
743.483	28506.11
743.823	28394.71
744.162	28361.94
744.502	28324.42
744.841	28239.68
745.181	28480.35
745.52	28303.18
745.86	28324.42
746.199	28123.75
746.538	28107.93
746.877	28170.76
747.216	28074.71
747.556	27992.46
747.895	27983.19
748.234	27805.57
748.573	27808.96
748.911	27845.12
749.25	27701.39
749.589	27592.47
749.928	27821.61
750.267	27605.35
750.605	27650.77
750.944	27495.52
751.283	27375.3
751.621	27534.16
751.96	27240.16
752.298	27180.5
752.636	27244.68
752.975	27140.28
753.313	27070.9
753.651	27228.41
