Data from plate_porcelain_FLMS001491_099.txt Node
Date: Tue Feb 07 11:20:14 GMT 2017
User: dcchb
Spectrometer: FLMS00149
Trigger mode: 0
Integration Time (sec): 2.000000E-2
Scans to average: 10
Electric dark correction enabled: true
Nonlinearity correction enabled: false
Boxcar width: 0
XAxis mode: Wavelengths
Number of Pixels in Spectrum: 2048
>>>>>Begin Spectral Data<<<<<
341.393	-25.62
341.776	-25.62
342.16	-25.62
342.543	-45.96
342.927	-79.4
343.31	-63.59
343.693	-53.87
344.077	-38.05
344.46	-70.59
344.843	-39.86
345.226	-55.22
345.61	-41.67
345.993	-24.94
346.376	-3.47
346.759	22.06
347.142	34.04
347.525	19.58
347.908	53.47
348.291	71.1
348.674	93.02
349.057	97.99
349.44	118.78
349.823	134.15
350.206	153.81
350.588	232
350.971	241.26
351.354	255.5
351.737	279.68
352.119	278.1
352.502	306.57
352.884	299.34
353.267	325.33
353.65	327.14
354.032	352.9
354.414	364.65
354.797	361.71
355.179	364.2
355.562	362.62
355.944	353.8
356.326	385.67
356.709	401.26
357.091	384.76
357.473	388.38
357.855	391.09
358.238	396.29
358.62	397.87
359.002	390.19
359.384	392.67
359.766	388.15
360.148	405.55
360.53	392
360.912	397.19
361.294	382.96
361.676	397.87
362.057	386.57
362.439	392.45
362.821	387.7
363.203	399.23
363.584	380.02
363.966	390.19
364.348	401.94
364.729	400.13
365.111	392
365.493	400.13
365.874	383.18
366.256	401.03
366.637	409.62
367.019	431.09
367.4	406.23
367.781	394.03
368.163	410.07
368.544	391.77
368.925	381.6
369.306	402.62
369.688	413.46
370.069	408.04
370.45	380.7
370.831	396.29
371.212	413.69
371.593	428.83
371.974	420.02
372.355	428.6
372.736	432.45
373.117	421.37
373.498	424.31
373.879	429.73
374.26	412.79
374.641	437.42
375.021	420.7
375.402	441.03
375.783	440.36
376.163	472.45
376.544	483.29
376.925	480.35
377.305	453.01
377.686	459.79
378.066	471.77
378.447	501.37
378.827	481.48
379.208	483.52
379.588	478.77
379.968	479.22
380.349	502.73
380.729	513.8
381.109	508.83
381.489	506.12
381.87	514.03
382.25	516.51
382.63	530.07
383.01	532.78
383.39	534.14
383.77	525.78
384.15	555.15
384.53	540.69
384.91	541.6
385.29	543.86
385.67	586.11
386.049	571.2
386.429	560.8
386.809	562.61
387.189	576.17
387.568	607.36
387.948	597.87
388.328	609.16
388.707	607.13
389.087	610.29
389.466	622.95
389.846	646
390.225	654.59
390.605	652.55
390.984	661.59
391.363	688.48
391.743	705.89
392.122	691.65
392.501	707.02
392.881	697.07
393.26	717.18
393.639	701.37
394.018	707.02
394.397	740.46
394.776	757.64
395.155	756.05
395.534	738.88
395.913	774.58
396.292	763.29
396.671	782.27
397.05	810.52
397.429	808.26
397.808	784.3
398.186	804.41
398.565	811.65
398.944	826.33
399.323	825.43
399.701	834.24
400.08	865.43
400.458	842.15
400.837	868.14
401.215	865.66
401.594	876.5
401.972	891.87
402.351	907.46
402.729	915.37
403.107	925.31
403.486	946.11
403.864	958.31
404.242	969.61
404.62	987.46
404.999	966.22
405.377	989.49
405.755	996.73
406.133	1002.6
406.511	1042.83
406.889	1032.88
407.267	1063.84
407.645	1064.97
408.023	1097.29
408.401	1113.33
408.779	1125.31
409.156	1139.32
409.534	1152.2
409.912	1160.56
410.29	1205.53
410.667	1195.59
411.045	1271.29
411.422	1251.41
411.8	1243.5
412.178	1268.13
412.555	1294.34
412.933	1334.34
413.31	1329.82
413.687	1360.33
414.065	1356.04
414.442	1358.3
414.819	1390.61
415.197	1405.53
415.574	1412.08
415.951	1443.04
416.328	1465.87
416.705	1486.66
417.082	1497.5
417.46	1503.6
417.837	1524.85
418.214	1504.96
418.591	1535.47
418.967	1581.34
419.344	1564.62
419.721	1622.25
420.098	1575.92
420.475	1630.61
420.852	1651.85
421.228	1692.98
421.605	1698.18
421.982	1727.78
422.358	1716.48
422.735	1740.89
423.111	1777.95
423.488	1823.82
423.864	1795.12
424.241	1850.26
424.617	1850.49
424.994	1840.77
425.37	1919.19
425.746	1875.8
426.123	1948.11
426.499	1986.08
426.875	1981.11
427.251	2044.16
427.627	2054.55
428.003	2054.1
428.379	2121.44
428.756	2138.62
429.132	2191.27
429.507	2176.58
429.883	2222.91
430.259	2276.01
430.635	2266.07
431.011	2298.39
431.387	2361.44
431.763	2403.24
432.138	2427.42
432.514	2417.03
432.89	2477.59
433.265	2530.47
433.641	2559.17
434.016	2566.63
434.392	2632.39
434.767	2688.21
435.143	2647.98
435.518	2748.09
435.894	2752.61
436.269	2825.83
436.644	2836.9
437.02	2872.16
437.395	2881.42
437.77	2906.96
438.145	2965.94
438.52	2985.37
438.895	3035.32
439.271	3010.91
439.646	3105.37
440.021	3096.11
440.395	3110.57
440.77	3092.26
441.145	3180.62
441.52	3228.3
441.895	3226.27
442.27	3274.41
442.645	3299.04
443.019	3321.18
443.394	3358.02
443.769	3376.55
444.143	3337.91
444.518	3417
444.892	3420.16
445.267	3481.18
445.641	3524.34
446.016	3534.74
446.39	3540.84
446.764	3569.54
447.139	3547.84
447.513	3614.51
447.887	3616.77
448.262	3686.37
448.636	3695.86
449.01	3733.6
449.384	3797.33
449.758	3818.8
450.132	3849.98
450.506	3878.01
450.88	3901.06
451.254	3941.51
451.628	4039.13
452.002	4099.92
452.376	4071.67
452.75	4107.6
453.123	4158.22
453.497	4281.38
453.871	4252.23
454.244	4365.68
454.618	4400.25
454.992	4395.28
455.365	4458.56
455.739	4582.85
456.112	4659.45
456.486	4671.2
456.859	4670.07
457.232	4835.27
457.606	4812.22
457.979	4901.03
458.352	5011.08
458.725	5048.14
459.099	5053.34
459.472	5190.06
459.845	5256.05
460.218	5312.32
460.591	5337.18
460.964	5378.53
461.337	5526.1
461.71	5600.22
462.083	5678.41
462.456	5644.51
462.829	5708.69
463.201	5792.53
463.574	5867.56
463.947	5976.26
464.32	6098.96
464.692	6126.99
465.065	6159.3
465.438	6279.07
465.81	6373.98
466.183	6491.95
466.555	6609.91
466.928	6655.56
467.3	6643.81
467.672	6749.12
468.045	6973.74
468.417	6986.4
468.789	7008.77
469.161	7156.34
469.534	7280.18
469.906	7413.96
470.278	7418.25
470.65	7594.29
471.022	7742.08
471.394	7855.75
471.766	7933.49
472.138	7970.78
472.51	8198.57
472.882	8339.13
473.253	8473.82
473.625	8579.35
473.997	8819.8
474.369	8771.21
474.74	8933.47
475.112	9057.76
475.484	9220.46
475.855	9417.97
476.227	9474.02
476.598	9711.75
476.97	9871.52
477.341	10035.81
477.713	10269.93
478.084	10271.96
478.455	10560.77
478.827	10646.41
479.198	10949.23
479.569	11006.63
479.94	11339.96
480.311	11426.51
480.682	11722.32
481.053	11920.28
481.424	12158.24
481.795	12314.39
482.166	12448.63
482.537	12696.53
482.908	12939.46
483.279	13062.85
483.65	13305.78
484.021	13565.66
484.391	13751.42
484.762	13882.49
485.133	13984.41
485.503	14256.26
485.874	14568.57
486.244	14696.48
486.615	15014.44
486.985	15103.7
487.356	15436.57
487.726	15611.48
488.097	15934.19
488.467	16068.19
488.837	16303.89
489.207	16627.27
489.578	16766.93
489.948	16948.17
490.318	17227.94
490.688	17265.9
491.058	17430.42
491.428	17751.76
491.798	18047.35
492.168	18350.39
492.538	18589.03
492.908	18606.43
493.278	18931.17
493.648	18867.67
494.017	19212.52
494.387	19407.09
494.757	19609.57
495.126	19763.92
495.496	19782.67
495.866	19938.37
496.235	20288.42
496.605	20443.45
496.974	20622.2
497.344	20720.5
497.713	20875.3
498.082	21094.73
498.452	21390.09
498.821	21430.76
499.19	21486.81
499.559	21829.4
499.928	21915.72
500.298	22110.75
500.667	22275.26
501.036	22283.17
501.405	22503.73
501.774	22611.07
502.143	22838.18
502.512	22931.74
502.88	23264.61
503.249	23114.34
503.618	23362.46
503.987	23534.89
504.356	23741.89
504.724	23825.73
505.093	24038.61
505.462	24139.39
505.83	24451.02
506.199	24565.37
506.567	24750.22
506.936	24817.79
507.304	25071.12
507.672	25319.02
508.041	25361.51
508.409	25519.47
508.777	25810.99
509.145	26103.64
509.514	26131.88
509.882	26268.6
510.25	26420.92
510.618	26574.13
510.986	26784.75
511.354	26989.94
511.722	27281.91
512.09	27441
512.458	27473.77
512.826	27755.57
513.193	27961.89
513.561	28034.66
513.929	28282.79
514.297	28545.83
514.664	28779.95
515.032	28872.6
515.4	29106.49
515.767	29353.95
516.135	29598.69
516.502	29476.2
516.869	30103.76
517.237	30145.11
517.604	30080.03
517.972	30529.96
518.339	30835.71
518.706	30816.51
519.073	30962.72
519.44	31220.79
519.808	31635.69
520.175	31588.69
520.542	32102.35
520.909	32252.17
521.276	32288.56
521.643	32648.55
522.009	32944.81
522.376	33193.62
522.743	33532.59
523.11	33716.54
523.477	34069.75
523.843	34141.39
524.21	34532.11
524.577	34701.83
524.943	34972.56
525.31	35174.13
525.676	35548.81
526.043	35824.96
526.409	35882.81
526.776	36307.44
527.142	36474.21
527.508	36819.74
527.874	36978.6
528.241	37231.93
528.607	37209.56
528.973	37627.85
529.339	37877.11
529.705	38089.99
530.071	38367.95
530.437	38559.58
530.803	38823.75
531.169	39104.2
531.535	39144.87
531.901	39224.65
532.267	39305.32
532.632	39636.16
532.998	39833.44
533.364	40128.35
533.73	40250.61
534.095	40494.22
534.461	40617.15
534.826	40933.3
535.192	41070.25
535.557	41404.93
535.923	41310.47
536.288	41475.66
536.653	41679.5
537.019	41721.98
537.384	41836.78
537.749	42064.35
538.114	42215.98
538.479	42354.51
538.845	42555.86
539.21	42590.43
539.575	42806.93
539.94	42950.2
540.305	43157.2
540.67	43215.5
541.034	43405.33
541.399	43499.79
541.764	43728.71
542.129	43889.83
542.494	43928.03
542.858	44030.62
543.223	44220.9
543.587	44525.3
543.952	44538.18
544.316	44692.98
544.681	44680.1
545.045	44852.3
545.41	45158.5
545.774	45231.04
546.138	45280.08
546.503	45344.49
546.867	45363.92
547.231	45916.22
547.595	45763.68
547.959	45955.09
548.324	46007.29
548.688	46198.93
549.052	46372.48
549.416	46491.35
549.779	46500.61
550.143	46739.93
550.507	47016.76
550.871	47004.78
551.235	47078.68
551.599	47389.63
551.962	47434.15
552.326	47580.36
552.689	47785.55
553.053	47684.99
553.417	47885.21
553.78	48309.61
554.143	48189.61
554.507	48419.21
554.87	48616.94
555.234	49099.42
555.597	48763.15
555.96	49031.39
556.323	49304.61
556.686	49244.72
557.05	49489.46
557.413	49701.66
557.776	49716.8
558.139	49844.48
558.502	50007.87
558.865	50143
559.228	50472.49
559.59	50531.02
559.953	50535.99
560.316	50988.41
560.679	50921.06
561.041	51079.25
561.404	51340.26
561.767	51516.07
562.129	51391.33
562.492	51775.95
562.854	51773.02
563.217	51851.66
563.579	51966.46
563.941	52209.16
564.304	52422.49
564.666	52558.76
565.028	52574.13
565.39	52730.96
565.753	52893.21
566.115	53064.06
566.477	53136.82
566.839	53202.58
567.201	53468.57
567.563	53344.73
567.925	53656.58
568.287	53697.26
568.648	53738.16
569.01	53997.59
569.372	54100.41
569.734	54059.74
570.095	54262.67
570.457	54366.85
570.819	54424.02
571.18	54458.82
571.542	54626.05
571.903	54624.02
572.265	54862.2
572.626	54853.84
572.987	54894.07
573.349	55041.41
573.71	55070.56
574.071	55170.44
574.432	55270.78
574.794	55479.81
575.155	55434.84
575.516	55346.26
575.877	55534.5
576.238	55582.63
576.599	55683.2
576.96	55629.86
577.32	55720.94
577.681	55843.19
578.042	55890.65
578.403	55962.06
578.763	55930.2
579.124	56014.71
579.485	56028.95
579.845	56135.16
580.206	56088.61
580.566	56079.34
580.927	56176.29
581.287	56350.3
581.648	56122.06
582.008	56336.29
582.368	56215.16
582.728	56317.76
583.089	56243.86
583.449	56233.92
583.809	56293.58
584.169	56413.35
584.529	56306.46
584.889	56488.37
585.249	56324.31
585.609	56214.48
585.969	56439.11
586.329	56280.24
586.688	56426.68
587.048	56376.96
587.408	56301.71
587.768	56384.2
588.127	56350.3
588.487	56347.59
588.846	56560.24
589.206	56341.03
589.565	56448.37
589.925	56482.05
590.284	56404.31
590.643	56513.23
591.003	56498.99
591.362	56575.83
591.721	56569.95
592.08	56529.5
592.44	56655.83
592.799	56662.38
593.158	56597.75
593.517	56618.31
593.876	56644.3
594.235	56523.85
594.593	56615.15
594.952	56675.26
595.311	56576.73
595.67	56649.27
596.029	56763.62
596.387	56775.15
596.746	56871.87
597.104	56678.42
597.463	56734.69
597.822	56890.62
598.18	56761.36
598.538	56773.79
598.897	56951.41
599.255	56734.92
599.613	57036.38
599.972	56846.1
600.33	57018.53
600.688	56886.78
601.046	57040.22
601.404	57065.53
601.762	57030.28
602.12	57071.63
602.478	57128.81
602.836	57165.64
603.194	57018.98
603.552	57058.53
603.91	56978.53
604.268	57116.15
604.625	57142.59
604.983	57219.43
605.341	57113.67
605.698	57295.36
606.056	57328.35
606.413	57253.78
606.771	57413.77
607.128	57418.29
607.485	57321.8
607.843	57338.07
608.2	57450.83
608.557	57517.5
608.914	57422.81
609.272	57582.13
609.629	57606.76
609.986	57614.45
610.343	57567.22
610.7	57750.49
611.057	57707.1
611.414	57715.23
611.771	57773.31
612.127	57815.34
612.484	57775.57
612.841	57889.01
613.198	57820.99
613.554	57910.71
613.911	57957.71
614.267	57931.05
614.624	57884.49
614.98	58000.2
615.337	58121.1
615.693	58121.55
616.05	58039.07
616.406	58205.84
616.762	58068.67
617.118	58057.37
617.475	58128.33
617.831	58190.93
618.187	58188.22
618.543	58198.61
618.899	58313.41
619.255	58348.89
619.611	58231.83
619.967	58396.8
620.323	58344.82
620.678	58285.39
621.034	58201.1
621.39	58252.85
621.746	58313.41
622.101	58509.34
622.457	58252.39
622.812	58329.23
623.168	58351.15
623.523	58387.31
623.879	58423.69
624.234	58325.39
624.589	58374.43
624.945	58441.99
625.3	58395.44
625.655	58349.34
626.01	58398.15
626.365	58415.78
626.72	58387.08
627.075	58391.83
627.43	58365.16
627.785	58318.16
628.14	58298.5
628.495	58338.95
628.85	58275.45
629.205	58171.72
629.559	58391.15
629.914	58199.97
630.269	58298.5
630.623	58204.49
630.978	58138.95
631.332	58225.05
631.687	58317.03
632.041	58133.53
632.396	58136.01
632.75	58034.32
633.104	58123.58
633.459	57988.67
633.813	58008.79
634.167	57994.77
634.521	57997.71
634.875	58011.5
635.229	57897.15
635.583	57773.99
635.937	57818.28
636.291	57729.02
636.645	57750.04
636.999	57740.54
637.352	57755.01
637.706	57585.29
638.06	57731.5
638.413	57705.06
638.767	57607.89
639.121	57599.53
639.474	57397.28
639.828	57485.86
640.181	57487.22
640.534	57399.31
640.888	57429.82
641.241	57269.37
641.594	57351.85
641.947	57434.79
642.301	57327.67
642.654	57360.21
643.007	57227.34
643.36	57260.78
643.713	57207.68
644.066	57317.28
644.419	57119.32
644.771	56930.4
645.124	56704.19
645.477	56583.06
645.83	56438.66
646.182	56368.38
646.535	56250.64
646.888	56316.63
647.24	56190.53
647.593	56297.19
647.945	56213.35
648.298	56131.09
648.65	55979.91
649.002	56014.26
649.355	56030.98
649.707	55971.78
650.059	56169.29
650.411	56442.05
650.763	56400.69
651.115	56761.36
651.467	56578.54
651.819	56525.89
652.171	56467.13
652.523	56395.95
652.875	56421.71
653.227	56330.41
653.578	56426.91
653.93	56424.65
654.282	56233.24
654.633	56174.71
654.985	56306.91
655.337	56333.8
655.688	56299.23
656.039	56298.77
656.391	56014.71
656.742	56083.19
657.094	56234.59
657.445	56224.88
657.796	56218.55
658.147	56126.58
658.498	56058.55
658.849	56107.37
659.2	56030.53
659.551	56062.62
659.902	56131.32
660.253	56051.77
660.604	56122.51
660.955	55934.49
661.306	56087.71
661.656	55999.12
662.007	55975.84
662.358	55912.57
662.708	56004.09
663.059	55883.42
663.409	55755.06
663.76	55881.38
664.11	55835.28
664.461	55813.14
664.811	55800.93
665.161	55864.21
665.511	55746.92
665.862	55812.69
666.212	55882.74
666.562	55816.3
666.912	55771.33
667.262	55786.47
667.612	55762.06
667.962	55730.43
668.312	55732.46
668.662	55808.84
669.011	55736.08
669.361	55750.77
669.711	55684.55
670.06	55632.12
670.41	55594.39
670.76	55562.52
671.109	55600.94
671.459	55581.96
671.808	55578.79
672.157	55664.67
672.507	55337.22
672.856	55528.4
673.205	55511
673.554	55528.85
673.904	55375.18
674.253	55539.47
674.602	55535.4
674.951	55070.11
675.3	55017.23
675.649	55440.49
675.998	55331.57
676.346	55353.71
676.695	55364.56
677.044	55205.92
677.393	55289.76
677.741	55312.81
678.09	55271.68
678.438	55149.2
678.787	55169.99
679.135	55205.02
679.484	55100.39
679.832	55141.97
680.181	54938.36
680.529	55038.69
680.877	54878.92
681.225	54906.95
681.573	55059.71
681.922	54909.21
682.27	54830.79
682.618	54743.33
682.966	54703.79
683.314	54678.25
683.661	54610.23
684.009	54547.41
684.357	54467.18
684.705	54414.76
685.053	54420.86
685.4	54375.66
685.748	54305.61
686.095	54264.25
686.443	54140.86
686.79	54046.63
687.138	54012.96
687.485	54064.03
687.832	54007.08
688.18	53993.3
688.527	53797.82
688.874	53768.22
689.221	53665.62
689.568	53626.53
689.915	53542.24
690.262	53625.17
690.609	53412.97
690.956	53375.01
691.303	53281.9
691.65	53150.16
691.997	53080.55
692.344	52965.53
692.69	52906.09
693.037	52986.32
693.383	52756.27
693.73	52846.66
694.077	52686.21
694.423	52681.02
694.769	52499.78
695.116	52476.28
695.462	52472.43
695.808	52433.56
696.155	52370.52
696.501	52135.27
696.847	52274.25
697.193	51899.57
697.539	52040.13
697.885	51800.36
698.231	51825.22
698.577	51836.29
698.923	51629.07
699.269	51451.9
699.614	51265.69
699.96	51243.31
700.306	51269.98
700.651	51124.22
700.997	50985.69
701.342	50929.42
701.688	50898.01
702.033	50742.31
702.379	50684.01
702.724	50552.48
703.069	50580.96
703.415	50291.7
703.76	50248.09
704.105	50158.14
704.45	50028.66
704.795	49962.9
705.14	49828.44
705.485	49810.36
705.83	49692.85
706.175	49698.5
706.52	49671.83
706.865	49585.5
707.209	49513.87
707.554	49425.28
707.899	49515.22
708.243	49225.29
708.588	49156.14
708.932	48730.16
709.277	48832.3
709.621	49051.51
709.966	48652.65
710.31	48763.6
710.654	48316.38
710.998	48438.87
711.342	48529.94
711.687	48336.05
712.031	48113
712.375	48070.97
712.719	48043.62
713.063	48052.89
713.407	48136.28
713.75	47762.5
714.094	47781.94
714.438	47634.14
714.782	47655.84
715.125	47453.36
715.469	47525.67
715.812	47235.96
716.156	46945.35
716.499	47040.03
716.843	47062.86
717.186	46843.2
717.53	47145.57
717.873	46963.65
718.216	46958.45
718.559	46828.06
718.902	46625.13
719.246	46675.52
719.589	46523.44
719.932	46514.17
720.275	46546.94
720.617	46299.26
720.96	46172.49
721.303	46142.43
721.646	46134.52
721.989	45927.75
722.331	46048.42
722.674	45963.45
723.016	46038.93
723.359	45900.18
723.701	45848.2
724.044	45582.67
724.386	45536.8
724.729	45582.9
725.071	45526.63
725.413	45384.71
725.755	45452.73
726.097	45148.33
726.439	44872.41
726.782	44931.62
727.124	45177.94
727.465	44741.11
727.807	44830.15
728.149	44763.03
728.491	44685.29
728.833	44761.22
729.175	44535.92
729.516	44584.73
729.858	44474.23
730.199	44451.85
730.541	44417.73
730.882	44322.82
731.224	44408.69
731.565	44122.82
731.906	44129.38
732.248	44188.13
732.589	43873.11
732.93	43871.53
733.271	43832.44
733.612	43911.53
733.953	43757.18
734.294	43706.79
734.635	43435.38
734.976	43808.71
735.317	43325.1
735.658	43352
735.999	43335.5
736.339	43155.16
736.68	43406.46
737.021	43150.19
737.361	42923.98
737.702	43199.23
738.042	42834.72
738.383	42851.22
738.723	42933.25
739.063	42760.6
739.404	42742.75
739.744	42727.38
740.084	42584.33
740.424	42550.43
740.764	42428.63
741.104	42607.61
741.444	42370.78
741.784	42109.99
742.124	42135.08
742.464	42086.04
742.804	42072.71
743.143	42022.99
743.483	41943.67
743.823	41644.02
744.162	41654.64
744.502	41904.35
744.841	41608.09
745.181	41768.99
745.52	41576.22
745.86	41629.1
746.199	41519.95
746.538	41376
746.877	41390.47
747.216	41478.37
747.556	41126.07
747.895	41061.66
748.234	40967.88
748.573	40888.56
748.911	40869.12
749.25	40801.55
749.589	40703.7
749.928	40671.39
750.267	40666.64
750.605	40453.99
750.944	40373.09
751.283	40340.32
751.621	40417.84
751.96	40163.38
752.298	40183.49
752.636	40269.59
