Data from plate_porcelain_FLMS001491_046.txt Node
Date: Tue Feb 07 11:19:23 GMT 2017
User: dcchb
Spectrometer: FLMS00149
Trigger mode: 0
Integration Time (sec): 2.000000E-2
Scans to average: 10
Electric dark correction enabled: true
Nonlinearity correction enabled: false
Boxcar width: 0
XAxis mode: Wavelengths
Number of Pixels in Spectrum: 2048
>>>>>Begin Spectral Data<<<<<
341.393	-26.5
341.776	-26.5
342.16	-26.5
342.543	-40.28
342.927	-66.04
343.31	-72.82
343.693	-68.08
344.077	-41.41
344.46	-74.63
344.843	-66.95
345.226	-36.21
345.61	-24.91
345.993	-10.68
346.376	2.2
346.759	29.55
347.142	33.39
347.525	36.55
347.908	61.86
348.291	58.02
348.674	80.62
349.057	93.5
349.44	110.45
349.823	138.02
350.206	162.2
350.588	228.64
350.971	229.09
351.354	270.9
351.737	279.48
352.119	281.52
352.502	311.8
352.884	310.67
353.267	318.13
353.65	319.94
354.032	336.43
354.414	354.74
354.797	346.38
355.179	365.13
355.562	380.05
355.944	366.26
356.326	399.03
356.709	382.31
357.091	391.35
357.473	395.19
357.855	406.49
358.238	390.22
358.62	390.67
359.002	375.07
359.384	396.32
359.766	419.82
360.148	386.37
360.53	377.11
360.912	398.58
361.294	387.05
361.676	397
362.057	387.96
362.439	398.8
362.821	396.54
363.203	392.25
363.584	409.42
363.966	377.11
364.348	382.98
364.729	374.4
365.111	377.56
365.493	373.72
365.874	381.85
366.256	380.95
366.637	390.89
367.019	402.87
367.4	386.83
367.781	417.11
368.163	407.16
368.544	418.24
368.925	399.48
369.306	428.63
369.688	392.7
370.069	407.39
370.45	428.86
370.831	420.95
371.212	417.79
371.593	407.62
371.974	418.92
372.355	402.42
372.736	431.12
373.117	423.89
373.498	415.07
373.879	429.31
374.26	425.24
374.641	418.01
375.021	423.21
375.402	460.5
375.783	452.14
376.163	459.37
376.544	491.23
376.925	448.29
377.305	460.27
377.686	425.24
378.066	475.86
378.447	451.46
378.827	478.12
379.208	475.41
379.588	481.96
379.968	485.13
380.349	487.16
380.729	490.55
381.109	505.01
381.489	512.7
381.87	480.16
382.25	522.64
382.63	516.31
383.01	517.44
383.39	539.14
383.77	520.38
384.15	534.17
384.53	509.08
384.91	536.65
385.29	535.07
385.67	536.65
386.049	549.76
386.429	572.36
386.809	583.88
387.189	564.22
387.568	594.05
387.948	611
388.328	610.55
388.707	609.87
389.087	611.23
389.466	624.79
389.846	623.66
390.225	617.55
390.605	634.28
390.984	664.56
391.363	640.38
391.743	657.1
392.122	666.82
392.501	677.67
392.881	674.28
393.26	704.78
393.639	699.81
394.018	704.78
394.397	719.25
394.776	742.97
395.155	728.96
395.534	731.9
395.913	735.52
396.292	734.61
396.671	756.08
397.05	785.23
397.429	762.41
397.808	761.96
398.186	788.62
398.565	810.54
398.944	793.82
399.323	802.63
399.701	817.1
400.08	808.96
400.458	815.06
400.837	845.12
401.215	859.81
401.594	857.1
401.972	873.82
402.351	888.06
402.729	891.45
403.107	905.68
403.486	911.56
403.864	895.51
404.242	933.7
404.62	938.68
404.999	953.14
405.377	951.1
405.755	992.01
406.133	989.97
406.511	971.22
406.889	1001.5
407.267	1058.9
407.645	1050.99
408.023	1057.99
408.401	1111.33
408.779	1079.69
409.156	1103.87
409.534	1108.16
409.912	1121.04
410.29	1128.5
410.667	1153.81
411.045	1188.84
411.422	1203.08
411.8	1226.35
412.178	1245.33
412.555	1243.98
412.933	1260.7
413.31	1277.2
413.687	1278.1
414.065	1307.25
414.442	1308.84
414.819	1334.15
415.197	1372.79
415.574	1378.89
415.951	1364.88
416.328	1414.82
416.705	1427.02
417.082	1450.75
417.46	1460.7
417.837	1474.03
418.214	1489.62
418.591	1496.4
418.967	1541.82
419.344	1535.04
419.721	1551.32
420.098	1547.93
420.475	1579.79
420.852	1575.04
421.228	1617.3
421.605	1615.27
421.982	1666.34
422.358	1666.11
422.735	1698.66
423.111	1676.96
423.488	1714.93
423.864	1726.68
424.241	1751.99
424.617	1793.57
424.994	1781.14
425.37	1825.66
425.746	1843.96
426.123	1887.58
426.499	1895.26
426.875	1918.76
427.251	1935.49
427.627	1981.36
428.003	2022.94
428.379	2006.67
428.756	2057.97
429.132	2069.04
429.507	2109.72
429.883	2135.48
430.259	2148.81
430.635	2173.67
431.011	2216.38
431.387	2281.92
431.763	2306.55
432.138	2324.63
432.514	2354.46
432.89	2362.14
433.265	2436.94
433.641	2461.12
434.016	2480.78
434.392	2519.2
434.767	2574.11
435.143	2556.26
435.518	2587.67
435.894	2585.19
436.269	2687.78
436.644	2696.37
437.02	2735.69
437.395	2756.71
437.77	2814.56
438.145	2828.8
438.52	2847.78
438.895	2886.65
439.271	2885.52
439.646	2946.76
440.021	2982.24
440.395	3033.99
440.77	2977.94
441.145	3052.74
441.52	3058.39
441.895	3093.87
442.27	3138.39
442.645	3149.01
443.019	3158.96
443.394	3182.01
443.769	3246.86
444.143	3226.07
444.518	3258.84
444.892	3252.29
445.267	3295.9
445.641	3367.54
446.016	3353.98
446.39	3396.24
446.764	3416.8
447.139	3411.83
447.513	3488.67
447.887	3485.73
448.262	3488.67
448.636	3529.34
449.01	3576.57
449.384	3637.59
449.758	3652.5
450.132	3726.4
450.506	3671.26
450.88	3735.44
451.254	3694.99
451.628	3832.16
452.002	3859.73
452.376	3902.67
452.75	3901.08
453.123	3958.94
453.497	4014.3
453.871	4041.87
454.244	4173.62
454.618	4184.92
454.992	4238.7
455.365	4256.78
455.739	4365.03
456.112	4409.32
456.486	4454.74
456.859	4511.69
457.232	4638.24
457.606	4538.58
457.979	4662.87
458.352	4723.89
458.725	4810.66
459.099	4887.5
459.472	4921.85
459.845	4966.82
460.218	5026.48
460.591	5113.93
460.964	5096.31
461.337	5233.7
461.71	5346.92
462.083	5432.57
462.456	5418.78
462.829	5420.82
463.201	5539.23
463.574	5576.97
463.947	5637.76
464.32	5800.92
464.692	5807.02
465.065	5868.26
465.438	5957.3
465.81	6061.71
466.183	6122.27
466.555	6232.1
466.928	6293.34
467.3	6344.41
467.672	6443.39
468.045	6606.32
468.417	6592.76
468.789	6668.92
469.161	6771.74
469.534	6854.45
469.906	6990.04
470.278	7110.04
470.65	7166.31
471.022	7233.2
471.394	7467.54
471.766	7483.36
472.138	7647.88
472.51	7777.59
472.882	7837.25
473.253	7989.11
473.625	8126.96
473.997	8294.41
474.369	8323.57
474.74	8482.21
475.112	8603.11
475.484	8749.09
475.855	8984.57
476.227	8972.36
476.598	9281.06
476.97	9318.34
477.341	9543.87
477.713	9715.17
478.084	9737.09
478.455	10047.59
478.827	10128.26
479.198	10360.12
479.569	10372.78
479.94	10743.62
480.311	10888.24
480.682	11124.4
481.053	11396.48
481.424	11508.57
481.795	11612.52
482.166	11897.48
482.537	11928.9
482.908	12215.44
483.279	12403.01
483.65	12591.25
484.021	12903.11
484.391	13005.93
484.762	13141.07
485.133	13265.58
485.503	13473.04
485.874	13754.16
486.244	13937.2
486.615	14194.37
486.985	14383.07
487.356	14573.57
487.726	14726.34
488.097	15065.76
488.467	15123.61
488.837	15381.91
489.207	15570.61
489.578	15868.45
489.948	16065.74
490.318	16178.95
490.688	16199.52
491.058	16510.47
491.428	16800.86
491.798	16952.72
492.168	17306.16
492.538	17361.97
492.908	17612.59
493.278	17922.41
493.648	17942.52
494.017	18157.66
494.387	18344.09
494.757	18529.4
495.126	18691.43
495.496	18760.35
495.866	18866.11
496.235	19071.53
496.605	19278.31
496.974	19419.09
497.344	19665.19
497.713	19714
498.082	19888.46
498.452	20150.6
498.821	20262.46
499.19	20290.71
499.559	20527.09
499.928	20625.39
500.298	20819.74
500.667	21079.16
501.036	21099.73
501.405	21259.05
501.774	21401.41
502.143	21633.5
502.512	21679.15
502.88	21903.1
503.249	21960.72
503.618	22143.32
503.987	22155.07
504.356	22466.02
504.724	22529.29
505.093	22736.07
505.462	22870.75
505.83	22933.8
506.199	23179.45
506.567	23394.36
506.936	23451.53
507.304	23687.68
507.672	23799.77
508.041	23988.69
508.409	24201.34
508.777	24356.37
509.145	24571.05
509.514	24599.3
509.882	24924.26
510.25	24871.38
510.618	25110.24
510.986	25284.48
511.354	25517.24
511.722	25699.83
512.09	26014.17
512.458	25866.16
512.826	26123.78
513.193	26396.09
513.561	26533.94
513.929	26827.03
514.297	26968.5
514.664	27149.51
515.032	27297.76
515.4	27591.53
515.767	27648.71
516.135	27958.08
516.502	27816.61
516.869	28319.65
517.237	28376.6
517.604	28278.07
517.972	28777.04
518.339	28986.3
518.706	29068.56
519.073	29291.15
519.44	29579.05
519.808	29853.17
520.175	29893.85
520.542	30368.18
520.909	30494.28
521.276	30423.32
521.643	30799.13
522.009	31110.76
522.376	31332.9
522.743	31466.46
523.11	31884.3
523.477	32086.78
523.843	32309.15
524.21	32731.51
524.577	32836.82
524.943	32914.78
525.31	33180.31
525.676	33452.4
526.043	33718.15
526.409	33814.42
526.776	34237.46
527.142	34367.4
527.508	34685.13
527.874	34907.27
528.241	35034.05
528.607	35217.32
528.973	35617.54
529.339	35569.63
529.705	35996.29
530.071	36314.24
530.437	36515.14
530.803	36731.18
531.169	36852.31
531.535	36819.99
531.901	37072.42
532.267	37293.88
532.632	37479.18
532.998	37621.33
533.364	37905.61
533.73	38001.88
534.095	38380.86
534.461	38464.24
534.826	38767.96
535.192	38730.68
535.557	39124.34
535.923	39097.9
536.288	39275.07
536.653	39571.78
537.019	39430.77
537.384	39599.58
537.749	39795.51
538.114	39909.4
538.479	40170.86
538.845	40211.09
539.21	40186.91
539.575	40465.32
539.94	40594.36
540.305	40828.47
540.67	40802.03
541.034	41159.99
541.399	41270.27
541.764	41327.67
542.129	41549.59
542.494	41588.23
542.858	41842.23
543.223	41903.25
543.587	42025.51
543.952	42051.04
544.316	42343.69
544.681	42388.21
545.045	42572.84
545.41	42697.8
545.774	42879.04
546.138	42857.8
546.503	43030
546.867	43067.29
547.231	43473.38
547.595	43586.14
547.959	43724.22
548.324	43873.59
548.688	43881.95
549.052	44033.14
549.416	44121.27
549.779	44253.02
550.143	44452.33
550.507	44631.54
550.871	44660.46
551.235	44672.67
551.599	45089.38
551.962	45182.26
552.326	45233.1
552.689	45543.15
553.053	45494.34
553.417	45591.97
553.78	46127.32
554.143	45986.98
554.507	46288.22
554.87	46300.2
555.234	46640.3
555.597	46588.55
555.96	46802.78
556.323	46997.58
556.686	46929.33
557.05	47350.11
557.413	47358.47
557.776	47623.78
558.139	47803.43
558.502	47896.31
558.865	48023.99
559.228	48245.45
559.59	48420.14
559.953	48466.47
560.316	48891.99
560.679	48795.27
561.041	49150.74
561.404	49355.26
561.767	49536.27
562.129	49344.41
562.492	49874.34
562.854	49926.77
563.217	49846.32
563.579	49999.08
563.941	50370.37
564.304	50482.68
564.666	50753.64
565.028	50708.89
565.39	50816.69
565.753	51110.46
566.115	51137.36
566.477	51252.16
566.839	51328.76
567.201	51597.46
567.563	51635.42
567.925	51868.64
568.287	51930.33
568.648	51973.04
569.01	52214.39
569.372	52293.03
569.734	52203.77
570.095	52554.04
570.457	52676.07
570.819	52680.37
571.18	52726.24
571.542	52941.6
571.903	52926.01
572.265	53034.71
572.626	53221.14
572.987	53281.93
573.349	53365.55
573.71	53449.84
574.071	53535.94
574.432	53547.46
574.794	53820.68
575.155	53798.08
575.516	53742.94
575.877	53885.98
576.238	53918.98
576.599	54086.43
576.96	54045.75
577.32	54113.32
577.681	54144.06
578.042	54283.26
578.403	54307.22
578.763	54362.36
579.124	54358.97
579.485	54488.45
579.845	54479.87
580.206	54525.06
580.566	54498.85
580.927	54615.91
581.287	54615.23
581.648	54542.01
582.008	54734.55
582.368	54644.38
582.728	54680.09
583.089	54728.22
583.449	54669.69
583.809	54769.12
584.169	54841.89
584.529	54789.24
584.889	54941.32
585.249	54706.08
585.609	54739.75
585.969	54845.96
586.329	54731.39
586.688	54814.55
587.048	54815.68
587.408	54781.55
587.768	54787.43
588.127	54697.26
588.487	54784.72
588.846	54855.22
589.206	54805.28
589.565	54878.95
589.925	54968.44
590.284	54932.74
590.643	54967.99
591.003	55038.72
591.362	55055.45
591.721	54968.67
592.08	55022.68
592.44	55165.05
592.799	55096.12
593.158	55094.54
593.517	55054.77
593.876	55026.97
594.235	55024.26
594.593	55092.73
594.952	55191.94
595.311	55143.13
595.67	55126.86
596.029	55184.26
596.387	55217.25
596.746	55313.52
597.104	55097.03
597.463	55165.5
597.822	55259.51
598.18	55142.67
598.538	55191.03
598.897	55359.84
599.255	55182.67
599.613	55569.1
599.972	55335.89
600.33	55398.71
600.688	55290.92
601.046	55453.17
601.404	55600.97
601.762	55460.41
602.12	55617.92
602.478	55639.38
602.836	55666.05
603.194	55497.47
603.552	55521.2
603.91	55510.57
604.268	55654.3
604.625	55625.37
604.983	55746.95
605.341	55602.1
605.698	55794.63
606.056	55803.45
606.413	55753.51
606.771	55844.12
607.128	55962.31
607.485	55804.58
607.843	55786.27
608.2	55988.75
608.557	56039.6
608.914	55922.99
609.272	56068.53
609.629	56114.4
609.986	56143.55
610.343	56059.71
610.7	56256.32
611.057	56238.92
611.414	56214.96
611.771	56251.35
612.127	56360.27
612.484	56336.54
612.841	56406.82
613.198	56259.26
613.554	56355.52
613.911	56522.07
614.267	56460.15
614.624	56404.34
614.98	56581.96
615.337	56638.68
615.693	56593.03
616.05	56555.29
616.406	56701.96
616.762	56637.55
617.118	56581.05
617.475	56644.78
617.831	56744.89
618.187	56665.12
618.543	56689.3
618.899	56827.15
619.255	56873.93
619.611	56766.13
619.967	56890.2
620.323	56855.62
620.678	56812.69
621.034	56773.14
621.39	56811.78
621.746	56778.79
622.101	57040.7
622.457	56846.13
622.812	56855.4
623.168	56907.15
623.523	56851.33
623.879	57001.16
624.234	56790.09
624.589	56928.16
624.945	56946.92
625.3	56974.72
625.655	56936.3
626.01	56938.79
626.365	56984.66
626.72	57026.92
627.075	56901.72
627.43	56897.66
627.785	56827.83
628.14	56883.87
628.495	56864.66
628.85	56811.33
629.205	56768.85
629.559	56904.89
629.914	56716.87
630.269	56777.89
630.623	56739.69
630.978	56647.04
631.332	56757.32
631.687	56835.96
632.041	56666.25
632.396	56776.08
632.75	56610.21
633.104	56645.23
633.459	56440.27
633.813	56479.59
634.167	56495.41
634.521	56407.5
634.875	56452.47
635.229	56460.38
635.583	56296.77
635.937	56412.02
636.291	56307.84
636.645	56364.11
636.999	56189.65
637.352	56230.1
637.706	56142.42
638.06	56253.61
638.413	56221.29
638.767	56043.22
639.121	56143.1
639.474	55929.55
639.828	56022.43
640.181	55983.1
640.534	55947.4
640.888	55886.84
641.241	55821.07
641.594	55818.81
641.947	55879.15
642.301	55843.45
642.654	55739.72
643.007	55824.92
643.36	55737.01
643.713	55681.19
644.066	55766.16
644.419	55577.92
644.771	55401.2
645.124	55163.01
645.477	55081.89
645.83	54892.06
646.182	54804.83
646.535	54758.73
646.888	54730.26
647.24	54529.13
647.593	54706.08
647.945	54648.68
648.298	54544.05
648.65	54407.78
649.002	54386.31
649.355	54439.19
649.707	54402.81
650.059	54503.37
650.411	54840.76
650.763	54897.26
651.115	55169.57
651.467	55030.36
651.819	55057.25
652.171	54923.47
652.523	54910.14
652.875	54824.26
653.227	54705.4
653.578	54941.78
653.93	54776.36
654.282	54711.5
654.633	54629.69
654.985	54674.89
655.337	54685.96
655.688	54681.44
656.039	54713.76
656.391	54571.39
656.742	54553.09
657.094	54595.34
657.445	54691.61
657.796	54595.8
658.147	54531.84
658.498	54477.38
658.849	54479.64
659.2	54499.75
659.551	54327.78
659.902	54582.01
660.253	54482.8
660.604	54490.71
660.955	54276.48
661.306	54421.79
661.656	54311.06
662.007	54365.52
662.358	54300.89
662.708	54324.84
663.059	54255.69
663.409	54160.78
663.76	54220.66
664.11	54219.53
664.461	54216.6
664.811	54280.78
665.161	54198.97
665.511	54166.2
665.862	54203.26
666.212	54271.74
666.562	54331.4
666.912	54168.69
667.262	54210.72
667.612	54139.08
667.962	54180.21
668.312	54180.21
668.662	54264.05
669.011	54071.97
669.361	54084.4
669.711	53991.07
670.06	54049.14
670.41	53935.7
670.76	53895.25
671.109	54103.61
671.459	53947.45
671.808	53880.79
672.157	54030.61
672.507	53820.68
672.856	53863.84
673.205	53842.14
673.554	53958.75
673.904	53803.95
674.253	53883.72
674.602	53825.87
674.951	53484.41
675.3	53202.61
675.649	53704.75
675.998	53689.83
676.346	53680.34
676.695	53712.43
677.044	53546.78
677.393	53598.76
677.741	53687.57
678.09	53530.51
678.438	53533.23
678.787	53518.08
679.135	53591.98
679.484	53413
679.832	53496.39
680.181	53417.75
680.529	53376.17
680.877	53339.33
681.225	53213.01
681.573	53443.51
681.922	53219.56
682.27	53043.75
682.618	53144.53
682.966	52994.48
683.314	53061.37
683.661	52961.71
684.009	52724.21
684.357	52685.34
684.705	52753.81
685.053	52701.38
685.4	52695.73
685.748	52557.88
686.095	52481.95
686.443	52374.39
686.79	52291.68
687.138	52421.39
687.485	52463.42
687.832	52316.76
688.18	52363.31
688.527	52159.48
688.874	52067.95
689.221	51991.12
689.568	51813.04
689.915	51825.93
690.262	51851.69
690.609	51649.88
690.956	51562.66
691.303	51513.17
691.65	51348.42
691.997	51432.49
692.344	51187.98
692.69	51246.96
693.037	51332.15
693.383	50834.77
693.73	51101.88
694.077	50778.95
694.423	50797.48
694.769	50652.4
695.116	50496.92
695.462	50570.82
695.808	50523.36
696.155	50432.97
696.501	50249.47
696.847	50225.06
697.193	49953.88
697.539	50186.19
697.885	49923.15
698.231	49873.21
698.577	49836.83
698.923	49698.3
699.269	49339.89
699.614	49291.98
699.96	49318.87
700.306	49278.65
700.651	49192.1
700.997	49052.67
701.342	48965.66
701.688	48792.56
702.033	48733.58
702.379	48701.49
702.724	48528.61
703.069	48665.33
703.415	48211.11
703.76	48271.22
704.105	48277.77
704.45	48082.07
704.795	47829.42
705.14	47653.61
705.485	47713.72
705.83	47569.77
706.175	47612.02
706.52	47505.14
706.865	47280.28
707.209	47320.28
707.554	47249.77
707.899	47341.52
708.243	47037.58
708.588	47012.72
708.932	46683.46
709.277	46703.57
709.621	46746.06
709.966	46424.03
710.31	46440.98
710.654	46226.75
710.998	46261.1
711.342	46210.71
711.687	46147.43
712.031	46036.7
712.375	45895.23
712.719	45928.45
713.063	45734.56
713.407	45841.45
713.75	45583.15
714.094	45678.29
714.438	45370.95
714.782	45486.66
715.125	45250.51
715.469	45282.82
715.812	45064.97
716.156	44892.77
716.499	44864.53
716.843	44877.63
717.186	44695.04
717.53	44701.82
717.873	44757.86
718.216	44712.67
718.559	44583.18
718.902	44359.46
719.246	44516.74
719.589	44297.99
719.932	44098.45
720.275	44171.44
720.617	44090.08
720.96	43987.26
721.303	43986.36
721.646	43929.18
721.989	43684.44
722.331	43859.13
722.674	43595.63
723.016	43829.98
723.359	43574.17
723.701	43607.38
724.044	43256.21
724.386	43113.84
724.729	43318.13
725.071	43089.21
725.413	43061.64
725.755	42942.32
726.097	42998.13
726.439	42651.48
726.782	42807.41
727.124	42905.26
727.465	42590.46
727.807	42580.29
728.149	42479.05
728.491	42555.89
728.833	42440.41
729.175	42362.45
729.516	42122
729.858	42172.85
730.199	42037.48
730.541	42039.74
730.882	42035.9
731.224	42122.9
731.565	41774.21
731.906	41810.37
732.248	41892.85
732.589	41547.78
732.93	41423.04
733.271	41610.15
733.612	41645.4
733.953	41558.62
734.294	41345.75
734.635	41209.26
734.976	41341
735.317	41168.13
735.658	41112.31
735.999	41232.76
736.339	40915.48
736.68	41032.31
737.021	40847.46
737.361	40720
737.702	40908.47
738.042	40679.78
738.383	40638.65
738.723	40808.14
739.063	40557.97
739.404	40678.42
739.744	40544.64
740.084	40223.74
740.424	40375.15
740.764	40261.94
741.104	40315.04
741.444	40138.78
741.784	39871.66
742.124	39988.72
742.464	39982.17
742.804	39901.49
743.143	39870.08
743.483	39991.66
743.823	39645.23
744.162	39612.24
744.502	39587.6
744.841	39395.07
745.181	39665.12
745.52	39430.55
745.86	39511
746.199	39408.4
746.538	39343.99
746.877	39283.2
747.216	39137.67
747.556	38987.39
747.895	38930.22
748.234	38751.92
748.573	38807.74
748.911	38676.67
749.25	38705.37
749.589	38542.88
749.928	38660.17
750.267	38574.97
750.605	38473.51
750.944	38309.67
751.283	38222.44
751.621	38345.15
751.96	38023.58
752.298	38008.44
752.636	37952.62
