Data from plate_porcelain_FLMS001491_058.txt Node
Date: Tue Feb 07 11:19:33 GMT 2017
User: dcchb
Spectrometer: FLMS00149
Trigger mode: 0
Integration Time (sec): 2.000000E-2
Scans to average: 10
Electric dark correction enabled: true
Nonlinearity correction enabled: false
Boxcar width: 0
XAxis mode: Wavelengths
Number of Pixels in Spectrum: 2048
>>>>>Begin Spectral Data<<<<<
341.393	-18.04
341.776	-18.04
342.16	-18.04
342.543	-54.87
342.927	-62.78
343.31	-79.96
343.693	-61.42
344.077	-62.1
344.46	-75.21
344.843	-54.19
345.226	-56.91
345.61	-30.47
345.993	0.72
346.376	-27.3
346.759	19.48
347.142	34.39
347.525	22.87
347.908	59.7
348.291	89.76
348.674	111
349.057	109.64
349.44	116.42
349.823	126.14
350.206	167.72
350.588	251.79
350.971	235.74
351.354	262.18
351.737	278.23
352.119	309.41
352.502	308.06
352.884	325.68
353.267	315.51
353.65	316.19
354.032	343.08
354.414	341.05
354.797	358.68
355.179	365
355.562	362.74
355.944	364.78
356.326	373.82
356.709	384.89
357.091	395.51
357.473	393.93
357.855	371.11
358.238	380.37
358.62	385.34
359.002	399.81
359.384	399.35
359.766	393.7
360.148	400.71
360.53	400.94
360.912	383.08
361.294	399.13
361.676	394.38
362.057	377.89
362.439	374.04
362.821	375.4
363.203	400.48
363.584	402.07
363.966	379.69
364.348	405.23
364.729	414.72
365.111	397.77
365.493	394.61
365.874	389.86
366.256	393.93
366.637	391.22
367.019	395.96
367.4	419.69
367.781	395.96
368.163	377.66
368.544	409.07
368.925	401.16
369.306	407.94
369.688	425.12
370.069	425.57
370.45	413.82
370.831	417.88
371.212	422.63
371.593	413.59
371.974	419.92
372.355	427.38
372.736	427.83
373.117	423.53
373.498	413.14
373.879	428.73
374.26	449.3
374.641	410.65
375.021	418.79
375.402	437.77
375.783	445.23
376.163	483.87
376.544	467.15
376.925	479.35
377.305	469.86
377.686	443.42
378.066	454.95
378.447	486.36
378.827	464.21
379.208	478.67
379.588	487.49
379.968	476.19
380.349	486.58
380.729	494.72
381.109	501.5
381.489	526.13
381.87	499.24
382.25	489.97
382.63	520.71
383.01	510.09
383.39	550.08
383.77	538.11
384.15	551.21
384.53	532.46
384.91	550.99
385.29	556.64
385.67	562.74
386.049	562.51
386.429	571.33
386.809	570.65
387.189	575.39
387.568	576.98
387.948	583.3
388.328	614.49
388.707	584.21
389.087	619.69
389.466	620.14
389.846	624.88
390.225	647.71
390.605	616.75
390.984	638.22
391.363	653.13
391.743	677.09
392.122	667.82
392.501	670.76
392.881	698.33
393.26	695.84
393.639	707.37
394.018	707.37
394.397	734.26
394.776	715.28
395.155	735.16
395.534	730.64
395.913	726.58
396.292	751.21
396.671	759.12
397.05	775.62
397.429	771.77
397.808	744.66
398.186	784.2
398.565	833.92
398.944	788.5
399.323	795.28
399.701	836.63
400.08	835.95
400.458	830.98
400.837	855.61
401.215	849.74
401.594	861.94
401.972	877.31
402.351	903.97
402.729	891.77
403.107	898.32
403.486	916.4
403.864	935.16
404.242	919.79
404.62	905.1
404.999	945.55
405.377	963.86
405.755	988.72
406.133	977.19
406.511	1002.05
406.889	1009.96
407.267	1042.73
407.645	1040.24
408.023	1042.73
408.401	1063.97
408.779	1086.12
409.156	1110.52
409.534	1105.78
409.912	1136.06
410.29	1148.49
410.667	1165.21
411.045	1176.51
411.422	1211.08
411.8	1217.86
412.178	1256.05
412.555	1229.16
412.933	1242.95
413.31	1279.1
413.687	1294.25
414.065	1291.76
414.442	1328.82
414.819	1355.26
415.197	1337.41
415.574	1361.81
415.951	1398.65
416.328	1408.59
416.705	1407.91
417.082	1431.64
417.46	1441.81
417.837	1439.78
418.214	1490.85
418.591	1494.24
418.967	1484.07
419.344	1537.86
419.721	1533.34
420.098	1546.89
420.475	1610.4
420.852	1597.74
421.228	1613.79
421.605	1614.92
421.982	1609.94
422.358	1649.26
422.735	1694.46
423.111	1679.09
423.488	1736.04
423.864	1716.61
424.241	1761.35
424.617	1757.96
424.994	1787.57
425.37	1826.44
425.746	1794.12
426.123	1872.31
426.499	1878.41
426.875	1894.68
427.251	1903.72
427.627	1967.45
428.003	1980.33
428.379	2022.14
428.756	2020.55
429.132	2059.42
429.507	2106.65
429.883	2132.87
430.259	2147.33
430.635	2190.04
431.011	2178.06
431.387	2264.39
431.763	2310.94
432.138	2282.92
432.514	2305.97
432.89	2360.43
433.265	2404.05
433.641	2442.01
434.016	2447.89
434.392	2540.77
434.767	2573.99
435.143	2556.13
435.518	2592.29
435.894	2613.76
436.269	2617.6
436.644	2695.56
437.02	2727.43
437.395	2708.22
437.77	2769.69
438.145	2820.99
438.52	2856.69
438.895	2869.8
439.271	2885.39
439.646	2961.77
440.021	2980.53
440.395	2999.74
440.77	2979.85
441.145	3009.45
441.52	3040.87
441.895	3082.9
442.27	3066.4
442.645	3127.42
443.019	3150.69
443.394	3150.47
443.769	3224.36
444.143	3186.85
444.518	3284.02
444.892	3264.36
445.267	3308.2
445.641	3325.38
446.016	3322.89
446.39	3344.14
446.764	3390.46
447.139	3412.61
447.513	3461.87
447.887	3470.91
448.262	3487.41
448.636	3512.72
449.01	3561.08
449.384	3597.69
449.758	3609.89
450.132	3671.36
450.506	3660.51
450.88	3721.3
451.254	3689.44
451.628	3801.98
452.002	3881.3
452.376	3877.91
452.75	3936.44
453.123	3957.68
453.497	3999.71
453.871	4056.21
454.244	4109.09
454.618	4185.92
454.992	4221.4
455.365	4221.63
455.739	4319.25
456.112	4361.96
456.486	4429.53
456.859	4483.31
457.232	4568.28
457.606	4536.42
457.979	4661.16
458.352	4733.48
458.725	4798.11
459.099	4778.9
459.472	4923.75
459.845	4898.44
460.218	4996.97
460.591	5123.07
460.964	5072.23
461.337	5227.02
461.71	5263.86
462.083	5394.7
462.456	5391.54
462.829	5435.83
463.201	5519.67
463.574	5579.1
463.947	5617.97
464.32	5806.44
464.692	5793.79
465.065	5806.44
465.438	5912.43
465.81	6000.56
466.183	6076.04
466.555	6216.6
466.928	6260.67
467.3	6233.32
467.672	6401.23
468.045	6542.24
468.417	6584.5
468.789	6646.65
469.161	6661.79
469.534	6830.15
469.906	6959.63
470.278	7017.03
470.65	7100.42
471.022	7259.74
471.394	7360.07
471.766	7453.41
472.138	7574.98
472.51	7737.92
472.882	7832.15
473.253	7929.33
473.625	8047.97
473.997	8219.71
474.369	8279.37
474.74	8444.57
475.112	8508.52
475.484	8659.25
475.855	8809.98
476.227	8963.87
476.598	9161.84
476.97	9266.69
477.341	9468.49
477.713	9588.26
478.084	9673.23
478.455	9984.86
478.827	10067.12
479.198	10371.3
479.569	10335.14
479.94	10681.8
480.311	10834.79
480.682	11021.22
481.053	11197.49
481.424	11399.06
481.795	11516.58
482.166	11701.66
482.537	11877.02
482.908	12155.43
483.279	12214.86
483.65	12461.86
484.021	12706.83
484.391	12967.16
484.762	13026.59
485.133	13146.59
485.503	13402.4
485.874	13611.21
486.244	13811.88
486.615	14083.51
486.985	14242.15
487.356	14437.4
487.726	14646.44
488.097	14916.71
488.467	14945.41
488.837	15290.94
489.207	15480.31
489.578	15741.32
489.948	15921.88
490.318	16131.37
490.688	16199.16
491.058	16445.94
491.428	16626.27
491.798	16799.15
492.168	17273.71
492.538	17302.41
492.908	17595.29
493.278	17793.92
493.648	17826.92
494.017	18047.7
494.387	18187.59
494.757	18288.83
495.126	18587.58
495.496	18641.81
495.866	18767.68
496.235	19011.29
496.605	19230.72
496.974	19317.05
497.344	19567.44
497.713	19615.35
498.082	19824.61
498.452	20006.52
498.821	20181.66
499.19	20116.35
499.559	20479.5
499.928	20568.32
500.298	20634.75
500.667	20866.39
501.036	20859.38
501.405	21087.85
501.774	21185.7
502.143	21382.08
502.512	21537.56
502.88	21704.33
503.249	21795.4
503.618	21969.18
503.987	22161.95
504.356	22227.48
504.724	22323.52
505.093	22467.47
505.462	22648.71
505.83	22801.25
506.199	22968.48
506.567	23292.31
506.936	23228.81
507.304	23537.73
507.672	23700.44
508.041	23790.83
508.409	23977.72
508.777	24140.88
509.145	24337.03
509.514	24442.56
509.882	24589.9
510.25	24698.38
510.618	24943.12
510.986	25003
511.354	25351.47
511.722	25570.44
512.09	25822.87
512.458	25684.34
512.826	25993.03
513.193	26065.8
513.561	26357.32
513.929	26570.64
514.297	26791.88
514.664	26922.72
515.032	27165.88
515.4	27500.56
515.767	27470.05
516.135	27818.29
516.502	27644.29
516.869	28024.39
517.237	28211.5
517.604	28119.75
517.972	28532.85
518.339	28783.24
518.706	28910.24
519.073	29003.12
519.44	29445.6
519.808	29606.95
520.175	29671.13
520.542	30080.83
520.909	30272.69
521.276	30204.67
521.643	30583.19
522.009	30868.84
522.376	31128.49
522.743	31138.66
523.11	31615.93
523.477	31950.39
523.843	32115.81
524.21	32356.93
524.577	32589.47
524.943	32748.33
525.31	32848.44
525.676	33385.83
526.043	33505.6
526.409	33675.99
526.776	34132.03
527.142	34142.2
527.508	34556.65
527.874	34684.55
528.241	34978.56
528.607	34883.87
528.973	35341.03
529.339	35385.1
529.705	35872.32
530.071	35971.98
530.437	36190.73
530.803	36436.6
531.169	36613.77
531.535	36642.02
531.901	36658.97
532.267	36801.56
532.632	37308.89
532.998	37359.74
533.364	37571.26
533.73	37719.73
534.095	38061.64
534.461	38219.6
534.826	38377.79
535.192	38547.05
535.557	38802.86
535.923	38838.57
536.288	38989.53
536.653	39321.49
537.019	39294.6
537.384	39471.32
537.749	39495.5
538.114	39581.83
538.479	39743.86
538.845	40141.59
539.21	40046.45
539.575	40187.23
539.94	40481.69
540.305	40597.17
540.67	40594.46
541.034	40719.2
541.399	40941.79
541.764	41031.28
542.129	41206.19
542.494	41285.96
542.858	41532.06
543.223	41569.57
543.587	41798.04
543.952	41803.46
544.316	41889.11
544.681	42039.39
545.045	42346.5
545.41	42423.33
545.774	42486.16
546.138	42605.7
546.503	42745.59
546.867	42742.2
547.231	43215.18
547.595	43271.67
547.959	43323.42
548.324	43459.92
548.688	43543.3
549.052	43703.53
549.416	43787.59
549.779	43912.79
550.143	44033.91
550.507	44428.93
550.871	44609.94
551.235	44485.2
551.599	44772.2
551.962	44831.63
552.326	45152.75
552.689	45293.77
553.053	45219.42
553.417	45359.75
553.78	45764.94
554.143	45680.88
554.507	45974.88
554.87	46076.34
555.234	46501.64
555.597	46258.26
555.96	46486.5
556.323	46613.28
556.686	46673.17
557.05	47033.38
557.413	47087.17
557.776	47265.47
558.139	47450.55
558.502	47580.71
558.865	47651.44
559.228	48006.24
559.59	47923.53
559.953	48206.46
560.316	48678.99
560.679	48597.18
561.041	48904.52
561.404	49018.87
561.767	49264.51
562.129	49040.56
562.492	49537.72
562.854	49555.35
563.217	49677.83
563.579	49715.8
563.941	50146.29
564.304	50241.89
564.666	50485.04
565.028	50488.66
565.39	50738.37
565.753	50746.96
566.115	50937.46
566.477	51052.71
566.839	51059.94
567.201	51325.02
567.563	51470.55
567.925	51656.09
568.287	51640.04
568.648	51776.99
569.01	51911.67
569.372	52105.79
569.734	52037.77
570.095	52318.67
570.457	52377.87
570.819	52488.83
571.18	52406.35
571.542	52705.1
571.903	52745.1
572.265	52818.54
572.626	52912.1
572.987	53046.56
573.349	53087.69
573.71	53196.61
574.071	53218.98
574.432	53417.17
574.794	53613.32
575.155	53452.42
575.516	53456.49
575.877	53693.09
576.238	53685.86
576.599	53890.15
576.96	53875.46
577.32	53906.2
577.681	53943.03
578.042	54040.43
578.403	54108
578.763	54155.91
579.124	54216.92
579.485	54316.81
579.845	54296.47
580.206	54239.97
580.566	54277.94
580.927	54406.3
581.287	54433.19
581.648	54413.3
582.008	54514.09
582.368	54459.18
582.728	54507.08
583.089	54437.26
583.449	54522
583.809	54493.75
584.169	54673.18
584.529	54471.6
584.889	54768.55
585.249	54487.42
585.609	54538.27
585.969	54654.88
586.329	54607.65
586.688	54623.24
587.048	54690.81
587.408	54592.96
587.768	54642.22
588.127	54617.36
588.487	54525.61
588.846	54716.34
589.206	54567.42
589.565	54633.86
589.925	54690.81
590.284	54671.83
590.643	54712.05
591.003	54784.59
591.362	54777.81
591.721	54717.47
592.08	54758.38
592.44	54940.74
592.799	54846.96
593.158	54865.49
593.517	54769.45
593.876	54849.45
594.235	54788.21
594.593	54907.07
594.952	54905.49
595.311	54872.5
595.67	54865.04
596.029	55054.19
596.387	55041.76
596.746	55034.53
597.104	54911.82
597.463	54933.97
597.822	55156.33
598.18	54948.2
598.538	54968.09
598.897	55217.35
599.255	54935.32
599.613	55361.75
599.972	55089.22
600.33	55286.5
600.688	55097.12
601.046	55288.08
601.404	55335.99
601.762	55253.05
602.12	55435.87
602.478	55463.67
602.836	55402.88
603.194	55267.97
603.552	55327.4
603.91	55291.7
604.268	55426.16
604.625	55399.72
604.983	55476.55
605.341	55472.26
605.698	55565.36
606.056	55542.31
606.413	55525.59
606.771	55659.6
607.128	55629.54
607.485	55558.36
607.843	55561.29
608.2	55737.33
608.557	55880.38
608.914	55756.77
609.272	55896.65
609.629	55863.88
609.986	55918.12
610.343	55810.33
610.7	56050.32
611.057	55999.25
611.414	56025.46
611.771	56018.91
612.127	56146.36
612.484	56092.58
612.841	56154.05
613.198	56095.74
613.554	56142.52
613.911	56286.25
614.267	56221.39
614.624	56243.31
614.98	56240.82
615.337	56471.55
615.693	56378
616.05	56384.77
616.406	56509.07
616.762	56440.37
617.118	56410.99
617.475	56451.67
617.831	56503.87
618.187	56440.59
618.543	56479.24
618.899	56709.74
619.255	56642.17
619.611	56593.13
619.967	56636.97
620.323	56707.93
620.678	56596.97
621.034	56581.15
621.39	56643.75
621.746	56573.7
622.101	56867.7
622.457	56595.62
622.812	56680.36
623.168	56686.69
623.523	56775.5
623.879	56763.52
624.234	56663.41
624.589	56676.97
624.945	56765.56
625.3	56710.87
625.655	56702.05
626.01	56685.33
626.365	56758.78
626.72	56705.67
627.075	56704.54
627.43	56654.37
627.785	56672
628.14	56663.19
628.495	56664.99
628.85	56640.14
629.205	56505.22
629.559	56635.16
629.914	56529.18
630.269	56505
630.623	56508.39
630.978	56445.34
631.332	56566.24
631.687	56568.05
632.041	56439.91
632.396	56529.18
632.75	56413.7
633.104	56404.89
633.459	56256.87
633.813	56314.27
634.167	56340.71
634.521	56253.93
634.875	56315.17
635.229	56175.74
635.583	56108.62
635.937	56164.22
636.291	56051.22
636.645	56087.38
636.999	55995.63
637.352	56078.57
637.706	55935.07
638.06	55992.47
638.413	55902.53
638.767	55859.14
639.121	55884
639.474	55808.29
639.828	55691.23
640.181	55720.61
640.534	55777.78
640.888	55690.56
641.241	55556.77
641.594	55541.63
641.947	55679.48
642.301	55685.58
642.654	55616.66
643.007	55603.1
643.36	55500.28
643.713	55501.86
644.066	55588.41
644.419	55371.69
644.771	55187.29
645.124	54916.79
645.477	54854.19
645.83	54630.02
646.182	54547.53
646.535	54427.99
646.888	54479.51
647.24	54395.22
647.593	54511.83
647.945	54516.8
648.298	54288.11
648.65	54223.48
649.002	54155.68
649.355	54252.4
649.707	54208.56
650.059	54371.95
650.411	54622.33
650.763	54573.97
651.115	54914.3
651.467	54809.45
651.819	54779.84
652.171	54722.45
652.523	54695.1
652.875	54705.95
653.227	54491.72
653.578	54698.27
653.93	54509.8
654.282	54429.8
654.633	54313.64
654.985	54447.88
655.337	54441.32
655.688	54477.03
656.039	54529.68
656.391	54328.11
656.742	54367.88
657.094	54325.85
657.445	54472.28
657.796	54386.18
658.147	54256.92
658.498	54286.75
658.849	54321.33
659.2	54205.62
659.551	54287.65
659.902	54258.28
660.253	54240.42
660.604	54249.69
660.955	54070.71
661.306	54160.88
661.656	54093.08
662.007	54104.83
662.358	54093.08
662.708	54118.85
663.059	54004.72
663.409	53776.03
663.76	54051.95
664.11	53955.46
664.461	54110.03
664.811	53959.3
665.161	53941.67
665.511	53845.18
665.862	53979.87
666.212	54030.49
666.562	53983.48
666.912	53945.06
667.262	53783.94
667.612	53936.93
667.962	54021.22
668.312	53891.05
668.662	53969.7
669.011	53837.27
669.361	53827.1
669.711	53802.24
670.06	53812.41
670.41	53713.43
670.76	53680.66
671.109	53713.21
671.459	53731.06
671.808	53576.94
672.157	53803.83
672.507	53481.12
672.856	53578.97
673.205	53661
673.554	53682.47
673.904	53452.87
674.253	53661.91
674.602	53575.58
674.951	53137.85
675.3	53015.15
675.649	53483.61
675.998	53458.98
676.346	53513.89
676.695	53491.97
677.044	53288.81
677.393	53394.57
677.741	53502.82
678.09	53397.28
678.438	53217.17
678.787	53354.8
679.135	53302.6
679.484	53164.97
679.832	53302.37
680.181	52993.45
680.529	53198.42
680.877	53058.99
681.225	52975.6
681.573	53192.77
681.922	52865.54
682.27	52807.47
682.618	52928.82
682.966	52719.56
683.314	52784.42
683.661	52665.1
684.009	52594.14
684.357	52516.85
684.705	52482.96
685.053	52595.72
685.4	52488.15
685.748	52266.24
686.095	52323.86
686.443	52075.74
686.79	52027.83
687.138	52115.96
687.485	52039.8
687.832	52029.86
688.18	51932.69
688.527	51822.63
688.874	51776.53
689.221	51621.51
689.568	51626.71
689.915	51511
690.262	51459.93
690.609	51387.17
690.956	51231.24
691.303	51202.09
691.65	51051.58
691.997	50962.77
692.344	50862.43
692.69	50801.19
693.037	50883.9
693.383	50596
693.73	50768.65
694.077	50481.65
694.423	50436.91
694.769	50346.74
695.116	50233.52
695.462	50246.63
695.808	50154.43
696.155	50185.16
696.501	49842.57
696.847	49919.41
697.193	49636.03
697.539	49743.14
697.885	49606.65
698.231	49528.23
698.577	49484.39
698.923	49320.55
699.269	49206.66
699.614	48929.38
699.96	48888.47
700.306	48921.69
700.651	48789.95
700.997	48769.16
701.342	48647.35
701.688	48569.16
702.033	48422.27
702.379	48318.09
702.724	48203.52
703.069	48249.17
703.415	47983.19
703.76	47948.16
704.105	47753.36
704.45	47617.32
704.795	47509.75
705.14	47375.97
705.485	47298.23
705.83	47221.17
706.175	47303.43
706.52	47149.99
706.865	47062.99
707.209	46981.86
707.554	46719.72
707.899	46969.88
708.243	46757.01
708.588	46539.38
708.932	46300.29
709.277	46279.73
709.621	46424.81
709.966	46245.38
710.31	46274.98
710.654	45723.13
710.998	45853.3
711.342	45822.11
711.687	45775.56
712.031	45711.61
712.375	45416.25
712.719	45558.62
713.063	45236.82
713.407	45542.57
713.75	45194.56
714.094	45268.46
714.438	45020.33
714.782	45135.8
715.125	44978.29
715.469	44884.74
715.812	44653.56
716.156	44449.95
716.499	44524.3
716.843	44590.51
717.186	44273.91
717.53	44478.19
717.873	44541.02
718.216	44462.83
718.559	44343.96
718.902	43973.58
719.246	44238.43
719.589	44023.97
719.932	43766.12
720.275	43835.27
720.617	43739.68
720.96	43765.45
721.303	43685.45
721.646	43543.76
721.989	43391.22
722.331	43462.4
722.674	43279.81
723.016	43427.15
723.359	43169.08
723.701	43305.57
724.044	43042.3
724.386	42844.79
724.729	42852.93
725.071	42807.05
725.413	42739.94
725.755	42554.86
726.097	42591.46
726.439	42327.74
726.782	42416.78
727.124	42548.08
727.465	42305.37
727.807	42150.35
728.149	42107.41
728.491	42169.1
728.833	42135.66
729.175	41989.22
729.516	41915.32
729.858	41864.48
730.199	41829.45
730.541	41840.07
730.882	41546.07
731.224	41756.68
731.565	41509.23
731.906	41548.55
732.248	41513.3
732.589	41220.88
732.93	41184.95
733.271	41140.88
733.612	41353.08
733.953	41275.79
734.294	41056.36
734.635	40993.77
734.976	41031.05
735.317	40641.01
735.658	40776.82
735.999	40586.77
736.339	40670.84
736.68	40848.91
737.021	40501.35
737.361	40158.53
737.702	40503.61
738.042	40465.19
738.383	40366.66
738.723	40345.2
739.063	40123.73
739.404	40287.12
739.744	40016.39
740.084	39900.01
740.424	39944.98
740.764	39979.56
741.104	40006.45
741.444	39787.47
741.784	39637.87
742.124	39617.08
742.464	39695.5
742.804	39538.89
743.143	39370.31
743.483	39351.78
743.823	39329.63
744.162	39318.56
744.502	39308.84
744.841	39140.48
745.181	39169.18
745.52	38991.56
745.86	39188.84
746.199	38846.25
746.538	38979.13
746.877	38869.98
747.216	38740.04
747.556	38582.53
747.895	38649.42
748.234	38500.05
748.573	38386.6
748.911	38380.28
749.25	38383.21
749.589	38176.89
749.928	38202.2
750.267	38154.07
750.605	37945.71
750.944	37880.4
751.283	37786.17
751.621	37855.54
751.96	37676.34
752.298	37659.84
752.636	37599.28
