Data from plate_porcelain_FLMS001491_081.txt Node
Date: Tue Feb 07 11:20:02 GMT 2017
User: dcchb
Spectrometer: FLMS00149
Trigger mode: 0
Integration Time (sec): 2.000000E-2
Scans to average: 10
Electric dark correction enabled: true
Nonlinearity correction enabled: false
Boxcar width: 0
XAxis mode: Wavelengths
Number of Pixels in Spectrum: 2048
>>>>>Begin Spectral Data<<<<<
341.393	-18.33
341.776	-18.33
342.16	-18.33
342.543	-87.94
342.927	-70.99
343.31	-68.73
343.693	-79.57
344.077	-54.26
344.46	-81.38
344.843	-35.51
345.226	-42.29
345.61	-31.67
345.993	-21.72
346.376	9.91
346.759	11.72
347.142	22.8
347.525	30.93
347.908	50.14
348.291	75.9
348.674	103.47
349.057	110.25
349.44	128.1
349.823	146.41
350.206	180.31
350.588	222.56
350.971	226.18
351.354	247.87
351.737	270.47
352.119	286.07
352.502	274.54
352.884	304.82
353.267	331.71
353.65	350.7
354.032	340.08
354.414	345.73
354.797	341.21
355.179	347.31
355.562	362
355.944	371.04
356.326	354.54
356.709	377.81
357.091	370.13
357.473	415.55
357.855	399.51
358.238	362.67
358.62	391.6
359.002	383.92
359.384	380.53
359.766	383.24
360.148	388.89
360.53	374.2
360.912	400.64
361.294	411.49
361.676	361.32
362.057	409.45
362.439	375.33
362.821	380.75
363.203	376.69
363.584	384.37
363.966	376.23
364.348	378.94
364.729	401.54
365.111	380.75
365.493	407.42
365.874	388.89
366.256	362.22
366.637	401.77
367.019	377.14
367.4	385.5
367.781	388.66
368.163	385.05
368.544	383.01
368.925	400.64
369.306	387.76
369.688	386.63
370.069	371.94
370.45	385.5
370.831	397.48
371.212	409.23
371.593	430.24
371.974	414.2
372.355	399.28
372.736	417.81
373.117	413.75
373.498	418.72
373.879	384.82
374.26	394.31
374.641	406.06
375.021	404.48
375.402	425.05
375.783	434.76
376.163	448.1
376.544	469.56
376.925	455.1
377.305	424.37
377.686	441.77
378.066	437.7
378.447	462.78
378.827	462.11
379.208	469.34
379.588	464.14
379.968	475.67
380.349	492.39
380.729	464.82
381.109	480.41
381.489	484.7
381.87	486.96
382.25	472.05
382.63	524.03
383.01	497.36
383.39	514.31
383.77	498.26
384.15	529.68
384.53	515.66
384.91	507.98
385.29	528.55
385.67	497.13
386.049	558.6
386.429	544.59
386.809	557.47
387.189	570.13
387.568	566.51
387.948	577.81
388.328	568.32
388.707	576
389.087	618.26
389.466	606.51
389.846	595.89
390.225	610.8
390.605	611.48
390.984	602.22
391.363	634.31
391.743	629.56
392.122	651.93
392.501	644.02
392.881	654.64
393.26	662.1
393.639	665.72
394.018	683.57
394.397	679.95
394.776	693.74
395.155	693.29
395.534	714.53
395.913	692.38
396.292	714.3
396.671	734.19
397.05	740.07
397.429	723.57
397.808	719.5
398.186	736
398.565	750.69
398.944	758.14
399.323	779.39
399.701	772.15
400.08	768.09
400.458	785.71
400.837	821.65
401.215	823.45
401.594	810.35
401.972	840.4
402.351	816.9
402.729	830.68
403.107	867.07
403.486	865.03
403.864	848.31
404.242	875.2
404.62	892.15
404.999	900.74
405.377	906.16
405.755	924.69
406.133	947.74
406.511	965.14
406.889	979.61
407.267	985.71
407.645	988.65
408.023	998.82
408.401	1049.21
408.779	1037.91
409.156	1048.53
409.534	1076.55
409.912	1084.69
410.29	1075.2
410.667	1122.65
411.045	1117
411.422	1109.77
411.8	1143.44
412.178	1167.17
412.555	1209.66
412.933	1177.57
413.31	1211.47
413.687	1217.11
414.065	1229.09
414.442	1276.55
414.819	1268.19
415.197	1311.58
415.574	1305.47
415.951	1289.66
416.328	1354.06
416.705	1354.51
417.082	1369.65
417.46	1371.01
417.837	1375.3
418.214	1365.36
418.591	1428.41
418.967	1422.53
419.344	1462.53
419.721	1482.87
420.098	1479.03
420.475	1490.33
420.852	1529.65
421.228	1505.02
421.605	1555.86
421.982	1567.84
422.358	1584.34
422.735	1631.79
423.111	1591.57
423.488	1634.28
423.864	1664.79
424.241	1685.35
424.617	1681.96
424.994	1707.05
425.37	1736.2
425.746	1740.04
426.123	1759.25
426.499	1753.15
426.875	1797.21
427.251	1826.36
427.627	1896.19
428.003	1897.32
428.379	1936.42
428.756	1934.84
429.132	1941.62
429.507	1983.65
429.883	2001.5
430.259	2037.43
430.635	2034.27
431.011	2070.2
431.387	2118.33
431.763	2184.32
432.138	2161.5
432.514	2235.39
432.89	2249.4
433.265	2269.74
433.641	2320.81
434.016	2367.82
434.392	2368.72
434.767	2424.31
435.143	2453.24
435.518	2427.48
435.894	2500.7
436.269	2507.48
436.644	2557.64
437.02	2562.16
437.395	2595.84
437.77	2631.77
438.145	2676.96
438.52	2706.57
438.895	2761.71
439.271	2750.41
439.646	2811.88
440.021	2825.89
440.395	2823.63
440.77	2802.38
441.145	2866.56
441.52	2895.71
441.895	2916.28
442.27	2946.11
442.645	2957.86
443.019	2994.47
443.394	2974.58
443.769	3050.96
444.143	3074.02
444.518	3093.9
444.892	3117.86
445.267	3142.71
445.641	3159.21
446.016	3185.65
446.39	3223.16
446.764	3243.05
447.139	3218.87
447.513	3283.05
447.887	3291.41
448.262	3314.91
448.636	3355.14
449.01	3401.24
449.384	3425.64
449.758	3423.61
450.132	3488.47
450.506	3523.27
450.88	3512.2
451.254	3531.4
451.628	3587.9
452.002	3662.02
452.376	3684.17
452.75	3718.07
453.123	3782.25
453.497	3862.7
453.871	3801
454.244	3944.95
454.618	3939.98
454.992	3969.13
455.365	4007.1
455.739	4148.11
456.112	4195.79
456.486	4196.02
456.859	4276.47
457.232	4324.15
457.606	4329.12
457.979	4425.62
458.352	4445.28
458.725	4557.37
459.099	4615.22
459.472	4651.83
459.845	4764.37
460.218	4764.59
460.591	4815.89
460.964	4862.89
461.337	4948.77
461.71	5030.57
462.083	5090.46
462.456	5111.93
462.829	5172.49
463.201	5260.17
463.574	5271.7
463.947	5372.03
464.32	5480.96
464.692	5520.05
465.065	5565.7
465.438	5687.73
465.81	5760.72
466.183	5786.26
466.555	5929.53
466.928	5971.57
467.3	5953.26
467.672	6066.03
468.045	6246.81
468.417	6324.78
468.789	6304.21
469.161	6431.67
469.534	6533.59
469.906	6654.94
470.278	6678.67
470.65	6779.23
471.022	6903.07
471.394	7051.54
471.766	7077.3
472.138	7153.23
472.51	7334.92
472.882	7465.09
473.253	7564.07
473.625	7711.86
473.997	7842.48
474.369	7872.53
474.74	7969.25
475.112	8177.38
475.484	8306.19
475.855	8396.81
476.227	8521.56
476.598	8816.69
476.97	8853.3
477.341	9048.55
477.713	9206.28
478.084	9270.46
478.455	9526.95
478.827	9619.15
479.198	9896.43
479.569	9916.32
479.94	10205.81
480.311	10244.67
480.682	10514.27
481.053	10665.23
481.424	10967.14
481.795	10984.77
482.166	11247.81
482.537	11419.78
482.908	11597.86
483.279	11781.58
483.65	11952.2
484.021	12131.86
484.391	12301.57
484.762	12484.62
485.133	12583.82
485.503	12798.05
485.874	13096.8
486.244	13194.43
486.615	13431.93
486.985	13643.91
487.356	13897.69
487.726	14010.9
488.097	14290.44
488.467	14261.29
488.837	14575.63
489.207	14788.28
489.578	15104.21
489.948	15265.33
490.318	15454.71
490.688	15547.13
491.058	15698.99
491.428	15978.99
491.798	16086.55
492.168	16393.21
492.538	16484.51
492.908	16752.75
493.278	16983.71
493.648	16903.48
494.017	17332.85
494.387	17418.5
494.757	17507.31
495.126	17782.1
495.496	17846.96
495.866	18016
496.235	18251.24
496.605	18326.72
496.974	18390.9
497.344	18611.91
497.713	18747.73
498.082	18986.82
498.452	19148.85
498.821	19187.94
499.19	19285.79
499.559	19596.52
499.928	19637.87
500.298	19862.27
500.667	20028.82
501.036	19969.84
501.405	20174.81
501.774	20301.58
502.143	20506.55
502.512	20476.04
502.88	20799.65
503.249	20917.16
503.618	21011.17
503.987	21152.41
504.356	21337.04
504.724	21452.06
505.093	21508.11
505.462	21662
505.83	21736.35
506.199	22069.9
506.567	22312.83
506.936	22252.72
507.304	22573.84
507.672	22638.02
508.041	22774.51
508.409	22989.65
508.777	23198.91
509.145	23338.57
509.514	23428.96
509.882	23622.4
510.25	23644.1
510.618	23893.13
510.986	23980.58
511.354	24248.37
511.722	24425.77
512.09	24622.15
512.458	24593
512.826	24903.27
513.193	25001.57
513.561	25206.77
513.929	25486.99
514.297	25718.39
514.664	25873.42
515.032	25992.51
515.4	26197.02
515.767	26336.91
516.135	26614.87
516.502	26391.82
516.869	26784.13
517.237	26906.16
517.604	27042.65
517.972	27359.93
518.339	27614.84
518.706	27673.14
519.073	27758.34
519.44	28057.31
519.808	28301.15
520.175	28442.61
520.542	28749.5
520.909	28911.3
521.276	28947.91
521.643	29269.48
522.009	29569.82
522.376	29773.43
522.743	30027.43
523.11	30224.71
523.477	30578.83
523.843	30745.38
524.21	31115.31
524.577	31309.66
524.943	31355.53
525.31	31527.28
525.676	31839.81
526.043	31980.83
526.409	32284.55
526.776	32679.11
527.142	32818.09
527.508	33002.72
527.874	33190.51
528.241	33475.48
528.607	33521.8
528.973	33860.1
529.339	33841.12
529.705	34267.09
530.071	34465.28
530.437	34686.52
530.803	34918.6
531.169	35097.58
531.535	35123.34
531.901	35215.32
532.267	35445.37
532.632	35710.9
532.998	35709.54
533.364	36037.89
533.73	36278.57
534.095	36565.34
534.461	36598.33
534.826	36856.63
535.192	36961.26
535.557	37299.1
535.923	37257.75
536.288	37426.78
536.653	37476.5
537.019	37437.63
537.384	37755.14
537.749	37987
538.114	38138.86
538.479	38171.62
538.845	38419.3
539.21	38316.48
539.575	38555.34
539.94	38723.93
540.305	38983.35
540.67	38971.38
541.034	39147.42
541.399	39335.66
541.764	39292.72
542.129	39652.71
542.494	39508.31
542.858	39855.87
543.223	39953.05
543.587	40173.83
543.952	40220.84
544.316	40330.89
544.681	40380.83
545.045	40552.8
545.41	40808.84
545.774	40928.61
546.138	40995.96
546.503	41030.76
546.867	41159.57
547.231	41487.47
547.595	41409.28
547.959	41669.16
548.324	41793.22
548.688	41662.61
549.052	41955.7
549.416	41978.98
549.779	42092.65
550.143	42316.83
550.507	42580.77
550.871	42586.65
551.235	42730.15
551.599	43159.51
551.962	43092.62
552.326	43312.05
552.689	43438.15
553.053	43424.37
553.417	43560.41
553.78	44185.25
554.143	43992.49
554.507	44195.19
554.87	44406.71
555.234	44742.75
555.597	44394.74
555.96	44801.05
556.323	44885.12
556.686	45067.26
557.05	45347.71
557.413	45401.04
557.776	45614.14
558.139	45722.39
558.502	45879.9
558.865	45909.95
559.228	46172.77
559.59	46346.78
559.953	46451.18
560.316	46823.6
560.679	46918.06
561.041	47242.35
561.404	47349.24
561.767	47589
562.129	47542.45
562.492	47878.94
562.854	47969.56
563.217	47960.07
563.579	48344.46
563.941	48518.92
564.304	48698.13
564.666	48868.07
565.028	48990.32
565.39	48982.64
565.753	49283.42
566.115	49336.3
566.477	49448.62
566.839	49596.86
567.201	49822.39
567.563	49814.93
567.925	50134.7
568.287	50108.26
568.648	50309.38
569.01	50504.86
569.372	50713.44
569.734	50569.94
570.095	50826.43
570.457	50980.55
570.819	50977.39
571.18	51015.35
571.542	51221.45
571.903	51247.89
572.265	51456.92
572.626	51491.95
572.987	51631.38
573.349	51694.43
573.71	51829.8
574.071	51849.46
574.432	52000.19
574.794	52222.78
575.155	52201.54
575.516	52173.06
575.877	52383
576.238	52452.38
576.599	52466.61
576.96	52442.21
577.32	52492.83
577.681	52640.4
578.042	52789.54
578.403	52770.79
578.763	52775.53
579.124	52782.99
579.485	52899.6
579.845	53050.78
580.206	52978.69
580.566	53041.29
580.927	53037.67
581.287	53133.94
581.648	53125.35
582.008	53217.1
582.368	53199.93
582.728	53272.7
583.089	53158.57
583.449	53156.99
583.809	53316.08
584.169	53354.73
584.529	53222.08
584.889	53517.89
585.249	53185.01
585.609	53155.18
585.969	53454.84
586.329	53332.13
586.688	53366.93
587.048	53421.84
587.408	53264.79
587.768	53294.62
588.127	53362.41
588.487	53302.53
588.846	53492.58
589.206	53406.48
589.565	53316.76
589.925	53527.38
590.284	53353.82
590.643	53495.74
591.003	53554.27
591.362	53562.63
591.721	53504.78
592.08	53528.28
592.44	53646.7
592.799	53734.15
593.158	53594.04
593.517	53601.95
593.876	53589.07
594.235	53573.7
594.593	53670.42
594.952	53709.97
595.311	53603.31
595.67	53677.43
596.029	53821.83
596.387	53844.43
596.746	53797.65
597.104	53795.62
597.463	53837.2
597.822	53895.73
598.18	53732.8
598.538	53817.54
598.897	53994.03
599.255	53678.33
599.613	54100.47
599.972	54016.63
600.33	54001.04
600.688	53957.88
601.046	53982.28
601.404	54166.01
601.762	54043.52
602.12	54240.13
602.478	54222.73
602.836	54197.87
603.194	54157.64
603.552	54196.06
603.91	54075.84
604.268	54239.9
604.625	54171.88
604.983	54375.27
605.341	54232.9
605.698	54340.46
606.056	54349.5
606.413	54413
606.771	54483.51
607.128	54481.25
607.485	54377.98
607.843	54446.68
608.2	54575.03
608.557	54675.14
608.914	54551.53
609.272	54698.87
609.629	54713.11
609.986	54764.63
610.343	54747.01
610.7	54921.47
611.057	54875.82
611.414	54903.61
611.771	54869.26
612.127	55008.47
612.484	54902.48
612.841	54999.2
613.198	55025.42
613.554	54984.51
613.911	55021.12
614.267	55129.37
614.624	55082.82
614.98	55108.58
615.337	55297.95
615.693	55295.24
616.05	55240.1
616.406	55347.67
616.762	55225.86
617.118	55262.93
617.475	55301.79
617.831	55332.3
618.187	55356.26
618.543	55362.81
618.899	55545.4
619.255	55475.58
619.611	55486.87
619.967	55547.89
620.323	55584.5
620.678	55499.08
621.034	55417.27
621.39	55465.18
621.746	55467.89
622.101	55783.59
622.457	55547.89
622.812	55579.08
623.168	55666.98
623.523	55624.95
623.879	55735.68
624.234	55531.39
624.589	55563.71
624.945	55611.62
625.3	55715.57
625.655	55591.28
626.01	55676.25
626.365	55747.43
626.72	55646.87
627.075	55652.07
627.43	55591.73
627.785	55521.22
628.14	55635.35
628.495	55554.9
628.85	55487.55
629.205	55405.75
629.559	55586.08
629.914	55527.55
630.269	55529.59
630.623	55447.78
630.978	55347.44
631.332	55495.46
631.687	55465.18
632.041	55405.29
632.396	55423.15
632.75	55221.57
633.104	55325.07
633.459	55224.06
633.813	55157.17
634.167	55195.81
634.521	55078.07
634.875	55215.7
635.229	55068.35
635.583	54920.79
635.937	54985.87
636.291	55000.56
636.645	55000.11
636.999	54892.31
637.352	54926.66
637.706	54791.3
638.06	54884.63
638.413	54848.93
638.767	54726.67
639.121	54793.11
639.474	54627.69
639.828	54577.29
640.181	54617.52
640.534	54631.08
640.888	54602.38
641.241	54434.25
641.594	54463.17
641.947	54636.05
642.301	54496.84
642.654	54492.1
643.007	54482.38
643.36	54371.2
643.713	54314.93
644.066	54440.8
644.419	54177.98
644.771	54007.82
645.124	53724.21
645.477	53718.11
645.83	53455.97
646.182	53311.79
646.535	53259.81
646.888	53322.86
647.24	53197.67
647.593	53378
647.945	53245.58
648.298	53011.01
648.65	53039.03
649.002	52952.25
649.355	53076.54
649.707	53029.54
650.059	53062.98
650.411	53474.95
650.763	53470.88
651.115	53711.33
651.467	53638.11
651.819	53568.05
652.171	53436.31
652.523	53542.07
652.875	53439.92
653.227	53349.08
653.578	53522.86
653.93	53353.6
654.282	53286.93
654.633	53229.76
654.985	53277.67
655.337	53216.2
655.688	53216.88
656.039	53425.23
656.391	53052.81
656.742	53137.78
657.094	53160.83
657.445	53328.97
657.796	53206.48
658.147	53114.06
658.498	53126.71
658.849	53155.18
659.2	53099.37
659.551	52972.36
659.902	53068.86
660.253	53046.26
660.604	53051.68
660.955	52907.73
661.306	53130.78
661.656	52891.91
662.007	52877.68
662.358	52926.94
662.708	52931.24
663.059	52869.99
663.409	52682.43
663.76	52865.93
664.11	52795.87
664.461	52788.87
664.811	52926.72
665.161	52817.34
665.511	52667.29
665.862	52801.3
666.212	52813.95
666.562	52935.53
666.912	52827.06
667.262	52769.66
667.612	52725.14
667.962	52763.33
668.312	52699.15
668.662	52766.95
669.011	52666.38
669.361	52597.01
669.711	52616.89
670.06	52495.99
670.41	52633.84
670.76	52538.03
671.109	52568.76
671.459	52527.86
671.808	52477.01
672.157	52609.21
672.507	52323.57
672.856	52403.57
673.205	52444.47
673.554	52545.03
673.904	52351.59
674.253	52517.91
674.602	52387.97
674.951	51904.82
675.3	51780.76
675.649	52362.66
675.998	52230.69
676.346	52267.98
676.695	52313.17
677.044	52108.66
677.393	52155.21
677.741	52276.34
678.09	52190.69
678.438	52070.92
678.787	52113.18
679.135	52139.17
679.484	51867.31
679.832	52073.63
680.181	51791.38
680.529	51915.89
680.877	51716.13
681.225	51754.32
681.573	51924.26
681.922	51686.3
682.27	51617.6
682.618	51590.48
682.966	51547.32
683.314	51592.51
683.661	51545.51
684.009	51263.48
684.357	51248.79
684.705	51207.89
685.053	51216.7
685.4	51221.22
685.748	51082.02
686.095	50918.86
686.443	50868.46
686.79	50734.23
687.138	50784.63
687.485	50793.21
687.832	50789.14
688.18	50715.47
688.527	50529.94
688.874	50523.16
689.221	50345.77
689.568	50273.68
689.915	50247.69
690.262	50235.04
690.609	50017.19
690.956	49962.05
691.303	49914.14
691.65	49710.08
691.997	49759.12
692.344	49507.14
692.69	49527.71
693.037	49500.37
693.383	49206.36
693.73	49444.32
694.077	49069.87
694.423	49086.59
694.769	49015.41
695.116	48921.62
695.462	48797.78
695.808	48911.91
696.155	48929.31
696.501	48527.06
696.847	48551.69
697.193	48228.53
697.539	48533.38
697.885	48035.54
698.231	48131.59
698.577	48101.98
698.923	48021.99
699.269	47769.56
699.614	47496.35
699.96	47412.96
700.306	47610.92
700.651	47344.26
700.997	47193.31
701.342	47193.31
701.688	47171.61
702.033	46941.34
702.379	46881.22
702.724	46727.1
703.069	46899.3
703.415	46314.46
703.76	46455.93
704.105	46379.09
704.45	46252.99
704.795	46027.69
705.14	45886.9
705.485	45975.94
705.83	45834.25
706.175	45833.79
706.52	45723.29
706.865	45584.54
707.209	45490.08
707.554	45310.87
707.899	45446.69
708.243	45321.72
708.588	45205.79
708.932	44851.9
709.277	44897.1
709.621	44928.96
709.966	44713.37
710.31	44937.1
710.654	44420.72
710.998	44499.82
711.342	44536.43
711.687	44347.96
712.031	44137.34
712.375	43981.19
712.719	44120.62
713.063	43905.94
713.407	44067.29
713.75	43836.56
714.094	43716.56
714.438	43703.68
714.782	43688.77
715.125	43484.93
715.469	43468.43
715.812	43409.9
716.156	43097.14
716.499	43097.37
716.843	43054.21
717.186	42970.59
717.53	43029.35
717.873	43052.4
718.216	42920.88
718.559	42793.42
718.902	42516.82
719.246	42648.57
719.589	42461.45
719.932	42294.9
720.275	42395.47
720.617	42213.78
720.96	42082.93
721.303	42223.95
721.646	42086.77
721.989	41918.87
722.331	42009.04
722.674	41879.55
723.016	41903.95
723.359	41774.47
723.701	41720.23
724.044	41517.3
724.386	41370.41
724.729	41383.06
725.071	41362.05
725.413	41403.85
725.755	41275.5
726.097	41089.29
726.439	40899.91
726.782	41028.5
727.124	41132
727.465	40831.21
727.807	40742.18
728.149	40563.65
728.491	40657.66
728.833	40646.59
729.175	40559.58
729.516	40569.53
729.858	40319.82
730.199	40412.92
730.541	40179.93
730.882	40127.96
731.224	40386.71
731.565	39990.33
731.906	39960.28
732.248	40027.62
732.589	39834.4
732.93	39819.72
733.271	39913.72
733.612	39935.19
733.953	39621.75
734.294	39703.33
734.635	39537.46
734.976	39654.3
735.317	39481.87
735.658	39322.33
735.999	39421.99
736.339	39232.39
736.68	39443.23
737.021	39048.21
737.361	39022.45
737.702	39186.29
738.042	39016.12
738.383	38829.69
738.723	38888.67
739.063	38751.5
739.404	38833.07
739.744	38763.7
740.084	38513.54
740.424	38755.34
740.764	38512.63
741.104	38602.12
741.444	38438.96
741.784	38174.34
742.124	38330.94
742.464	38245.97
742.804	38161.45
743.143	38081.91
743.483	38095.92
743.823	37962.59
744.162	37880.11
744.502	38022.7
744.841	37762.59
745.181	37960.1
745.52	37753.78
745.86	37717.4
746.199	37715.59
746.538	37615.71
746.877	37656.83
747.216	37459.78
747.556	37306.56
747.895	37327.58
748.234	37034.03
748.573	37206
748.911	36995.38
749.25	37112.67
749.589	36874.26
749.928	36971.43
750.267	36980.24
750.605	36743.19
750.944	36738.67
751.283	36650.99
751.621	36643.98
751.96	36472.46
752.298	36436.53
752.636	36540.25
752.975	36208.96
753.313	36039.02
