Data from plate_ceramic_FLMS001491_080.txt Node
Date: Tue Feb 07 11:17:17 GMT 2017
User: dcchb
Spectrometer: FLMS00149
Trigger mode: 0
Integration Time (sec): 2.000000E-2
Scans to average: 10
Electric dark correction enabled: true
Nonlinearity correction enabled: false
Boxcar width: 0
XAxis mode: Wavelengths
Number of Pixels in Spectrum: 2048
>>>>>Begin Spectral Data<<<<<
341.393	-11.4
341.776	-11.4
342.16	-11.4
342.543	-36.93
342.927	-69.02
343.31	-62.92
343.693	-70.15
344.077	-72.19
344.46	-66.31
344.843	-54.11
345.226	-42.81
345.61	-42.81
345.993	-14.11
346.376	-14.79
346.759	12.33
347.142	45.55
347.525	39.67
347.908	41.71
348.291	79.9
348.674	103.4
349.057	117.64
349.44	130.97
349.823	142.72
350.206	153.12
350.588	224.98
350.971	213.91
351.354	237.41
351.737	258.2
352.119	266.79
352.502	278.76
352.884	279.89
353.267	307.46
353.65	299.55
354.032	297.29
354.414	322.38
354.797	333.45
355.179	326.22
355.562	337.07
355.944	343.17
356.326	328.48
356.709	353.34
357.091	362.83
357.473	376.84
357.855	355.6
358.238	365.99
358.62	358.54
359.002	371.87
359.384	360.8
359.766	356.73
360.148	372.55
360.53	359.67
360.912	377.97
361.294	361.47
361.676	364.19
362.057	345.2
362.439	385.65
362.821	354.69
363.203	359.21
363.584	364.19
363.966	371.19
364.348	363.51
364.729	338.88
365.111	363.73
365.493	350.4
365.874	349.27
366.256	354.69
366.637	365.09
367.019	354.47
367.4	366.45
367.781	343.62
368.163	367.8
368.544	349.5
368.925	360.8
369.306	340.23
369.688	354.47
370.069	367.35
370.45	369.83
370.831	363.06
371.212	364.19
371.593	351.08
371.974	380.23
372.355	379.78
372.736	373
373.117	362.83
373.498	368.93
373.879	382.26
374.26	358.76
374.641	352.43
375.021	371.19
375.402	406.44
375.783	397.18
376.163	415.48
376.544	390.63
376.925	403.73
377.305	389.95
377.686	390.4
378.066	410.29
378.447	410.51
378.827	398.76
379.208	406.22
379.588	417.97
379.968	409.61
380.349	411.64
380.729	415.03
381.109	410.51
381.489	428.59
381.87	431.08
382.25	449.83
382.63	421.13
383.01	437.18
383.39	443.05
383.77	455.26
384.15	456.39
384.53	456.39
384.91	440.57
385.29	457.52
385.67	451.19
386.049	438.08
386.429	456.61
386.809	462.49
387.189	447.57
387.568	477.18
387.948	486.89
388.328	494.35
388.707	511.07
389.087	494.13
389.466	502.03
389.846	500.45
390.225	516.72
390.605	506.55
390.984	503.16
391.363	508.59
391.743	526.89
392.122	540.68
392.501	543.84
392.881	542.03
393.26	559.21
393.639	556.95
394.018	582.71
394.397	559.21
394.776	570.28
395.155	580.22
395.534	583.84
395.913	576.38
396.292	584.29
396.671	604.41
397.05	602.37
397.429	596.5
397.808	590.62
398.186	622.48
398.565	620.9
398.944	625.87
399.323	618.19
399.701	631.3
400.08	644.86
400.458	631.75
400.837	657.06
401.215	654.12
401.594	665.65
401.972	673.78
402.351	664.74
402.729	690.05
403.107	681.24
403.486	705.65
403.864	705.65
404.242	740.45
404.62	751.52
404.999	733.67
405.377	729.6
405.755	721.69
406.133	754.46
406.511	763.04
406.889	744.29
407.267	769.15
407.645	809.6
408.023	797.17
408.401	792.65
408.779	814.34
409.156	837.85
409.534	815.47
409.912	846.43
410.29	852.31
410.667	883.27
411.045	882.59
411.422	881.46
411.8	897.28
412.178	903.61
412.555	939.99
412.933	926.66
413.31	937.73
413.687	960.78
414.065	972.53
414.442	1005.98
414.819	993.77
415.197	975.24
415.574	1008.91
415.951	1034
416.328	1028.57
416.705	1036.26
417.082	1043.72
417.46	1065.64
417.837	1074
418.214	1076.48
418.591	1104.5
418.967	1116.26
419.344	1104.05
419.721	1156.71
420.098	1140.66
420.475	1126.88
420.852	1147.22
421.228	1179.08
421.605	1195.12
421.982	1217.95
422.358	1222.24
422.735	1236.48
423.111	1225.63
423.488	1249.13
423.864	1272.86
424.241	1292.52
424.617	1309.25
424.994	1311.28
425.37	1319.41
425.746	1320.09
426.123	1348.34
426.499	1345.63
426.875	1369.36
427.251	1388.57
427.627	1415.01
428.003	1459.07
428.379	1457.04
428.756	1493.87
429.132	1498.17
429.507	1526.19
429.883	1527.09
430.259	1549.01
430.635	1514.66
431.011	1572.06
431.387	1615.23
431.763	1632.63
432.138	1639.86
432.514	1668.11
432.89	1713.75
433.265	1697.03
433.641	1699.52
434.016	1739.52
434.392	1766.18
434.767	1802.79
435.143	1814.09
435.518	1839.85
435.894	1875.33
436.269	1883.47
436.644	1902.9
437.02	1926.86
437.395	1924.14
437.77	1932.51
438.145	1997.81
438.52	2006.85
438.895	2011.37
439.271	2038.94
439.646	2093.18
440.021	2092.5
440.395	2078.94
440.77	2096.57
441.145	2117.59
441.52	2187.19
441.895	2192.61
442.27	2149.45
442.645	2178.37
443.019	2220.63
443.394	2208.2
443.769	2246.62
444.143	2236.45
444.518	2242.78
444.892	2271.71
445.267	2299.05
445.641	2296.34
446.016	2302.89
446.39	2354.19
446.764	2356
447.139	2355.32
447.513	2422.89
447.887	2399.84
448.262	2408.65
448.636	2448.42
449.01	2462.44
449.384	2501.76
449.758	2505.37
450.132	2537.01
450.506	2524.81
450.88	2529.33
451.254	2573.39
451.628	2620.4
452.002	2658.81
452.376	2710.79
452.75	2715.54
453.123	2725.93
453.497	2742.2
453.871	2809.54
454.244	2877.57
454.618	2883.89
454.992	2927.28
455.365	2908.3
455.739	2972.93
456.112	2992.36
456.486	3004.57
456.859	3035.08
457.232	3150.33
457.606	3127.5
457.979	3143.32
458.352	3227.84
458.725	3247.73
459.099	3269.42
459.472	3349.64
459.845	3371.79
460.218	3432.81
460.591	3451.11
460.964	3470.77
461.337	3526.81
461.71	3605.91
462.083	3646.36
462.456	3695.85
462.829	3687.26
463.201	3735.17
463.574	3772.46
463.947	3823.53
464.32	3888.16
464.692	3937.88
465.065	3997.31
465.438	3998.21
465.81	4089.74
466.183	4176.74
466.555	4233.24
466.928	4339.22
467.3	4243.86
467.672	4315.49
468.045	4439.78
468.417	4464.19
468.789	4490.4
469.161	4562.94
469.534	4633
469.906	4749.83
470.278	4804.07
470.65	4813.33
471.022	4915.03
471.394	5017.85
471.766	5031.86
472.138	5143.04
472.51	5264.62
472.882	5253.55
473.253	5353.66
473.625	5428.68
473.997	5556.82
474.369	5574.9
474.74	5664.84
475.112	5771.05
475.484	5887.43
475.855	5952.29
476.227	6006.3
476.598	6212.85
476.97	6202.22
477.341	6349.79
477.713	6444.25
478.084	6542.1
478.455	6688.31
478.827	6750.01
479.198	6974.86
479.569	6949.77
479.94	7187.28
480.311	7296.21
480.682	7384.57
481.053	7576.43
481.424	7683.31
481.795	7742.52
482.166	7882.63
482.537	7923.08
482.908	8130.53
483.279	8261.83
483.65	8415.73
484.021	8617.98
484.391	8631.76
484.762	8717.86
485.133	8851.65
485.503	8939.78
485.874	9158.08
486.244	9243.5
486.615	9409.37
486.985	9579.08
487.356	9701.11
487.726	9818.17
488.097	10012.52
488.467	10051.16
488.837	10240.54
489.207	10414.09
489.578	10548.1
489.948	10603.46
490.318	10741.99
490.688	10831.48
491.058	11006.39
491.428	11157.57
491.798	11204.13
492.168	11488.19
492.538	11503.55
492.908	11683.89
493.278	11866.26
493.648	11903.99
494.017	12052.47
494.387	12179.92
494.757	12164.55
495.126	12343.76
495.496	12427.37
495.866	12492.45
496.235	12717.76
496.605	12845.44
496.974	12891.99
497.344	13066.45
497.713	13083.62
498.082	13265.09
498.452	13366.1
498.821	13393.9
499.19	13462.37
499.559	13614.68
499.928	13801.35
500.298	13830.5
500.667	13916.6
501.036	13845.64
501.405	14035.46
501.774	14113.88
502.143	14372.18
502.512	14420.31
502.88	14544.83
503.249	14519.97
503.618	14656.92
503.987	14693.07
504.356	14839.51
504.724	14944.59
505.093	15015.1
505.462	15057.81
505.83	15253.29
506.199	15373.73
506.567	15600.39
506.936	15483.56
507.304	15795.87
507.672	15813.27
508.041	15911.57
508.409	15970.78
508.777	16121.96
509.145	16240.83
509.514	16257.78
509.882	16361.28
510.25	16508.39
510.618	16688.95
510.986	16643.76
511.354	16857.76
511.722	17030.19
512.09	17201.71
512.458	17173.23
512.826	17419.33
513.193	17525.54
513.561	17533.9
513.929	17775.25
514.297	17861.35
514.664	17989.26
515.032	18104.51
515.4	18266.54
515.767	18332.53
516.135	18393.54
516.502	18328.91
516.869	18826.07
517.237	18890.93
517.604	18927.77
517.972	19055.45
518.339	19263.58
518.706	19277.13
519.073	19396.45
519.44	19437.58
519.808	19656.79
520.175	19768.65
520.542	20088.41
520.909	20130.45
521.276	20134.29
521.643	20423.77
522.009	20677.55
522.376	20577.89
522.743	20921.16
523.11	21053.58
523.477	21198.67
523.843	21327.93
524.21	21568.37
524.577	21724.08
524.943	21843.85
525.31	21916.39
525.676	22192.31
526.043	22336.71
526.409	22423.94
526.776	22760.43
527.142	22756.14
527.508	22998.17
527.874	23184.38
528.241	23237.93
528.607	23327.2
528.973	23574.42
529.339	23569.45
529.705	23767.86
530.071	24063.68
530.437	24123.79
530.803	24344.35
531.169	24489.65
531.535	24487.62
531.901	24565.58
532.267	24691.23
532.632	25012.8
532.998	25033.14
533.364	25203.76
533.73	25265.23
534.095	25474.71
534.461	25503.86
534.826	25666.57
535.192	25808.04
535.557	26099.33
535.923	25928.26
536.288	26150.63
536.653	26331.86
537.019	26201.25
537.384	26388.13
537.749	26614.79
538.114	26624.96
538.479	26700.44
538.845	26767.33
539.21	26772.3
539.575	27026.99
539.94	27112.18
540.305	27142.69
540.67	27207.77
541.034	27416.36
541.399	27465.85
541.764	27597.14
542.129	27624.49
542.494	27749.68
542.858	27946.74
543.223	27970.92
543.587	28188.76
543.952	28149.67
544.316	28188.54
544.681	28189.22
545.045	28460.17
545.41	28478.93
545.774	28497.23
546.138	28667.4
546.503	28736.77
546.867	28805.7
547.231	29178.34
547.595	29048.4
547.959	29163.88
548.324	29230.54
548.688	29438.22
549.052	29492.91
549.416	29648.84
549.779	29705.56
550.143	29874.14
550.507	30070.97
550.871	30062.61
551.235	29972.22
551.599	30336.5
551.962	30423.51
552.326	30500.12
552.689	30696.95
553.053	30583.96
553.417	30618.53
553.78	31158.63
554.143	30956.6
554.507	31103.94
554.87	31240.89
555.234	31540.99
555.597	31394.1
555.96	31582.12
556.323	31791.38
556.686	31883.58
557.05	32135.1
557.413	32127.64
557.776	32298.94
558.139	32516.33
558.502	32529.22
558.865	32695.54
559.228	33025.93
559.59	32942.09
559.953	32994.06
560.316	33464.33
560.679	33419.81
561.041	33655.51
561.404	33879.24
561.767	34048.5
562.129	33980.7
562.492	34434.25
562.854	34294.14
563.217	34420.69
563.579	34502.5
563.941	34670.63
564.304	34895.25
564.666	35116.27
565.028	35285.53
565.39	35262.25
565.753	35592.19
566.115	35600.55
566.477	35718.96
566.839	35946.75
567.201	36166.41
567.563	36193.53
567.925	36273.52
568.287	36544.02
568.648	36642.55
569.01	36882.77
569.372	37043.45
569.734	36859.95
570.095	37257.45
570.457	37328.64
570.819	37525.02
571.18	37528.63
571.542	37667.61
571.903	37846.14
572.265	38003.87
572.626	38029.18
572.987	38132.01
573.349	38260.59
573.71	38368.61
574.071	38473.01
574.432	38521.6
574.794	38776.06
575.155	38724.31
575.516	38619
575.877	38846.79
576.238	38985.32
576.599	39043.17
576.96	39130.62
577.32	39284.29
577.681	39410.84
578.042	39449.26
578.403	39362.93
578.763	39582.36
579.124	39736.71
579.485	39756.6
579.845	39901.45
580.206	39674.11
580.566	39845.63
580.927	39868.91
581.287	39957.72
581.648	39782.36
582.008	40008.57
582.368	39925.86
582.728	39966.99
583.089	40049.47
583.449	39996.36
583.809	40102.58
584.169	40134.67
584.529	40238.17
584.889	40410.59
585.249	40220.99
585.609	40188.45
585.969	40370.82
586.329	40292.18
586.688	40311.84
587.048	40373.98
587.408	40207.66
587.768	40209.01
588.127	40135.57
588.487	40364.94
588.846	40499.63
589.206	40143.25
589.565	40213.98
589.925	40460.76
590.284	40525.62
590.643	40503.02
591.003	40593.41
591.362	40539.4
591.721	40589.12
592.08	40601.55
592.44	40688.1
592.799	40654.88
593.158	40785.27
593.517	40661.43
593.876	40631.6
594.235	40517.93
594.593	40769.9
594.952	40871.14
595.311	40783.91
595.67	40785.04
596.029	40911.14
596.387	41067.3
596.746	40993.63
597.104	40747.3
597.463	40821.43
597.822	40996.34
598.18	40934.42
598.538	40784.59
598.897	41274.52
599.255	40986.62
599.613	41407.85
599.972	41202.89
600.33	41358.81
600.688	41196.78
601.046	41363.11
601.404	41376.44
601.762	41341.86
602.12	41436.78
602.478	41394.52
602.836	41430.68
603.194	41275.88
603.552	41469.77
603.91	41423.67
604.268	41501.18
604.625	41420.05
604.983	41485.14
605.341	41406.72
605.698	41648.98
606.056	41755.19
606.413	41732.36
606.771	41848.52
607.128	41958.8
607.485	41926.93
607.843	41802.87
608.2	41994.05
608.557	42195.85
608.914	41894.62
609.272	42162.86
609.629	42192.24
609.986	42334.61
610.343	42148.4
610.7	42451.44
611.057	42445.79
611.414	42436.07
611.771	42343.42
612.127	42537.77
612.484	42650.98
612.841	42836.74
613.198	42582.28
613.554	42469.52
613.911	42787.7
614.267	42778.66
614.624	42737.99
614.98	42913.35
615.337	43093.23
615.693	43053.23
616.05	42892.78
616.406	43149.05
616.762	42978.21
617.118	43041.71
617.475	43111.54
617.831	43147.02
618.187	43234.47
618.543	43229.27
618.899	43408.48
619.255	43142.95
619.611	43288.25
619.967	43443.5
620.323	43534.8
620.678	43461.13
621.034	43216.62
621.39	43193.57
621.746	43251.87
622.101	43698.41
622.457	43279.22
622.812	43425.65
623.168	43516.05
623.523	43421.36
623.879	43508.14
624.234	43389.27
624.589	43437.4
624.945	43476.05
625.3	43619.55
625.655	43484.18
626.01	43582.71
626.365	43574.12
626.72	43531.64
627.075	43393.34
627.43	43484.63
627.785	43363.05
628.14	43354.69
628.495	43382.04
628.85	43324.41
629.205	43380
629.559	43477.63
629.914	43113.34
630.269	43348.14
630.623	43291.64
630.978	43279.89
631.332	43380.23
631.687	43242.38
632.041	43114.02
632.396	43166.9
632.75	43036.51
633.104	43093.23
633.459	42853.24
633.813	42793.35
634.167	42704.09
634.521	42711.09
634.875	42910.41
635.229	42792.9
635.583	42477.88
635.937	42570.31
636.291	42577.76
636.645	42522.4
636.999	42611.21
637.352	42724.43
637.706	42359.92
638.06	42572.12
638.413	42324.44
638.767	42277.89
639.121	42272.24
639.474	42025.91
639.828	42184.55
640.181	42121.28
640.534	42133.71
640.888	41968.06
641.241	41799.03
641.594	41976.2
641.947	42070.66
642.301	41865.24
642.654	41836.09
643.007	41886.48
643.36	41761.51
643.713	41886.48
644.066	41865.47
644.419	41482.43
644.771	41223
645.124	40828.43
645.477	40840.18
645.83	40584.82
646.182	40327.88
646.535	40323.13
646.888	40403.13
647.24	40339.41
647.593	40361.1
647.945	40257.37
648.298	40147.32
648.65	40004.27
649.002	39962.24
649.355	40041.11
649.707	40016.93
650.059	40032.52
650.411	40403.81
650.763	40520.19
651.115	41009.22
651.467	40840.18
651.819	40799.05
652.171	40758.83
652.523	40675.89
652.875	40675.22
653.227	40529.91
653.578	40783.91
653.93	40686.97
654.282	40397.48
654.633	40287.2
654.985	40403.58
655.337	40403.81
655.688	40409.46
656.039	40363.59
656.391	39999.08
656.742	40218.05
657.094	40245.17
657.445	40461.21
657.796	40228.67
658.147	40243.14
658.498	40070.94
658.849	40209.92
659.2	40160.88
659.551	40022.35
659.902	40214.89
660.253	39999.98
660.604	40143.03
660.955	39785.3
661.306	40056.25
661.656	39979.41
662.007	40105.97
662.358	39980.77
662.708	40051.73
663.059	39834.79
663.409	39614.45
663.76	39816.93
664.11	39892.41
664.461	39850.83
664.811	39935.12
665.161	39909.59
665.511	39696.71
665.862	39783.49
666.212	39885.18
666.562	39861.23
666.912	39692.42
667.262	39595.92
667.612	39593.89
667.962	39667.11
668.312	39497.17
668.662	39715.69
669.011	39611.74
669.361	39550.05
669.711	39552.99
670.06	39484.51
670.41	39434.34
670.76	39335.36
671.109	39475.7
671.459	39396.61
671.808	39326.1
672.157	39390.5
672.507	39110.96
672.856	39074.58
673.205	39219.21
673.554	39318.42
673.904	39207.46
674.253	39423.05
674.602	39279.55
674.951	38751.42
675.3	38447.03
675.649	39007.69
675.998	38957.75
676.346	39176.95
676.695	39224.41
677.044	38842.72
677.393	38992.77
677.741	38934.7
678.09	38843.17
678.438	38784.19
678.787	38911.65
679.135	38806.34
679.484	38527.02
679.832	38748.03
680.181	38533.58
680.529	38630.07
680.877	38609.96
681.225	38394.37
681.573	38671.43
681.922	38355.5
682.27	38254.26
682.618	38329.74
682.966	38182.17
683.314	38406.8
683.661	38212.46
684.009	37998
684.357	37795.74
684.705	37820.15
685.053	37851.79
685.4	37787.83
685.748	37662.19
686.095	37641.17
686.443	37597.56
686.79	37481.18
687.138	37510.78
687.485	37388.75
687.832	37566.15
688.18	37478.24
688.527	37105.59
688.874	37218.36
689.221	37082.09
689.568	36895.65
689.915	36843.23
690.262	36853.17
690.609	36889.1
690.956	36706.51
691.303	36663.12
691.65	36414.99
691.997	36487.08
692.344	36258.38
692.69	36330.92
693.037	36378.38
693.383	35956.24
693.73	36043.25
694.077	35748.11
694.423	35886.19
694.769	35788.56
695.116	35614.78
695.462	35744.95
695.808	35373.89
696.155	35396.71
696.501	35267.9
696.847	35278.3
697.193	34983.61
697.539	35113.55
697.885	34850.28
698.231	34720.12
698.577	34693.9
698.923	34712.43
699.269	34508.37
699.614	34417.75
699.96	34294.37
700.306	34344.76
700.651	34273.58
700.997	34137.53
701.342	34072.45
701.688	34002.85
702.033	33866.13
702.379	33933.25
702.724	33802.4
703.069	33698.22
703.415	33382.75
703.76	33427.5
704.105	33464.11
704.45	33328.06
704.795	33113.15
705.14	33064.12
705.485	32969.43
705.83	32850.11
706.175	32975.98
706.52	32919.26
706.865	32672.26
707.209	32678.82
707.554	32526.96
707.899	32740.74
708.243	32538.71
708.588	32639.95
708.932	32272.27
709.277	32206.51
709.621	32167.42
709.966	32010.36
710.31	32091.03
710.654	31907.99
710.998	31855.79
711.342	31759.74
711.687	31677.71
712.031	31632.06
712.375	31512.07
712.719	31586.42
713.063	31437.49
713.407	31537.6
713.75	31279.98
714.094	31238.4
714.438	31201.11
714.782	31314.56
715.125	31178.29
715.469	31165.41
715.812	30967.67
716.156	30740.34
716.499	30913.21
716.843	30872.31
717.186	30723.84
717.53	30806.55
717.873	30745.08
718.216	30674.35
718.559	30460.57
718.902	30381.02
719.246	30378.54
719.589	30398.65
719.932	30194.36
720.275	30174.02
720.617	30111.88
720.96	30038.66
721.303	30042.5
721.646	30038.66
721.989	29820.36
722.331	29958.66
722.674	29700.36
723.016	29706.69
723.359	29804.54
723.701	29762.73
724.044	29571.55
724.386	29248.4
724.729	29640.93
725.071	29406.13
725.413	29332.69
725.755	29359.81
726.097	29274.39
726.439	29067.39
726.782	29151.45
727.124	29285.01
727.465	28958.69
727.807	29136.54
728.149	29044.34
728.491	28713.95
728.833	28945.58
729.175	28851.57
729.516	28799.6
729.858	28789.88
730.199	28846.83
730.541	28708.98
730.882	28544.69
731.224	28678.92
731.565	28501.3
731.906	28562.99
732.248	28570.22
732.589	28438.02
732.93	28374.97
733.271	28396.44
733.612	28338.82
733.953	28280.74
734.294	28203.91
734.635	28200.97
734.976	28251.59
735.317	28038.94
735.658	27974.98
735.999	28074.42
736.339	27921.65
736.68	28085.26
737.021	27934.76
737.361	27772.05
737.702	27861.09
738.042	27722.34
738.383	27759.85
738.723	27728.66
739.063	27628.78
739.404	27639.63
739.744	27585.84
740.084	27593.3
740.424	27457.71
740.764	27446.19
741.104	27492.74
741.444	27421.33
741.784	27297.26
742.124	27254.78
742.464	27153.31
742.804	27183.82
743.143	27129.13
743.483	27079.87
743.823	27005.07
744.162	26978.63
744.502	26970.94
744.841	26788.8
745.181	26916.71
745.52	26925.29
745.86	26793.32
746.199	26677.62
746.538	26666.77
746.877	26730.05
747.216	26796.03
747.556	26634
747.895	26558.98
748.234	26397.4
748.573	26380.9
748.911	26531.86
749.25	26323.95
749.589	26260.68
749.928	26119.44
750.267	26195.82
750.605	26008.71
750.944	25983.17
751.283	25943.85
751.621	26029.5
751.96	25948.6
752.298	25844.87
752.636	25873.12
752.975	25613.24
753.313	25452.34
753.651	25639
