Data from plate_porcelain_FLMS001491_032.txt Node
Date: Tue Feb 07 11:19:12 GMT 2017
User: dcchb
Spectrometer: FLMS00149
Trigger mode: 0
Integration Time (sec): 2.000000E-2
Scans to average: 10
Electric dark correction enabled: true
Nonlinearity correction enabled: false
Boxcar width: 0
XAxis mode: Wavelengths
Number of Pixels in Spectrum: 2048
>>>>>Begin Spectral Data<<<<<
341.393	1.05
341.776	1.05
342.16	1.05
342.543	-45.73
342.927	-64.04
343.31	-86.86
343.693	-54.09
344.077	-45.06
344.46	-75.11
344.843	-46.19
345.226	-59.52
345.61	-29.01
345.993	-3.7
346.376	-15.45
346.759	10.31
347.142	24.32
347.525	58.22
347.908	44.43
348.291	72.46
348.674	81.95
349.057	123.3
349.44	126.24
349.823	143.64
350.206	153.58
350.588	224.77
350.971	250.98
351.354	266.57
351.737	272.9
352.119	300.25
352.502	315.84
352.884	309.06
353.267	313.81
353.65	342.51
354.032	331.66
354.414	350.19
354.797	354.03
355.179	367.36
355.562	362.84
355.944	371.43
356.326	372.56
356.709	385.67
357.091	384.31
357.473	389.74
357.855	384.54
358.238	400.58
358.62	397.19
359.002	376.4
359.384	371.66
359.766	380.02
360.148	382.5
360.53	378.66
360.912	403.97
361.294	400.81
361.676	392.22
362.057	403.52
362.439	413.46
362.821	393.35
363.203	381.6
363.584	385.44
363.966	388.61
364.348	377.98
364.729	399.68
365.111	387.48
365.493	405.55
365.874	384.09
366.256	386.12
366.637	375.95
367.019	392
367.4	386.35
367.781	391.77
368.163	409.4
368.544	396.06
368.925	399.23
369.306	405.33
369.688	391.54
370.069	407.14
370.45	405.78
370.831	398.55
371.212	428.6
371.593	401.49
371.974	412.56
372.355	429.06
372.736	404.88
373.117	418.21
373.498	415.05
373.879	419.79
374.26	424.54
374.641	405.78
375.021	405.55
375.402	430.41
375.783	441.71
376.163	468.15
376.544	446.68
376.925	464.76
377.305	451.2
377.686	459.11
378.066	451.88
378.447	453.91
378.827	461.82
379.208	462.95
379.588	453.91
379.968	473.35
380.349	481.71
380.729	478.55
381.109	496.4
381.489	486.46
381.87	494.37
382.25	495.72
382.63	511.09
383.01	506.34
383.39	505.89
383.77	517.87
384.15	532.56
384.53	534.36
384.91	545.89
385.29	548.15
385.67	551.99
386.049	568.26
386.429	556.06
386.809	566.68
387.189	566.68
387.568	589.05
387.948	586.57
388.328	567.81
388.707	571.88
389.087	608.03
389.466	607.81
389.846	596.74
390.225	628.6
390.605	630.63
390.984	638.77
391.363	634.25
391.743	646
392.122	638.99
392.501	674.25
392.881	671.99
393.26	686
393.639	673.12
394.018	703.17
394.397	691.65
394.776	715.15
395.155	708.82
395.534	709.28
395.913	745.21
396.292	735.26
396.671	750.4
397.05	719.44
397.429	765.32
397.808	786.11
398.186	752.89
398.565	777.07
398.944	776.17
399.323	791.31
399.701	777.52
400.08	820.68
400.458	834.02
400.837	842.15
401.215	816.39
401.594	829.27
401.972	852.1
402.351	841.02
402.729	870.17
403.107	881.7
403.486	885.09
403.864	922.83
404.242	894.13
404.62	909.95
404.999	921.02
405.377	952.66
405.755	972.77
406.133	973
406.511	961.7
406.889	998.31
407.267	997.86
407.645	1022.71
408.023	1037.63
408.401	1042.37
408.779	1056.38
409.156	1071.53
409.534	1069.49
409.912	1110.62
410.29	1139.32
410.667	1122.82
411.045	1179.32
411.422	1151.3
411.8	1178.42
412.178	1203.73
412.555	1214.57
412.933	1270.84
413.31	1257.74
413.687	1268.36
414.065	1290.28
414.442	1293.44
414.819	1328.24
415.197	1332.54
415.574	1381.12
415.951	1356.72
416.328	1400.56
416.705	1375.92
417.082	1403.49
417.46	1409.14
417.837	1426.32
418.214	1445.75
418.591	1481.46
418.967	1465.19
419.344	1515.36
419.721	1506.54
420.098	1512.19
420.475	1536.15
420.852	1563.26
421.228	1594.68
421.605	1596.03
421.982	1600.78
422.358	1644.17
422.735	1678.97
423.111	1662.47
423.488	1679.19
423.864	1687.1
424.241	1732.3
424.617	1752.41
424.994	1770.94
425.37	1791.28
425.746	1788.79
426.123	1803.48
426.499	1824.27
426.875	1876.93
427.251	1906.76
427.627	1945.63
428.003	1969.81
428.379	1990.37
428.756	2013.42
429.132	2031.73
429.507	2060.2
429.883	2066.98
430.259	2117.83
430.635	2117.15
431.011	2157.37
431.387	2213.42
431.763	2225.17
432.138	2260.65
432.514	2309.69
432.89	2324.83
433.265	2360.31
433.641	2420.42
434.016	2394.65
434.392	2459.96
434.767	2496.12
435.143	2521.43
435.518	2529.79
435.894	2582.22
436.269	2612.95
436.644	2647.53
437.02	2716.23
437.395	2676.91
437.77	2732.27
438.145	2777.02
438.52	2790.58
438.895	2836.45
439.271	2878.03
439.646	2905.83
440.021	2937.24
440.395	2952.38
440.77	2930.01
441.145	2971.36
441.52	3026.05
441.895	3022.21
442.27	3056.33
442.645	3060.4
443.019	3095.65
443.394	3130
443.769	3106.05
444.143	3152.6
444.518	3228.98
444.892	3210.45
445.267	3218.59
445.641	3246.61
446.016	3295.87
446.39	3311.24
446.764	3356.89
447.139	3352.82
447.513	3397.11
447.887	3428.53
448.262	3453.84
448.636	3477.11
449.01	3473.95
449.384	3558.47
449.758	3594.85
450.132	3626.49
450.506	3658.58
450.88	3689.31
451.254	3706.71
451.628	3775.18
452.002	3762.98
452.376	3808.63
452.75	3857.44
453.123	3923.88
453.497	3975.4
453.871	3988.06
454.244	4096.08
454.618	4093.82
454.992	4173.82
455.365	4218.56
455.739	4262.4
456.112	4313.25
456.486	4296.07
456.859	4418.78
457.232	4519.8
457.606	4465.56
457.979	4566.35
458.352	4663.52
458.725	4722.73
459.099	4768.15
459.472	4854.7
459.845	4911.88
460.218	4949.84
460.591	5042.27
460.964	4990.97
461.337	5188.48
461.71	5258.08
462.083	5336.27
462.456	5332.66
462.829	5365.65
463.201	5499.43
463.574	5449.26
463.947	5577.62
464.32	5725.64
464.692	5738.75
465.065	5761.12
465.438	5871.4
465.81	6006.54
466.183	6006.31
466.555	6198.62
466.928	6225.74
467.3	6212.86
467.672	6383.02
468.045	6452.4
468.417	6489.69
468.789	6551.16
469.161	6604.49
469.534	6780.75
469.906	6936.91
470.278	6974.65
470.65	7027.98
471.022	7223.68
471.394	7333.06
471.766	7407.63
472.138	7444.69
472.51	7679.04
472.882	7771.69
473.253	7848.75
473.625	7973.26
473.997	8164.45
474.369	8186.14
474.74	8282.64
475.112	8450.77
475.484	8636.98
475.855	8751.32
476.227	8850.98
476.598	9131.65
476.97	9196.96
477.341	9402.38
477.713	9483.51
478.084	9585.43
478.455	9858.19
478.827	9915.13
479.198	10212.3
479.569	10257.27
479.94	10559.19
480.311	10688.9
480.682	10916.46
481.053	11160.07
481.424	11304.02
481.795	11421.54
482.166	11659.27
482.537	11755.31
482.908	12053.16
483.279	12218.13
483.65	12434.62
484.021	12623.76
484.391	12751.9
484.762	12923.19
485.133	13070.76
485.503	13261.49
485.874	13534.7
486.244	13664.87
486.615	13967.68
486.985	14089.94
487.356	14369.25
487.726	14584.39
488.097	14741.67
488.467	14915
488.837	15170.82
489.207	15373.75
489.578	15652.39
489.948	15788.2
490.318	16014.64
490.688	16148.87
491.058	16313.38
491.428	16604.9
491.798	16733.94
492.168	16987.72
492.538	17126.24
492.908	17402.4
493.278	17549.74
493.648	17559.45
494.017	17890.97
494.387	18035.83
494.757	18227.91
495.126	18421.8
495.496	18611.18
495.866	18749.03
496.235	18892.53
496.605	19129.58
496.974	19150.37
497.344	19308.56
497.713	19525.05
498.082	19589.46
498.452	19847.08
498.821	20006.39
499.19	20088.43
499.559	20242.09
499.928	20369.78
500.298	20576.1
500.667	20770.67
501.036	20802.98
501.405	21021.51
501.774	20992.13
502.143	21310.09
502.512	21442.29
502.88	21558.22
503.249	21592.34
503.618	21868.72
503.987	21901.26
504.356	22084.08
504.724	22280.91
505.093	22443.17
505.462	22472.77
505.83	22609.04
506.199	22908.01
506.567	23186.88
506.936	23073.66
507.304	23388.23
507.672	23552.29
508.041	23730.36
508.409	23781.89
508.777	24005.84
509.145	24167.19
509.514	24246.74
509.882	24536.67
510.25	24530.34
510.618	24837.23
510.986	24893.95
511.354	25218.91
511.722	25402.86
512.09	25606.47
512.458	25525.12
512.826	25937.31
513.193	26045.78
513.561	26076.97
513.929	26399.22
514.297	26613.23
514.664	26687.12
515.032	26919.89
515.4	27252.31
515.767	27315.13
516.135	27507.89
516.502	27351.06
516.869	27832.18
517.237	28132.28
517.604	28026.52
517.972	28373.18
518.339	28488.88
518.706	28699.95
519.073	28887.07
519.44	29085.03
519.808	29373.38
520.175	29503.55
520.542	29722.75
520.909	29886.36
521.276	30131.1
521.643	30421.26
522.009	30681.14
522.376	30929.05
522.743	31137.63
523.11	31343.72
523.477	31592.3
523.843	31976.7
524.21	32131.5
524.577	32420.08
524.943	32573.52
525.31	32734.2
525.676	33100.29
526.043	33181.87
526.409	33433.16
526.776	33755.41
527.142	33975.52
527.508	34120.6
527.874	34427.94
528.241	34841.49
528.607	34780.02
528.973	35147.47
529.339	35141.36
529.705	35530.05
530.071	35809.82
530.437	36057.5
530.803	36276.48
531.169	36308.11
531.535	36366.64
531.901	36522.12
532.267	36634.43
532.632	36970.92
532.998	37180.18
533.364	37366.84
533.73	37514.41
534.095	37904
534.461	37961.18
534.826	38119.36
535.192	38244.33
535.557	38578.79
535.923	38492.46
536.288	38799.35
536.653	39031.66
537.019	38877.99
537.384	39191.88
537.749	39165.67
538.114	39412.44
538.479	39496.28
538.845	39780.79
539.21	39751.86
539.575	39999.77
539.94	40144.17
540.305	40379.87
540.67	40351.4
541.034	40465.74
541.399	40720.88
541.764	40846.52
542.129	40829.35
542.494	41005.84
542.858	41268.21
543.223	41115.22
543.587	41446.28
543.952	41577.35
544.316	41754.75
544.681	41706.84
545.045	42036.32
545.41	42214.62
545.774	42299.59
546.138	42223.66
546.503	42416.2
546.867	42460.27
547.231	42802.41
547.595	42812.8
547.959	42911.33
548.324	43017.32
548.688	43269.29
549.052	43373.01
549.416	43489.17
549.779	43540.69
550.143	43752.66
550.507	44071.3
550.871	44221.13
551.235	44153.1
551.599	44513.32
551.962	44584.05
552.326	44711.96
552.689	45075.11
553.053	44752.41
553.417	44859.07
553.78	45522.11
554.143	45155.11
554.507	45625.38
554.87	45786.96
555.234	46177.01
555.597	45838.48
555.96	46109.89
556.323	46233.05
556.686	46384.68
557.05	46695.86
557.413	46714.62
557.776	46912.35
558.139	47248.39
558.502	47272.34
558.865	47296.52
559.228	47661.49
559.59	47743.29
559.953	47888.37
560.316	48206.33
560.679	48211.08
561.041	48321.58
561.404	48639.31
561.767	49011.06
562.129	48809.48
562.492	49214.21
562.854	49116.82
563.217	49304.38
563.579	49423.93
563.941	49670.25
564.304	49869.34
564.666	50126.28
565.028	50183.23
565.39	50301.64
565.753	50557.91
566.115	50545.25
566.477	50789.99
566.839	50775.08
567.201	51001.06
567.563	51091.91
567.925	51376.42
568.287	51322.63
568.648	51364.44
569.01	51588.39
569.372	51748.16
569.734	51780.25
570.095	52001.49
570.457	52107.47
570.819	52131.43
571.18	52117.87
571.542	52367.8
571.903	52453.45
572.265	52529.61
572.626	52581.13
572.987	52721.69
573.349	52853.89
573.71	52985.19
574.071	52962.59
574.432	53030.61
574.794	53218.18
575.155	53222.7
575.516	53156.94
575.877	53381.34
576.238	53411.62
576.599	53496.36
576.96	53510.82
577.32	53561.67
577.681	53647.32
578.042	53810.93
578.403	53861.1
578.763	53770.25
579.124	53804.83
579.485	53920.31
579.845	54065.16
580.206	53999.4
580.566	54028.78
580.927	54041.21
581.287	54197.59
581.648	54050.02
582.008	54165.27
582.368	54150.36
582.728	54254.08
583.089	54181.77
583.449	54182.67
583.809	54263.35
584.169	54301.31
584.529	54167.53
584.889	54452.95
585.249	54244.82
585.609	54222.22
585.969	54308.09
586.329	54248.21
586.688	54445.49
587.048	54403.23
587.408	54276
587.768	54367.98
588.127	54336.79
588.487	54315.78
588.846	54484.36
589.206	54263.57
589.565	54361.88
589.925	54507.63
590.284	54378.82
590.643	54521.65
591.003	54557.8
591.362	54610.68
591.721	54481.87
592.08	54535.2
592.44	54495.43
592.799	54490.46
593.158	54511.48
593.517	54606.39
593.876	54504.02
594.235	54552.83
594.593	54647.97
594.952	54644.58
595.311	54547.86
595.67	54632.38
596.029	54761.87
596.387	54801.64
596.746	54755.76
597.104	54697.69
597.463	54712.6
597.822	54847.96
598.18	54743.79
598.538	54651.81
598.897	54872.14
599.255	54609.55
599.613	55057.9
599.972	54803.45
600.33	54899.71
600.688	54809.77
601.046	54961.41
601.404	55158.92
601.762	55034.85
602.12	55079.37
602.478	55192.59
602.836	55146.94
603.194	54996.89
603.552	55052.25
603.91	54999.37
604.268	55168.86
604.625	55060.61
604.983	55233.27
605.341	55166.83
605.698	55223.32
606.056	55350.32
606.413	55276.88
606.771	55438.23
607.128	55477.78
607.485	55257.45
607.843	55314.62
608.2	55425.35
608.557	55620.15
608.914	55484.78
609.272	55555.74
609.629	55608.85
609.986	55708.73
610.343	55597.78
610.7	55814.49
611.057	55770.88
611.414	55828.73
611.771	55765
612.127	55830.54
612.484	55796.19
612.841	55964.32
613.198	55848.62
613.554	55929.74
613.911	56009.29
614.267	55992.79
614.624	55987.37
614.98	56023.75
615.337	56164.77
615.693	56168.16
616.05	56137.65
616.406	56240.02
616.762	56093.58
617.118	56149.17
617.475	56172.45
617.831	56212.45
618.187	56237.98
618.543	56246.12
618.899	56393.23
619.255	56393.91
619.611	56310.53
619.967	56400.69
620.323	56420.58
620.678	56369.96
621.034	56275.5
621.39	56405.89
621.746	56307.36
622.101	56555.72
622.457	56344.87
622.812	56361.82
623.168	56443.4
623.523	56405.66
623.879	56566.56
624.234	56380.58
624.589	56493.35
624.945	56463.29
625.3	56510.29
625.655	56387.59
626.01	56435.72
626.365	56510.97
626.72	56366.34
627.075	56326.57
627.43	56368.38
627.785	56322.73
628.14	56372.67
628.495	56335.84
628.85	56349.62
629.205	56254.48
629.559	56352.11
629.914	56289.51
630.269	56248.38
630.623	56249.96
630.978	56180.36
631.332	56261.26
631.687	56280.92
632.041	56155.27
632.396	56206.8
632.75	56084.54
633.104	56129.96
633.459	55996.18
633.813	56008.84
634.167	56014.94
634.521	55984.43
634.875	55985.11
635.229	55973.81
635.583	55831.89
635.937	55801.39
636.291	55781.95
636.645	55809.75
636.999	55781.73
637.352	55865.11
637.706	55595.29
638.06	55751.44
638.413	55676.64
638.767	55627.61
639.121	55630.32
639.474	55450.89
639.828	55497.44
640.181	55528.17
640.534	55517.33
640.888	55467.38
641.241	55251.34
641.594	55352.81
641.947	55438.23
642.301	55255.41
642.654	55380.83
643.007	55298.8
643.36	55246.15
643.713	55192.81
644.066	55301.74
644.419	55060.61
644.771	54931.58
645.124	54664.69
645.477	54601.64
645.83	54394.87
646.182	54200.98
646.535	54084.14
646.888	54214.53
647.24	54053.41
647.593	54290.92
647.945	54200.07
648.298	53942.45
648.65	53902
649.002	53858.16
649.355	54039.17
649.707	53895.67
650.059	53977.25
650.411	54391.71
650.763	54350.8
651.115	54667.18
651.467	54473.06
651.819	54502.21
652.171	54386.51
652.523	54420.18
652.875	54230.13
653.227	54259.05
653.578	54378.37
653.93	54290.92
654.282	54206.4
654.633	54042.34
654.985	54151.94
655.337	54174.08
655.688	54119.62
656.039	54275.32
656.391	54049.79
656.742	53967.08
657.094	54049.12
657.445	54144.03
657.796	54037.59
658.147	53978.61
658.498	53877.82
658.849	54069.68
659.2	53924.37
659.551	53907.65
659.902	53982.68
660.253	53899.51
660.604	53942.45
660.955	53781.55
661.306	53866.3
661.656	53773.19
662.007	53796.24
662.358	53759.18
662.708	53732.51
663.059	53785.85
663.409	53565.51
663.76	53750.37
664.11	53679.86
664.461	53711.27
664.811	53737.94
665.161	53728.45
665.511	53576.81
665.862	53558.73
666.212	53769.8
666.562	53736.81
666.912	53654.1
667.262	53658.62
667.612	53603.7
667.962	53622.91
668.312	53650.93
668.662	53667.66
669.011	53588.34
669.361	53515.12
669.711	53507.89
670.06	53421.34
670.41	53486.42
670.76	53380.66
671.109	53494.78
671.459	53345.63
671.808	53443.71
672.157	53431.96
672.507	53254.79
672.856	53293.2
673.205	53295.01
673.554	53307.67
673.904	53289.59
674.253	53389.7
674.602	53253.66
674.951	52822.48
675.3	52791.07
675.649	53249.14
675.998	53098.63
676.346	53080.78
676.695	53263.37
677.044	52970.05
677.393	53226.76
677.741	53196.03
678.09	53019.76
678.438	52955.13
678.787	53058.63
679.135	52999.43
679.484	52837.17
679.832	52978.86
680.181	52680.11
680.529	52793.1
680.877	52700.9
681.225	52703.61
681.573	52916.94
681.922	52581.36
682.27	52596.27
682.618	52573.67
682.966	52429.95
683.314	52474.47
683.661	52401.7
684.009	52241.25
684.357	52181.37
684.705	52176.85
685.053	52222.27
685.4	52177.07
685.748	51946.57
686.095	51932.11
686.443	51733.7
686.79	51871.09
687.138	51770.76
687.485	51785.45
687.832	51690.99
688.18	51740.7
688.527	51559.69
688.874	51387.94
689.221	51383.42
689.568	51196.08
689.915	51215.97
690.262	51134.62
690.609	51015.07
690.956	50894.17
691.303	50942.98
691.65	50635.65
691.997	50693.05
692.344	50368.08
692.69	50511.58
693.037	50564.24
693.383	50305.26
693.73	50382.32
694.077	50074.08
694.423	50248.54
694.769	50077.24
695.116	50019.62
695.462	49899.39
695.808	49799.96
696.155	49916.57
696.501	49527.43
696.847	49601.1
697.193	49259.41
697.539	49322.69
697.885	49207.89
698.231	49052.86
698.577	49152.07
698.923	48928.35
699.269	48694.91
699.614	48596.6
699.96	48521.58
700.306	48531.29
700.651	48493.1
700.997	48290.17
701.342	48207.46
701.688	48099.67
702.033	48048.14
702.379	47789.85
702.724	47753.91
703.069	47884.98
703.415	47494.94
703.76	47447.26
704.105	47452.23
704.45	47266.47
704.795	47139.01
705.14	46968.62
705.485	46835.29
705.83	46729.53
706.175	46725.24
706.52	46693.15
706.865	46583.1
707.209	46555.98
707.554	46409.99
707.899	46653.6
708.243	46258.59
708.588	46263.11
708.932	45949.67
709.277	45962.32
709.621	45903.57
709.966	45739.73
710.31	45770.01
710.654	45547.64
710.998	45634.2
711.342	45666.29
711.687	45400.98
712.031	45138.39
712.375	45026.08
712.719	45236.24
713.063	45057.26
713.407	45124.6
713.75	44924.61
714.094	44846.42
714.438	44788.34
714.782	44793.99
715.125	44564.39
715.469	44553.77
715.812	44268.13
716.156	44067.01
716.499	44164.86
716.843	44226.32
717.186	43998.53
717.53	44090.73
717.873	44023.39
718.216	43875.15
718.559	43907.24
718.902	43567.81
719.246	43647.81
719.589	43557.64
719.932	43444.42
720.275	43443.52
720.617	43140.7
720.96	43304.99
721.303	43175.5
721.646	43155.62
721.989	42975.51
722.331	43049.63
722.674	42897.77
723.016	42880.6
723.359	42813.93
723.701	42874.49
724.044	42649.87
724.386	42282.87
724.729	42652.58
725.071	42346.82
725.413	42344.11
725.755	42349.08
726.097	42089.2
726.439	41885.37
726.782	41948.19
727.124	42020.28
727.465	41917.91
727.807	41912.94
728.149	41662.32
728.491	41682.21
728.833	41715.43
729.175	41468.2
729.516	41439.28
729.858	41465.72
730.199	41365.38
730.541	41376.91
730.882	41359.51
731.224	41328.77
731.565	40964.04
731.906	41227.76
732.248	41039.74
732.589	41011.04
732.93	40830.71
733.271	40861.44
733.612	40991.38
733.953	40779.86
734.294	40595.01
734.635	40558.62
734.976	40682.69
735.317	40369.93
735.658	40338.29
735.999	40474.11
736.339	40268.23
736.68	40353.88
737.021	40173.55
737.361	39993.67
737.702	40145.98
738.042	40104.17
738.383	39962.25
738.723	39897.17
739.063	39814.69
739.404	39849.04
739.744	39699.44
740.084	39541.93
740.424	39754.12
740.764	39550.29
741.104	39680.91
741.444	39366.79
741.784	39204.99
742.124	39435.04
742.464	39186.23
742.804	39181.71
743.143	39034.14
743.483	39074.37
743.823	38981.49
744.162	38990.3
744.502	38854.94
744.841	38791.44
745.181	38839.12
745.52	38612.91
745.86	38749.86
746.199	38560.48
746.538	38570.88
746.877	38518.9
747.216	38414.5
747.556	38285.69
747.895	38147.16
748.234	38046.37
748.573	38091.8
748.911	37962.76
749.25	37897.22
749.589	37750.34
749.928	37803.44
750.267	37701.75
750.605	37627.4
750.944	37539.49
751.283	37426.73
751.621	37581.3
751.96	37274.19
752.298	37267.86
752.636	37172.05
