Data from plate_porcelain_FLMS001491_096.txt Node
Date: Tue Feb 07 11:20:13 GMT 2017
User: dcchb
Spectrometer: FLMS00149
Trigger mode: 0
Integration Time (sec): 2.000000E-2
Scans to average: 10
Electric dark correction enabled: true
Nonlinearity correction enabled: false
Boxcar width: 0
XAxis mode: Wavelengths
Number of Pixels in Spectrum: 2048
>>>>>Begin Spectral Data<<<<<
341.393	-36.02
341.776	-36.02
342.16	-36.02
342.543	-75.11
342.927	-51.61
343.31	-60.87
343.693	-84.38
344.077	-72.85
344.46	-65.39
344.843	-39.41
345.226	-43.93
345.61	-29.91
345.993	-21.33
346.376	-1.21
346.759	-4.15
347.142	5.56
347.525	55.28
347.908	56.18
348.291	70.87
348.674	110.87
349.057	124.66
349.44	133.7
349.823	145
350.206	176.41
350.588	218.21
350.971	228.84
351.354	260.93
351.737	257.31
352.119	260.02
352.502	295.95
352.884	301.38
353.267	317.42
353.65	356.97
354.032	341.83
354.414	329.85
354.797	346.8
355.179	337.53
355.562	364.88
355.944	357.42
356.326	390.64
356.709	382.5
357.091	373.24
357.473	376.18
357.855	380.92
358.238	409.62
358.62	394.26
359.002	399
359.384	373.46
359.766	391.77
360.148	396.51
360.53	408.94
360.912	380.7
361.294	376.63
361.676	388.61
362.057	372.33
362.439	388.38
362.821	392.9
363.203	381.15
363.584	379.79
363.966	375.72
364.348	403.29
364.729	381.15
365.111	375.5
365.493	390.87
365.874	375.05
366.256	377.53
366.637	381.6
367.019	378.21
367.4	389.96
367.781	407.59
368.163	401.94
368.544	406.01
368.925	384.31
369.306	403.75
369.688	413.92
370.069	393.58
370.45	396.06
370.831	403.97
371.212	399.23
371.593	410.07
371.974	398.1
372.355	415.72
372.736	427.47
373.117	417.08
373.498	426.8
373.879	410.53
374.26	417.31
374.641	414.59
375.021	407.36
375.402	451.88
375.783	459.34
376.163	454.82
376.544	465.67
376.925	463.41
377.305	478.77
377.686	450.98
378.066	459.79
378.447	483.74
378.827	489.85
379.208	459.11
379.588	481.94
379.968	491.2
380.349	496.63
380.729	505.44
381.109	492.33
381.489	533.23
381.87	518.09
382.25	508.6
382.63	503.63
383.01	526
383.39	529.62
383.77	531.65
384.15	526.91
384.53	551.31
384.91	537.08
385.29	549.96
385.67	578.43
386.049	594.93
386.429	560.35
386.809	573.91
387.189	585.21
387.568	582.27
387.948	611.42
388.328	614.59
388.707	601.93
389.087	616.85
389.466	618.88
389.846	633.57
390.225	641.71
390.605	661.59
390.984	662.27
391.363	650.97
391.743	660.91
392.122	671.99
392.501	707.69
392.881	710.41
393.26	719.9
393.639	716.28
394.018	738.88
394.397	695.94
394.776	738.88
395.155	734.81
395.534	750.86
395.913	755.83
396.292	741.14
396.671	781.82
397.05	775.26
397.429	817.07
397.808	768.48
398.186	801.25
398.565	824.3
398.944	827.69
399.323	835.37
399.701	826.79
400.08	853.45
400.458	857.97
400.837	859.78
401.215	853.9
401.594	909.72
401.972	900.23
402.351	889.38
402.729	888.03
403.107	934.13
403.486	934.13
403.864	935.71
404.242	954.24
404.62	976.61
404.999	967.8
405.377	1007.35
405.755	1013.22
406.133	1021.13
406.511	1031.53
406.889	1045.31
407.267	1048.48
407.645	1059.55
408.023	1123.28
408.401	1106.33
408.779	1117.63
409.156	1138.87
409.534	1152.88
409.912	1168.02
410.29	1174.8
410.667	1197.85
411.045	1216.61
411.422	1217.06
411.8	1246.89
412.178	1276.94
412.555	1298.64
412.933	1278.98
413.31	1314.23
413.687	1343.83
414.065	1377.96
414.442	1371.18
414.819	1400.33
415.197	1400.56
415.574	1427.45
415.951	1457.05
416.328	1443.72
416.705	1459.31
417.082	1480.78
417.46	1474.9
417.837	1521.23
418.214	1521.01
418.591	1584.28
418.967	1572.98
419.344	1593.77
419.721	1620.89
420.098	1624.96
420.475	1624.96
420.852	1636.71
421.228	1664.96
421.605	1685.97
421.982	1739.08
422.358	1748.12
422.735	1757.61
423.111	1781.56
423.488	1775.24
423.864	1767.78
424.241	1831.51
424.617	1834.67
424.994	1863.14
425.37	1900.2
425.746	1895.91
426.123	1923.03
426.499	1970.03
426.875	1988.11
427.251	1993.31
427.627	2080.76
428.003	2050.93
428.379	2119.63
428.756	2131.38
429.132	2148.11
429.507	2187.65
429.883	2217.71
430.259	2248.22
430.635	2290.48
431.011	2273.08
431.387	2338.84
431.763	2402.11
432.138	2398.72
432.514	2470.58
432.89	2471.04
433.265	2510.58
433.641	2563.92
434.016	2620.64
434.392	2600.3
434.767	2718.71
435.143	2659.28
435.518	2718.71
435.894	2759.16
436.269	2755.1
436.644	2842.1
437.02	2874.42
437.395	2854.98
437.77	2891.82
438.145	2960.29
438.52	2974.53
438.895	3018.37
439.271	3006.62
439.646	3098.36
440.021	3130.23
440.395	3111.7
440.77	3118.7
441.145	3146.73
441.52	3218.14
441.895	3200.51
442.27	3260.39
442.645	3295.87
443.019	3362.76
443.394	3318.92
443.769	3357.57
444.143	3357.79
444.518	3419.49
444.892	3372.48
445.267	3454.29
445.641	3488.19
446.016	3541.52
446.39	3546.04
446.764	3548.97
447.139	3545.58
447.513	3627.16
447.887	3667.16
448.262	3689.54
448.636	3714.85
449.01	3715.52
449.384	3782.19
449.758	3859.47
450.132	3862.41
450.506	3859.02
450.88	3889.08
451.254	3920.26
451.628	3958.46
452.002	4052.01
452.376	4092.01
452.75	4118.9
453.123	4193.7
453.497	4239.58
453.871	4277.77
454.244	4384.88
454.618	4406.58
454.992	4443.87
455.365	4445.9
455.739	4536.97
456.112	4671.2
456.486	4645.89
456.859	4698.55
457.232	4824.2
457.606	4781.26
457.979	4892.44
458.352	4955.72
458.725	5044.3
459.099	5105.09
459.472	5214.69
459.845	5217.86
460.218	5299.89
460.591	5390.51
460.964	5344.86
461.337	5515.48
461.71	5564.74
462.083	5616.72
462.456	5658.07
462.829	5731.97
463.201	5811.06
463.574	5869.59
463.947	5951.17
464.32	6103.71
464.692	6128.34
465.065	6183.93
465.438	6286.08
465.81	6399.52
466.183	6436.36
466.555	6594.09
466.928	6632.51
467.3	6642.68
467.672	6789.79
468.045	6922.67
468.417	6950.69
468.789	6986.85
469.161	7126.51
469.534	7165.83
469.906	7406.05
470.278	7401.53
470.65	7526.27
471.022	7781.86
471.394	7813.5
471.766	7942.76
472.138	7980.27
472.51	8201.06
472.882	8373.25
473.253	8400.6
473.625	8555.85
473.997	8748.61
474.369	8845.11
474.74	8918.32
475.112	9053.01
475.484	9227.92
475.855	9417.07
476.227	9460.91
476.598	9721.02
476.97	9831.97
477.341	10051.18
477.713	10253.66
478.084	10256.14
478.455	10577.94
478.827	10722.57
479.198	10958.95
479.569	10991.49
479.94	11379.73
480.311	11390.8
480.682	11737.23
481.053	11969.09
481.424	12214.28
481.795	12262.19
482.166	12471.68
482.537	12642.52
482.908	12917.54
483.279	13067.37
483.65	13260.58
484.021	13620.12
484.391	13729.05
484.762	13811.08
485.133	13934.46
485.503	14316.37
485.874	14496.94
486.244	14705.74
486.615	15024.83
486.985	15169.91
487.356	15474.31
487.726	15572.84
488.097	15947.97
488.467	15868.2
488.837	16311.8
489.207	16545.02
489.578	16713.15
489.948	16968.73
490.318	17147.94
490.688	17254.38
491.058	17584.54
491.428	17703.86
491.798	17967.13
492.168	18254.58
492.538	18368.7
492.908	18569.82
493.278	18841.23
493.648	18876.03
494.017	19208.68
494.387	19310.82
494.757	19488.44
495.126	19711.49
495.496	19828.32
495.866	20062.89
496.235	20260.85
496.605	20546.49
496.974	20523.22
497.344	20682.31
497.713	20946.48
498.082	21207.27
498.452	21343.99
498.821	21381.73
499.19	21506.92
499.559	21710.08
499.928	21953.69
500.298	21971.09
500.667	22313.9
501.036	22276.17
501.405	22512.77
501.774	22701.01
502.143	22790.05
502.512	23019.42
502.88	23168.12
503.249	23145.3
503.618	23456.02
503.987	23577.6
504.356	23697.6
504.724	23809.91
505.093	24062.79
505.462	24179.84
505.83	24306.62
506.199	24483.11
506.567	24815.99
506.936	24755.87
507.304	25179.37
507.672	25230.89
508.041	25456.2
508.409	25502.97
508.777	25808.95
509.145	26050.53
509.514	26163.07
509.882	26150.87
510.25	26377.07
510.618	26644.19
510.986	26570.29
511.354	26920.79
511.722	27246.66
512.09	27375.47
512.458	27595.12
512.826	27644.84
513.193	27880.99
513.561	28032.62
513.929	28325.05
514.297	28609.78
514.664	28769.1
515.032	28791.47
515.4	29149.66
515.767	29407.96
516.135	29562.3
516.502	29340.61
516.869	30003.65
517.237	30002.74
517.604	30091.55
517.972	30446.8
518.339	30699.45
518.706	30758.2
519.073	30902.15
519.44	31218.08
519.808	31571.97
520.175	31645.41
520.542	31951.17
520.909	32302.79
521.276	32267.32
521.643	32557.7
522.009	32906.62
522.376	33161.76
522.743	33426.15
523.11	33743.21
523.477	34108.17
523.843	34200.37
524.21	34473.36
524.577	34687.59
524.943	34971.65
525.31	35159.44
525.676	35571.18
526.043	35600.56
526.409	35848.24
526.776	36301.79
527.142	36424.95
527.508	36719.63
527.874	36944.71
528.241	37094.76
528.607	37391.93
528.973	37683.44
529.339	37567.29
529.705	38057.22
530.071	38385.8
530.437	38545.79
530.803	38912.56
531.169	38995.95
531.535	39140.13
531.901	39201.14
532.267	39372.67
532.632	39658.08
532.998	39768.59
533.364	40039.99
533.73	40270.95
534.095	40470.94
534.461	40632.97
534.826	40837.49
535.192	40911.38
535.557	41308.66
535.923	41383.91
536.288	41438.37
536.653	41665.94
537.019	41679.5
537.384	41831.81
537.749	41991.13
538.114	42037.68
538.479	42328.29
538.845	42464.11
539.21	42521.28
539.575	42771.22
539.94	42967.6
540.305	43095.51
540.67	43071.78
541.034	43307.03
541.399	43506.34
541.764	43536.85
542.129	43754.7
542.494	43836.05
542.858	44206.44
543.223	44118.76
543.587	44377.05
543.952	44400.1
544.316	44621.11
544.681	44692.3
545.045	44908.56
545.41	45249.57
545.774	45119.41
546.138	45128.45
546.503	45477.82
546.867	45412.73
547.231	45668.32
547.595	45733.85
547.959	46019.5
548.324	45900.86
548.688	46096.33
549.052	46367.06
549.416	46424.46
549.779	46424.01
550.143	46676.88
550.507	46863.99
550.871	47066.93
551.235	47118.9
551.599	47415.17
551.962	47418.56
552.326	47522.06
552.689	47811.31
553.053	47684.99
553.417	47910.75
553.78	48277.06
554.143	48203.62
554.507	48414.01
554.87	48520.22
555.234	48874.79
555.597	48798.41
555.96	49013.09
556.323	49190.71
556.686	49143.48
557.05	49469.35
557.413	49482.68
557.776	49737.82
558.139	49984.36
558.502	49983.46
558.865	50100.52
559.228	50400.4
559.59	50447.18
559.953	50593.39
560.316	50874.96
560.679	50843.55
561.041	51174.39
561.404	51220.72
561.767	51416.64
562.129	51465.91
562.492	51723.08
562.854	51716.52
563.217	51780.7
563.579	51892.56
563.941	52179.11
564.304	52307.69
564.666	52506.33
565.028	52604.41
565.39	52759.21
565.753	52875.81
566.115	52914.91
566.477	53172.75
566.839	53145.41
567.201	53442.8
567.563	53404.61
567.925	53543.59
568.287	53685.28
568.648	53747.65
569.01	53831.04
569.372	54098.38
569.734	53998.04
570.095	54208.66
570.457	54362.1
570.819	54357.13
571.18	54426.28
571.542	54537.24
571.903	54588.08
572.265	54728.87
572.626	54835.99
572.987	54869.43
573.349	54959.83
573.71	54985.36
574.071	55147.84
574.432	55177.67
574.794	55362.3
575.155	55410.89
575.516	55321.4
575.877	55493.6
576.238	55516.87
576.599	55628.28
576.96	55587.15
577.32	55672.58
577.681	55763.87
578.042	55794.38
578.403	55845.9
578.763	55900.59
579.124	55947.14
579.485	56016.3
579.845	56084.32
580.206	56061.94
580.566	56162.05
580.927	56103.98
581.287	56246.57
581.648	56127.93
582.008	56267.36
582.368	56221.71
582.728	56326.57
583.089	56213.13
583.449	56265.1
583.809	56352.56
584.169	56413.57
584.529	56283.63
584.889	56444.08
585.249	56302.39
585.609	56196.4
585.969	56425.78
586.329	56284.31
586.688	56393.69
587.048	56329.28
587.408	56314.37
587.768	56332.67
588.127	56341.48
588.487	56310.53
588.846	56504.42
589.206	56348.04
589.565	56349.85
589.925	56522.5
590.284	56461.71
590.643	56461.03
591.003	56510.97
591.362	56525.89
591.721	56466.91
592.08	56478.2
592.44	56614.02
592.799	56582.16
593.158	56529.95
593.517	56552.55
593.876	56617.41
594.235	56488.83
594.593	56654.02
594.952	56686.11
595.311	56597.07
595.67	56678.2
596.029	56733.79
596.387	56814.01
596.746	56743.28
597.104	56744.41
597.463	56711.64
597.822	56804.75
598.18	56728.59
598.538	56686.79
598.897	56901.24
599.255	56661.02
599.613	57033.9
599.972	56823.96
600.33	56927.23
600.688	56858.99
601.046	56947.8
601.404	57100.79
601.762	56990.96
602.12	57103.5
602.478	57105.08
602.836	57090.39
603.194	56935.14
603.552	57068.92
603.91	56928.81
604.268	57098.07
604.625	57056.04
604.983	57156.15
605.341	57094.69
605.698	57172.2
606.056	57310.05
606.413	57245.87
606.771	57388.91
607.128	57378.52
607.485	57247.68
607.843	57292.87
608.2	57435.69
608.557	57513.88
608.914	57398.18
609.272	57598.4
609.629	57519.31
609.986	57623.48
610.343	57579.19
610.7	57723.6
611.057	57687.66
611.414	57651.28
611.771	57761.33
612.127	57816.47
612.484	57788.45
612.841	57858.28
613.198	57786.19
613.554	57828.45
613.911	57953.42
614.267	57874.78
614.624	57884.27
614.98	57936.24
615.337	58082.46
615.693	58064.6
616.05	57967.43
616.406	58134.88
616.762	58054.43
617.118	58058.95
617.475	58080.65
617.831	58114.32
618.187	58129.69
618.543	58141.66
618.899	58284.48
619.255	58223.24
619.611	58212.85
619.967	58293.52
620.323	58362
620.678	58233.64
621.034	58152.96
621.39	58222.79
621.746	58232.28
622.101	58497.36
622.457	58257.14
622.812	58336.01
623.168	58427.08
623.523	58352.73
623.879	58440.86
624.234	58285.84
624.589	58425.27
624.945	58347.53
625.3	58370.81
625.655	58341.66
626.01	58351.15
626.365	58328.33
626.72	58418.04
627.075	58345.05
627.43	58354.77
627.785	58260.53
628.14	58286.29
628.495	58281.32
628.85	58210.36
629.205	58160.65
629.559	58288.1
629.914	58194.54
630.269	58225.28
630.623	58187.99
630.978	58106.18
631.332	58220.08
631.687	58209.01
632.041	58083.59
632.396	58182.11
632.75	58070.03
633.104	58059.41
633.459	57910.26
633.813	57948.22
634.167	57938.28
634.521	57865.51
634.875	57978.73
635.229	57891.5
635.583	57755.46
635.937	57745.29
636.291	57729.24
636.645	57700.09
636.999	57678.85
637.352	57739.41
637.706	57613.77
638.06	57701.9
638.413	57595.91
638.767	57539.87
639.121	57577.38
639.474	57466.2
639.828	57457.84
640.181	57531.51
640.534	57426.88
640.888	57298.52
641.241	57304.4
641.594	57323.38
641.947	57324.96
642.301	57301.91
642.654	57239.77
643.007	57264.17
643.36	57233.44
643.713	57134.46
644.066	57255.81
644.419	57135.36
644.771	56939.89
645.124	56687.92
645.477	56593.23
645.83	56466.23
646.182	56294.71
646.535	56211.54
646.888	56227.36
647.24	56160.25
647.593	56351.65
647.945	56247.25
648.298	56109.63
648.65	55941.27
649.002	55907.82
649.355	56056.75
649.707	55980.14
650.059	56118.89
650.411	56433.23
650.763	56386.46
651.115	56705.09
651.467	56491.54
651.819	56545.55
652.171	56465.32
652.523	56336.29
652.875	56418.54
653.227	56269.85
653.578	56494.25
653.93	56261.49
654.282	56167.7
654.633	56168.61
654.985	56230.53
655.337	56247.93
655.688	56240.7
656.039	56287.25
656.391	56054.03
656.742	56037.31
657.094	56129.06
657.445	56208.61
657.796	56111.43
658.147	56091.55
658.498	56048.61
658.849	56082.51
659.2	56017.88
659.551	55978.1
659.902	56126.58
660.253	56017.65
660.604	56022.85
660.955	55859.92
661.306	55952.57
661.656	55906.02
662.007	55904.43
662.358	55878.45
662.708	55883.87
663.059	55874.38
663.409	55688.17
663.76	55909.18
664.11	55856.07
664.461	55824.44
664.811	55762.52
665.161	55729.98
665.511	55746.25
665.862	55780.6
666.212	55871.89
666.562	55797.77
666.912	55717.77
667.262	55733.14
667.612	55759.13
667.962	55760.03
668.312	55687.04
668.662	55846.58
669.011	55664.44
669.361	55706.25
669.711	55658.79
670.06	55616.08
670.41	55610.2
670.76	55500.15
671.109	55691.56
671.459	55568.17
671.808	55512.35
672.157	55667.83
672.507	55439.59
672.856	55436.2
673.205	55498.57
673.554	55489.98
673.904	55383.77
674.253	55504.44
674.602	55408.63
674.951	55047.51
675.3	54913.5
675.649	55358.69
675.998	55273.94
676.346	55327.05
676.695	55396.2
677.044	55164.34
677.393	55147.62
677.741	55221.51
678.09	55246.15
678.438	55151.46
678.787	55220.16
679.135	55230.1
679.484	54990.56
679.832	55101.52
680.181	54947.4
680.529	54960.05
680.877	54875.53
681.225	54940.17
681.573	55075.98
681.922	54864.01
682.27	54735.2
682.618	54746.95
682.966	54628.31
683.314	54667.18
683.661	54627.18
684.009	54470.35
684.357	54379.5
684.705	54430.35
685.053	54399.84
685.4	54275.78
685.748	54268.32
686.095	54115.78
686.443	53986.74
686.79	54034.43
687.138	54103.8
687.485	54037.59
687.832	53958.04
688.18	53905.62
688.527	53774.77
688.874	53656.36
689.221	53586.08
689.568	53604.16
689.915	53544.04
690.262	53524.38
690.609	53502.92
690.956	53278.74
691.303	53309.25
691.65	53154.45
691.997	53126.88
692.344	52908.58
692.69	52947.22
693.037	52987.67
693.383	52701.58
693.73	52856.15
694.077	52565.54
694.423	52630.62
694.769	52437.63
695.116	52475.6
695.462	52501.13
695.808	52345.43
696.155	52380.23
696.501	52107.25
696.847	52102.5
697.193	51845.56
697.539	51962.62
697.885	51723.08
698.231	51699.8
698.577	51633.81
698.923	51572.34
699.269	51406.02
699.614	51216.2
699.96	51233.6
700.306	51280.15
700.651	51109.53
700.997	51023.21
701.342	50964.22
701.688	50840.16
702.033	50677
702.379	50575.76
702.724	50451.92
703.069	50618.47
703.415	50195.66
703.76	50275.66
704.105	50168.77
704.45	50087.86
704.795	49841.32
705.14	49861.2
705.485	49870.47
705.83	49581.21
706.175	49722.68
706.52	49602
706.865	49559.74
707.209	49455.79
707.554	49338.96
707.899	49418.05
708.243	49169.7
708.588	49075.01
708.932	48988.01
709.277	48890.83
709.621	48835.69
709.966	48646.09
710.31	48693.78
710.654	48330.17
710.998	48359.77
711.342	48480.9
711.687	48252.66
712.031	48090.18
712.375	48056.96
712.719	47990.74
713.063	47924.53
713.407	47922.95
713.75	47752.11
714.094	47713.46
714.438	47570.87
714.782	47677.98
715.125	47397.54
715.469	47370.65
715.812	47255.62
716.156	47131.33
716.499	46995.97
716.843	47055.4
717.186	46773.6
717.53	46963.88
717.873	46937.89
718.216	46943.54
718.559	46725.69
718.902	46509.88
719.246	46758.23
719.589	46444.12
719.932	46407.28
720.275	46275.99
720.617	46372.26
720.96	46103.79
721.303	46119.38
721.646	46134.3
721.989	45958.03
722.331	46000.51
722.674	45884.36
723.016	45980.63
723.359	45848.43
723.701	45934.07
724.044	45569.79
724.386	45394.43
724.729	45579.51
725.071	45293.19
725.413	45341.55
725.755	45274.66
726.097	45099.75
726.439	44764.84
726.782	44967.77
727.124	45189.69
727.465	44839.87
727.807	44779.75
728.149	44763.03
728.491	44579.76
728.833	44808
729.175	44572.98
729.516	44371.4
729.858	44438.52
730.199	44394.68
730.541	44322.37
730.882	44250.73
731.224	44386.09
731.565	44030.4
731.906	44179.77
732.248	44044.63
732.589	43941.36
732.93	43778.65
733.271	43795.6
733.612	43829.72
733.953	43672.89
734.294	43663.85
734.635	43473.57
734.976	43465.44
735.317	43177.99
735.658	43356.97
735.999	43232
736.339	43147.93
736.68	43292.11
737.021	43147.26
737.361	42757.89
737.702	43187.71
738.042	42878.56
738.383	42761.05
738.723	42844.44
739.063	42646.93
739.404	42792.46
739.744	42630.43
740.084	42540.72
740.424	42714.5
740.764	42480.15
741.104	42607.16
741.444	42158.81
741.784	42074.52
742.124	42143.89
742.464	42115.87
742.804	41996.1
743.143	41908.42
743.483	42014.86
743.823	41615.32
744.162	41677.69
744.502	41826.84
744.841	41473.18
745.181	41730.34
745.52	41494.19
745.86	41512.04
746.199	41547.07
746.538	41344.59
746.877	41395.21
747.216	41246.51
747.556	41103.92
747.895	41100.98
748.234	40776.02
748.573	40758.17
748.911	40829.35
749.25	40897.14
749.589	40602.24
749.928	40670.94
750.267	40715.91
750.605	40454.44
750.944	40376.93
751.283	40137.39
751.621	40246.77
751.96	40084.29
752.298	40127.9
752.636	40188.92
