Data from plate_porcelain_FLMS001491_031.txt Node
Date: Tue Feb 07 11:19:12 GMT 2017
User: dcchb
Spectrometer: FLMS00149
Trigger mode: 0
Integration Time (sec): 2.000000E-2
Scans to average: 10
Electric dark correction enabled: true
Nonlinearity correction enabled: false
Boxcar width: 0
XAxis mode: Wavelengths
Number of Pixels in Spectrum: 2048
>>>>>Begin Spectral Data<<<<<
341.393	-29
341.776	-29
342.16	-29
342.543	-55.89
342.927	-55.66
343.31	-79.62
343.693	-63.8
344.077	-86.85
344.46	-64.48
344.843	-55.44
345.226	-43.46
345.61	-52.72
345.993	-15.44
346.376	-2.1
346.759	13.49
347.142	28.4
347.525	44.22
347.908	68.4
348.291	78.8
348.674	107.72
349.057	122.86
349.44	129.42
349.823	131.45
350.206	156.99
350.588	230.88
350.971	241.96
351.354	266.59
351.737	260.26
352.119	278.11
352.502	284.67
352.884	316.98
353.267	290.32
353.65	317.21
354.032	322.63
354.414	342.75
354.797	361.28
355.179	381.61
355.562	357.43
355.944	365.34
356.326	357.66
356.709	396.08
357.091	372.57
357.473	395.17
357.855	387.26
358.238	380.71
358.62	369.41
359.002	400.6
359.384	397.89
359.766	379.81
360.148	388.62
360.53	391.33
360.912	366.47
361.294	378.45
361.676	385.91
362.057	402.63
362.439	402.4
362.821	405.79
363.203	377.55
363.584	388.85
363.966	370.32
364.348	418.9
364.729	404.44
365.111	361.28
365.493	396.3
365.874	390.88
366.256	398.79
366.637	375.96
367.019	400.82
367.4	392.46
367.781	386.81
368.163	395.85
368.544	393.37
368.925	392.91
369.306	409.18
369.688	391.11
370.069	399.01
370.45	412.57
370.831	408.05
371.212	403.08
371.593	406.47
371.974	414.38
372.355	420.03
372.736	396.08
373.117	415.96
373.498	431.1
373.879	403.99
374.26	403.99
374.641	408.96
375.021	410.77
375.402	419.35
375.783	450.54
376.163	457.77
376.544	482.63
376.925	455.96
377.305	452.12
377.686	462.06
378.066	454.15
378.447	458.45
378.827	457.54
379.208	491.89
379.588	487.6
379.968	467.49
380.349	488.05
380.729	486.92
381.109	497.09
381.489	494.61
381.87	504.1
382.25	509.52
382.63	522.63
383.01	502.97
383.39	526.47
383.77	503.87
384.15	515.62
384.53	522.4
384.91	528.28
385.29	540.03
385.67	535.28
386.049	550.65
386.429	550.42
386.809	568.95
387.189	577.54
387.568	564.66
387.948	544.32
388.328	594.26
388.707	597.65
389.087	594.94
389.466	591.78
389.846	593.59
390.225	627.71
390.605	646.47
390.984	610.99
391.363	631.1
391.743	633.81
392.122	655.05
392.501	668.84
392.881	657.54
393.26	690.53
393.639	682.85
394.018	679.91
394.397	697.99
394.776	714.03
395.155	716.97
395.534	725.11
395.913	718.78
396.292	718.33
396.671	742.96
397.05	748.84
397.429	776.86
397.808	775.73
398.186	764.66
398.565	801.94
398.944	807.14
399.323	799.23
399.701	811.89
400.08	817.54
400.458	799.68
400.837	824.09
401.215	847.14
401.594	840.81
401.972	853.24
402.351	853.01
402.729	847.14
403.107	900.7
403.486	886.23
403.864	895.27
404.242	901.83
404.62	921.04
404.999	902.28
405.377	943.86
405.755	970.98
406.133	957.42
406.511	970.75
406.889	981.82
407.267	993.58
407.645	991.32
408.023	1021.82
408.401	1060.24
408.779	1072.9
409.156	1096.85
409.534	1079
409.912	1087.81
410.29	1121.93
410.667	1128.04
411.045	1190.86
411.422	1163.74
411.8	1168.49
412.178	1215.49
412.555	1220.91
412.933	1240.12
413.31	1247.13
413.687	1298.43
414.065	1282.38
414.442	1294.81
414.819	1297.3
415.197	1320.57
415.574	1343.62
415.951	1348.37
416.328	1372.77
416.705	1364.19
417.082	1401.25
417.46	1429.04
417.837	1427.46
418.214	1446.67
418.591	1461.36
418.967	1480.34
419.344	1477.86
419.721	1493.9
420.098	1530.96
420.475	1526.44
420.852	1548.59
421.228	1569.38
421.605	1584.52
421.982	1635.37
422.358	1633.56
422.735	1666.55
423.111	1645.76
423.488	1680.56
423.864	1699.77
424.241	1744.52
424.617	1751.52
424.994	1756.04
425.37	1781.58
425.746	1778.19
426.123	1831.75
426.499	1852.31
426.875	1872.65
427.251	1899.99
427.627	1938.41
428.003	1927.11
428.379	1997.17
428.756	2015.47
429.132	2042.36
429.507	2043.72
429.883	2067.45
430.259	2090.27
430.635	2122.81
431.011	2170.49
431.387	2186.09
431.763	2271.51
432.138	2246.42
432.514	2268.57
432.89	2313.99
433.265	2383.82
433.641	2362.35
434.016	2445.06
434.392	2430.83
434.767	2524.38
435.143	2512.41
435.518	2563.03
435.894	2566.42
436.269	2577.26
436.644	2623.59
437.02	2656.36
437.395	2665.62
437.77	2743.81
438.145	2724.38
438.52	2774.55
438.895	2841.89
439.271	2830.59
439.646	2904.26
440.021	2940.87
440.395	2955.33
440.77	2932.06
441.145	3008.66
441.52	3023.58
441.895	3004.37
442.27	3073.75
442.645	3017.25
443.019	3113.75
443.394	3104.93
443.769	3131.82
444.143	3147.87
444.518	3219.96
444.892	3209.79
445.267	3229.67
445.641	3289.11
446.016	3287.98
446.39	3340.18
446.764	3358.49
447.139	3344.02
447.513	3413.62
447.887	3436.22
448.262	3451.59
448.636	3432.16
449.01	3518.25
449.384	3558.71
449.758	3555.99
450.132	3588.99
450.506	3622.88
450.88	3641.87
451.254	3718.7
451.628	3727.74
452.002	3778.14
452.376	3808.42
452.75	3840.51
453.123	3882.99
453.497	4001.18
453.871	4009.77
454.244	4069.88
454.618	4112.59
454.992	4155.53
455.365	4205.92
455.739	4301.51
456.112	4321.62
456.486	4318.46
456.859	4394.39
457.232	4508.96
457.606	4470.77
457.979	4534.5
458.352	4689.3
458.725	4721.16
459.099	4761.39
459.472	4788.96
459.845	4904.66
460.218	4914.38
460.591	5014.26
460.964	5015.16
461.337	5169.51
461.71	5254.25
462.083	5293.12
462.456	5352.33
462.829	5318.89
463.201	5417.41
463.574	5508.49
463.947	5555.94
464.32	5660.57
464.692	5751.19
465.065	5756.84
465.438	5845.43
465.81	5962.26
466.183	6021.01
466.555	6124.06
466.928	6169.26
467.3	6223.04
467.672	6289.71
468.045	6431.4
468.417	6452.42
468.789	6527.44
469.161	6717.27
469.534	6753.42
469.906	6873.42
470.278	6969.69
470.65	7075.22
471.022	7164.94
471.394	7303.24
471.766	7399.28
472.138	7481.54
472.51	7611.03
472.882	7809.44
473.253	7917.24
473.625	8026.84
473.997	8152.94
474.369	8141.41
474.74	8285.59
475.112	8476.54
475.484	8658.23
475.855	8722.64
476.227	8828.17
476.598	9080.59
476.97	9163.53
477.341	9379.8
477.713	9574.82
478.084	9592.67
478.455	9799.22
478.827	9958.54
479.198	10262.71
479.569	10232.88
479.94	10609.82
480.311	10695.92
480.682	10918.06
481.053	11134.33
481.424	11319.41
481.795	11455.45
482.166	11609.12
482.537	11826.51
482.908	12000.74
483.279	12198.03
483.65	12403.45
484.021	12651.35
484.391	12805.92
484.762	12917.78
485.133	13020.38
485.503	13293.82
485.874	13559.57
486.244	13709.63
486.615	13886.12
486.985	14135.6
487.356	14378.53
487.726	14505.54
488.097	14851.06
488.467	14880.67
488.837	15224.39
489.207	15321.79
489.578	15669.35
489.948	15778.05
490.318	15982.56
490.688	16068.66
491.058	16330.57
491.428	16541.87
491.798	16683.11
492.168	17087.16
492.538	17130.33
492.908	17360.38
493.278	17653.93
493.648	17558.11
494.017	18004.43
494.387	18012.11
494.757	18269.51
495.126	18455.26
495.496	18420.24
495.866	18617.07
496.235	18883.05
496.605	19148.35
496.974	19188.8
497.344	19378.63
497.713	19478.74
498.082	19656.36
498.452	19875.56
498.821	19944.49
499.19	20031.72
499.559	20235.1
499.928	20385.61
500.298	20620.86
500.667	20730.68
501.036	20760.74
501.405	21036.66
501.774	20970.45
502.143	21242.31
502.512	21387.62
502.88	21668.06
503.249	21651.11
503.618	21808.62
503.987	21921.16
504.356	22064.21
504.724	22217.65
505.093	22377.65
505.462	22469.62
505.83	22611.31
506.199	22814.92
506.567	23141.24
506.936	23111.86
507.304	23366.77
507.672	23722.47
508.041	23727.22
508.409	23760.89
508.777	23957.94
509.145	24301.21
509.514	24279.07
509.882	24473.64
510.25	24488.55
510.618	24790.92
510.986	24877.69
511.354	25176.44
511.722	25315.2
512.09	25605.13
512.458	25632.25
512.826	25730.33
513.193	26059.81
513.561	26199.47
513.929	26326.02
514.297	26606.46
514.664	26842.16
515.032	26940.01
515.4	27213.23
515.767	27457.29
516.135	27534.8
516.502	27459.55
516.869	27894.79
517.237	28011.85
517.604	27975.01
517.972	28291.61
518.339	28716.69
518.706	28674.2
519.073	28922.56
519.44	28985.83
519.808	29454.07
520.175	29507.18
520.542	29856.09
520.909	29960.05
521.276	30019.93
521.643	30508.96
522.009	30727.71
522.376	30825.56
522.743	31145.33
523.11	31458.31
523.477	31646.33
523.843	31835.02
524.21	32143.72
524.577	32352.53
524.943	32618.28
525.31	32770.37
525.676	33117.02
526.043	33294.42
526.409	33388.66
526.776	33865.71
527.142	33819.15
527.508	34191.35
527.874	34378.01
528.241	34590.43
528.607	34708.85
528.973	35178.44
529.339	35222.28
529.705	35497.08
530.071	35715.37
530.437	36062.03
530.803	36116.95
531.169	36309.26
531.535	36328.92
531.901	36435.58
532.267	36729.59
532.632	37001.67
532.998	37055.23
533.364	37387.65
533.73	37571.14
534.095	37815.43
534.461	37917.58
534.826	38196.67
535.192	38356.89
535.557	38607.73
535.923	38516.66
536.288	38756.65
536.653	38942.18
537.019	38894.27
537.384	39061.05
537.749	39140.6
538.114	39421.27
538.479	39452.45
538.845	39775.83
539.21	39634.59
539.575	39991.42
539.94	40043.17
540.305	40472.54
540.67	40299.21
541.034	40427.34
541.399	40698.07
541.764	40801.12
542.129	40910.49
542.494	41031.84
542.858	41255.34
543.223	41249.47
543.587	41464.15
543.952	41405.39
544.316	41824.14
544.681	41880.41
545.045	42034.3
545.41	42162.66
545.774	42304.81
546.138	42213.96
546.503	42382.09
546.867	42371.02
547.231	42827.28
547.595	42869.54
547.959	42935.07
548.324	43161.28
548.688	43314.04
549.052	43310.43
549.416	43520.59
549.779	43527.15
550.143	43650.31
550.507	44085.78
550.871	44203.96
551.235	44229.73
551.599	44503.84
551.962	44461.13
552.326	44662.48
552.689	44994.9
553.053	44821.58
553.417	45031.97
553.78	45620.88
554.143	45448.9
554.507	45553.76
554.87	45685.73
555.234	46169.11
555.597	45904.03
555.96	46200.75
556.323	46331.82
556.686	46468.54
557.05	46714.86
557.413	46851.13
557.776	46885.25
558.139	47305.8
558.502	47119.82
558.865	47300.15
559.228	47708.51
559.59	47838.67
559.953	47948.05
560.316	48144.88
560.679	48303.07
561.041	48487.02
561.404	48671.42
561.767	48855.14
562.129	48829.83
562.492	49268.46
562.854	49296.03
563.217	49279.31
563.579	49549.36
563.941	49682.01
564.304	49937.15
564.666	50117.48
565.028	50180.53
565.39	50340.75
565.753	50489.45
566.115	50580.07
566.477	50743.23
566.839	50802.66
567.201	51102.31
567.563	51075.87
567.925	51290.56
568.287	51253.05
568.648	51422.98
569.01	51599.25
569.372	51847.61
569.734	51709.08
570.095	51930.54
570.457	52052.35
570.819	52198.1
571.18	52225.22
571.542	52353.58
571.903	52517.42
572.265	52589.06
572.626	52613.24
572.987	52689.62
573.349	52872.66
573.71	52948.59
574.071	52950.85
574.432	53041.47
574.794	53283.05
575.155	53261.58
575.516	53175.03
575.877	53437.85
576.238	53394.46
576.599	53504.51
576.96	53514
577.32	53587.9
577.681	53714.22
578.042	53805.52
578.403	53763.04
578.763	53818.18
579.124	53827.67
579.485	53880.77
579.845	54010.49
580.206	53995.8
580.566	54014.1
580.927	54132.74
581.287	54192.63
581.648	54033.31
582.008	54195.57
582.368	54100.88
582.728	54289.12
583.089	54154.66
583.449	54217.94
583.809	54300.2
584.169	54297.26
584.529	54197.83
584.889	54529.8
585.249	54224.94
585.609	54185.62
585.969	54343.81
586.329	54289.35
586.688	54342.46
587.048	54342.46
587.408	54272.63
587.768	54407.31
588.127	54271.5
588.487	54233.98
588.846	54581.32
589.206	54339.07
589.565	54422.23
589.925	54498.38
590.284	54379.52
590.643	54479.4
591.003	54533.41
591.362	54569.34
591.721	54471.49
592.08	54464.26
592.44	54547.87
592.799	54606.86
593.158	54558.49
593.517	54576.12
593.876	54585.84
594.235	54544.26
594.593	54635.78
594.952	54586.52
595.311	54543.13
595.67	54527.08
596.029	54745.61
596.387	54732.28
596.746	54846.85
597.104	54643.24
597.463	54713.29
597.822	54829
598.18	54771.14
598.538	54686.63
598.897	54831.71
599.255	54613.63
599.613	55064.92
599.972	54841.43
600.33	54953.74
600.688	54902.21
601.046	54950.57
601.404	55071.7
601.762	54996.68
602.12	55103.79
602.478	55199.83
602.836	55119.16
603.194	55048.65
603.552	55083.45
603.91	55062.44
604.268	55143.56
604.625	55027.86
604.983	55239.83
605.341	55128.42
605.698	55185.6
606.056	55305.59
606.413	55225.14
606.771	55380.17
607.128	55434.18
607.485	55304.24
607.843	55305.82
608.2	55365.03
608.557	55542.42
608.914	55521.86
609.272	55624.23
609.629	55612.93
609.986	55694.28
610.343	55580.61
610.7	55795.98
611.057	55747.16
611.414	55832.36
611.771	55784
612.127	55911.23
612.484	55812.25
612.841	55880.72
613.198	55812.47
613.554	55825.81
613.911	56005.01
614.267	55958.68
614.624	55954.84
614.98	56053.37
615.337	56219.02
615.693	56085.01
616.05	56112.8
616.406	56274.16
616.762	56142.63
617.118	56156.42
617.475	56144.89
617.831	56244.1
618.187	56261.27
618.543	56279.13
618.899	56502.4
619.255	56327.49
619.611	56308.73
619.967	56414.72
620.323	56433.47
620.678	56346.02
621.034	56358.45
621.39	56350.09
621.746	56307.6
622.101	56615.16
622.457	56348.05
622.812	56460.82
623.168	56429.18
623.523	56500.59
623.879	56525.22
624.234	56419.69
624.589	56443.87
624.945	56463.3
625.3	56492.46
625.655	56431.67
626.01	56522.29
626.365	56436.41
626.72	56463.3
627.075	56390.54
627.43	56420.37
627.785	56291.78
628.14	56335.4
628.495	56363.42
628.85	56361.61
629.205	56264.44
629.559	56327.49
629.914	56303.99
630.269	56262.63
630.623	56222.18
630.978	56152.8
631.332	56276.64
631.687	56284.78
632.041	56131.79
632.396	56191.67
632.75	56162.97
633.104	56166.59
633.459	56041.85
633.813	56044.78
634.167	56035.97
634.521	56007.95
634.875	56028.51
635.229	56007.27
635.583	55832.81
635.937	55804.56
636.291	55813.6
636.645	55805.69
636.999	55737.22
637.352	55878.91
637.706	55676.88
638.06	55807.73
638.413	55722.76
638.767	55651.57
639.121	55650.44
639.474	55434.63
639.828	55500.62
640.181	55537.45
640.534	55485.7
640.888	55410
641.241	55302.2
641.594	55341.98
641.947	55422.2
642.301	55267.63
642.654	55305.14
643.007	55217.23
643.36	55255.65
643.713	55148.54
644.066	55262.43
644.419	55084.13
644.771	54903.34
645.124	54626.97
645.477	54599.62
645.83	54413.87
646.182	54250.48
646.535	54203.7
646.888	54188.79
647.24	54064.72
647.593	54217.26
647.945	54146.75
648.298	53932.97
648.65	53919.64
649.002	53861.34
649.355	53876.93
649.707	53894.56
650.059	54026.76
650.411	54335.9
650.763	54344.04
651.115	54615.22
651.467	54443.92
651.819	54475.79
652.171	54409.57
652.523	54369.8
652.875	54382.23
653.227	54232.63
653.578	54369.12
653.93	54191.5
654.282	54208.22
654.633	54103.37
654.985	54126.42
655.337	54103.82
655.688	54106.98
656.039	54213.87
656.391	53978.4
656.742	54042.12
657.094	54011.62
657.445	54094.1
657.796	54045.06
658.147	53962.13
658.498	53915.57
658.849	54010.26
659.2	53900.89
659.551	53848.68
659.902	54038.73
660.253	53906.76
660.604	53985.85
660.955	53726.65
661.306	53892.52
661.656	53839.42
662.007	53796.03
662.358	53769.36
662.708	53737.27
663.059	53768.91
663.409	53623.83
663.76	53729.82
664.11	53610.05
664.461	53690.95
664.811	53709.03
665.161	53631.51
665.511	53627.67
665.862	53666.99
666.212	53732.75
666.562	53726.43
666.912	53657.05
667.262	53598.07
667.612	53592.64
667.962	53704.73
668.312	53630.84
668.662	53772.3
669.011	53600.55
669.361	53594.45
669.711	53589.71
670.06	53406.21
670.41	53425.87
670.76	53396.04
671.109	53410.5
671.459	53449.15
671.808	53464.51
672.157	53511.06
672.507	53199.43
672.856	53329.83
673.205	53361.69
673.554	53411.41
673.904	53270.39
674.253	53411.63
674.602	53296.61
674.951	52948.14
675.3	52730.29
675.649	53175.25
675.998	53183.84
676.346	53119.21
676.695	53251.64
677.044	52997.18
677.393	53219.77
677.741	53137.06
678.09	53147.01
678.438	53017.52
678.787	53033.79
679.135	53031.98
679.484	52752.21
679.832	52950.63
680.181	52730.52
680.529	52770.97
680.877	52670.41
681.225	52632.22
681.573	52907.24
681.922	52645.55
682.27	52535.05
682.618	52536.4
682.966	52477.42
683.314	52446.69
683.661	52334.15
684.009	52156.98
684.357	52130.99
684.705	52177.54
685.053	52228.84
685.4	52081.5
685.748	51917.89
686.095	51912.46
686.443	51796.31
686.79	51681.51
687.138	51788.4
687.485	51778
687.832	51606.26
688.18	51687.38
688.527	51441.74
688.874	51566.71
689.221	51277.9
689.568	51215.31
689.915	51232.48
690.262	51207.85
690.609	51030
690.956	50972.83
691.303	50821.87
691.65	50668.88
691.997	50690.8
692.344	50484.25
692.69	50540.97
693.037	50630.69
693.383	50225.28
693.73	50327.19
694.077	50120.65
694.423	50144.6
694.769	49949.58
695.116	49966.3
695.462	49908.9
695.808	49780.54
696.155	49813.76
696.501	49599.76
696.847	49640.66
697.193	49329.25
697.539	49325.41
697.885	49160.22
698.231	49173.33
698.577	49167.68
698.923	49097.4
699.269	48776.5
699.614	48502.61
699.96	48605.66
700.306	48576.73
700.651	48455.15
700.997	48220.13
701.342	48217.42
701.688	48116.86
702.033	47964.09
702.379	47899.46
702.724	47826.69
703.069	47876.41
703.415	47459.02
703.76	47471.45
704.105	47518.23
704.45	47318.69
704.795	47012.03
705.14	46917.11
705.485	47025.13
705.83	46864.69
706.175	46888.64
706.52	46726.38
706.865	46596.22
707.209	46528.65
707.554	46528.42
707.899	46557.8
708.243	46322.33
708.588	46290.69
708.932	45973.86
709.277	46001.66
709.621	46016.12
709.966	45738.61
710.31	45812.06
710.654	45589.24
710.998	45556.92
711.342	45671.95
711.687	45377.49
712.031	45159.65
712.375	44941.8
712.719	45191.51
713.063	44972.53
713.407	45064.96
713.75	44777.96
714.094	44819.09
714.438	44713.33
714.782	44631.3
715.125	44355.37
715.469	44592.66
715.812	44370.06
716.156	44279.9
716.499	44066.57
716.843	44204.19
717.186	43900.02
717.53	44094.36
717.873	44107.47
718.216	43981.37
718.559	43820.7
718.902	43493.93
719.246	43732.34
719.589	43481.27
719.932	43595.39
720.275	43321.5
720.617	43364.66
720.96	43296.19
721.303	43100.72
721.646	43026.37
721.989	42856.66
722.331	43027.72
722.674	42869.31
723.016	42843.1
723.359	42814.62
723.701	42972.36
724.044	42485.14
724.386	42391.13
724.729	42578.02
725.071	42310
725.413	42347.74
725.755	42364.92
726.097	42117.47
726.439	42038.82
726.782	42073.4
727.124	42108.65
727.465	41895.1
727.807	41851.94
728.149	41758.83
728.491	41675.67
728.833	41912.27
729.175	41467.54
729.516	41459.86
729.858	41389.35
730.199	41325.62
730.541	41447.43
730.882	41391.61
731.224	41412.17
731.565	41010.38
731.906	41128.34
732.248	41174.67
732.589	40930.6
732.93	40797.95
733.271	40885.41
733.612	40866.2
733.953	40895.35
734.294	40554.34
734.635	40471.86
734.976	40580.56
735.317	40402.93
735.658	40416.04
735.999	40315.93
736.339	40249.94
736.68	40349.83
737.021	40109.38
737.361	39954.13
737.702	40208.14
738.042	39938.54
738.383	39962.27
738.723	40077.29
739.063	39784.65
739.404	39929.5
739.744	39724.76
740.084	39615.38
740.424	39631.88
740.764	39561.38
741.104	39655.16
741.444	39435.05
741.784	39296.75
742.124	39291.33
742.464	39165.68
742.804	39190.76
743.143	39012.91
743.483	39079.81
743.823	39059.02
744.162	38905.35
744.502	38885.69
744.841	38762.98
745.181	38913.03
745.52	38685.47
745.86	38727.5
746.199	38610.67
746.538	38434.4
746.877	38517.11
747.216	38432.37
747.556	38224.24
747.895	38321.86
748.234	38091.36
748.573	38146.72
748.911	38105.37
749.25	38032.15
749.589	37824.92
749.928	37831.25
750.267	37878.93
750.605	37614.31
750.944	37565.04
751.283	37461.77
751.621	37566.85
751.96	37269.68
752.298	37354.43
752.636	37291.15
