Data from plate_ceramic_FLMS001491_006.txt Node
Date: Tue Feb 07 11:16:14 GMT 2017
User: dcchb
Spectrometer: FLMS00149
Trigger mode: 0
Integration Time (sec): 2.000000E-2
Scans to average: 10
Electric dark correction enabled: true
Nonlinearity correction enabled: false
Boxcar width: 0
XAxis mode: Wavelengths
Number of Pixels in Spectrum: 2048
>>>>>Begin Spectral Data<<<<<
341.393	-4.55
341.776	-4.55
342.16	-4.55
342.543	-51.55
342.927	-58.78
343.31	-70.99
343.693	-60.14
344.077	-78.67
344.46	-81.61
344.843	-61.95
345.226	-35.51
345.61	-37.09
345.993	-16.07
346.376	9.91
346.759	20.08
347.142	21.44
347.525	51.5
347.908	57.6
348.291	82.23
348.674	92.85
349.057	106.41
349.44	131.27
349.823	144.15
350.206	152.51
350.588	221.89
350.971	230.93
351.354	252.62
351.737	259.17
352.119	251.72
352.502	285.61
352.884	296.24
353.267	305.5
353.65	316.12
354.032	323.81
354.414	290.81
354.797	349.57
355.179	332.39
355.562	345.73
355.944	359.74
356.326	371.49
356.709	367.65
357.091	355.44
357.473	367.87
357.855	375.33
358.238	347.76
358.62	366.97
359.002	350.92
359.384	365.61
359.766	372.62
360.148	354.54
360.53	373.3
360.912	380.53
361.294	362.9
361.676	361.54
362.057	363.13
362.439	361.54
362.821	363.13
363.203	337.59
363.584	341.66
363.966	366.29
364.348	342.34
364.729	386.63
365.111	359.96
365.493	348.21
365.874	360.64
366.256	356.57
366.637	376.01
367.019	339.85
367.4	371.04
367.781	346.4
368.163	365.39
368.544	387.31
368.925	373.75
369.306	351.83
369.688	339.17
370.069	355.67
370.45	354.54
370.831	373.75
371.212	357.7
371.593	367.19
371.974	377.36
372.355	361.54
372.736	371.71
373.117	368.1
373.498	385.95
373.879	367.42
374.26	380.75
374.641	353.18
375.021	375.33
375.402	388.66
375.783	376.01
376.163	412.39
376.544	387.08
376.925	404.93
377.305	394.31
377.686	395.44
378.066	412.39
378.447	405.38
378.827	415.78
379.208	415.1
379.588	410.13
379.968	426.18
380.349	412.62
380.729	424.14
381.109	429.79
381.489	416.91
381.87	440.19
382.25	419.17
382.63	438.83
383.01	417.81
383.39	443.12
383.77	436.34
384.15	436.8
384.53	467.3
384.91	454.42
385.29	461.88
385.67	489.9
386.049	465.72
386.429	478.38
386.809	473.86
387.189	471.82
387.568	500.3
387.948	501.88
388.328	489.9
388.707	504.59
389.087	490.35
389.466	505.72
389.846	525.83
390.225	535.32
390.605	501.88
390.984	537.58
391.363	567.87
391.743	521.54
392.122	530.81
392.501	537.81
392.881	560.18
393.26	542.78
393.639	535.32
394.018	547.3
394.397	584.82
394.776	580.97
395.155	583.23
395.534	593.18
395.913	568.77
396.292	601.54
396.671	592.05
397.05	598.15
397.429	599.05
397.808	620.52
398.186	613.74
398.565	610.35
398.944	631.59
399.323	664.36
399.701	654.87
400.08	656.45
400.458	644.93
400.837	657.36
401.215	679.05
401.594	672.27
401.972	702.55
402.351	662.33
402.729	691.48
403.107	716.79
403.486	706.17
403.864	717.02
404.242	730.8
404.62	759.95
404.999	745.94
405.377	747.07
405.755	750.91
406.133	776.9
406.511	787.07
406.889	801.31
407.267	777.13
407.645	771.02
408.023	785.71
408.401	850.12
408.779	818.03
409.156	834.98
409.534	834.75
409.912	854.41
410.29	864.13
410.667	867.29
411.045	887.86
411.422	890.57
411.8	921.53
412.178	934.41
412.555	947.29
412.933	961.75
413.31	968.53
413.687	991.13
414.065	969.89
414.442	988.65
414.819	1014.41
415.197	1023.45
415.574	1043.79
415.951	1035.2
416.328	1037.01
416.705	1078.59
417.082	1063.45
417.46	1067.06
417.837	1095.99
418.214	1133.73
418.591	1123.78
418.967	1119.94
419.344	1139.83
419.721	1145.93
420.098	1149.77
420.475	1191.35
420.852	1182.99
421.228	1209.43
421.605	1226.83
421.982	1245.14
422.358	1246.04
422.735	1281.07
423.111	1264.35
423.488	1293.72
423.864	1289.43
424.241	1313.84
424.617	1345.02
424.994	1316.55
425.37	1322.2
425.746	1354.29
426.123	1353.83
426.499	1379.14
426.875	1427.96
427.251	1436.77
427.627	1474.51
428.003	1470.22
428.379	1501.85
428.756	1505.02
429.132	1517.22
429.507	1550.67
429.883	1573.04
430.259	1582.53
430.635	1618.91
431.011	1665.46
431.387	1662.98
431.763	1699.14
432.138	1709.53
432.514	1730.32
432.89	1723.09
433.265	1786.14
433.641	1800.83
434.016	1797.21
434.392	1855.06
434.767	1853.93
435.143	1887.83
435.518	1930.54
435.894	1925.8
436.269	1958.11
436.644	1948.4
437.02	2003.76
437.395	1999.47
437.77	2036.53
438.145	2031.33
438.52	2069.75
438.895	2112.46
439.271	2123.53
439.646	2163.08
440.021	2169.18
440.395	2157.43
440.77	2201.5
441.145	2184.77
441.52	2214.38
441.895	2218.22
442.27	2237.2
442.645	2252.34
443.019	2281.72
443.394	2283.98
443.769	2356.07
444.143	2325.79
444.518	2355.39
444.892	2330.53
445.267	2382.51
445.641	2426.8
446.016	2398.55
446.39	2446.91
446.764	2482.39
447.139	2453.24
447.513	2503.86
447.887	2478.78
448.262	2504.09
448.636	2539.57
449.01	2558.1
449.384	2583.18
449.758	2583.41
450.132	2665.21
450.506	2654.82
450.88	2684.19
451.254	2710.18
451.628	2715.15
452.002	2777.07
452.376	2783.85
452.75	2829.73
453.123	2875.15
453.497	2893.68
453.871	2905.21
454.244	2972.77
454.618	3004.41
454.992	3021.36
455.365	3066.56
455.739	3114.01
456.112	3150.62
456.486	3169.83
456.859	3200.34
457.232	3267.46
457.606	3231.53
457.979	3330.51
458.352	3381.13
458.725	3432.42
459.099	3431.75
459.472	3500.67
459.845	3594.23
460.218	3606.43
460.591	3617.05
460.964	3635.36
461.337	3749.93
461.71	3746.31
462.083	3834.45
462.456	3844.84
462.829	3862.92
463.201	3968.23
463.574	3936.37
463.947	3994.67
464.32	4116.47
464.692	4178.62
465.065	4122.35
465.438	4238.73
465.81	4293.42
466.183	4372.29
466.555	4432.62
466.928	4468.78
467.3	4486.18
467.672	4507.65
468.045	4674.2
468.417	4651.83
468.789	4732.73
469.161	4814.31
469.534	4860.63
469.906	4973.4
470.278	4995.77
470.65	5057.01
471.022	5166.39
471.394	5261.3
471.766	5315.76
472.138	5415.2
472.51	5480.51
472.882	5579.94
473.253	5661.07
473.625	5737
473.997	5810.44
474.369	5885.92
474.74	5971.34
475.112	6125.91
475.484	6178.34
475.855	6280.48
476.227	6320.48
476.598	6540.59
476.97	6588.73
477.341	6699
477.713	6835.95
478.084	6823.97
478.455	7012.44
478.827	7142.16
479.198	7309.61
479.569	7346.9
479.94	7602.26
480.311	7615.82
480.682	7892.19
481.053	7989.59
481.424	8115.01
481.795	8211.96
482.166	8256.03
482.537	8441.11
482.908	8687.43
483.279	8713.87
483.65	8880.64
484.021	9048.32
484.391	9197.24
484.762	9248.32
485.133	9359.27
485.503	9461.64
485.874	9684.01
486.244	9791.58
486.615	9983.66
486.985	10065.02
487.356	10279.25
487.726	10440.83
488.097	10565.57
488.467	10624.1
488.837	10948.61
489.207	10963.3
489.578	11101.83
489.948	11259.56
490.318	11435.83
490.688	11443.06
491.058	11732.09
491.428	11755.14
491.798	11954.23
492.168	12145.87
492.538	12255.24
492.908	12422.92
493.278	12565.07
493.648	12573.65
494.017	12805.96
494.387	12895.68
494.757	13047.76
495.126	13186.52
495.496	13192.85
495.866	13411.37
496.235	13446.62
496.605	13626.28
496.974	13727.75
497.344	13855.88
497.713	13922.32
498.082	14034.4
498.452	14169.77
498.821	14254.51
499.19	14321.18
499.559	14467.61
499.928	14548.29
500.298	14711.68
500.667	14853.14
501.036	14795.51
501.405	14994.61
501.774	15136.52
502.143	15174.94
502.512	15233.24
502.88	15456.29
503.249	15492.45
503.618	15582.61
503.987	15650.41
504.356	15757.07
504.724	15939.44
505.093	15958.42
505.462	16066.67
505.83	16193.9
506.199	16336.94
506.567	16521.35
506.936	16545.07
507.304	16737.38
507.672	16941.9
508.041	16999.75
508.409	17135.34
508.777	17209.46
509.145	17392.96
509.514	17407.42
509.882	17472.51
510.25	17572.62
510.618	17659.62
510.986	17776
511.354	18025.49
511.722	18167.18
512.09	18318.36
512.458	18385.25
512.826	18478.36
513.193	18640.61
513.561	18681.06
513.929	18917.89
514.297	19093.93
514.664	19250.99
515.032	19284.44
515.4	19509.97
515.767	19610.53
516.135	19734.14
516.502	19554.03
516.869	20030.63
517.237	20196.5
517.604	20064.53
517.972	20373.67
518.339	20480.11
518.706	20595.14
519.073	20691.63
519.44	20839.65
519.808	20993.77
520.175	21158.29
520.542	21525.73
520.909	21570.25
521.276	21514.43
521.643	21793.52
522.009	21972.5
522.376	22190.12
522.743	22309.44
523.11	22558.93
523.477	22834.85
523.843	22888.18
524.21	23144.67
524.577	23278.23
524.943	23366.81
525.31	23579.01
525.676	23789.85
526.043	23995.72
526.409	24126.57
526.776	24329.73
527.142	24407.69
527.508	24610.62
527.874	24775.82
528.241	24838.41
528.607	25075.92
528.973	25287.67
529.339	25217.84
529.705	25535.8
530.071	25792.29
530.437	25912.06
530.803	26094.43
531.169	26262.56
531.535	26387.3
531.901	26359.28
532.267	26447.64
532.632	26608.09
532.998	26793.84
533.364	26994.06
533.73	27170.33
534.095	27345.47
534.461	27406.03
534.826	27595.4
535.192	27671.33
535.557	27932.34
535.923	27963.08
536.288	28061.15
536.653	28262.05
537.019	28167.14
537.384	28393.58
537.749	28497.53
538.114	28591.99
538.479	28692.1
538.845	28802.83
539.21	28803.96
539.575	28851.87
539.94	29078.08
540.305	29284.85
540.67	29208.92
541.034	29407.33
541.399	29520.55
541.764	29638.97
542.129	29678.97
542.494	29741.34
542.858	29906.3
543.223	30002.35
543.587	30161.21
543.952	30120.08
544.316	30330.7
544.681	30360.98
545.045	30370.47
545.41	30672.39
545.774	30616.12
546.138	30851.14
546.503	30926.39
546.867	31004.13
547.231	31289.09
547.595	31215.65
547.959	31500.61
548.324	31379.49
548.688	31633.94
549.052	31541.97
549.416	31795.97
549.779	31861.51
550.143	31896.99
550.507	32131.78
550.871	32243.42
551.235	32335.17
551.599	32550.08
551.962	32649.51
552.326	32638.44
552.689	32909.84
553.053	32814.02
553.417	33015.6
553.78	33339.89
554.143	33194.35
554.507	33422.82
554.87	33661.23
555.234	33942.58
555.597	33756.37
555.96	33862.81
556.323	34112.07
556.686	34177.83
557.05	34326.07
557.413	34550.25
557.776	34651.04
558.139	34865.27
558.502	34974.87
558.865	35098.71
559.228	35347.97
559.59	35403.11
559.953	35572.14
560.316	35878.8
560.679	35830.89
561.041	36181.62
561.404	36351.33
561.767	36479.24
562.129	36497.77
562.492	36921.94
562.854	36843.3
563.217	36896.4
563.579	37096.4
563.941	37428.59
564.304	37535.26
564.666	37774.57
565.028	37800.56
565.39	37968.46
565.753	38192.41
566.115	38335.23
566.477	38417.27
566.839	38569.13
567.201	38647.09
567.563	38776.58
567.925	39061.77
568.287	39022
568.648	39142.67
569.01	39316.68
569.372	39579.72
569.734	39511.93
570.095	39750.56
570.457	40009.99
570.819	40240.95
571.18	40055.87
571.542	40414.73
571.903	40482.07
572.265	40597.1
572.626	40674.83
572.987	40827.37
573.349	40859.69
573.71	41037.31
574.071	40981.49
574.432	41211.54
574.794	41485.66
575.155	41444.76
575.516	41414.93
575.877	41660.35
576.238	41679.1
576.599	41858.31
576.96	41931.07
577.32	41960.45
577.681	41958.64
578.042	42167.45
578.403	42230.73
578.763	42082.48
579.124	42448.35
579.485	42456.48
579.845	42601.11
580.206	42551.85
580.566	42653.09
580.927	42680.43
581.287	42819.18
581.648	42714.33
582.008	42844.49
582.368	42612.86
582.728	42844.49
583.089	42766.3
583.449	42801.56
583.809	42937.83
584.169	43021.44
584.529	42907.77
584.889	43162.23
585.249	42803.14
585.609	42770.37
585.969	42965.62
586.329	42955.23
586.688	43051.04
587.048	43044.04
587.408	43053.08
587.768	43062.12
588.127	42995.9
588.487	43065.05
588.846	43261.89
589.206	43019.63
589.565	43071.61
589.925	43281.09
590.284	43114.09
590.643	43298.72
591.003	43382.33
591.362	43433.18
591.721	43183.24
592.08	43260.08
592.44	43518.38
592.799	43466.17
593.158	43492.16
593.517	43484.03
593.876	43440.64
594.235	43408.32
594.593	43428.89
594.952	43527.19
595.311	43373.07
595.67	43556.57
596.029	43728.77
596.387	43667.3
596.746	43616.45
597.104	43706.17
597.463	43716.56
597.822	43838.14
598.18	43633.63
598.538	43566.51
598.897	43974.86
599.255	43557.7
599.613	44088.53
599.972	43976.89
600.33	43933.96
600.688	43954.52
601.046	44062.77
601.404	44175.99
601.762	44032.49
602.12	44074.97
602.478	44192.26
602.836	44243.1
603.194	44182.76
603.552	44194.29
603.91	44040.4
604.268	44347.28
604.625	44389.99
604.983	44515.86
605.341	44288.52
605.698	44521.96
606.056	44507.5
606.413	44476.99
606.771	44714.05
607.128	44814.16
607.485	44624.79
607.843	44508.41
608.2	44878.11
608.557	44953.59
608.914	44696.65
609.272	44901.62
609.629	44952.69
609.986	45214.15
610.343	44919.02
610.7	45291.89
611.057	45132.57
611.414	45268.16
611.771	45175.06
612.127	45473.13
612.484	45327.14
612.841	45404.43
613.198	45297.76
613.554	45408.04
613.911	45591.77
614.267	45559
614.624	45516.52
614.98	45651.43
615.337	45781.82
615.693	45803.06
616.05	45640.13
616.406	45929.39
616.762	45700.24
617.118	45883.06
617.475	45818.88
617.831	45983.4
618.187	46088.03
618.543	46129.15
618.899	46181.58
619.255	46178.42
619.611	46065.43
619.967	46267
620.323	46306.32
620.678	46022.49
621.034	46177.29
621.39	46100.91
621.746	46200.56
622.101	46568.69
622.457	46245.99
622.812	46255.48
623.168	46452.99
623.523	46323.27
623.879	46477.85
624.234	46230.85
624.589	46254.35
624.945	46327.57
625.3	46227.68
625.655	46337.96
626.01	46149.49
626.365	46353.78
626.72	46276.04
627.075	46306.55
627.43	46162.83
627.785	46129.83
628.14	46252.77
628.495	46302.03
628.85	46159.89
629.205	46043.28
629.559	46272.2
629.914	46039.44
630.269	46194.46
630.623	46063.62
630.978	45893
631.332	45999.67
631.687	46135.26
632.041	46085.31
632.396	46021.59
632.75	45741.82
633.104	45659.79
633.459	45529.17
633.813	45656.17
634.167	45633.12
634.521	45545.44
634.875	45618.43
635.229	45572.33
635.583	45278.1
635.937	45486.23
636.291	45287.82
636.645	45385.22
636.999	45206.69
637.352	45350.19
637.706	45058
638.06	45356.29
638.413	44991.11
638.767	45057.77
639.121	45031.56
639.474	44770.55
639.828	44913.82
640.181	44966.25
640.534	44923.76
640.888	44786.82
641.241	44512.93
641.594	44634.05
641.947	44775.29
642.301	44731.9
642.654	44807.61
643.007	44741.17
643.36	44466.37
643.713	44578.91
644.066	44560.38
644.419	44307.06
644.771	43952.94
645.124	43750.23
645.477	43649.9
645.83	43261.66
646.182	43110.02
646.535	43004.72
646.888	43097.82
647.24	42794.33
647.593	43148.89
647.945	42984.83
648.298	42907.77
648.65	42844.49
649.002	42764.95
649.355	42804.72
649.707	42915.23
650.059	42908.9
650.411	43282.9
650.763	43497.81
651.115	43807.41
651.467	43519.28
651.819	43597.47
652.171	43501.88
652.523	43328.55
652.875	43399.73
653.227	43221.43
653.578	43603.12
653.93	43373.07
654.282	43068.44
654.633	43113.64
654.985	43200.42
655.337	43207.88
655.688	43192.96
656.039	43126.07
656.391	42973.98
656.742	43100.53
657.094	42933.98
657.445	43126.75
657.796	43016.92
658.147	42911.39
658.498	43002.23
658.849	42952.51
659.2	42832.29
659.551	42783.25
659.902	42788
660.253	42691.73
660.604	42606.99
660.955	42518.4
661.306	42713.2
661.656	42670.49
662.007	42689.24
662.358	42634.78
662.708	42466.2
663.059	42566.76
663.409	42311.4
663.76	42516.59
664.11	42603.37
664.461	42529.25
664.811	42494.22
665.161	42495.13
665.511	42461.23
665.862	42408.8
666.212	42545.52
666.562	42603.37
666.912	42449.93
667.262	42334
667.612	42520.44
667.962	42549.81
668.312	42296.71
668.662	42496.71
669.011	42438.4
669.361	42294.23
669.711	42338.29
670.06	42154.57
670.41	42179.2
670.76	42089.26
671.109	42165.87
671.459	42189.37
671.808	42208.58
672.157	42182.37
672.507	41809.72
672.856	41954.8
673.205	42042.48
673.554	41999.32
673.904	41868.93
674.253	41877.51
674.602	41888.14
674.951	41460.58
675.3	41200.02
675.649	41795.03
675.998	41685.43
676.346	41599.1
676.695	41774.01
677.044	41434.14
677.393	41702.6
677.741	41686.56
678.09	41600.91
678.438	41496.73
678.787	41691.98
679.135	41607.69
679.484	41332.22
679.832	41491.99
680.181	41263.52
680.529	41325.21
680.877	41155.73
681.225	41118.21
681.573	41440.24
681.922	41143.75
682.27	40975.17
682.618	41083.86
682.966	40938.56
683.314	41013.58
683.661	40731.33
684.009	40626.25
684.357	40573.14
684.705	40454.5
685.053	40558
685.4	40437.55
685.748	40411.11
686.095	40244.11
686.443	39986.72
686.79	40101.52
687.138	39968.19
687.485	40056.55
687.832	39844.57
688.18	40104.45
688.527	39706.95
688.874	39777.68
689.221	39603.68
689.568	39551.7
689.915	39343.34
690.262	39473.51
690.609	39280.75
690.956	39253.18
691.303	39292.95
691.65	38817.93
691.997	38895.45
692.344	38680.31
692.69	38691.38
693.037	38859.97
693.383	38534.55
693.73	38586.3
694.077	38412.75
694.423	38489.81
694.769	38338.17
695.116	38238.29
695.462	38273.54
695.808	38032.19
696.155	38049.82
696.501	37759.88
696.847	37632.88
697.193	37393.11
697.539	37674.01
697.885	37349.5
698.231	37242.61
698.577	37264.75
698.923	37167.58
699.269	36937.31
699.614	36683.98
699.96	36665.45
700.306	36743.41
700.651	36712.45
700.997	36566.92
701.342	36454.38
701.688	36373.48
702.033	36169.87
702.379	36199.25
702.724	36151.79
703.069	36152.47
703.415	35852.14
703.76	35799.71
704.105	35640.39
704.45	35509.32
704.795	35415.54
705.14	35250.57
705.485	35442.66
705.83	35197.24
706.175	35254.86
706.52	35069.56
706.865	35114.75
707.209	35107.75
707.554	34847.42
707.899	35016.9
708.243	34878.15
708.588	34768.78
708.932	34572.4
709.277	34615.56
709.621	34421.89
709.966	34392.06
710.31	34440.87
710.654	34167.89
710.998	34018.06
711.342	34169.47
711.687	33920.89
712.031	33849.7
712.375	33751.4
712.719	33859.65
713.063	33800.44
713.407	33840.44
713.75	33607.45
714.094	33417.17
714.438	33426.66
714.782	33453.78
715.125	33346.67
715.469	33480.9
715.812	33236.61
716.156	32965.88
716.499	32944.42
716.843	33046.33
717.186	32749.17
717.53	32923.85
717.873	32816.96
718.216	32898.54
718.559	32617.65
718.902	32572.9
719.246	32678.66
719.589	32552.56
719.932	32312.79
720.275	32323.87
720.617	32345.34
720.96	32235.51
721.303	32223.31
721.646	32221.5
721.989	31861.51
722.331	32086.81
722.674	31963.88
723.016	31957.1
723.359	31945.57
723.701	31871.9
724.044	31586.03
724.386	31499.26
724.729	31585.36
725.071	31575.86
725.413	31462.87
725.755	31569.09
726.097	31272.6
726.439	31228.53
726.782	31137.01
727.124	31265.59
727.465	31126.61
727.807	31070.34
728.149	30995.99
728.491	31129.1
728.833	31125.26
729.175	30968.2
729.516	30850.91
729.858	30798.26
730.199	30720.07
730.541	30667.87
730.882	30725.72
731.224	30780.86
731.565	30569.56
731.906	30560.75
732.248	30440.75
732.589	30304.49
732.93	30280.98
733.271	30276.69
733.612	30389.68
733.953	30415.22
734.294	30148.33
734.635	30209.12
734.976	30204.15
735.317	29952.4
735.658	30025.17
735.999	30094.77
736.339	29945.17
736.68	30009.35
737.021	29880.54
737.361	29700.66
737.702	29956.25
738.042	29883.48
738.383	29678.51
738.723	29651.85
739.063	29583.15
739.404	29577.95
739.744	29452.53
740.084	29364.4
740.424	29542.7
740.764	29426.54
741.104	29606.65
741.444	29217.73
741.784	29073.11
742.124	29181.35
742.464	29229.94
742.804	28979.77
743.143	29080.79
743.483	29021.58
743.823	28831.3
744.162	28822.72
744.502	28930.74
744.841	28693
745.181	28909.72
745.52	28716.28
745.86	28691.65
746.199	28607.81
746.538	28479.9
746.877	28527.81
747.216	28374.82
747.556	28444.42
747.895	28500.47
748.234	28289.17
748.573	28173.69
748.911	28286.69
749.25	28255.05
749.589	28057.54
749.928	28160.14
750.267	28091.66
750.605	27978.67
750.944	27963.08
751.283	27828.62
751.621	28030.42
751.96	27694.61
752.298	27684.67
752.636	27749.07
752.975	27531.68
753.313	27445.13
753.651	27441.06
