Data from plate_porcelain_FLMS001491_039.txt Node
Date: Tue Feb 07 11:19:13 GMT 2017
User: dcchb
Spectrometer: FLMS00149
Trigger mode: 0
Integration Time (sec): 2.000000E-2
Scans to average: 10
Electric dark correction enabled: true
Nonlinearity correction enabled: false
Boxcar width: 0
XAxis mode: Wavelengths
Number of Pixels in Spectrum: 2048
>>>>>Begin Spectral Data<<<<<
341.393	-11.85
341.776	-11.85
342.16	-11.85
342.543	-62.47
342.927	-70.83
343.31	-64.96
343.693	-69.7
344.077	-74.67
344.46	-77.16
344.843	-53.43
345.226	-34.9
345.61	-30.38
345.993	-28.12
346.376	-18.4
346.759	6.45
347.142	36.28
347.525	55.27
347.908	69.5
348.291	71.76
348.674	94.81
349.057	117.64
349.44	89.84
349.823	146.34
350.206	149.28
350.588	207.13
350.971	226.79
351.354	247.35
351.737	278.09
352.119	281.93
352.502	276.73
352.884	297.75
353.267	319.44
353.65	318.54
354.032	316.05
354.414	335.71
354.797	328.25
355.179	342.27
355.562	355.37
355.944	350.63
356.326	352.66
356.709	373.9
357.091	367.12
357.473	392.89
357.855	370.96
358.238	373.68
358.62	384.52
359.002	390.17
359.384	405.31
359.766	393.56
360.148	384.07
360.53	389.04
360.912	396.73
361.294	365.77
361.676	362.83
362.057	383.85
362.439	400.57
362.821	391.76
363.203	374.35
363.584	374.13
363.966	385.65
364.348	384.75
364.729	372.77
365.111	367.8
365.493	382.49
365.874	394.92
366.256	389.72
366.637	375.71
367.019	378.42
367.4	385.2
367.781	388.14
368.163	387.69
368.544	371.64
368.925	386.33
369.306	417.07
369.688	389.27
370.069	409.38
370.45	387.46
370.831	396.27
371.212	405.31
371.593	374.13
371.974	415.03
372.355	395.14
372.736	413
373.117	422.04
373.498	405.09
373.879	419.78
374.26	402.6
374.641	398.31
375.021	419.78
375.402	424.07
375.783	434.24
376.163	458.42
376.544	467.91
376.925	444.64
377.305	439.21
377.686	442.83
378.066	437.86
378.447	452.77
378.827	454.8
379.208	459.32
379.588	441.47
379.968	471.53
380.349	458.42
380.729	497.74
381.109	508.81
381.489	492.32
381.87	486.22
382.25	495.26
382.63	503.84
383.01	509.72
383.39	506.1
383.77	484.18
384.15	496.84
384.53	513.11
384.91	528.25
385.29	537.74
385.67	548.36
386.049	534.35
386.429	536.38
386.809	569.83
387.189	555.14
387.568	553.33
387.948	581.58
388.328	586.1
388.707	570.28
389.087	594.01
389.466	592.65
389.846	597.4
390.225	619.77
390.605	612.77
390.984	605.76
391.363	622.71
391.743	638.08
392.122	607.57
392.501	682.6
392.881	658.19
393.26	650.96
393.639	668.58
394.018	655.7
394.397	690.28
394.776	705.42
395.155	700.22
395.534	714.46
395.913	725.98
396.292	704.52
396.671	737.73
397.05	734.57
397.429	741.8
397.808	748.58
398.186	759.2
398.565	763.72
398.944	782.48
399.323	768.02
399.701	787.9
400.08	791.29
400.458	824.29
400.837	818.18
401.215	843.04
401.594	831.52
401.972	832.42
402.351	851.63
402.729	880.33
403.107	876.94
403.486	877.84
403.864	889.6
404.242	909.03
404.62	916.26
404.999	936.15
405.377	953.1
405.755	954.68
406.133	953.1
406.511	962.81
406.889	981.34
407.267	992.87
407.645	1005.75
408.023	1043.26
408.401	1031.06
408.779	1035.58
409.156	1072.42
409.534	1084.84
409.912	1107.22
410.29	1110.61
410.667	1132.07
411.045	1133.43
411.422	1153.54
411.8	1157.84
412.178	1171.17
412.555	1225.63
412.933	1235.57
413.31	1248.68
413.687	1271.51
414.065	1260.88
414.442	1261.56
414.819	1325.74
415.197	1316.02
415.574	1333.65
415.951	1354.89
416.328	1351.28
416.705	1405.74
417.082	1402.35
417.46	1422.46
417.837	1410.03
418.214	1445.96
418.591	1439.64
418.967	1457.72
419.344	1474.21
419.721	1484.16
420.098	1523.48
420.475	1539.52
420.852	1533.65
421.228	1559.18
421.605	1614.1
421.982	1586.53
422.358	1632.85
422.735	1640.31
423.111	1636.92
423.488	1665.39
423.864	1665.62
424.241	1711.72
424.617	1742.68
424.994	1736.58
425.37	1767.09
425.746	1782.23
426.123	1791.27
426.499	1829.23
426.875	1862.45
427.251	1895.67
427.627	1951.26
428.003	1947.65
428.379	1964.82
428.756	1991.49
429.132	2035.78
429.507	2065.84
429.883	2043.24
430.259	2109.68
430.635	2114.65
431.011	2117.36
431.387	2241.42
431.763	2242.1
432.138	2276.9
432.514	2311.93
432.89	2285.49
433.265	2339.73
433.641	2369.78
434.016	2427.63
434.392	2425.6
434.767	2490.91
435.143	2503.56
435.518	2532.26
435.894	2603.22
436.269	2614.75
436.644	2652.94
437.02	2696.33
437.395	2676.89
437.77	2694.75
438.145	2761.64
438.52	2797.34
438.895	2833.27
439.271	2849.54
439.646	2881.41
440.021	2913.72
440.395	2948.07
440.77	2941.74
441.145	2957.11
441.52	3080.95
441.895	3014.96
442.27	3033.27
442.645	3043.89
443.019	3098.12
443.394	3097.67
443.769	3157.78
444.143	3117.79
444.518	3189.87
444.892	3191.68
445.267	3255.86
445.641	3279.14
446.016	3290.89
446.39	3293.15
446.764	3341.51
447.139	3321.62
447.513	3412.47
447.887	3414.05
448.262	3443.43
448.636	3449.3
449.01	3540.37
449.384	3538.79
449.758	3553.71
450.132	3588.96
450.506	3636.19
450.88	3639.58
451.254	3680.26
451.628	3742.4
452.002	3808.61
452.376	3830.08
452.75	3845.68
453.123	3840.25
453.497	3892.45
453.871	4024.43
454.244	4067.82
454.618	4108.95
454.992	4167.48
455.365	4171.09
455.739	4247.47
456.112	4321.82
456.486	4369.73
456.859	4403.18
457.232	4488.6
457.606	4485.66
457.979	4562.49
458.352	4686.11
458.725	4721.81
459.099	4750.51
459.472	4860.34
459.845	4895.14
460.218	4950.73
460.591	4985.76
460.964	5029.15
461.337	5172.65
461.71	5264.85
462.083	5317.5
462.456	5333.77
462.829	5314.56
463.201	5458.06
463.574	5469.36
463.947	5576.93
464.32	5695.34
464.692	5690.37
465.065	5798.84
465.438	5848.33
465.81	5960.2
466.183	6013.53
466.555	6104.6
466.928	6177.59
467.3	6203.58
467.672	6302.79
468.045	6509.79
468.417	6457.58
468.789	6515.21
469.161	6632.27
469.534	6738.26
469.906	6892.6
470.278	6915.88
470.65	6988.87
471.022	7152.71
471.394	7295.98
471.766	7420.27
472.138	7497.33
472.51	7617.33
472.882	7783.65
473.253	7802.63
473.625	7969.64
473.997	8170.99
474.369	8218.89
474.74	8246.92
475.112	8396.97
475.484	8583.86
475.855	8786.34
476.227	8860.69
476.598	9090.74
476.97	9174.8
477.341	9353.33
477.713	9502.48
478.084	9626.77
478.455	9886.42
478.827	9965.97
479.198	10303.59
479.569	10241.44
479.94	10565.73
480.311	10644.82
480.682	10920.29
481.053	11174.3
481.424	11292.49
481.795	11464.68
482.166	11582.87
482.537	11791.23
482.908	12041.39
483.279	12215.63
483.65	12439.12
484.021	12666.46
484.391	12791.43
484.762	12948.04
485.133	13086.79
485.503	13278.65
485.874	13599.54
486.244	13657.85
486.615	13953.66
486.985	14155.24
487.356	14390.71
487.726	14566.98
488.097	14841.54
488.467	14929.23
488.837	15188.65
489.207	15334.87
489.578	15625.25
489.948	15683.78
490.318	15965.58
490.688	16070.67
491.058	16361.5
491.428	16502.07
491.798	16787.48
492.168	17043.52
492.538	17113.12
492.908	17271.31
493.278	17584.98
493.648	17637.86
494.017	17816.61
494.387	18115.81
494.757	18224.28
495.126	18403.26
495.496	18466.53
495.866	18650.71
496.235	18922.57
496.605	19130.02
496.974	19221.32
497.344	19357.81
497.713	19511.7
498.082	19638.03
498.452	19933.61
498.821	19979.26
499.19	19946.27
499.559	20271.01
499.928	20396.65
500.298	20470.78
500.667	20824.66
501.036	20805.46
501.405	20913.7
501.774	20966.13
502.143	21207.71
502.512	21379.9
502.88	21473.91
503.249	21585.77
503.618	21847.91
503.987	21934.47
504.356	22157.96
504.724	22303.95
505.093	22414.9
505.462	22515.47
505.83	22748.91
506.199	22906.42
506.567	23119.75
506.936	23178.73
507.304	23560.41
507.672	23552.05
508.041	23605.38
508.409	23844.02
508.777	24058.48
509.145	24230
509.514	24247.85
509.882	24497.79
510.25	24521.29
510.618	24783.2
510.986	24832.47
511.354	25221.61
511.722	25389.29
512.09	25674.25
512.458	25544.54
512.826	25883.06
513.193	25954.02
513.561	26040.8
513.929	26399.43
514.297	26710.84
514.664	26864.28
515.032	27088.45
515.4	27234.89
515.767	27310.6
516.135	27586.97
516.502	27447.09
516.869	27876
517.237	27991.48
517.604	27894.08
517.972	28469.21
518.339	28597.79
518.706	28739.71
519.073	28725.7
519.44	29049.76
519.808	29365.46
520.175	29528.39
520.542	29849.29
520.909	29934.26
521.276	29989.17
521.643	30491.75
522.009	30723.39
522.376	30962.48
522.743	31035.47
523.11	31401.79
523.477	31583.48
523.843	31816.24
524.21	32083.13
524.577	32408.31
524.943	32521.53
525.31	32632.72
525.676	33042.65
526.043	33241.29
526.409	33411.68
526.776	33803.76
527.142	33930.99
527.508	34053.69
527.874	34414.59
528.241	34610.97
528.607	34741.13
528.973	35075.36
529.339	35038.75
529.705	35431.96
530.071	35809.58
530.437	36076.92
530.803	36203.69
531.169	36337.93
531.535	36420.19
531.901	36419.06
532.267	36757.13
532.632	37046.16
532.998	37223.1
533.364	37469.2
533.73	37511.01
534.095	37906.02
534.461	37904.67
534.826	38202.74
535.192	38374.49
535.557	38715.04
535.923	38510.3
536.288	38737.19
536.653	38896.51
537.019	38848.15
537.384	39127.69
537.749	39245.65
538.114	39438.64
538.479	39580.33
538.845	39699.87
539.21	39743.94
539.575	39909.59
539.94	40014.44
540.305	40352.96
540.67	40229.35
541.034	40560.64
541.399	40663.92
541.764	40676.12
542.129	40795.66
542.494	41078.37
542.858	41144.36
543.223	41265.93
543.587	41633.61
543.952	41526.72
544.316	41759.93
544.681	41721.52
545.045	41938.46
545.41	42128.51
545.774	42234.95
546.138	42335.29
546.503	42455.96
546.867	42450.76
547.231	42787.7
547.595	42803.97
547.959	43134.13
548.324	42983.4
548.688	43155.15
549.052	43337.74
549.416	43592.88
549.779	43433.11
550.143	43776.83
550.507	44086.88
550.871	44082.36
551.235	44151.28
551.599	44384.5
551.962	44562.8
552.326	44744.94
552.689	44967.53
553.053	44756.24
553.417	45027.64
553.78	45429.67
554.143	45374.53
554.507	45518.03
554.87	45769.32
555.234	46207.95
555.597	45914.17
555.96	46182.64
556.323	46235.07
556.686	46445.23
557.05	46746.92
557.413	46830.53
557.776	46869.63
558.139	47269.39
558.502	47265.55
558.865	47504.87
559.228	47672.09
559.59	47643.17
559.953	47875.7
560.316	48190.05
560.679	48229.59
561.041	48542.35
561.404	48729.24
561.767	48899.18
562.129	48838.39
562.492	49095.11
562.854	49258.49
563.217	49316.57
563.579	49498.49
563.941	49732.15
564.304	49838.14
564.666	50093.5
565.028	50162.42
565.39	50334.62
565.753	50432.93
566.115	50635.86
566.477	50833.59
566.839	50848.06
567.201	51029.52
567.563	51178.44
567.925	51401.71
568.287	51358.55
568.648	51356.97
569.01	51617.98
569.372	51804.19
569.734	51734.36
570.095	51969.61
570.457	52063.84
570.819	52146.78
571.18	52135.03
571.542	52285.31
571.903	52445.98
572.265	52514.68
572.626	52595.81
572.987	52754.67
573.349	52798.29
573.71	52861.79
574.071	52979.53
574.432	53067.88
574.794	53208.67
575.155	53151.05
575.516	53205.28
575.877	53386.52
576.238	53383.81
576.599	53492.73
576.96	53511.04
577.32	53536.12
577.681	53672.61
578.042	53738.15
578.403	53784.93
578.763	53872.16
579.124	53864.7
579.485	53923.91
579.845	54033.73
580.206	53954.64
580.566	53924.81
580.927	54040.06
581.287	54147.86
581.648	54044.36
582.008	54176.78
582.368	54160.06
582.728	54289.77
583.089	54133.39
583.449	54219.94
583.809	54245.03
584.169	54235.31
584.529	54241.64
584.889	54435.31
585.249	54257.91
585.609	54214.97
585.969	54382.88
586.329	54347.17
586.688	54380.17
587.048	54312.6
587.408	54295.2
587.768	54315.54
588.127	54308.98
588.487	54233.5
588.846	54582.87
589.206	54294.29
589.565	54344.01
589.925	54516.21
590.284	54401.63
590.643	54420.62
591.003	54468.53
591.362	54519.37
591.721	54465.36
592.08	54432.14
592.44	54584.23
592.799	54546.26
593.158	54617.67
593.517	54607.28
593.876	54598.69
594.235	54542.87
594.593	54516.66
594.952	54639.14
595.311	54610.44
595.67	54563.44
596.029	54728.86
596.387	54763.88
596.746	54800.95
597.104	54738.57
597.463	54640.5
597.822	54788.29
598.18	54662.19
598.538	54668.97
598.897	54851.57
599.255	54625.58
599.613	55034.39
599.972	54871.9
600.33	54951.45
600.688	54806.14
601.046	54988.51
601.404	55003.2
601.762	55020.83
602.12	55059.47
602.478	55087.04
602.836	55188.28
603.194	55008.85
603.552	55044.56
603.91	55079.81
604.268	55065.35
604.625	55142.18
604.983	55236.19
605.341	55132.46
605.698	55232.35
606.056	55201.61
606.413	55259.92
606.771	55357.54
607.128	55444.32
607.485	55280.93
607.843	55355.73
608.2	55467.37
608.557	55600.7
608.914	55419.46
609.272	55575.61
609.629	55584.43
609.986	55763.41
610.343	55534.49
610.7	55789.39
611.057	55748.04
611.414	55783.75
611.771	55784.2
612.127	55877.3
612.484	55824.87
612.841	55981.71
613.198	55842.27
613.554	55874.36
613.911	56064.64
614.267	55943.74
614.624	56019.22
614.98	56058.09
615.337	56083.17
615.693	56051.76
616.05	56085.66
616.406	56180.8
616.762	56119.1
617.118	56042.5
617.475	56204.52
617.831	56207.24
618.187	56247.46
618.543	56263.05
618.899	56411.53
619.255	56300.12
619.611	56259.44
619.967	56366.78
620.323	56495.14
620.678	56377.18
621.034	56249.04
621.39	56297.4
621.746	56275.26
622.101	56620.56
622.457	56341.7
622.812	56403.62
623.168	56514.35
623.523	56395.71
623.879	56483.39
624.234	56312.09
624.589	56415.59
624.945	56441.13
625.3	56379.66
625.655	56414.69
626.01	56449.72
626.365	56451.98
626.72	56417.85
627.075	56372.88
627.43	56350.51
627.785	56326.1
628.14	56300.57
628.495	56386.89
628.85	56326.33
629.205	56193.45
629.559	56329.95
629.914	56210.85
630.269	56275.94
630.623	56268.25
630.978	56165.2
631.332	56258.53
631.687	56338.08
632.041	56146.9
632.396	56204.07
632.75	56138.76
633.104	56142.83
633.459	56061.25
633.813	55992.55
634.167	55967.24
634.521	56007.92
634.875	56085.21
635.229	55953.91
635.583	55843.86
635.937	55848.38
636.291	55836.85
636.645	55837.75
636.999	55736.29
637.352	55723.18
637.706	55640.7
638.06	55756.4
638.413	55689.51
638.767	55601.15
639.121	55610.42
639.474	55535.84
639.828	55420.59
640.181	55492.45
640.534	55533.36
640.888	55442.06
641.241	55281.61
641.594	55389.86
641.947	55462.17
642.301	55336.3
642.654	55312.8
643.007	55303.53
643.36	55180.37
643.713	55120.26
644.066	55237.32
644.419	55032.8
644.771	54899.25
645.124	54619.26
645.477	54569.77
645.83	54425.36
646.182	54307.4
646.535	54257.68
646.888	54182.88
647.24	54048.65
647.593	54230.57
647.945	54202.77
648.298	53930.91
648.65	53882.1
649.002	53823.8
649.355	53889.78
649.707	53881.65
650.059	54071.7
650.411	54442.99
650.763	54373.16
651.115	54661.06
651.467	54407.96
651.819	54485.47
652.171	54378.36
652.523	54385.82
652.875	54385.14
653.227	54226.05
653.578	54322.31
653.93	54299.94
654.282	54145.6
654.633	54043.9
654.985	54093.62
655.337	54181.08
655.688	54161.19
656.039	54257.23
656.391	53925.26
656.742	53917.35
657.094	54087.97
657.445	54108.76
657.796	54114.41
658.147	54062.21
658.498	53913.74
658.849	54028.31
659.2	53895.21
659.551	53846.39
659.902	53943.12
660.253	53910.8
660.604	53858.82
660.955	53753.06
661.306	53861.31
661.656	53762.78
662.007	53755.78
662.358	53805.49
662.708	53748.77
663.059	53648.89
663.409	53532.28
663.76	53753.06
664.11	53706.51
664.461	53711.71
664.811	53751.03
665.161	53684.37
665.511	53579.96
665.862	53592.62
666.212	53761.43
666.562	53705.83
666.912	53682.78
667.262	53649.11
667.612	53544.03
667.962	53680.98
668.312	53588.32
668.662	53731.14
669.011	53591.94
669.361	53545.84
669.711	53565.95
670.06	53455.9
670.41	53353.53
670.76	53428.33
671.109	53541.77
671.459	53414.32
671.808	53452.28
672.157	53452.05
672.507	53221.33
672.856	53274.43
673.205	53329.35
673.554	53397.14
673.904	53269.23
674.253	53345.62
674.602	53299.06
674.951	52882.35
675.3	52649.36
675.649	53241.44
675.998	53195.56
676.346	53129.35
676.695	53218.84
677.044	53050.26
677.393	53106.08
677.741	53248.67
678.09	53062.23
678.438	53024.27
678.787	53061.56
679.135	52997.6
679.484	52775.46
679.832	53019.3
680.181	52712.64
680.529	52794.22
680.877	52697.95
681.225	52661.57
681.573	52876.02
681.922	52622.25
682.27	52554.9
682.618	52500.67
682.966	52387.45
683.314	52424.96
683.661	52282.82
684.009	52233.1
684.357	52144.97
684.705	52208.47
685.053	52085.09
685.4	52156.72
685.748	51907.91
686.095	51925.77
686.443	51761.7
686.79	51679.9
687.138	51674.7
687.485	51642.16
687.832	51589.73
688.18	51724.42
688.527	51490.98
688.874	51406.01
689.221	51349.06
689.568	51214.6
689.915	51147.93
690.262	51240.36
690.609	51054.15
690.956	50883.76
691.303	50882.63
691.65	50744.1
691.997	50723.31
692.344	50473.38
692.69	50559.7
693.037	50471.79
693.383	50205.13
693.73	50363.55
694.077	50154.06
694.423	50119.94
694.769	50065.25
695.116	49922.43
695.462	49949.1
695.808	49815.54
696.155	49842.88
696.501	49559.05
696.847	49498.94
697.193	49291.49
697.539	49393.4
697.885	49095.79
698.231	48983.47
698.577	49121.55
698.923	49030.25
699.269	48723.59
699.614	48575.35
699.96	48523.6
700.306	48560.43
700.651	48474.33
700.997	48299.42
701.342	48205.19
701.688	48070.95
702.033	47904.86
702.379	47927.23
702.724	47800.45
703.069	47910.05
703.415	47449.27
703.76	47514.13
704.105	47484.3
704.45	47214.25
704.795	47077.08
705.14	47014.94
705.485	46936.97
705.83	46860.36
706.175	46910.08
706.52	46835.73
706.865	46631.44
707.209	46619.01
707.554	46428.51
707.899	46607.04
708.243	46380.83
708.588	46087.28
708.932	45975.19
709.277	46014.28
709.621	45938.13
709.966	45651.58
710.31	45816.32
710.654	45441.19
710.998	45564.58
711.342	45532.49
711.687	45297.69
712.031	45082.56
712.375	44931.15
712.719	45120.3
713.063	45033.52
713.407	45171.82
713.75	44846.63
714.094	44915.78
714.438	44619.52
714.782	44643.7
715.125	44687.54
715.469	44572.74
715.812	44382.91
716.156	44078.29
716.499	44206.65
716.843	44045.3
717.186	43935.47
717.53	44003.72
717.873	44174.11
718.216	44036.03
718.559	43838.07
718.902	43618.19
719.246	43651.41
719.589	43599.43
719.932	43477.85
720.275	43383.85
720.617	43290.29
720.96	43243.74
721.303	43129.39
721.646	43106.34
721.989	42893.24
722.331	42978.66
722.674	42926.68
723.016	43054.81
723.359	42868.38
723.701	42845.78
724.044	42508.61
724.386	42436.3
724.729	42550.19
725.071	42278.56
725.413	42343.19
725.755	42257.1
726.097	42071.34
726.439	41856.88
726.782	41904.79
727.124	42196.31
727.465	41827.73
727.807	41738.92
728.149	41727.62
728.491	41652.59
728.833	41769.2
729.175	41518.81
729.516	41516.32
729.858	41420.51
730.199	41509.54
730.541	41218.03
730.882	41266.61
731.224	41458.7
731.565	41086.5
731.906	41002.66
732.248	41172.15
732.589	40854.87
732.93	40934.87
733.271	40925.15
733.612	40973.97
733.953	40736.01
734.294	40733.07
734.635	40517.48
734.976	40584.37
735.317	40364.49
735.658	40375.79
735.999	40285.17
736.339	40348.22
736.68	40420.53
737.021	40125.17
737.361	40018.51
737.702	40209.69
738.042	39903.94
738.383	40073.2
738.723	40032.52
739.063	39713.21
739.404	39840.21
739.744	39686.54
740.084	39668.24
740.424	39695.13
740.764	39473.89
741.104	39642.02
741.444	39414.46
741.784	39221.02
742.124	39277.96
742.464	38990.74
742.804	39058.08
743.143	39029.61
743.483	38978.31
743.823	38764.53
744.162	38948.48
744.502	38895.15
744.841	38762.95
745.181	38899.44
745.52	38714.59
745.86	38800.24
746.199	38643.4
746.538	38508.72
746.877	38590.3
747.216	38477.76
747.556	38358.89
747.895	38225.34
748.234	38023.53
748.573	38068.96
748.911	38040.03
749.25	37907.38
749.589	37809.75
749.928	37855.4
750.267	37774.05
750.605	37641.17
750.944	37643.43
751.283	37452.7
751.621	37564.79
751.96	37271.24
752.298	37254.74
752.636	37167.51
