Data from plate_porcelain_FLMS001491_085.txt Node
Date: Tue Feb 07 11:20:02 GMT 2017
User: dcchb
Spectrometer: FLMS00149
Trigger mode: 0
Integration Time (sec): 2.000000E-2
Scans to average: 10
Electric dark correction enabled: true
Nonlinearity correction enabled: false
Boxcar width: 0
XAxis mode: Wavelengths
Number of Pixels in Spectrum: 2048
>>>>>Begin Spectral Data<<<<<
341.393	12.53
341.776	12.53
342.16	12.53
342.543	-61.14
342.927	-60.01
343.31	-74.02
343.693	-66.11
344.077	-62.72
344.46	-64.08
344.843	-53.69
345.226	-42.84
345.61	-33.8
345.993	-26.12
346.376	10.04
346.759	2.13
347.142	15.01
347.525	43.94
347.908	52.53
348.291	92.98
348.674	94.56
349.057	112.19
349.44	118.06
349.823	139.76
350.206	165.74
350.588	226.08
350.971	255.23
351.354	259.08
351.737	281.22
352.119	271.5
352.502	304.5
352.884	313.54
353.267	330.03
353.65	321.22
354.032	339.75
354.414	344.72
354.797	337.04
355.179	386.53
355.562	355.57
355.944	367.77
356.326	391.05
356.709	382.01
357.091	378.62
357.473	387.21
357.855	406.42
358.238	408
358.62	403.7
359.002	390.37
359.384	388.79
359.766	401.9
360.148	408
360.53	389.47
360.912	393.31
361.294	389.69
361.676	405.06
362.057	387.66
362.439	412.07
362.821	375.23
363.203	381.33
363.584	399.64
363.966	379.07
364.348	412.52
364.729	381.33
365.111	396.47
365.493	387.21
365.874	394.66
366.256	389.92
366.637	384.04
367.019	400.99
367.4	408.68
367.781	396.02
368.163	386.3
368.544	406.64
368.925	392.86
369.306	416.13
369.688	377.94
370.069	395.12
370.45	403.25
370.831	406.42
371.212	392.18
371.593	412.07
371.974	389.69
372.355	407.32
372.736	422.01
373.117	400.54
373.498	422.69
373.879	396.25
374.26	422.23
374.641	391.05
375.021	416.59
375.402	415.23
375.783	421.78
376.163	450.71
376.544	452.52
376.925	454.78
377.305	462.23
377.686	450.93
378.066	462.46
378.447	480.76
378.827	469.24
379.208	476.7
379.588	472.85
379.968	485.51
380.349	477.6
380.729	463.82
381.109	503.36
381.489	499.75
381.87	505.62
382.25	490.71
382.63	517.37
383.01	520.99
383.39	519.63
383.77	531.61
384.15	513.31
384.53	531.61
384.91	519.41
385.29	561.21
385.67	558.73
386.049	541.1
386.429	559.41
386.809	563.02
387.189	560.99
387.568	583.13
387.948	563.7
388.328	582
388.707	586.07
389.087	586.52
389.466	598.95
389.846	596.02
390.225	634.21
390.605	604.15
390.984	614.55
391.363	640.31
391.743	628.56
392.122	650.03
392.501	665.17
392.881	665.84
393.26	680.53
393.639	676.47
394.018	683.24
394.397	685.96
394.776	684.15
395.155	710.14
395.534	731.61
395.913	713.75
396.292	701.1
396.671	726.86
397.05	758.5
397.429	748.1
397.808	749.01
398.186	753.75
398.565	754.43
398.944	770.7
399.323	787.2
399.701	780.64
400.08	805.73
400.458	814.54
400.837	828.78
401.215	837.14
401.594	832.62
401.972	854.54
402.351	829.46
402.729	862.22
403.107	850.92
403.486	899.06
403.864	891.15
404.242	892.28
404.62	893.86
404.999	921.2
405.377	904.26
405.755	945.84
406.133	926.4
406.511	987.19
406.889	968.89
407.267	995.1
407.645	1000.07
408.023	1017.25
408.401	1021.09
408.779	1017.47
409.156	1054.08
409.534	1050.92
409.912	1091.37
410.29	1092.73
410.667	1114.87
411.045	1177.02
411.422	1129.79
411.8	1160.97
412.178	1170.92
412.555	1204.14
412.933	1244.36
413.31	1215.89
413.687	1256.11
414.065	1231.93
414.442	1253.4
414.819	1291.36
415.197	1321.42
415.574	1306.96
415.951	1339.72
416.328	1332.27
416.705	1336.56
417.082	1366.39
417.46	1382.21
417.837	1387.41
418.214	1435.09
418.591	1422.89
418.967	1430.57
419.344	1458.59
419.721	1469.21
420.098	1511.7
420.475	1479.83
420.852	1513.73
421.228	1566.16
421.605	1554.86
421.982	1546.95
422.358	1574.29
422.735	1612.94
423.111	1592.15
423.488	1650.9
423.864	1664.24
424.241	1678.47
424.617	1687.06
424.994	1698.59
425.37	1743.56
425.746	1756.89
426.123	1778.58
426.499	1784.23
426.875	1803.22
427.251	1829.2
427.627	1886.83
428.003	1898.35
428.379	1917.34
428.756	1962.76
429.132	1965.7
429.507	2018.12
429.883	2041.4
430.259	2038.46
430.635	2092.02
431.011	2080.5
431.387	2126.82
431.763	2159.59
432.138	2204.33
432.514	2222.64
432.89	2223.54
433.265	2283.65
433.641	2319.81
434.016	2333.14
434.392	2384.44
434.767	2416.08
435.143	2426.25
435.518	2440.94
435.894	2482.07
436.269	2517.09
436.644	2535.4
437.02	2584.66
437.395	2595.06
437.77	2657.43
438.145	2681.84
438.52	2706.69
438.895	2745.34
439.271	2746.69
439.646	2800.93
440.021	2809.06
440.395	2849.97
440.77	2828.27
441.145	2898.1
441.52	2924.77
441.895	2947.14
442.27	2990.3
442.645	2957.54
443.019	2999.12
443.394	3021.71
443.769	3064.65
444.143	3052
444.518	3131.54
444.892	3120.69
445.267	3147.36
445.641	3191.43
446.016	3174.48
446.39	3194.82
446.764	3215.61
447.139	3253.8
447.513	3288.15
447.887	3323.85
448.262	3305.55
448.636	3313.91
449.01	3402.95
449.384	3433.91
449.758	3433.23
450.132	3508.48
450.506	3499.89
450.88	3575.6
451.254	3573.11
451.628	3647.46
452.002	3701.47
452.376	3714.13
452.75	3734.92
453.123	3785.99
453.497	3837.06
453.871	3864.4
454.244	3928.36
454.618	3979.43
454.992	4008.58
455.365	4044.29
455.739	4149.14
456.112	4194.34
456.486	4255.35
456.859	4275.92
457.232	4347.33
457.606	4326.99
457.979	4445.86
458.352	4515.23
458.725	4549.81
459.099	4592.75
459.472	4701.22
459.845	4734.44
460.218	4823.47
460.591	4821.89
460.964	4823.47
461.337	4983.24
461.71	5034.77
462.083	5118.16
462.456	5105.28
462.829	5154.09
463.201	5301.88
463.574	5308.89
463.947	5391.14
464.32	5465.04
464.692	5490.8
465.065	5605.83
465.438	5646.5
465.81	5735.09
466.183	5841.98
466.555	5950.22
466.928	5968.98
467.3	6008.75
467.672	6048.3
468.045	6248.97
468.417	6253.49
468.789	6332.36
469.161	6402.87
469.534	6501.62
469.906	6643.77
470.278	6750.43
470.65	6790.2
471.022	6871.1
471.394	7080.14
471.766	7079.23
472.138	7198.1
472.51	7341.15
472.882	7500.47
473.253	7556.74
473.625	7716.05
473.997	7917.18
474.369	7911.76
474.74	8083.73
475.112	8193.78
475.484	8301.12
475.855	8486.88
476.227	8484.85
476.598	8779.53
476.97	8817.49
477.341	9065.17
477.713	9180.2
478.084	9225.39
478.455	9520.98
478.827	9607.08
479.198	9873.06
479.569	9868.31
479.94	10191.92
480.311	10277.79
480.682	10479.37
481.053	10739.03
481.424	10849.98
481.795	11016.76
482.166	11158.9
482.537	11362.06
482.908	11632.79
483.279	11653.35
483.65	11856.06
484.021	12248.59
484.391	12344.41
484.762	12556.15
485.133	12565.64
485.503	12765.64
485.874	13003.15
486.244	13134.67
486.615	13427.54
486.985	13676.58
487.356	13861.66
487.726	13978.49
488.097	14230.46
488.467	14371.25
488.837	14667.51
489.207	14852.14
489.578	15048.52
489.948	15185.46
490.318	15423.2
490.688	15450.31
491.058	15706.58
491.428	16011.66
491.798	16075.38
492.168	16436.73
492.538	16471.3
492.908	16772.77
493.278	16984.51
493.648	16896.15
494.017	17231.51
494.387	17416.36
494.757	17547.21
495.126	17716.47
495.496	17808.44
495.866	18072.62
496.235	18156.91
496.605	18367.98
496.974	18436.22
497.344	18670.79
497.713	18858.81
498.082	18959.37
498.452	19129.54
498.821	19218.8
499.19	19301.51
499.559	19545.57
499.928	19647.27
500.298	19878.9
500.667	19994.38
501.036	20041.38
501.405	20213.58
501.774	20372.22
502.143	20518.2
502.512	20579.44
502.88	20809.5
503.249	20896.05
503.618	21008.36
503.987	21120
504.356	21302.59
504.724	21417.16
505.093	21467.56
505.462	21578.51
505.83	21804.5
506.199	22008.11
506.567	22280.87
506.936	22274.77
507.304	22520.41
507.672	22756.11
508.041	22829.1
508.409	22950
508.777	23102.09
509.145	23427.05
509.514	23434.96
509.882	23635.41
510.25	23660.72
510.618	23849.87
510.986	23884.22
511.354	24176.41
511.722	24471.09
512.09	24665.44
512.458	24638.1
512.826	24949.95
513.193	25049.16
513.561	25137.97
513.929	25399.88
514.297	25667.45
514.664	25850.94
515.032	25957.83
515.4	26157.15
515.767	26320.31
516.135	26442.79
516.502	26396.69
516.869	26942.22
517.237	27020.18
517.604	26909.9
517.972	27365.48
518.339	27652.48
518.706	27648.86
519.073	27760.72
519.44	28073.26
519.808	28402.52
520.175	28393.48
520.542	28828.27
520.909	28932.22
521.276	29007.02
521.643	29340.57
522.009	29520.68
522.376	29842.25
522.743	29979.42
523.11	30275.01
523.477	30524.04
523.843	30743.7
524.21	31095.1
524.577	31298.94
524.943	31393.85
525.31	31481.76
525.676	31988.41
526.043	32110.44
526.409	32158.58
526.776	32759.24
527.142	32705.23
527.508	32977.08
527.874	33138.21
528.241	33324.65
528.607	33604.64
528.973	33892.77
529.339	33908.36
529.705	34201.23
530.071	34455.92
530.437	34722.58
530.803	34856.58
531.169	35077.82
531.535	35071.27
531.901	35210.7
532.267	35459.51
532.632	35662.89
532.998	35874.86
533.364	36132.48
533.73	36282.08
534.095	36494.05
534.461	36647.27
534.826	36765.69
535.192	36969.3
535.557	37302.85
535.923	37182.4
536.288	37281.38
536.653	37494.71
537.019	37523.63
537.384	37768.6
537.749	37917.52
538.114	37926.11
538.479	38142.82
538.845	38322.03
539.21	38378.07
539.575	38471.4
539.94	38729.02
540.305	38896.25
540.67	38878.85
541.034	39026.87
541.399	39163.59
541.764	39377.82
542.129	39620.07
542.494	39563.58
542.858	39883.57
543.223	39941.65
543.587	40149.55
543.952	40156.11
544.316	40258.48
544.681	40343.44
545.045	40553.83
545.41	40754.96
545.774	40650.33
546.138	40886.26
546.503	41039.7
546.867	40956.99
547.231	41429.74
547.595	41582.51
547.959	41571.89
548.324	41771.2
548.688	41796.97
549.052	41989.28
549.416	42161.25
549.779	42121.25
550.143	42252.1
550.507	42609.83
550.871	42777.96
551.235	42695.47
551.599	43160.09
551.962	43144.05
552.326	43169.36
552.689	43502.46
553.053	43322.12
553.417	43511.27
553.78	44079.17
554.143	43979.96
554.507	44239.61
554.87	44269.67
555.234	44830.11
555.597	44467.86
555.96	44861.29
556.323	44893.83
556.686	45042.98
557.05	45299.7
557.413	45513.25
557.776	45511.22
558.139	45911.66
558.502	45876.86
558.865	45986.01
559.228	46354.81
559.59	46416.96
559.953	46511.64
560.316	46882.93
560.679	46969.26
561.041	47153.44
561.404	47371.51
561.767	47623.03
562.129	47484.95
562.492	47895.34
562.854	47869.12
563.217	47931.72
563.579	48213.29
563.941	48509.78
564.304	48614.64
564.666	48823.22
565.028	48930.56
565.39	49107.51
565.753	49157
566.115	49364.9
566.477	49568.97
566.839	49506.14
567.201	49900.26
567.563	49892.8
567.925	50163.53
568.287	50119.91
568.648	50232.22
569.01	50452.33
569.372	50671.53
569.734	50543.4
570.095	50979.1
570.457	50929.16
570.819	51064.97
571.18	51065.87
571.542	51248.92
571.903	51298.64
572.265	51444.85
572.626	51518.29
572.987	51608.91
573.349	51697.72
573.71	51897.04
574.071	51937.04
574.432	52032.4
574.794	52212.96
575.155	52188.11
575.516	52135.68
575.877	52256.35
576.238	52309.01
576.599	52467.65
576.96	52526.4
577.32	52465.16
577.681	52648.21
578.042	52672.61
578.403	52778.6
578.763	52796.22
579.124	52877.58
579.485	52939.72
579.845	53002.77
580.206	52974.07
580.566	53074.18
580.927	53083.9
581.287	53178.36
581.648	53115.31
582.008	53161.41
582.368	53137.23
582.728	53273.5
583.089	53222.65
583.449	53217.68
583.809	53225.14
584.169	53343.33
584.529	53280.05
584.889	53499.26
585.249	53194.18
585.609	53220.85
585.969	53370.9
586.329	53362.76
586.688	53289.55
587.048	53373.16
587.408	53328.41
587.768	53247.29
588.127	53337.91
588.487	53292.26
588.846	53555.75
589.206	53331.35
589.565	53336.78
589.925	53471.69
590.284	53392.37
590.643	53421.75
591.003	53610.89
591.362	53573.15
591.721	53557.33
592.08	53552.82
592.44	53589.42
592.799	53726.6
593.158	53581.74
593.517	53580.84
593.876	53605.7
594.235	53587.62
594.593	53584.9
594.952	53651.34
595.311	53672.59
595.67	53698.12
596.029	53808.18
596.387	53789.64
596.746	53805.69
597.104	53726.6
597.463	53759.14
597.822	53917.1
598.18	53725.92
598.538	53739.93
598.897	53971.34
599.255	53682.53
599.613	54152.57
599.972	53838.23
600.33	53947.83
600.688	53986.48
601.046	54050.88
601.404	54142.18
601.762	54057.43
602.12	54261.05
602.478	54184.21
602.836	54190.54
603.194	54042.75
603.552	54165.45
603.91	54097.89
604.268	54273.25
604.625	54239.8
604.983	54294.26
605.341	54189.86
605.698	54345.34
606.056	54344.88
606.413	54423.53
606.771	54486.58
607.128	54508.27
607.485	54355.96
607.843	54446.58
608.2	54577.42
608.557	54626.91
608.914	54468.27
609.272	54697.64
609.629	54765.44
609.986	54778.55
610.343	54695.38
610.7	54897.64
611.057	54877.53
611.414	54845.21
611.771	54861.71
612.127	54927.24
612.484	54953.23
612.841	55062.15
613.198	54952.33
613.554	54941.93
613.911	55183.96
614.267	55098.09
614.624	55144.41
614.98	55095.6
615.337	55359.1
615.693	55302.6
616.05	55209.27
616.406	55363.16
616.762	55297.4
617.118	55247.23
617.475	55308.02
617.831	55353.67
618.187	55424.4
618.543	55401.58
618.899	55572.2
619.255	55399.77
619.611	55447.23
619.967	55524.74
620.323	55541.46
620.678	55505.53
621.034	55433.67
621.39	55442.48
621.746	55446.78
622.101	55706.66
622.457	55566.77
622.812	55533.1
623.168	55623.5
623.523	55621.46
623.879	55813.77
624.234	55586.66
624.589	55636.6
624.945	55564.51
625.3	55641.35
625.655	55640.22
626.01	55603.83
626.365	55675.7
626.72	55606.77
627.075	55588.24
627.43	55536.04
627.785	55448.36
628.14	55531.29
628.495	55549.6
628.85	55448.58
629.205	55384.63
629.559	55554.12
629.914	55437.96
630.269	55551.41
630.623	55504.4
630.978	55308.7
631.332	55449.26
631.687	55400.9
632.041	55364.97
632.396	55450.39
632.75	55228.93
633.104	55318.64
633.459	55168.59
633.813	55215.6
634.167	55164.98
634.521	55113.9
634.875	55228.93
635.229	55061.48
635.583	54986.68
635.937	55014.92
636.291	54982.83
636.645	55022.83
636.999	54934.25
637.352	54994.13
637.706	54709.17
638.06	54919.56
638.413	54854.48
638.767	54701.26
639.121	54815.61
639.474	54556.18
639.828	54553.69
640.181	54542.39
640.534	54688.83
640.888	54552.79
641.241	54416.3
641.594	54423.07
641.947	54536.74
642.301	54459.91
642.654	54451.1
643.007	54371.32
643.36	54380.59
643.713	54350.31
644.066	54367.71
644.419	54225.34
644.771	54027.6
645.124	53721.4
645.477	53721.85
645.83	53465.36
646.182	53372.93
646.535	53275.99
646.888	53320.05
647.24	53151.02
647.593	53311.69
647.945	53215.42
648.298	53118.25
648.65	52997.35
649.002	52864.02
649.355	53057.91
649.707	53052.26
650.059	53147.63
650.411	53484.12
650.763	53495.42
651.115	53773.6
651.467	53652.7
651.819	53530.22
652.171	53486.15
652.523	53485.02
652.875	53437.56
653.227	53328.19
653.578	53519.37
653.93	53378.81
654.282	53228.08
654.633	53225.37
654.985	53277.57
655.337	53286.16
655.688	53222.65
656.039	53414.29
656.391	53135.42
656.742	53073.51
657.094	53196.89
657.445	53332.93
657.796	53215.42
658.147	53126.61
658.498	53092.94
658.849	53210.68
659.2	53040.29
659.551	53038.48
659.902	53154.63
660.253	53036.67
660.604	53089.55
660.955	52990.8
661.306	52984.69
661.656	52973.4
662.007	52996.22
662.358	52918.48
662.708	52873.51
663.059	52850.23
663.409	52651.6
663.76	52894.53
664.11	52900.85
664.461	52850.46
664.811	52889.78
665.161	52915.09
665.511	52732.95
665.862	52720.07
666.212	52856.34
666.562	52869.67
666.912	52787.19
667.262	52775.21
667.612	52760.07
667.962	52718.94
668.312	52743.8
668.662	52825.83
669.011	52652.05
669.361	52639.39
669.711	52564.37
670.06	52547.42
670.41	52607.76
670.76	52538.15
671.109	52558.72
671.459	52509.45
671.808	52485.27
672.157	52519.17
672.507	52301.55
672.856	52390.13
673.205	52389.91
673.554	52490.92
673.904	52419.29
674.253	52514.88
674.602	52436.69
674.951	51912.86
675.3	51751.96
675.649	52336.12
675.998	52316.46
676.346	52260.87
676.695	52293.19
677.044	52078.5
677.393	52252.28
677.741	52225.17
678.09	52175.22
678.438	52062.68
678.787	52167.54
679.135	52148.33
679.484	51873.31
679.832	52091.84
680.181	51830.83
680.529	51885.29
680.877	51829.92
681.225	51691.17
681.573	51935
681.922	51681.45
682.27	51542.47
682.618	51561.68
682.966	51525.3
683.314	51478.97
683.661	51443.49
684.009	51305.19
684.357	51224.29
684.705	51335.25
685.053	51286.21
685.4	51236.72
685.748	51070.62
686.095	51013.45
686.443	50937.97
686.79	50782.49
687.138	50843.73
687.485	50843.51
687.832	50757.18
688.18	50715.15
688.527	50608.03
688.874	50559.45
689.221	50421.15
689.568	50213.92
689.915	50167.59
690.262	50275.61
690.609	50119.46
690.956	49958.11
691.303	49834.27
691.65	49814.61
691.997	49708.62
692.344	49568.06
692.69	49503.66
693.037	49624.56
693.383	49276.09
693.73	49422.98
694.077	49150.67
694.423	49199.71
694.769	48967.4
695.116	49008.3
695.462	48949.55
695.808	48848.98
696.155	48809.44
696.501	48508.2
696.847	48551.14
697.193	48330.35
697.539	48409.45
697.885	48174.88
698.231	48079.51
698.577	48227.08
698.923	47944.6
699.269	47731.73
699.614	47482.92
699.96	47438.63
700.306	47476.14
700.651	47304.84
700.997	47229.82
701.342	47214.22
701.688	47221
702.033	46978.07
702.379	46913.44
702.724	46759.77
703.069	46880.67
703.415	46268.03
703.76	46456.05
704.105	46489.72
704.45	46223.29
704.795	45920.47
705.14	45929.29
705.485	45894.03
705.83	45731.1
706.175	45868.72
706.52	45663.08
706.865	45539.24
707.209	45413.59
707.554	45394.16
707.899	45473.25
708.243	45176.09
708.588	45268.29
708.932	44852.25
709.277	44831.91
709.621	44926.6
709.966	44788.98
710.31	44831.46
710.654	44432.83
710.998	44421.76
711.342	44531.13
711.687	44356.22
712.031	44215.66
712.375	43991.94
712.719	44152.84
713.063	43900.41
713.407	43995.1
713.75	43848.21
714.094	43841.43
714.438	43702.9
714.782	43715.79
715.125	43486.64
715.469	43665.17
715.812	43300.66
716.156	42979.76
716.499	43106.08
716.843	43072.41
717.186	42724.17
717.53	42977.27
717.873	43034.67
718.216	42855.92
718.559	42781.8
718.902	42613.22
719.246	42593.78
719.589	42520.34
719.932	42382.04
720.275	42183.17
720.617	42177.52
720.96	42192.66
721.303	42222.49
721.646	42078.09
721.989	41857.98
722.331	42018.2
722.674	41872.67
723.016	41938.43
723.359	41791.09
723.701	41712.9
724.044	41499.8
724.386	41388.16
724.729	41576.86
725.071	41329.86
725.413	41289.41
725.755	41217.09
726.097	41094.16
726.439	40952.69
726.782	40975.07
727.124	41135.74
727.465	40864.56
727.807	40825.24
728.149	40742.53
728.491	40608.97
728.833	40577.79
729.175	40603.1
729.516	40415.76
729.858	40450.33
730.199	40494.4
730.541	40429.54
730.882	40198.36
731.224	40386.38
731.565	39975.54
731.906	40073.62
732.248	40094.19
732.589	39917.47
732.93	39751.82
733.271	39619.62
733.612	39858.03
733.953	39834.76
734.294	39560.19
734.635	39513.86
734.976	39690.58
735.317	39496.46
735.658	39429.34
735.999	39283.13
736.339	39209.01
736.68	39357.71
737.021	39181.89
737.361	38946.19
737.702	39213.98
738.042	39143.02
738.383	38926.53
738.723	39060.09
739.063	38736.26
739.404	38872.98
739.744	38760.21
740.084	38604.28
740.424	38682.7
740.764	38681.34
741.104	38661.68
741.444	38326.32
741.784	38243.16
742.124	38221.47
742.464	38286.78
742.804	38193.22
743.143	38114.58
743.483	38115.71
743.823	37948.71
744.162	38063.28
744.502	38035.48
744.841	37795.26
745.181	37978.08
745.52	37738.09
745.86	37686.34
746.199	37660.13
746.538	37682.5
746.877	37708.03
747.216	37530.41
747.556	37273.92
747.895	37367.48
748.234	37134.94
748.573	37220.14
748.911	37145.79
749.25	37068.95
749.589	37010.43
749.928	36973.59
750.267	36865.57
750.605	36733.6
750.944	36791.45
751.283	36581.06
751.621	36588.52
751.96	36417.67
752.298	36400.05
752.636	36356.21
752.975	36209.99
753.313	36091.13
