Data from plate_porcelain_FLMS001491_060.txt Node
Date: Tue Feb 07 11:19:33 GMT 2017
User: dcchb
Spectrometer: FLMS00149
Trigger mode: 0
Integration Time (sec): 2.000000E-2
Scans to average: 10
Electric dark correction enabled: true
Nonlinearity correction enabled: false
Boxcar width: 0
XAxis mode: Wavelengths
Number of Pixels in Spectrum: 2048
>>>>>Begin Spectral Data<<<<<
341.393	-7.92
341.776	-7.92
342.16	-7.92
342.543	-48.6
342.927	-67.36
343.31	-59.9
343.693	-87.47
344.077	-63.97
344.46	-59.67
344.843	-64.87
345.226	-40.24
345.61	-25.78
345.993	-26.68
346.376	-1.14
346.759	19.19
347.142	26.65
347.525	51.28
347.908	60.32
348.291	64.84
348.674	100.77
349.057	106.65
349.44	121.34
349.823	140.55
350.206	167.44
350.588	229.36
350.971	247.89
351.354	246.99
351.737	263.48
352.119	272.75
352.502	282.01
352.884	315.46
353.267	312.97
353.65	346.64
354.032	355.46
354.414	363.37
354.797	334.44
355.179	342.58
355.562	374.89
355.944	364.04
356.326	361.78
356.709	375.57
357.091	385.96
357.473	390.48
357.855	384.83
358.238	374.44
358.62	390.48
359.002	370.82
359.384	387.32
359.766	406.53
360.148	393.65
360.53	396.59
360.912	403.59
361.294	354.1
361.676	400.2
362.057	397.04
362.439	386.87
362.821	375.12
363.203	379.41
363.584	398.17
363.966	399.07
364.348	382.35
364.729	372.86
365.111	391.39
365.493	393.65
365.874	387.32
366.256	405.4
366.637	399.07
367.019	377.15
367.4	398.39
367.781	404.04
368.163	369.24
368.544	392.29
368.925	395.91
369.306	386.87
369.688	390.94
370.069	395.23
370.45	413.08
370.831	388.68
371.212	395.46
371.593	400.2
371.974	417.38
372.355	443.59
372.736	432.52
373.117	421.44
373.498	416.02
373.879	419.64
374.26	399.3
374.641	430.93
375.021	413.31
375.402	422.12
375.783	458.28
376.163	469.35
376.544	489.46
376.925	456.92
377.305	442.23
377.686	449.92
378.066	465.74
378.447	460.09
378.827	493.31
379.208	462.12
379.588	475.45
379.968	494.44
380.349	499.86
380.729	508.45
381.109	500.31
381.489	505.51
381.87	473.42
382.25	496.24
382.63	516.36
383.01	538.95
383.39	524.94
383.77	557.26
384.15	531.95
384.53	532.63
384.91	538.95
385.29	557.49
385.67	562.46
386.049	559.97
386.429	550.48
386.809	555.45
387.189	585.51
387.568	595
387.948	605.85
388.328	606.52
388.707	610.59
389.087	595.45
389.466	619.86
389.846	622.34
390.225	627.77
390.605	635.68
390.984	648.33
391.363	672.28
391.743	659.86
392.122	649.91
392.501	687.88
392.881	708.44
393.26	688.78
393.639	691.95
394.018	705.73
394.397	706.41
394.776	720.87
395.155	721.32
395.534	729.46
395.913	720.42
396.292	743.02
396.671	762.9
397.05	754.32
397.429	780.76
397.808	752.06
398.186	771.72
398.565	782.79
398.944	790.7
399.323	796.8
399.701	852.84
400.08	820.3
400.458	798.61
400.837	861.43
401.215	871.83
401.594	852.17
401.972	863.01
402.351	890.58
402.729	881.09
403.107	901.43
403.486	921.09
403.864	927.65
404.242	922.22
404.62	933.97
404.999	927.65
405.377	971.03
405.755	959.51
406.133	959.28
406.511	1001.09
406.889	981.2
407.267	1039.51
407.645	1041.77
408.023	1061.43
408.401	1050.35
408.779	1057.36
409.156	1092.16
409.534	1103.01
409.912	1127.19
410.29	1125.38
410.667	1151.14
411.045	1164.93
411.422	1199.73
411.8	1182.78
412.178	1206.96
412.555	1248.09
412.933	1230.69
413.31	1289.22
413.687	1263.46
414.065	1294.42
414.442	1347.52
414.819	1326.96
415.197	1352.94
415.574	1357.24
415.951	1361.08
416.328	1395.2
416.705	1414.41
417.082	1430
417.46	1448.31
417.837	1446.73
418.214	1459.38
418.591	1491.92
418.967	1537.57
419.344	1544.8
419.721	1532.15
420.098	1521.53
420.475	1578.48
420.852	1572.6
421.228	1600.62
421.605	1623.22
421.982	1647.17
422.358	1642.65
422.735	1675.65
423.111	1702.54
423.488	1691.69
423.864	1710.22
424.241	1740.05
424.617	1779.83
424.994	1794.74
425.37	1822.76
425.746	1813.27
426.123	1838.58
426.499	1863.21
426.875	1893.27
427.251	1927.39
427.627	1982.53
428.003	1969.43
428.379	2004.45
428.756	2018.46
429.132	2090.78
429.507	2109.53
429.883	2132.59
430.259	2181.4
430.635	2166.93
431.011	2241.96
431.387	2239.02
431.763	2262.53
432.138	2309.53
432.514	2316.08
432.89	2307.5
433.265	2420.04
433.641	2439.02
434.016	2446.25
434.392	2482.41
434.767	2555.85
435.143	2537.55
435.518	2581.61
435.894	2635.17
436.269	2613.25
436.644	2705
437.02	2761.04
437.395	2735.28
437.77	2800.36
438.145	2798.56
438.52	2874.03
438.895	2886.46
439.271	2883.75
439.646	2928.27
440.021	2963.98
440.395	2996.97
440.77	2977.08
441.145	2998.33
441.52	3092.79
441.895	3071.32
442.27	3098.89
442.645	3130.98
443.019	3146.57
443.394	3151.77
443.769	3205.78
444.143	3163.29
444.518	3241.93
444.892	3246.23
445.267	3269.5
445.641	3308.15
446.016	3352.89
446.39	3381.82
446.764	3387.24
447.139	3410.07
447.513	3418.2
447.887	3503.85
448.262	3507.24
448.636	3476.96
449.01	3584.3
449.384	3585.65
449.758	3572.1
450.132	3632.43
450.506	3669.49
450.88	3679.89
451.254	3736.84
451.628	3821.13
452.002	3861.58
452.376	3876.72
452.75	3895.48
453.123	3966.89
453.497	4006.89
453.871	4042.37
454.244	4132.08
454.618	4149.48
454.992	4248.24
455.365	4220.89
455.739	4313.54
456.112	4365.29
456.486	4426.31
456.859	4430.38
457.232	4545.18
457.606	4542.69
457.979	4607.77
458.352	4749.69
458.725	4820.2
459.099	4790.82
459.472	4937.94
459.845	4970.7
460.218	5000.31
460.591	5022.68
460.964	5051.6
461.337	5222.67
461.71	5314.42
462.083	5336.12
462.456	5400.97
462.829	5417.24
463.201	5458.37
463.574	5528.88
463.947	5628.99
464.32	5755.54
464.692	5781.53
465.065	5843
465.438	5898.81
465.81	6030.56
466.183	6107.4
466.555	6193.72
466.928	6264
467.3	6262.19
467.672	6389.87
468.045	6532.02
468.417	6558.46
468.789	6582.41
469.161	6710.09
469.534	6756.64
469.906	6992.34
470.278	7024.43
470.65	7145.11
471.022	7253.58
471.394	7399.57
471.766	7482.95
472.138	7539.67
472.51	7676.17
472.882	7829.61
473.253	7913
473.625	8108.93
473.997	8250.39
474.369	8316.38
474.74	8396.6
475.112	8589.59
475.484	8703.03
475.855	8866.42
476.227	8918.85
476.598	9127.43
476.97	9292.62
477.341	9439.51
477.713	9523.35
478.084	9664.59
478.455	9949.55
478.827	10036.78
479.198	10374.63
479.569	10398.58
479.94	10608.97
480.311	10747.5
480.682	11012.8
481.053	11232.01
481.424	11417.31
481.795	11557.65
482.166	11797.42
482.537	11903.4
482.908	12207.57
483.279	12262.26
483.65	12472.43
484.021	12833.09
484.391	12936.59
484.762	12910.61
485.133	13177.72
485.503	13377.49
485.874	13627.42
486.244	13820.41
486.615	14044.36
486.985	14164.81
487.356	14472.15
487.726	14691.58
488.097	14932.7
488.467	15057.9
488.837	15334.05
489.207	15499.24
489.578	15732.23
489.948	15909.62
490.318	16134.93
490.688	16166.34
491.058	16449.5
491.428	16668.02
491.798	16819.2
492.168	17236.37
492.538	17263.03
492.908	17537.15
493.278	17762.23
493.648	17726.53
494.017	17985.28
494.387	18215.78
494.757	18336.68
495.126	18568.31
495.496	18658.25
495.866	18756.78
496.235	19038.81
496.605	19172.14
496.974	19260.04
497.344	19547.49
497.713	19702.29
498.082	19776.19
498.452	20024.32
498.821	20079.46
499.19	20150.87
499.559	20375.5
499.928	20476.74
500.298	20692.1
500.667	20932.32
501.036	20858.65
501.405	21026.33
501.774	21315.13
502.143	21443.94
502.512	21501.79
502.88	21648
503.249	21762.8
503.618	22024.94
503.987	22199.18
504.356	22296.57
504.724	22377.93
505.093	22529.56
505.462	22564.36
505.83	22740.4
506.199	23027.4
506.567	23234.86
506.936	23251.35
507.304	23562.08
507.672	23692.7
508.041	23770.43
508.409	23973.14
508.777	24274.83
509.145	24378.33
509.514	24367.71
509.882	24611.99
510.25	24588.94
510.618	24992.55
510.986	25019.89
511.354	25249.94
511.722	25493.1
512.09	25789.59
512.458	25820.1
512.826	25996.36
513.193	26115.23
513.561	26318.39
513.929	26550.02
514.297	26834.08
514.664	26965.15
515.032	27118.37
515.4	27392.94
515.767	27576.44
516.135	27695.08
516.502	27553.16
516.869	27984.11
517.237	28224.55
517.604	28210.54
517.972	28536.41
518.339	28756.52
518.706	28803.3
519.073	28994.93
519.44	29279.22
519.808	29609.15
520.175	29589.49
520.542	30085.52
520.909	30075.13
521.276	30236.93
521.643	30657.71
522.009	30902.9
522.376	30914.88
522.743	31395.09
523.11	31623.56
523.477	31906.04
523.843	32155.07
524.21	32487.04
524.577	32621.05
524.943	32715.74
525.31	32947.37
525.676	33259.68
526.043	33489.95
526.409	33796.39
526.776	34104.85
527.142	34183.95
527.508	34422.58
527.874	34645.63
528.241	34881.33
528.607	34878.84
528.973	35337.59
529.339	35381.2
529.705	35794.07
530.071	36026.16
530.437	36117.23
530.803	36376.43
531.169	36590.21
531.535	36646.48
531.901	36758.34
532.267	36899.81
532.632	37226.35
532.998	37422.73
533.364	37602.16
533.73	37789.95
534.095	38154.69
534.461	38171.19
534.826	38484.62
535.192	38628.57
535.557	38902.01
535.923	38838.29
536.288	38979.98
536.653	39279.41
537.019	39233.08
537.384	39392.62
537.749	39566.63
538.114	39578.61
538.479	39843.01
538.845	39967.3
539.21	40061.53
539.575	40226.05
539.94	40502.2
540.305	40644.57
540.67	40745.36
541.034	40720.5
541.399	41040.94
541.764	41026.48
542.129	41299.24
542.494	41342.4
542.858	41489.74
543.223	41633.24
543.587	41793.01
543.952	41945.1
544.316	41944.19
544.681	42086.34
545.045	42265.99
545.41	42437.51
545.774	42580.11
546.138	42660.56
546.503	42769.93
546.867	42870.27
547.231	43220.09
547.595	43167.66
547.959	43247.21
548.324	43339.64
548.688	43467.54
549.052	43641.55
549.416	43761.77
549.779	43838.16
550.143	44081.99
550.507	44394.98
550.871	44553.16
551.235	44551.36
551.599	44860.05
551.962	44900.5
552.326	44921.06
552.689	45215.75
553.053	45337.78
553.417	45384.56
553.78	45893.92
554.143	45738.67
554.507	45982.05
554.87	46084.88
555.234	46537.75
555.597	46359.22
555.96	46424.3
556.323	46772.99
556.686	46797.85
557.05	47059.09
557.413	47218.41
557.776	47195.81
558.139	47510.15
558.502	47537.04
558.865	47651.84
559.228	48076.01
559.59	48046.41
559.953	48181.77
560.316	48530.01
560.679	48619.05
561.041	48850.23
561.404	49009.77
561.767	49107.4
562.129	49137.45
562.492	49498.12
562.854	49544.9
563.217	49726.36
563.579	49821.5
563.941	50073.92
564.304	50217.42
564.666	50484.53
565.028	50516.62
565.39	50663.06
565.753	50832.55
566.115	50944.86
566.477	51098.08
566.839	51122.48
567.201	51368.35
567.563	51265.76
567.925	51641.11
568.287	51696.25
568.648	51769.25
569.01	51797.27
569.372	52075.9
569.734	52067.32
570.095	52274.77
570.457	52375.56
570.819	52329.68
571.18	52490.13
571.542	52701.88
571.903	52756.11
572.265	52898.03
572.626	52827.3
572.987	53084.69
573.349	53017.57
573.71	53257.57
574.071	53219.38
574.432	53360.84
574.794	53514.96
575.155	53633.15
575.516	53482.65
575.877	53609.88
576.238	53735.07
576.599	53824.79
576.96	53851.23
577.32	53881.28
577.681	54010.77
578.042	54062.75
578.403	54151.56
578.763	54204.66
579.124	54191.1
579.485	54235.62
579.845	54368.73
580.206	54324.43
580.566	54276.52
580.927	54333.25
581.287	54421.15
581.648	54382.51
582.008	54524.43
582.368	54449.18
582.728	54515.61
583.089	54442.85
583.449	54451.89
583.809	54487.37
584.169	54552.22
584.529	54519.91
584.889	54707.02
585.249	54473.58
585.609	54483.53
585.969	54622.5
586.329	54539.79
586.688	54596.29
587.048	54606.69
587.408	54553.35
587.768	54591.77
588.127	54624.31
588.487	54610.53
588.846	54791.77
589.206	54559.23
589.565	54629.51
589.925	54791.99
590.284	54641.49
590.643	54741.6
591.003	54760.58
591.362	54809.62
591.721	54711.77
592.08	54753.12
592.44	54948.6
592.799	54810.07
593.158	54781.6
593.517	54830.18
593.876	54773.01
594.235	54740.69
594.593	54849.17
594.952	54976.39
595.311	54871.99
595.67	54862.95
596.029	55012.1
596.387	55081.93
596.746	55054.36
597.104	54954.25
597.463	55008.93
597.822	55163.28
598.18	54951.99
598.538	55007.58
598.897	55136.16
599.255	54920.35
599.613	55242.6
599.972	55081.48
600.33	55213.9
600.688	55220.68
601.046	55189.27
601.404	55404.86
601.762	55219.1
602.12	55417.74
602.478	55419.77
602.836	55448.7
603.194	55296.61
603.552	55337.74
603.91	55240.79
604.268	55366.21
604.625	55364.86
604.983	55578.86
605.341	55371.64
605.698	55526.89
606.056	55592.42
606.413	55527.79
606.771	55675.58
607.128	55674.68
607.485	55546.77
607.843	55591.07
608.2	55769.37
608.557	55819.54
608.914	55721.01
609.272	55850.72
609.629	55901.34
609.986	55967.33
610.343	55868.57
610.7	56092.3
611.057	56003.26
611.414	55999.87
611.771	56049.36
612.127	56104.5
612.484	56038.96
612.841	56212.52
613.198	56117.61
613.554	56128.23
613.911	56276.25
614.267	56167.1
614.624	56229.24
614.98	56335.91
615.337	56442.12
615.693	56448.45
616.05	56356.47
616.406	56478.5
616.762	56398.95
617.118	56452.51
617.475	56433.98
617.831	56538.39
618.187	56470.82
618.543	56528.67
618.899	56633.53
619.255	56629.46
619.611	56617.03
619.967	56631.49
620.323	56674.2
620.678	56558.72
621.034	56591.72
621.39	56595.56
621.746	56498.61
622.101	56863.58
622.457	56586.52
622.812	56709.68
623.168	56733.41
623.523	56787.87
623.879	56784.48
624.234	56611.83
624.589	56710.36
624.945	56706.74
625.3	56736.57
625.655	56751.49
626.01	56731.15
626.365	56882.11
626.72	56699.96
627.075	56683.47
627.43	56717.59
627.785	56562.11
628.14	56628.78
628.495	56681.21
628.85	56571.83
629.205	56538.84
629.559	56709.68
629.914	56526.86
630.269	56556.46
630.623	56534.77
630.978	56328.67
631.332	56512.4
631.687	56506.07
632.041	56405.06
632.396	56476.24
632.75	56345.85
633.104	56485.51
633.459	56316.47
633.813	56263.59
634.167	56279.41
634.521	56273.08
634.875	56298.62
635.229	56212.07
635.583	56123.93
635.937	56062.01
636.291	56153.99
636.645	56102.92
636.999	56063.37
637.352	56037.61
637.706	55889.59
638.06	55972.53
638.413	55870.38
638.767	55899.08
639.121	55856.6
639.474	55635.13
639.828	55777.28
640.181	55783.15
640.534	55751.74
640.888	55651.18
641.241	55588.58
641.594	55528.7
641.947	55618.18
642.301	55577.96
642.654	55562.37
643.007	55575.7
643.36	55445.53
643.713	55448.02
644.066	55602.14
644.419	55311.07
644.771	55192.88
645.124	54888.03
645.477	54864.76
645.83	54719.68
646.182	54560.13
646.535	54436.29
646.888	54469.51
647.24	54301.83
647.593	54507.03
647.945	54443.3
648.298	54329.63
648.65	54183.19
649.002	54111.56
649.355	54261.61
649.707	54183.19
650.059	54322.63
650.411	54627.7
650.763	54707.02
651.115	54850.3
651.467	54748.15
651.819	54691.88
652.171	54685.55
652.523	54668.38
652.875	54652.33
653.227	54481.72
653.578	54687.14
653.93	54555.39
654.282	54416.86
654.633	54441.04
654.985	54437.88
655.337	54459.12
655.688	54367.6
656.039	54523.75
656.391	54200.14
656.742	54343.64
657.094	54314.49
657.445	54410.08
657.796	54369.4
658.147	54283.08
658.498	54131.22
658.849	54320.37
659.2	54174.83
659.551	54144.55
659.902	54330.31
660.253	54129.18
660.604	54270.65
660.955	54057.55
661.306	54176.19
661.656	54141.39
662.007	54145.91
662.358	54095.29
662.708	54105.91
663.059	53989.07
663.409	53865.24
663.76	53951.79
664.11	53953.6
664.461	53997.89
664.811	54011.45
665.161	53928.06
665.511	53876.76
665.862	53934.84
666.212	54001.05
666.562	54042.41
666.912	53914.5
667.262	53893.71
667.612	53853.71
667.962	53987.49
668.312	53946.82
668.662	54021.16
669.011	53840.15
669.361	53810.32
669.711	53719.25
670.06	53748.86
670.41	53661.85
670.76	53746.14
671.109	53643.1
671.459	53728.97
671.808	53656.88
672.157	53745.92
672.507	53517
672.856	53592.25
673.205	53602.42
673.554	53699.36
673.904	53559.71
674.253	53651
674.602	53527.39
674.951	53194.52
675.3	53002.43
675.649	53553.83
675.998	53407.85
676.346	53430.9
676.695	53493.95
677.044	53280.17
677.393	53315.87
677.741	53460.05
678.09	53328.75
678.438	53274.97
678.787	53318.13
679.135	53346.38
679.484	53155.65
679.832	53270.45
680.181	53126.05
680.529	53105.71
680.877	52979.84
681.225	52952.27
681.573	53130.11
681.922	52971.7
682.27	52864.58
682.618	52870.69
682.966	52784.36
683.314	52783.23
683.661	52693.97
684.009	52509.57
684.357	52426.18
684.705	52351.6
685.053	52539.62
685.4	52416.46
685.748	52157.26
686.095	52231.38
686.443	52098.73
686.79	52022.35
687.138	52086.98
687.485	52040.2
687.832	52054.66
688.18	52098.95
688.527	51827.1
688.874	51879.75
689.221	51737.61
689.568	51626.43
689.915	51523.38
690.262	51413.55
690.609	51355.92
690.956	51296.49
691.303	51254.46
691.65	51001.81
691.997	50985.99
692.344	50778.76
692.69	50796.84
693.037	50849.72
693.383	50533.12
693.73	50790.29
694.077	50511.43
694.423	50429.85
694.769	50418.55
695.116	50279.34
695.462	50233.24
695.808	50160.47
696.155	50203.86
696.501	49931.1
696.847	49913.7
697.193	49618.79
697.539	49798.45
697.885	49527.95
698.231	49532.69
698.577	49619.7
698.923	49450.66
699.269	49155.76
699.614	48922.77
699.96	48930.22
700.306	49001.18
700.651	48805.93
700.997	48753.05
701.342	48671.25
701.688	48589.89
702.033	48252.28
702.379	48318.26
702.724	48211.15
703.069	48244.37
703.415	47884.15
703.76	47890.48
704.105	47789.01
704.45	47637.38
704.795	47437.83
705.14	47329.81
705.485	47336.59
705.83	47225.86
706.175	47270.16
706.52	47140.67
706.865	46932.31
707.209	47019.09
707.554	46825.87
707.899	46914.68
708.243	46689.38
708.588	46697.74
708.932	46408.94
709.277	46323.06
709.621	46469.95
709.966	46220.47
710.31	46240.35
710.654	45928.72
710.998	45963.52
711.342	45993.35
711.687	45836.07
712.031	45620.26
712.375	45541.84
712.719	45510.43
713.063	45541.84
713.407	45505
713.75	45276.31
714.094	45301.85
714.438	45055.07
714.782	45078.57
715.125	44895.08
715.469	44809.88
715.812	44773.95
716.156	44486.05
716.499	44561.75
716.843	44537.12
717.186	44401.76
717.53	44487.18
717.873	44478.14
718.216	44340.51
718.559	44165.6
718.902	44035.44
719.246	44079.05
719.589	43876.35
719.932	43893.3
720.275	43738.04
720.617	43620.99
720.96	43728.1
721.303	43651.95
721.646	43618.05
721.989	43412.18
722.331	43496.7
722.674	43318.85
723.016	43432.52
723.359	43134.44
723.701	43278.17
724.044	43024.62
724.386	42809.03
724.729	43034.33
725.071	42779.65
725.413	42782.59
725.755	42649.71
726.097	42532.65
726.439	42205.43
726.782	42388.02
727.124	42395.03
727.465	42280.46
727.807	42309.38
728.149	42244.07
728.491	42124.08
728.833	42042.27
729.175	41842.95
729.516	41901.48
729.858	41818.55
730.199	41801.6
730.541	41743.3
730.882	41558.67
731.224	41564.32
731.565	41433.92
731.906	41535.39
732.248	41514.37
732.589	41362.74
732.93	41195.74
733.271	41193.25
733.612	41280.26
733.953	41334.72
734.294	40957.78
734.635	40936.31
734.976	41029.64
735.317	40772.02
735.658	40627.39
735.999	40801.4
736.339	40785.58
736.68	40793.49
737.021	40474.85
737.361	40282.99
737.702	40649.31
738.042	40419.04
738.383	40389.66
738.723	40347.63
739.063	40170.68
739.404	40308.98
739.744	40114.64
740.084	40032.38
740.424	40103.34
740.764	39895.43
741.104	40004.36
741.444	39742.67
741.784	39600.98
742.124	39685.95
742.464	39525.95
742.804	39597.81
743.143	39408.22
743.483	39496.12
743.823	39268.78
744.162	39269.01
744.502	39222.01
744.841	39072.63
745.181	39282.34
745.52	39017.27
745.86	39078.51
746.199	39008.23
746.538	38867.66
746.877	38970.71
747.216	38814.78
747.556	38586.77
747.895	38645.07
748.234	38328.7
748.573	38485.53
748.911	38346.77
749.25	38384.51
749.589	38154.01
749.928	38208.7
750.267	38148.81
750.605	37978.2
750.944	38000.12
751.283	37816.17
751.621	37805.32
751.96	37771.65
752.298	37650.75
752.636	37709.28
