Data from plate_porcelain_FLMS001491_059.txt Node
Date: Tue Feb 07 11:19:33 GMT 2017
User: dcchb
Spectrometer: FLMS00149
Trigger mode: 0
Integration Time (sec): 2.000000E-2
Scans to average: 10
Electric dark correction enabled: true
Nonlinearity correction enabled: false
Boxcar width: 0
XAxis mode: Wavelengths
Number of Pixels in Spectrum: 2048
>>>>>Begin Spectral Data<<<<<
341.393	0.79
341.776	0.79
342.16	0.79
342.543	-63.61
342.927	-74.46
343.31	-89.15
343.693	-58.19
344.077	-70.17
344.46	-71.75
344.843	-17.51
345.226	-51.41
345.61	-39.66
345.993	-18.19
346.376	6.21
346.759	11.86
347.142	13.67
347.525	43.5
347.908	50.96
348.291	75.14
348.674	102.03
349.057	112.65
349.44	132.09
349.823	138.19
350.206	160.56
350.588	236.04
350.971	245.08
351.354	253.89
351.737	266.32
352.119	287.34
352.502	313.78
352.884	310.16
353.267	310.84
353.65	318.3
354.032	324.4
354.414	350.39
354.797	369.82
355.179	350.16
355.562	367.11
355.944	378.41
356.326	387.45
356.709	381.8
357.091	390.61
357.473	396.94
357.855	412.08
358.238	386.32
358.62	389.93
359.002	402.59
359.384	397.84
359.766	403.72
360.148	399.88
360.53	394.23
360.912	381.57
361.294	399.88
361.676	389.03
362.057	409.37
362.439	395.13
362.821	390.16
363.203	386.77
363.584	407.11
363.966	367.79
364.348	403.49
364.729	403.72
365.111	400.55
365.493	384.96
365.874	382.7
366.256	397.62
366.637	368.46
367.019	378.41
367.4	378.63
367.781	400.1
368.163	397.84
368.544	401.23
368.925	388.58
369.306	417.5
369.688	396.26
370.069	400.55
370.45	417.73
370.831	401.01
371.212	433.55
371.593	421.57
371.974	406.88
372.355	414.57
372.736	411.63
373.117	414.57
373.498	413.66
373.879	423.38
374.26	407.79
374.641	423.15
375.021	421.8
375.402	439.42
375.783	436.49
376.163	487.11
376.544	459.08
376.925	476.26
377.305	464.73
377.686	474.68
378.066	442.36
378.447	465.19
378.827	488.69
379.208	479.2
379.588	482.13
379.968	487.33
380.349	470.84
380.729	471.29
381.109	513.32
381.489	521.46
381.87	522.81
382.25	513.77
382.63	531.4
383.01	515.58
383.39	520.78
383.77	519.65
384.15	526.2
384.53	551.96
384.91	513.09
385.29	564.39
385.67	564.62
386.049	562.36
386.429	552.19
386.809	574.79
387.189	561.23
387.568	604.39
387.948	593.09
388.328	598.74
388.707	612.07
389.087	606.42
389.466	621.11
389.846	638.06
390.225	647.1
390.605	618.63
390.984	638.97
391.363	663.37
391.743	659.08
392.122	666.08
392.501	689.81
392.881	661.11
393.26	673.99
393.639	686.65
394.018	703.15
394.397	728.46
394.776	716.25
395.155	736.36
395.534	762.13
395.913	735.01
396.292	755.8
396.671	745.63
397.05	746.99
397.429	775.69
397.808	786.08
398.186	780.66
398.565	782.24
398.944	790.6
399.323	817.49
399.701	784.95
400.08	814.55
400.458	838.74
400.837	845.29
401.215	831.73
401.594	857.94
401.972	855.01
402.351	880.32
402.729	896.36
403.107	908.11
403.486	918.51
403.864	908.11
404.242	948.79
404.62	945.85
404.999	943.37
405.377	941.56
405.755	969.35
406.133	998.5
406.511	1005.74
406.889	1017.49
407.267	1015.45
407.645	1018.84
408.023	1085.96
408.401	1085.51
408.779	1078.28
409.156	1089.8
409.534	1119.41
409.912	1116.02
410.29	1132.74
410.667	1157.6
411.045	1190.36
411.422	1190.59
411.8	1200.99
412.178	1232.85
412.555	1262.23
412.933	1240.76
413.31	1283.92
413.687	1307.42
414.065	1306.52
414.442	1318.72
414.819	1342.68
415.197	1363.24
415.574	1370.92
415.951	1389.23
416.328	1398.49
416.705	1419.51
417.082	1422.45
417.46	1425.16
417.837	1464.26
418.214	1459.51
418.591	1480.98
418.967	1514.2
419.344	1523.69
419.721	1554.65
420.098	1547.87
420.475	1586.74
420.852	1574.31
421.228	1618.83
421.605	1618.83
421.982	1633.74
422.358	1669.67
422.735	1678.49
423.111	1716.9
423.488	1694.98
423.864	1701.31
424.241	1763.91
424.617	1784.25
424.994	1769.11
425.37	1811.59
425.746	1838.93
426.123	1844.81
426.499	1881.42
426.875	1883.45
427.251	1938.14
427.627	2001.64
428.003	1997.57
428.379	2036.22
428.756	2035.77
429.132	2052.49
429.507	2109.21
429.883	2129.55
430.259	2145.59
430.635	2178.13
431.011	2184.24
431.387	2235.31
431.763	2295.42
432.138	2295.65
432.514	2359.15
432.89	2335.87
433.265	2405.7
433.641	2424
434.016	2467.62
434.392	2483.66
434.767	2568.63
435.143	2558.69
435.518	2579.48
435.894	2609.99
436.269	2644.11
436.644	2694.96
437.02	2744
437.395	2750.32
437.77	2747.16
438.145	2814.95
438.52	2837.33
438.895	2878.68
439.271	2896.53
439.646	2970.88
440.021	3001.62
440.395	2994.84
440.77	3009.98
441.145	2982.18
441.52	3070.77
441.895	3092.01
442.27	3105.12
442.645	3125.45
443.019	3146.92
443.394	3143.99
443.769	3184.44
444.143	3166.13
444.518	3264.89
444.892	3238.45
445.267	3269.18
445.641	3326.81
446.016	3297.2
446.39	3386.01
446.764	3382.17
447.139	3421.72
447.513	3446.8
447.887	3430.08
448.262	3469.17
448.636	3524.54
449.01	3574.71
449.384	3583.07
449.758	3621.03
450.132	3635.72
450.506	3659.45
450.88	3743.52
451.254	3720.24
451.628	3804.98
452.002	3871.2
452.376	3850.41
452.75	3897.41
453.123	3971.99
453.497	4022.38
453.871	4084.75
454.244	4147.57
454.618	4149.16
454.992	4209.72
455.365	4212.88
455.739	4334.46
456.112	4409.71
456.486	4433.67
456.859	4505.98
457.232	4522.71
457.606	4546.21
457.979	4605.19
458.352	4719.31
458.725	4743.27
459.099	4810.61
459.472	4887.44
459.845	4958.85
460.218	4958.17
460.591	5077.72
460.964	5060.32
461.337	5181.67
461.71	5261.44
462.083	5350.48
462.456	5387.99
462.829	5407.43
463.201	5511.83
463.574	5565.16
463.947	5597.93
464.32	5741.88
464.692	5805.61
465.065	5807.42
465.438	5915.66
465.81	5994.31
466.183	6086.28
466.555	6222.55
466.928	6264.58
467.3	6286.05
467.672	6379.83
468.045	6575.08
468.417	6582.99
468.789	6623.89
469.161	6667.96
469.534	6805.36
469.906	6913.83
470.278	7026.14
470.65	7138.46
471.022	7284.67
471.394	7385
471.766	7463.65
472.138	7556.98
472.51	7722.17
472.882	7865.44
473.253	7956.97
473.625	8080.35
473.997	8275.15
474.369	8340.46
474.74	8354.47
475.112	8500.91
475.484	8723.27
475.855	8858.41
476.227	8932.99
476.598	9170.72
476.97	9296.82
477.341	9474.21
477.713	9652.06
478.084	9663.14
478.455	9934.77
478.827	10035.33
479.198	10362.78
479.569	10342.67
479.94	10664.24
480.311	10734.29
480.682	11072.14
481.053	11214.51
481.424	11431
481.795	11499.47
482.166	11744.44
482.537	11904.88
482.908	12213.58
483.279	12226.68
483.65	12495.38
484.021	12832.09
484.391	12872.77
484.762	13087.45
485.133	13150.73
485.503	13441.12
485.874	13722.92
486.244	13751.16
486.615	14103.92
486.985	14134.2
487.356	14459.17
487.726	14632.95
488.097	14966.5
488.467	14922.43
488.837	15402.87
489.207	15484.45
489.578	15736.2
489.948	15914.27
490.318	16063.42
490.688	16183.64
491.058	16526.01
491.428	16728.94
491.798	16830.4
492.168	17039.66
492.538	17314.46
492.908	17543.83
493.278	17813.66
493.648	17818.4
494.017	18093.42
494.387	18284.83
494.757	18365.73
495.126	18506.97
495.496	18593.97
495.866	18817.7
496.235	18988.54
496.605	19239.16
496.974	19246.61
497.344	19508.07
497.713	19781.74
498.082	19813.83
498.452	19986.25
498.821	20110.54
499.19	20176.31
499.559	20297.88
499.928	20586.92
500.298	20595.73
500.667	20973.57
501.036	20837.08
501.405	21122.27
501.774	21211.98
502.143	21434.35
502.512	21462.15
502.88	21742.59
503.249	21761.57
503.618	22068.91
503.987	22134.9
504.356	22310.03
504.724	22400.88
505.093	22530.82
505.462	22543.7
505.83	22848.78
506.199	23026.63
506.567	23329.44
506.936	23277.24
507.304	23644.46
507.672	23650.11
508.041	23810.79
508.409	23987.05
508.777	24161.06
509.145	24477.21
509.514	24387.04
509.882	24597.43
510.25	24762.85
510.618	24903.64
510.986	25038.78
511.354	25356.96
511.722	25536.62
512.09	25836.04
512.458	25706.56
512.826	25967.34
513.193	26097.28
513.561	26346.76
513.929	26437.61
514.297	26772.97
514.664	26919.63
515.032	27074.88
515.4	27351.94
515.767	27529.78
516.135	27619.27
516.502	27561.65
516.869	28138.13
517.237	28166.15
517.604	28151.46
517.972	28612.24
518.339	28790.09
518.706	28923.42
519.073	29021.27
519.44	29160.02
519.808	29671.2
520.175	29647.47
520.542	30135.82
520.909	30194.35
521.276	30218.75
521.643	30717.05
522.009	30916.36
522.376	31071.61
522.743	31256.69
523.11	31544.82
523.477	31872.95
523.843	31959.72
524.21	32293.95
524.577	32534.62
524.943	32832.02
525.31	33039.92
525.676	33384.77
526.043	33428.16
526.409	33560.36
526.776	34047.35
527.142	34163.06
527.508	34404.63
527.874	34751.29
528.241	34805.07
528.607	35001.9
528.973	35270.15
529.339	35292.97
529.705	35719.17
530.071	36011.82
530.437	36128.65
530.803	36327.52
531.169	36736.32
531.535	36656.1
531.901	36697.45
532.267	36947.39
532.632	37279.36
532.998	37434.83
533.364	37732.45
533.73	37806.35
534.095	38015.16
534.461	38223.29
534.826	38355.94
535.192	38507.35
535.557	38781.69
535.923	38895.81
536.288	39021.46
536.653	39373.99
537.019	39246.76
537.384	39411.96
537.749	39523.37
538.114	39551.84
538.479	39743.47
538.845	40093.3
539.21	39868.22
539.575	40176.46
539.94	40299.62
540.305	40611.7
540.67	40612.15
541.034	40843.33
541.399	40910.45
541.764	40927.17
542.129	41136.88
542.494	41200.61
542.858	41427.5
543.223	41608.28
543.587	41775.74
543.952	41710.2
544.316	42124.66
544.681	42086.69
545.045	42314.48
545.41	42535.72
545.774	42591.08
546.138	42612.1
546.503	42706.79
546.867	42885.99
547.231	43224.51
547.595	43146.32
547.959	43339.99
548.324	43448.24
548.688	43431.97
549.052	43711.28
549.416	43738.85
549.779	43949.92
550.143	44103.81
550.507	44495.89
550.871	44528.43
551.235	44549.22
551.599	44976.11
551.962	44975.65
552.326	44985.6
552.689	45411.57
553.053	45219.94
553.417	45438.47
553.78	45916.42
554.143	45748.51
554.507	45854.27
554.87	46066.25
555.234	46451.1
555.597	46310.76
555.96	46605.44
556.323	46734.48
556.686	46758.88
557.05	47074.13
557.413	47050.4
557.776	47175.6
558.139	47475.47
558.502	47522.71
558.865	47736.94
559.228	48009.25
559.59	48100.54
559.953	48266.87
560.316	48613.98
560.679	48619.85
561.041	48855.78
561.404	49091.93
561.767	49227.52
562.129	49089.9
562.492	49562.88
562.854	49583.44
563.217	49662.54
563.579	49850.78
563.941	49997.67
564.304	50229.98
564.666	50380.71
565.028	50454.61
565.39	50626.8
565.753	50832.9
566.115	50966.23
566.477	51056.17
566.839	51076.06
567.201	51352.21
567.563	51356.5
567.925	51624.52
568.287	51634.69
568.648	51738.64
569.01	51876.04
569.372	52201.68
569.734	52087.78
570.095	52350.15
570.457	52318.06
570.819	52376.14
571.18	52445.06
571.542	52647.99
571.903	52717.37
572.265	52857.48
572.626	52891.38
572.987	52991.49
573.349	53137.92
573.71	53134.99
574.071	53287.98
574.432	53323.23
574.794	53535.2
575.155	53533.85
575.516	53561.64
575.877	53651.58
576.238	53724.58
576.599	53861.3
576.96	53832.82
577.32	53832.82
577.681	53890.22
578.042	54111.01
578.403	54127.5
578.763	54085.7
579.124	54147.62
579.485	54282.3
579.845	54325.69
580.206	54271.23
580.566	54307.84
580.927	54374.73
581.287	54472.35
581.648	54334.73
582.008	54421.05
582.368	54434.61
582.728	54509.41
583.089	54466.25
583.449	54457.44
583.809	54533.82
584.169	54655.63
584.529	54533.59
584.889	54715.74
585.249	54431.22
585.609	54505.57
585.969	54665.79
586.329	54600.49
586.688	54668.96
587.048	54665.12
587.408	54584.89
587.768	54669.64
588.127	54612.46
588.487	54559.13
588.846	54755.74
589.206	54506.48
589.565	54641.39
589.925	54806.81
590.284	54672.12
590.643	54767.94
591.003	54820.14
591.362	54867.37
591.721	54705.79
592.08	54785.34
592.44	54827.6
592.799	54856.52
593.158	54842.96
593.517	54819.24
593.876	54900.36
594.235	54832.57
594.593	54915.73
594.952	54914.83
595.311	54838.9
595.67	54882.29
596.029	55053.58
596.387	55115.73
596.746	55121.83
597.104	54900.36
597.463	54965.67
597.822	55147.82
598.18	54899.01
598.538	55003.19
598.897	55198.21
599.255	54924.09
599.613	55365.44
599.972	55056.07
600.33	55219.68
600.688	55080.7
601.046	55261.03
601.404	55355.49
601.762	55314.14
602.12	55400.01
602.478	55446.79
602.836	55440.24
603.194	55259.9
603.552	55339.9
603.91	55264.87
604.268	55460.8
604.625	55382.39
604.983	55598.43
605.341	55387.36
605.698	55585.54
606.056	55552.32
606.413	55546.9
606.771	55628.93
607.128	55668.25
607.485	55585.09
607.843	55596.39
608.2	55724.07
608.557	55805.43
608.914	55761.36
609.272	55836.84
609.629	55948.92
609.986	55900.11
610.343	55874.12
610.7	56099.65
611.057	56087.45
611.414	56022.14
611.771	56019.66
612.127	56079.99
612.484	56110.5
612.841	56199.54
613.198	56027.57
613.554	56168.13
613.911	56274.11
614.267	56217.17
614.624	56144.4
614.98	56317.73
615.337	56417.16
615.693	56390.27
616.05	56372.87
616.406	56495.35
616.762	56397.95
617.118	56387.33
617.475	56426.2
617.831	56511.4
618.187	56489.93
618.543	56489.48
618.899	56635.01
619.255	56583.94
619.611	56571.96
619.967	56668.91
620.323	56679.3
620.678	56595.01
621.034	56612.64
621.39	56593.88
621.746	56574.22
622.101	56885.85
622.457	56621
622.812	56665.74
623.168	56718.62
623.523	56718.85
623.879	56809.24
624.234	56598.62
624.589	56684.95
624.945	56740.54
625.3	56811.5
625.655	56787.55
626.01	56673.2
626.365	56773.99
626.72	56706.87
627.075	56646.08
627.43	56722.24
627.785	56590.04
628.14	56641.11
628.495	56700.32
628.85	56573.54
629.205	56518.63
629.559	56667.78
629.914	56525.18
630.269	56581
630.623	56529.7
630.978	56491.96
631.332	56517.5
631.687	56590.72
632.041	56442.02
632.396	56510.04
632.75	56316.6
633.104	56373.09
633.459	56247.9
633.813	56338.29
634.167	56351.85
634.521	56312.3
634.875	56349.59
635.229	56192.08
635.583	56075.47
635.937	56115.47
636.291	56104.85
636.645	56107.11
636.999	56030.05
637.352	56119.54
637.706	55893.56
638.06	56020.11
638.413	56003.16
638.767	55819.21
639.121	55935.37
639.474	55762.49
639.828	55745.54
640.181	55765.88
640.534	55762.71
640.888	55589.16
641.241	55590.74
641.594	55582.15
641.947	55671.19
642.301	55538.09
642.654	55531.99
643.007	55540.35
643.36	55557.75
643.713	55456.51
644.066	55541.48
644.419	55349.39
644.771	55169.51
645.124	54918.89
645.477	54871.89
645.83	54684.55
646.182	54516.19
646.535	54433.48
646.888	54441.62
647.24	54379.7
647.593	54556.64
647.945	54459.02
648.298	54242.75
648.65	54233.04
649.002	54149.65
649.355	54252.25
649.707	54192.13
650.059	54335.86
650.411	54649.3
650.763	54697.88
651.115	54869.63
651.467	54776.3
651.819	54756.19
652.171	54675.06
652.523	54675.06
652.875	54640.94
653.227	54514.39
653.578	54694.04
653.93	54555.29
654.282	54415.18
654.633	54341.28
654.985	54445.01
655.337	54486.82
655.688	54439.36
656.039	54485.69
656.391	54274.17
656.742	54348.51
657.094	54312.58
657.445	54447.95
657.796	54424.22
658.147	54296.54
658.498	54287.73
658.849	54289.98
659.2	54272.81
659.551	54169.31
659.902	54310.1
660.253	54265.58
660.604	54247.95
660.955	54075.98
661.306	54184.23
661.656	54119.37
662.007	54053.38
662.358	54085.92
662.708	53962.76
663.059	53989.2
663.409	53870.11
663.76	54107.39
664.11	54024.46
664.461	53971.35
664.811	54050.9
665.161	53925.93
665.511	53937.23
665.862	53897.9
666.212	54135.19
666.562	54092.02
666.912	53883.44
667.262	53950.11
667.612	53913.27
667.962	53961.86
668.312	53885.48
668.662	54060.84
669.011	53897.68
669.361	53817.45
669.711	53796.89
670.06	53774.07
670.41	53674.63
670.76	53648.19
671.109	53714.41
671.459	53681.19
671.808	53647.29
672.157	53682.09
672.507	53551.47
672.856	53641.41
673.205	53657.01
673.554	53702.2
673.904	53499.5
674.253	53696.78
674.602	53537.46
674.951	53135.89
675.3	53134.08
675.649	53503.34
675.998	53410.01
676.346	53408.88
676.695	53522.1
677.044	53292.27
677.393	53434.41
677.741	53408.43
678.09	53315.1
678.438	53303.8
678.787	53345.83
679.135	53417.01
679.484	53172.27
679.832	53280.52
680.181	53023.58
680.529	53128.43
680.877	52926.63
681.225	53032.39
681.573	53195.32
681.922	52890.25
682.27	52936.57
682.618	52760.76
682.966	52762.79
683.314	52796.46
683.661	52638.28
684.009	52532.74
684.357	52508.56
684.705	52474.21
685.053	52554.21
685.4	52440.77
685.748	52168.68
686.095	52253.43
686.443	52067.44
686.79	52016.37
687.138	52064.51
687.485	52035.35
687.832	51935.92
688.18	52059.08
688.527	51799.65
688.874	51752.42
689.221	51658.64
689.568	51527.35
689.915	51502.26
690.262	51596.5
690.609	51332.32
690.956	51234.7
691.303	51336.39
691.65	51049.39
691.997	51039
692.344	50817.08
692.69	50837.65
693.037	50894.37
693.383	50643.53
693.73	50740.02
694.077	50446.92
694.423	50521.95
694.769	50274.72
695.116	50314.95
695.462	50185.23
695.808	50178
696.155	50208.06
696.501	49906.37
696.847	49999.48
697.193	49642.2
697.539	49824.79
697.885	49674.29
698.231	49544.12
698.577	49468.87
698.923	49312.71
699.269	49131.25
699.614	48997.02
699.96	48907.08
700.306	48889.67
700.651	48830.24
700.997	48764.25
701.342	48686.97
701.688	48535.11
702.033	48370.59
702.379	48322.01
702.724	48206.53
703.069	48248.11
703.415	47797.05
703.76	47947.78
704.105	47768.57
704.45	47702.59
704.795	47519.99
705.14	47366.55
705.485	47323.61
705.83	47251.53
706.175	47291.07
706.52	47126.33
706.865	47024.41
707.209	46897.18
707.554	46844.98
707.899	46932.66
708.243	46683.86
708.588	46626.91
708.932	46371.78
709.277	46384.66
709.621	46396.86
709.966	46270.53
710.31	46130.65
710.654	45846.37
710.998	45868.74
711.342	45913.93
711.687	45741.51
712.031	45572.02
712.375	45570.89
712.719	45466.04
713.063	45413.61
713.407	45463.1
713.75	45210.9
714.094	45311.92
714.438	45042.54
714.782	45265.36
715.125	44844.58
715.469	44896.33
715.812	44598.94
716.156	44379.06
716.499	44576.34
716.843	44525.27
717.186	44141.55
717.53	44469.68
717.873	44532.95
718.216	44307.87
718.559	44189.46
718.902	44065.4
719.246	44271.27
719.589	43942.46
719.932	43926.87
720.275	43803.71
720.617	43702.92
720.96	43606.2
721.303	43711.96
721.646	43559.87
721.989	43406.88
722.331	43554.22
722.674	43369.59
723.016	43334.11
723.359	43186.32
723.701	43210.05
724.044	42876.95
724.386	42658.2
724.729	43029.04
725.071	42861.13
725.413	42662.72
725.755	42577.75
726.097	42684.87
726.439	42411.2
726.782	42307.48
727.124	42460.47
727.465	42281.04
727.807	42206.46
728.149	42100.47
728.491	42129.63
728.833	42116.29
729.175	41980.48
729.516	41832.91
729.858	41848.73
730.199	41811.22
730.541	41602.86
730.882	41689.64
731.224	41637.21
731.565	41511.34
731.906	41634.27
732.248	41547.95
732.589	41160.84
732.93	41207.84
733.271	41109.99
733.612	41214.62
733.953	41180.5
734.294	41057.34
734.635	40905.7
734.976	41058.69
735.317	40807.18
735.658	40794.07
735.999	40822.32
736.339	40680.63
736.68	40782.32
737.021	40438.37
737.361	40378.03
737.702	40560.85
738.042	40407.86
738.383	40286.74
738.723	40401.08
739.063	40121.54
739.404	40173.52
739.744	40112.5
740.084	39838.16
740.424	40093.97
740.764	39835.22
741.104	40044.94
741.444	39756.81
741.784	39549.36
742.124	39726.53
742.464	39630.26
742.804	39545.29
743.143	39335.8
743.483	39426.65
743.823	39208.35
744.162	39277.95
744.502	39230.72
744.841	39082.93
745.181	39174.9
745.52	39004.29
745.86	39090.38
746.199	38814.01
746.538	38889.94
746.877	38888.13
747.216	38929.71
747.556	38573.79
747.895	38634.8
748.234	38393.68
748.573	38338.54
748.911	38359.1
749.25	38238.2
749.589	38182.61
749.928	38170.63
750.267	38198.66
750.605	37955.73
750.944	38004.09
751.283	37755.5
751.621	37833.92
751.96	37691.33
752.298	37781.72
752.636	37744.43
