Data from plate_porcelain_FLMS001491_073.txt Node
Date: Tue Feb 07 11:19:51 GMT 2017
User: dcchb
Spectrometer: FLMS00149
Trigger mode: 0
Integration Time (sec): 2.000000E-2
Scans to average: 10
Electric dark correction enabled: true
Nonlinearity correction enabled: false
Boxcar width: 0
XAxis mode: Wavelengths
Number of Pixels in Spectrum: 2048
>>>>>Begin Spectral Data<<<<<
341.393	-24.69
341.776	-24.69
342.16	-24.69
342.543	-70.34
342.927	-56.33
343.31	-57.46
343.693	-60.62
344.077	-74.63
344.46	-53.39
344.843	-41.19
345.226	-44.8
345.61	-45.48
345.993	-3.67
346.376	14.86
346.759	3.79
347.142	-2.32
347.525	22.54
347.908	48.08
348.291	67.29
348.674	101.41
349.057	125.59
349.44	115.65
349.823	154.06
350.206	169.2
350.588	215.31
350.971	240.62
351.354	249.2
351.737	279.48
352.119	297.79
352.502	290.11
352.884	342.76
353.267	326.04
353.65	352.25
354.032	332.59
354.414	364.45
354.797	348.18
355.179	373.49
355.562	375.75
355.944	381.63
356.326	382.98
356.709	381.18
357.091	381.85
357.473	398.13
357.855	403.32
358.238	394.51
358.62	394.96
359.002	408.07
359.384	399.03
359.766	419.59
360.148	403.77
360.53	430.67
360.912	389.54
361.294	391.57
361.676	392.25
362.057	404
362.439	401.29
362.821	398.8
363.203	391.57
363.584	404.45
363.966	399.71
364.348	393.83
364.729	395.19
365.111	381.18
365.493	421.18
365.874	390.89
366.256	406.49
366.637	402.87
367.019	409.65
367.4	418.92
367.781	422.31
368.163	397.67
368.544	412.14
368.925	398.8
369.306	421.63
369.688	407.84
370.069	411.01
370.45	419.59
370.831	425.7
371.212	427.05
371.593	431.12
371.974	452.14
372.355	447.16
372.736	430.89
373.117	436.09
373.498	457.11
373.879	430.21
374.26	418.92
374.641	438.12
375.021	432.93
375.402	425.7
375.783	495.3
376.163	494.62
376.544	510.66
376.925	490.55
377.305	480.16
377.686	476.99
378.066	511.12
378.447	484.22
378.827	483.09
379.208	517.44
379.588	506.6
379.968	493.04
380.349	527.84
380.729	524.68
381.109	530.55
381.489	539.14
381.87	531.68
382.25	550.44
382.63	551.12
383.01	578.69
383.39	567.39
383.77	570.1
384.15	545.01
384.53	566.26
384.91	577.78
385.29	595.18
385.67	593.15
386.049	613.26
386.429	622.75
386.809	620.27
387.189	621.85
387.568	621.17
387.948	651.68
388.328	669.53
388.707	661.4
389.087	636.99
389.466	676.76
389.846	676.31
390.225	699.13
390.605	686.25
390.984	667.95
391.363	711.11
391.743	699.13
392.122	716.99
392.501	723.09
392.881	741.62
393.26	763.09
393.639	753.14
394.018	766.48
394.397	785.46
394.776	804.67
395.155	797.89
395.534	802.41
395.913	785.46
396.292	823.88
396.671	847.38
397.05	824.1
397.429	847.38
397.808	838.11
398.186	859.81
398.565	884.44
398.944	886.93
399.323	884.44
399.701	880.82
400.08	910.2
400.458	890.77
400.837	929.18
401.215	939.81
401.594	949.75
401.972	945.46
402.351	983.19
402.729	971.22
403.107	994.49
403.486	975.74
403.864	1029.97
404.242	1025.45
404.62	1039.92
404.999	1047.6
405.377	1039.92
405.755	1065.9
406.133	1109.07
406.511	1089.86
406.889	1101.61
407.267	1164.43
407.645	1177.31
408.023	1178.9
408.401	1170.99
408.779	1201.49
409.156	1234.04
409.534	1234.71
409.912	1263.19
410.29	1292.79
410.667	1275.62
411.045	1299.8
411.422	1307.93
411.8	1344.54
412.178	1376.4
412.555	1382.51
412.933	1418.89
413.31	1420.25
413.687	1447.82
414.065	1472.45
414.442	1467.7
414.819	1519
415.197	1503.86
415.574	1537.53
415.951	1568.72
416.328	1573.46
416.705	1566
417.082	1618.43
417.46	1592.9
417.837	1613.23
418.214	1661.82
418.591	1673.8
418.967	1688.49
419.344	1728.03
419.721	1755.83
420.098	1735.94
420.475	1782.95
420.852	1775.49
421.228	1837.64
421.605	1848.71
421.982	1855.26
422.358	1898.65
422.735	1932.77
423.111	1907.24
423.488	1965.99
423.864	1937.52
424.241	1952.21
424.617	1998.76
424.994	2016.39
425.37	2024.07
425.746	2071.98
426.123	2067.23
426.499	2108.59
426.875	2144.75
427.251	2202.37
427.627	2233.11
428.003	2276.49
428.379	2292.99
428.756	2309.94
429.132	2338.41
429.507	2387.45
429.883	2388.58
430.259	2454.12
430.635	2462.48
431.011	2484.62
431.387	2536.6
431.763	2594
432.138	2609.59
432.514	2640.78
432.89	2655.24
433.265	2751.06
433.641	2726.43
434.016	2793.32
434.392	2840.09
434.767	2913.54
435.143	2888.23
435.518	2940.21
435.894	2939.98
436.269	3013.2
436.644	3038.06
437.02	3056.81
437.395	3131.84
437.77	3172.52
438.145	3168.9
438.52	3208.22
438.895	3311.27
439.271	3262.23
439.646	3402.79
440.021	3415.22
440.395	3423.13
440.77	3374.32
441.145	3442.11
441.52	3549.45
441.895	3500.87
442.27	3540.19
442.645	3561.66
443.019	3640.3
443.394	3608.66
443.769	3665.84
444.143	3651.37
444.518	3718.72
444.892	3743.12
445.267	3732.73
445.641	3781.54
446.016	3856.57
446.39	3854.53
446.764	3876.23
447.139	3876.23
447.513	3992.61
447.887	3945.6
448.262	4006.84
448.636	4015.88
449.01	4083.23
449.384	4116.45
449.758	4138.59
450.132	4221.08
450.506	4233.73
450.88	4278.48
451.254	4235.76
451.628	4339.72
452.002	4391.24
452.376	4437.79
452.75	4479.83
453.123	4503.55
453.497	4576.32
453.871	4664.91
454.244	4716.88
454.618	4718.92
454.992	4818.35
455.365	4801.17
455.739	4988.29
456.112	4981.51
456.486	5057.21
456.859	5138.79
457.232	5245.46
457.606	5253.59
457.979	5328.16
458.352	5431.89
458.725	5447.48
459.099	5475.96
459.472	5632.79
459.845	5669.4
460.218	5728.61
460.591	5832.78
460.964	5785.78
461.337	5974.93
461.71	6101.03
462.083	6141.25
462.456	6185.32
462.829	6167.46
463.201	6325.65
463.574	6351.41
463.947	6477.29
464.32	6580.79
464.692	6641.12
465.065	6721.35
465.438	6771.97
465.81	6915.92
466.183	6997.5
466.555	7141.9
466.928	7240.21
467.3	7185.07
467.672	7399.52
468.045	7512.29
468.417	7507.77
468.789	7696.01
469.161	7721.32
469.534	7907.31
469.906	8034.08
470.278	8105.49
470.65	8253.29
471.022	8371.47
471.394	8522.88
471.766	8608.53
472.138	8747.74
472.51	8864.34
472.882	8983.44
473.253	9191.79
473.625	9281.28
473.997	9490.09
474.369	9590.43
474.74	9608.73
475.112	9867.25
475.484	10064.99
475.855	10218.21
476.227	10328.49
476.598	10621.81
476.97	10646.67
477.341	10963.27
477.713	11107.22
478.084	11158.75
478.455	11458.85
478.827	11588.34
479.198	11950.82
479.569	11983.36
479.94	12329.79
480.311	12487.75
480.682	12731.36
481.053	13013.84
481.424	13187.39
481.795	13335.19
482.166	13562.3
482.537	13781.5
482.908	13964.77
483.279	14220.13
483.65	14442.73
484.021	14795.49
484.391	14880.91
484.762	15064.63
485.133	15210.62
485.503	15552.53
485.874	15825.29
486.244	15955.46
486.615	16280.19
486.985	16401.77
487.356	16743.91
487.726	16917.01
488.097	17243.78
488.467	17370.11
488.837	17685.58
489.207	17892.81
489.578	18238.33
489.948	18372.57
490.318	18718.55
490.688	18708.15
491.058	19017.97
491.428	19316.5
491.798	19432.88
492.168	19875.35
492.538	19865.41
492.908	20213.42
493.278	20475.34
493.648	20493.19
494.017	20809.11
494.387	21043.68
494.757	21201.42
495.126	21407.29
495.496	21452.94
495.866	21731.58
496.235	21996.88
496.605	22135.41
496.974	22278.23
497.344	22532.91
497.713	22662.62
498.082	22820.81
498.452	23067.13
498.821	23109.39
499.19	23312.55
499.559	23610.4
499.928	23745.31
500.298	23864.4
500.667	24176.48
501.036	24161.34
501.405	24482.01
501.774	24543.7
502.143	24664.38
502.512	24848.1
502.88	24992.96
503.249	25131.94
503.618	25358.37
503.987	25441.31
504.356	25631.36
504.724	25864.35
505.093	26015.08
505.462	26162.65
505.83	26170.1
506.199	26653.25
506.567	26825.68
506.936	26819.13
507.304	27236.97
507.672	27166.46
508.041	27499.11
508.409	27710.18
508.777	27859.1
509.145	28183.16
509.514	28137.96
509.882	28424.05
510.25	28527.33
510.618	28722.13
510.986	28850.03
511.354	29207.76
511.722	29507.19
512.09	29670.8
512.458	29692.5
512.826	30013.62
513.193	30095.42
513.561	30321.41
513.929	30529.31
514.297	30897.44
514.664	31027.15
515.032	31256.75
515.4	31626.23
515.767	31691.09
516.135	31915.04
516.502	31706.91
516.869	32268.02
517.237	32475.47
517.604	32456.94
517.972	32957.5
518.339	33058.96
518.706	33153.87
519.073	33399.74
519.44	33786.17
519.808	34106.39
520.175	34081.99
520.542	34536.89
520.909	34883.55
521.276	34792.7
521.643	35132.13
522.009	35373.25
522.376	35764.88
522.743	35974.59
523.11	36279.22
523.477	36698.64
523.843	36812.31
524.21	37156.93
524.577	37456.59
524.943	37659.07
525.31	37817.93
525.676	38270.58
526.043	38445.03
526.409	38618.82
526.776	39107.39
527.142	39254.96
527.508	39336.99
527.874	39816.75
528.241	40012
528.607	40089.06
528.973	40416.06
529.339	40543.06
529.705	41081.12
530.071	41272.53
530.437	41509.59
530.803	41667.77
531.169	42066.63
531.535	42039.29
531.901	42113.64
532.267	42389.56
532.632	42624.13
532.998	42864.81
533.364	43084.91
533.73	43168.75
534.095	43600.83
534.461	43676.31
534.826	43869.98
535.192	43928.96
535.557	44415.72
535.923	44451.2
536.288	44468.6
536.653	44762.83
537.019	44634.02
537.384	44883.51
537.749	45078.76
538.114	45237.4
538.479	45333.44
538.845	45585.86
539.21	45601.23
539.575	45847.1
539.94	45948.11
540.305	46189.46
540.67	46163.93
541.034	46368.67
541.399	46458.83
541.764	46649.34
542.129	46781.99
542.494	46897.69
542.858	47193.73
543.223	47273.5
543.587	47422.65
543.952	47520.73
544.316	47415.87
544.681	47673.04
545.045	47811.12
545.41	47977.21
545.774	48067.61
546.138	48181.95
546.503	48282.97
546.867	48360.93
547.231	48692.22
547.595	48741.71
547.959	48783.29
548.324	48862.39
548.688	49051.99
549.052	49154.36
549.416	49212.43
549.779	49452.43
550.143	49448.59
550.507	49787.33
550.871	49968.35
551.235	49973.77
551.599	50284.27
551.962	50281.11
552.326	50289.47
552.689	50609.46
553.053	50426.19
553.417	50618.95
553.78	51044.7
554.143	50843.35
554.507	51130.35
554.87	51222.78
555.234	51543.67
555.597	51497.12
555.96	51692.14
556.323	51752.26
556.686	51863.89
557.05	52114.96
557.413	52229.98
557.776	52199.02
558.139	52481.95
558.502	52515.85
558.865	52613.7
559.228	52871.1
559.59	52930.08
559.953	53033.8
560.316	53288.49
560.679	53289.39
561.041	53488.03
561.404	53634.01
561.767	53874.46
562.129	53807.12
562.492	54073.1
562.854	54072.87
563.217	54202.36
563.579	54323.49
563.941	54564.38
564.304	54615.46
564.666	54776.36
565.028	54797.15
565.39	54960.08
565.753	55118.04
566.115	55215.44
566.477	55306.96
566.839	55383.35
567.201	55516
567.563	55629.22
567.925	55741.75
568.287	55773.84
568.648	55899.72
569.01	56019.04
569.372	56178.81
569.734	56098.81
570.095	56369.76
570.457	56468.52
570.819	56505.8
571.18	56505.12
571.542	56677.55
571.903	56726.14
572.265	56823.08
572.626	56871.89
572.987	56932.91
573.349	57036.18
573.71	57149.85
574.071	57157.76
574.432	57217.42
574.794	57423.29
575.155	57345.1
575.516	57366.8
575.877	57468.94
576.238	57592.1
576.599	57630.97
576.96	57621.93
577.32	57643.85
577.681	57780.57
578.042	57833.23
578.403	57888.82
578.763	57897.18
579.124	57973.11
579.485	57993.45
579.845	58054.91
580.206	58040.45
580.566	57966.55
580.927	58051.75
581.287	58161.58
581.648	58047.46
582.008	58225.31
582.368	58176.27
582.728	58249.03
583.089	58202.71
583.449	58235.7
583.809	58256.26
584.169	58340.56
584.529	58287.22
584.889	58373.1
585.249	58287.22
585.609	58204.29
585.969	58352.76
586.329	58301.01
586.688	58335.81
587.048	58330.16
587.408	58335.13
587.768	58331.74
588.127	58308.24
588.487	58316.6
588.846	58426.2
589.206	58343.04
589.565	58356.6
589.925	58456.94
590.284	58369.93
590.643	58409.48
591.003	58482.25
591.362	58512.3
591.721	58450.61
592.08	58412.19
592.44	58492.64
592.799	58550.72
593.158	58472.76
593.517	58501.46
593.876	58548.69
594.235	58424.62
594.593	58539.2
594.952	58574.45
595.311	58521.79
595.67	58591.62
596.029	58753.65
596.387	58665.75
596.746	58741.68
597.104	58531.06
597.463	58626.2
597.822	58802.69
598.18	58628.91
598.538	58684.73
598.897	58808.11
599.255	58634.11
599.613	58993.87
599.972	58757.04
600.33	58802.47
600.688	58776.25
601.046	58893.54
601.404	58955.68
601.762	58840.88
602.12	59005.4
602.478	59021.67
602.836	59054.89
603.194	58926.53
603.552	58968.56
603.91	58879.3
604.268	59047.88
604.625	58988.45
604.983	59146.41
605.341	59039.75
605.698	59122.68
606.056	59203.81
606.413	59218.27
606.771	59240.19
607.128	59289.23
607.485	59184.6
607.843	59244.71
608.2	59313.64
608.557	59396.35
608.914	59297.14
609.272	59418.27
609.629	59439.96
609.986	59554.08
610.343	59390.25
610.7	59621.43
611.057	59550.02
611.414	59510.24
611.771	59579.39
612.127	59644.48
612.484	59621.2
612.841	59729.67
613.198	59622.1
613.554	59680.86
613.911	59849.44
614.267	59787.52
614.624	59773.06
614.98	59813.74
615.337	59914.3
615.693	59984.58
616.05	59916.33
616.406	60002.43
616.762	59828.65
617.118	59909.33
617.475	59945.49
617.831	59951.81
618.187	59992.26
618.543	59988.87
618.899	60189.77
619.255	60103.67
619.611	60054.18
619.967	60117.91
620.323	60222.09
620.678	60082.88
621.034	60063.9
621.39	60059.16
621.746	60063.22
622.101	60335.31
622.457	60089.44
622.812	60159.04
623.168	60194.52
623.523	60205.59
623.879	60282.43
624.234	60126.05
624.589	60228.64
624.945	60186.38
625.3	60203.33
625.655	60153.39
626.01	60214.41
626.365	60242.65
626.72	60216.67
627.075	60165.14
627.43	60133.5
627.785	60129.21
628.14	60105.26
628.495	60194.52
628.85	60120.85
629.205	59995.2
629.559	60207.17
629.914	60022.77
630.269	60110.23
630.623	59977.35
630.978	59928.76
631.332	60043.79
631.687	60034.3
632.041	59937.8
632.396	59933.96
632.75	59846.96
633.104	59923.11
633.459	59776
633.813	59792.04
634.167	59758.6
634.521	59766.28
634.875	59770.8
635.229	59738.03
635.583	59636.34
635.937	59636.34
636.291	59550.69
636.645	59546.4
636.999	59570.35
637.352	59624.82
637.706	59455.33
638.06	59558.15
638.413	59554.54
638.767	59427.76
639.121	59483.35
639.474	59270.93
639.828	59238.39
640.181	59361.77
640.534	59340.76
640.888	59207.43
641.241	59089.46
641.594	59186.18
641.947	59270.02
642.301	59160.42
642.654	59116.81
643.007	59155
643.36	59067.77
643.713	59051.5
644.066	59181.66
644.419	58976.25
644.771	58799.53
645.124	58547.33
645.477	58505.98
645.83	58370.16
646.182	58225.76
646.535	58191.18
646.888	58198.19
647.24	58054.46
647.593	58206.1
647.945	58117.51
648.298	58001.58
648.65	57955.03
649.002	57869.16
649.355	58014.46
649.707	57916.16
650.059	58051.52
650.411	58357.73
650.763	58317.51
651.115	58530.61
651.467	58426.88
651.819	58417.62
652.171	58356.83
652.523	58327.45
652.875	58293.55
653.227	58161.58
653.578	58348.01
653.93	58215.81
654.282	58142.14
654.633	58095.14
654.985	58104.4
655.337	58197.51
655.688	58114.57
656.039	58180.79
656.391	57927.01
656.742	58035.03
657.094	58087.91
657.445	58210.62
657.796	58122.71
658.147	58016.5
658.498	57971.07
658.849	58019.89
659.2	57964.75
659.551	57932.43
659.902	58025.08
660.253	57957.97
660.604	57897.18
660.955	57836.84
661.306	57949.61
661.656	57830.51
662.007	57866.67
662.358	57849.27
662.708	57757.97
663.059	57740.8
663.409	57632.1
663.76	57750.52
664.11	57757.52
664.461	57748.71
664.811	57762.94
665.161	57720.01
665.511	57672.78
665.862	57710.29
666.212	57855.37
666.562	57876.84
666.912	57719.1
667.262	57781.93
667.612	57681.14
667.962	57710.74
668.312	57706.22
668.662	57737.63
669.011	57674.81
669.361	57636.39
669.711	57613.12
670.06	57558.88
670.41	57452.44
670.76	57532.89
671.109	57578.54
671.459	57546
671.808	57450.41
672.157	57522.72
672.507	57382.39
672.856	57394.82
673.205	57487.47
673.554	57461.94
673.904	57340.81
674.253	57500.8
674.602	57347.59
674.951	57113.02
675.3	56963.19
675.649	57287.48
675.998	57271.21
676.346	57237.99
676.695	57353.92
677.044	57156.86
677.393	57266.69
677.741	57289.28
678.09	57276.86
678.438	57188.95
678.787	57167.71
679.135	57218.1
679.484	57045.22
679.832	57112.57
680.181	56898.11
680.529	56990.76
680.877	56925.68
681.225	56951.89
681.573	57050.65
681.922	56855.85
682.27	56748.96
682.618	56760.71
682.966	56655.18
683.314	56785.57
683.661	56616.99
684.009	56489.53
684.357	56387.39
684.705	56327.28
685.053	56497.89
685.4	56388.74
685.748	56310.78
686.095	56203.44
686.443	56156.89
686.79	56029.43
687.138	56111.24
687.485	56083.21
687.832	56019.94
688.18	56059.94
688.527	55852.49
688.874	55835.99
689.221	55747.18
689.568	55607.97
689.915	55649.33
690.262	55590.35
690.609	55598.26
690.956	55482.1
691.303	55439.16
691.65	55273.52
691.997	55265.16
692.344	55137.25
692.69	55040.3
693.037	55156.23
693.383	54988.33
693.73	54976.58
694.077	54795.11
694.423	54808.45
694.769	54685.29
695.116	54679.86
695.462	54595.34
695.808	54559.86
696.155	54549.02
696.501	54351.73
696.847	54351.73
697.193	54101.35
697.539	54232.42
697.885	53987.45
698.231	53878.3
698.577	53987.9
698.923	53888.24
699.269	53654.13
699.614	53527.35
699.96	53532.77
700.306	53592.43
700.651	53483.06
700.997	53415.49
701.342	53270.63
701.688	53229.5
702.033	53058.66
702.379	53024.09
702.724	52988.61
703.069	53043.07
703.415	52645.79
703.76	52661.16
704.105	52646.92
704.45	52567.15
704.795	52413.93
705.14	52333.26
705.485	52303.88
705.83	52214.62
706.175	52159.25
706.52	52137.78
706.865	51886.26
707.209	51999.25
707.554	51928.97
707.899	51843.1
708.243	51848.3
708.588	51692.14
708.932	51374.19
709.277	51438.82
709.621	51477.46
709.966	51137.13
710.31	51312.27
710.654	50997.92
710.998	51056.91
711.342	51016.91
711.687	50961.77
712.031	50791.15
712.375	50693.07
712.719	50773.07
713.063	50664.37
713.407	50645.62
713.75	50444.49
714.094	50544.15
714.438	50324.04
714.782	50353.2
715.125	50243.82
715.469	50285.63
715.812	50039.08
716.156	49860.55
716.499	49779.88
716.843	49882.25
717.186	49626.89
717.53	49738.75
717.873	49655.81
718.216	49746.66
718.559	49539.88
718.902	49344.63
719.246	49416.27
719.589	49272.09
719.932	49073.91
720.275	49197.29
720.617	48923.85
720.96	48993.23
721.303	48966.57
721.646	48997.3
721.989	48690.64
722.331	48857.64
722.674	48758.89
723.016	48642.51
723.359	48628.04
723.701	48638.44
724.044	48244.32
724.386	48229.86
724.729	48325.68
725.071	48095.18
725.413	48064.44
725.755	48175.63
726.097	47918.01
726.439	47854.96
726.782	47762.08
727.124	47941.28
727.465	47730.44
727.807	47756.43
728.149	47595.08
728.491	47564.34
728.833	47688.63
729.175	47511.01
729.516	47353.27
729.858	47277.12
730.199	47256.55
730.541	47226.27
730.882	47036.67
731.224	47213.17
731.565	46926.85
731.906	46750.13
732.248	46929.56
732.589	46774.98
732.93	46605.05
733.271	46663.8
733.612	46602.79
733.953	46709.68
734.294	46382.68
734.635	46337.71
734.976	46600.3
735.317	46185.4
735.658	46209.12
735.999	46236.02
736.339	46109.69
736.68	46296.35
737.021	46032.41
737.361	45863.6
737.702	46020.65
738.042	45895.46
738.383	45687.1
738.723	45870.15
739.063	45631.29
739.404	45737.27
739.744	45517.84
740.084	45333.21
740.424	45338.64
740.764	45283.95
741.104	45455.25
741.444	45090.74
741.784	45007.8
742.124	45020.23
742.464	44955.82
742.804	44967.8
743.143	44877.86
743.483	44954.92
743.823	44617.98
744.162	44676.51
744.502	44698.43
744.841	44454.37
745.181	44551.77
745.52	44438.32
745.86	44424.99
746.199	44298.21
746.538	44229.74
746.877	44316.74
747.216	44157.43
747.556	43964.44
747.895	43885.57
748.234	43670.21
748.573	43845.8
748.911	43719.47
749.25	43615.75
749.589	43401.29
749.928	43611.9
750.267	43472.25
750.605	43325.13
750.944	43203.1
751.283	43126.27
751.621	43145.93
751.96	42850.79
752.298	42961.75
