Data from plate_ceramic_FLMS001491_013.txt Node
Date: Tue Feb 07 11:16:22 GMT 2017
User: dcchb
Spectrometer: FLMS00149
Trigger mode: 0
Integration Time (sec): 2.000000E-2
Scans to average: 10
Electric dark correction enabled: true
Nonlinearity correction enabled: false
Boxcar width: 0
XAxis mode: Wavelengths
Number of Pixels in Spectrum: 2048
>>>>>Begin Spectral Data<<<<<
341.393	-3.45
341.776	-3.45
342.16	-3.45
342.543	-68.98
342.927	-72.6
343.31	-78.92
343.693	-81.86
344.077	-61.3
344.46	-36.67
344.843	-47.74
345.226	-32.15
345.61	-38.02
345.993	-24.91
346.376	-17.68
346.759	10.56
347.142	36.78
347.525	53.95
347.908	53.05
348.291	68.19
348.674	94.18
349.057	102.54
349.44	128.98
349.823	141.63
350.206	178.02
350.588	213.27
350.971	238.13
351.354	227.73
351.737	240.62
352.119	276.32
352.502	291.46
352.884	269.54
353.267	306.6
353.65	315.19
354.032	308.64
354.414	340.05
354.797	334.85
355.179	335.98
355.562	364.45
355.944	364.45
356.326	342.99
356.709	373.04
357.091	342.53
357.473	393.83
357.855	376.2
358.238	377.33
358.62	357
359.002	351.8
359.384	366.71
359.766	376.88
360.148	367.62
360.53	370.33
360.912	360.61
361.294	373.72
361.676	369.65
362.057	374.4
362.439	372.59
362.821	378.69
363.203	363.1
363.584	380.72
363.966	389.99
364.348	379.82
364.729	359.93
365.111	356.54
365.493	363.55
365.874	363.55
366.256	359.26
366.637	348.86
367.019	355.87
367.4	371.01
367.781	358.13
368.163	363.32
368.544	371.91
368.925	357
369.306	357
369.688	363.1
370.069	359.48
370.45	373.49
370.831	395.64
371.212	365.58
371.593	373.27
371.974	374.62
372.355	387.28
372.736	377.79
373.117	381.85
373.498	377.79
373.879	377.79
374.26	377.33
374.641	360.61
375.021	363.55
375.402	373.72
375.783	368.3
376.163	417.79
376.544	392.02
376.925	389.54
377.305	418.24
377.686	382.31
378.066	421.85
378.447	420.5
378.827	428.18
379.208	407.62
379.588	431.8
379.968	418.24
380.349	426.37
380.729	448.75
381.109	417.11
381.489	443.32
381.87	439.71
382.25	438.35
382.63	431.12
383.01	448.75
383.39	456.65
383.77	433.83
384.15	451.46
384.53	474.51
384.91	466.15
385.29	483.55
385.67	462.76
386.049	476.54
386.429	487.84
386.809	502.98
387.189	475.19
387.568	482.87
387.948	488.97
388.328	498.46
388.707	499.59
389.087	512.7
389.466	524.9
389.846	514.51
390.225	542.3
390.605	513.83
390.984	559.48
391.363	547.73
391.743	542.53
392.122	525.13
392.501	546.37
392.881	555.18
393.26	551.12
393.639	559.02
394.018	567.16
394.397	596.54
394.776	592.7
395.155	591.11
395.534	591.57
395.913	613.71
396.292	602.87
396.671	586.82
397.05	615.07
397.429	619.36
397.808	611.23
398.186	621.85
398.565	632.47
398.944	652.36
399.323	630.66
399.701	630.89
400.08	645.12
400.458	657.55
400.837	671.56
401.215	686.48
401.594	686.25
401.972	672.92
402.351	704.33
402.729	691.68
403.107	713.82
403.486	711.79
403.864	734.39
404.242	723.77
404.62	743.88
404.999	745.46
405.377	758.79
405.755	746.82
406.133	769.19
406.511	794.05
406.889	790.43
407.267	780.04
407.645	814.61
408.023	828.17
408.401	817.1
408.779	835.85
409.156	870.88
409.534	865.68
409.912	868.85
410.29	883.99
410.667	865.68
411.045	919.24
411.422	918.56
411.8	928.05
412.178	919.02
412.555	985.68
412.933	944.55
413.31	960.14
413.687	990.43
414.065	989.97
414.442	997.66
414.819	987.49
415.197	1033.81
415.574	1007.37
415.951	1054.15
416.328	1032.46
416.705	1062.51
417.082	1064.77
417.46	1079.92
417.837	1125.56
418.214	1112.23
418.591	1123.53
418.967	1120.37
419.344	1115.17
419.721	1137.77
420.098	1148.84
420.475	1158.11
420.852	1197.43
421.228	1239.46
421.605	1225.22
421.982	1222.28
422.358	1224.54
422.735	1259.12
423.111	1261.61
423.488	1295.73
423.864	1281.04
424.241	1296.86
424.617	1316.07
424.994	1320.59
425.37	1312.23
425.746	1336.86
426.123	1382.28
426.499	1410.98
426.875	1396.29
427.251	1458.21
427.627	1455.05
428.003	1450.98
428.379	1476.51
428.756	1490.98
429.132	1527.59
429.507	1529.17
429.883	1549.51
430.259	1594.03
430.635	1593.57
431.011	1622.5
431.387	1623.86
431.763	1669.28
432.138	1662.95
432.514	1713.8
432.89	1711.99
433.265	1743.85
433.641	1796.51
434.016	1771.2
434.392	1825.66
434.767	1855.94
435.143	1824.3
435.518	1871.08
435.894	1873.57
436.269	1905.43
436.644	1930.06
437.02	1936.39
437.395	1946.33
437.77	2002.83
438.145	2030.4
438.52	2045.09
438.895	2084.63
439.271	2057.52
439.646	2097.52
440.021	2133.9
440.395	2121.24
440.77	2106.1
441.145	2137.06
441.52	2179.77
441.895	2199.66
442.27	2190.17
442.645	2233.56
443.019	2241.92
443.394	2255.48
443.769	2283.95
444.143	2263.39
444.518	2343.61
444.892	2324.63
445.267	2344.29
445.641	2357.17
446.016	2353.33
446.39	2380.9
446.764	2404.17
447.139	2391.29
447.513	2428.81
447.887	2434.68
448.262	2480.78
448.636	2483.95
449.01	2545.87
449.384	2546.32
449.758	2545.19
450.132	2581.57
450.506	2611.17
450.88	2651.17
451.254	2604.39
451.628	2659.53
452.002	2692.98
452.376	2721
452.75	2735.69
453.123	2796.25
453.497	2842.81
453.871	2847.78
454.244	2916.25
454.618	2924.16
454.992	2961.22
455.365	2934.56
455.739	3032.63
456.112	3076.25
456.486	3104.04
456.859	3137.94
457.232	3169.58
457.606	3174.1
457.979	3257.48
458.352	3295.68
458.725	3332.51
459.099	3345.17
459.472	3420.19
459.845	3459.29
460.218	3484.37
460.591	3522.56
460.964	3562.11
461.337	3652.5
461.71	3706.74
462.083	3759.84
462.456	3752.39
462.829	3761.2
463.201	3822.22
463.574	3845.04
463.947	3916.22
464.32	3995.09
464.692	4024.7
465.065	4032.83
465.438	4131.59
465.81	4189.66
466.183	4217.91
466.555	4312.15
466.928	4340.85
467.3	4342.43
467.672	4436.66
468.045	4505.36
468.417	4577
468.789	4630.1
469.161	4652.7
469.534	4743.77
469.906	4841.62
470.278	4868.29
470.65	4947.61
471.022	5035.07
471.394	5112.13
471.766	5141.96
472.138	5172.24
472.51	5406.58
472.882	5396.19
473.253	5525.67
473.625	5610.64
473.997	5648.16
474.369	5767.25
474.74	5788.94
475.112	5900.13
475.484	6008.6
475.855	6080.46
476.227	6117.3
476.598	6301.25
476.97	6379.89
477.341	6463.95
477.713	6603.16
478.084	6654.23
478.455	6874.34
478.827	6947.11
479.198	7159.98
479.569	7148.91
479.94	7316.81
480.311	7416.92
480.682	7579.63
481.053	7684.94
481.424	7831.6
481.795	7929.45
482.166	8091.26
482.537	8173.97
482.908	8360.18
483.279	8434.75
483.65	8607.17
484.021	8733.27
484.391	8856.43
484.762	8942.31
485.133	8981.18
485.503	9180.27
485.874	9383.65
486.244	9474.95
486.615	9626.36
486.985	9773.25
487.356	9943.18
487.726	9974.14
488.097	10227.92
488.467	10241.71
488.837	10512.66
489.207	10703.62
489.578	10756.5
489.948	10871.07
490.318	10970.95
490.688	11057.05
491.058	11167.56
491.428	11455.91
491.798	11517.61
492.168	11845.28
492.538	11809.8
492.908	11976.35
493.278	12039.17
493.648	12123.69
494.017	12360.07
494.387	12474.87
494.757	12589.89
495.126	12690.68
495.496	12733.62
495.866	12828.31
496.235	12946.95
496.605	13083.67
496.974	13260.84
497.344	13271.68
497.713	13417.9
498.082	13529.53
498.452	13680.71
498.821	13722.97
499.19	13762.75
499.559	14004.1
499.928	13944.44
500.298	14186.46
500.667	14259.46
501.036	14242.73
501.405	14393.24
501.774	14466.68
502.143	14519.79
502.512	14718.65
502.88	14849.95
503.249	14858.54
503.618	15038.87
503.987	15028.02
504.356	15176.04
504.724	15400.89
505.093	15305.76
505.462	15446.54
505.83	15654
506.199	15692.41
506.567	15868.9
506.936	15919.07
507.304	16127.88
507.672	16260.53
508.041	16217.37
508.409	16467.53
508.777	16597.93
509.145	16613.29
509.514	16688.09
509.882	16772.16
510.25	16933.28
510.618	17063.45
510.986	17189.55
511.354	17334.4
511.722	17512.03
512.09	17712.47
512.458	17669.31
512.826	17845.8
513.193	17949.98
513.561	18063.88
513.929	18197.88
514.297	18326.47
514.664	18576.4
515.032	18625.22
515.4	18846.23
515.767	18901.82
516.135	19010.97
516.502	18934.36
516.869	19299.1
517.237	19310.62
517.604	19383.84
517.972	19638.98
518.339	19745.86
518.706	19829.7
519.073	19945.86
519.44	20184.95
519.808	20380.65
520.175	20302.23
520.542	20663.81
520.909	20736.8
521.276	20726.86
521.643	20991.48
522.009	21222.89
522.376	21339.04
522.743	21532.94
523.11	21656.55
523.477	21947.84
523.843	22054.96
524.21	22344.89
524.577	22421.95
524.943	22551.21
525.31	22656.52
525.676	22824.43
526.043	22957.98
526.409	23162.27
526.776	23408.37
527.142	23522.49
527.508	23677.29
527.874	23843.38
528.241	23964.29
528.607	24154.56
528.973	24359.08
529.339	24317.72
529.705	24640.65
530.071	24729.01
530.437	24967.2
530.803	25124.25
531.169	25331.48
531.535	25265.72
531.901	25345.72
532.267	25575.32
532.632	25681.08
532.998	25849.21
533.364	26074.51
533.73	26148.18
534.095	26368.52
534.461	26448.97
534.826	26573.71
535.192	26775.74
535.557	26823.42
535.923	26878.56
536.288	26945.45
536.653	27192
537.019	27244.42
537.384	27318.55
537.749	27449.84
538.114	27521.71
538.479	27493.01
538.845	27706.79
539.21	27726.67
539.575	28011.18
539.94	28107.23
540.305	28098.41
540.67	28198.98
541.034	28259.09
541.399	28470.38
541.764	28625.41
542.129	28685.29
542.494	28776.36
542.858	28952.18
543.223	28952.85
543.587	29137.48
543.952	29100.42
544.316	29364.37
544.681	29269.46
545.045	29424.03
545.41	29657.24
545.774	29595.78
546.138	29752.16
546.503	29864.92
546.867	29844.36
547.231	30145.37
547.595	30205.48
547.959	30346.26
548.324	30238.92
548.688	30412.93
549.052	30771.56
549.416	30670.78
549.779	30769.98
550.143	30922.97
550.507	31178.78
550.871	31254.71
551.235	31207.26
551.599	31511.43
551.962	31553.01
552.326	31596.63
552.689	31897.41
553.053	31779.45
553.417	31901.93
553.78	32162.71
554.143	32130.62
554.507	32422.37
554.87	32572.65
555.234	32836.14
555.597	32684.06
555.96	33033.88
556.323	33053.54
556.686	33148.45
557.05	33369.46
557.413	33520.64
557.776	33593.18
558.139	33857.13
558.502	33865.72
558.865	33924.7
559.228	34339.38
559.59	34404.46
559.953	34398.59
560.316	34782.08
560.679	34798.58
561.041	35111.34
561.404	35154.95
561.767	35472.01
562.129	35314.72
562.492	35709.06
562.854	35781.6
563.217	35810.08
563.579	35914.93
563.941	36260.01
564.304	36419.32
564.666	36651.41
565.028	36736.38
565.39	36913.55
565.753	37177.72
566.115	37193.09
566.477	37225.86
566.839	37356.02
567.201	37612.97
567.563	37575
567.925	37944.48
568.287	37869.91
568.648	38096.12
569.01	38224.93
569.372	38563.9
569.734	38417.92
570.095	38666.95
570.457	38991.01
570.819	39065.13
571.18	38971.57
571.542	39458.57
571.903	39362.75
572.265	39466.48
572.626	39573.37
572.987	39519.36
573.349	39693.59
573.71	39855.84
574.071	39865.79
574.432	40018.78
574.794	40362.5
575.155	40298.54
575.516	40295.61
575.877	40466.22
576.238	40720
576.599	40794.35
576.96	40693.79
577.32	40847.01
577.681	40993.67
578.042	41155.92
578.403	41086.32
578.763	41181.23
579.124	41255.81
579.485	41497.38
579.845	41426.88
580.206	41492.19
580.566	41398.18
580.927	41661.9
581.287	41736.02
581.648	41591.17
582.008	41677.72
582.368	41562.01
582.728	41631.39
583.089	41723.37
583.449	41515.91
583.809	41765.4
584.169	41753.2
584.529	41764.5
584.889	42018.5
585.249	41821.22
585.609	41658.51
585.969	41891.5
586.329	41820.09
586.688	41978.05
587.048	41949.57
587.408	41932.63
587.768	41964.26
588.127	41906.19
588.487	41708
588.846	42138.95
589.206	42045.62
589.565	42042.68
589.925	42008.78
590.284	41964.94
590.643	42242.9
591.003	42270.47
591.362	42308.89
591.721	42157.71
592.08	42208.1
592.44	42316.12
592.799	42444.48
593.158	42357.47
593.517	42333.52
593.876	42374.87
594.235	42310.02
594.593	42405.61
594.952	42528.77
595.311	42437.7
595.67	42464.14
596.029	42640.63
596.387	42558.37
596.746	42586.17
597.104	42547.3
597.463	42517.92
597.822	42722.44
598.18	42671.14
598.538	42594.08
598.897	42745.49
599.255	42510.46
599.613	43009.21
599.972	42811.93
600.33	42865.71
600.688	42626.39
601.046	42851.47
601.404	43083.33
601.762	43049.66
602.12	43197.45
602.478	43226.15
602.836	43151.58
603.194	42970.79
603.552	43114.52
603.91	42798.14
604.268	43273.38
604.625	43135.98
604.983	43444.45
605.341	43222.99
605.698	43461.17
606.056	43596.09
606.413	43473.83
606.771	43571.23
607.128	43622.98
607.485	43405.13
607.843	43454.17
608.2	43590.21
608.557	43788.62
608.914	43541.62
609.272	43894.61
609.629	43853.93
609.986	44150.42
610.343	43837.43
610.7	44077.65
611.057	44182.51
611.414	44097.77
611.771	44163.75
612.127	44328.95
612.484	44244.43
612.841	44441.26
613.198	44168.95
613.554	44371.88
613.911	44447.81
614.267	44385.67
614.624	44414.82
614.98	44462.28
615.337	44797.41
615.693	44682.61
616.05	44676.51
616.406	44870.85
616.762	44666.11
617.118	44733
617.475	44781.36
617.831	44883.74
618.187	44939.55
618.543	44952.43
618.899	45074.01
619.255	45056.84
619.611	44908.82
619.967	45136.38
620.323	45267.68
620.678	45118.31
621.034	44878.76
621.39	45087.12
621.746	44991.53
622.101	45549.71
622.457	45001.25
622.812	45103.84
623.168	45237.17
623.523	45247.79
623.879	45453.66
624.234	45201.24
624.589	45288.92
624.945	45309.03
625.3	45323.5
625.655	45250.96
626.01	45260.67
626.365	45216.61
626.72	45309.94
627.075	45174.57
627.43	45144.75
627.785	45142.26
628.14	45127.12
628.495	45223.84
628.85	45075.82
629.205	45032.21
629.559	45266.78
629.914	44909.72
630.269	45056.39
630.623	45061.13
630.978	44777.3
631.332	45054.8
631.687	45039.66
632.041	44820.69
632.396	45003.51
632.75	44624.76
633.104	44734.81
633.459	44562.39
633.813	44583.63
634.167	44663.85
634.521	44693.23
634.875	44616.4
635.229	44582.73
635.583	44284.88
635.937	44302.06
636.291	44239.68
636.645	44360.36
636.999	44180.02
637.352	44316.52
637.706	44072.68
638.06	44275.62
638.413	44099.12
638.767	43996.07
639.121	44067.26
639.474	43844.89
639.828	43756.08
640.181	43948.39
640.534	43858.68
640.888	43820.26
641.241	43578.46
641.594	43662.98
641.947	43702.3
642.301	43678.12
642.654	43608.06
643.007	43668.63
643.36	43550.66
643.713	43508.63
644.066	43560.83
644.419	43308.18
644.771	42966.5
645.124	42682.21
645.477	42512.95
645.83	42243.58
646.182	42072.06
646.535	41920.42
646.888	42139.85
647.24	41910.03
647.593	42218.04
647.945	42092.85
648.298	41935.79
648.65	41810.37
649.002	41726.98
649.355	41927.43
649.707	41788.68
650.059	41835.91
650.411	42314.99
650.763	42310.02
651.115	42581.87
651.467	42559.73
651.819	42517.02
652.171	42527.86
652.523	42357.93
652.875	42291.26
653.227	42230.92
653.578	42591.14
653.93	42430.92
654.282	42237.93
654.633	42087.2
654.985	42234.99
655.337	42280.64
655.688	42153.41
656.039	42148.89
656.391	41862.35
656.742	41927.65
657.094	41938.05
657.445	42195.9
657.796	42016.01
658.147	42006.3
658.498	41855.34
658.849	41905.06
659.2	41967.88
659.551	41780.54
659.902	41966.52
660.253	41808.34
660.604	41795.23
660.955	41578.06
661.306	41689.69
661.656	41579.87
662.007	41633.88
662.358	41640.43
662.708	41653.76
663.059	41477.05
663.409	41300.33
663.76	41576.03
664.11	41525.41
664.461	41543.94
664.811	41584.16
665.161	41492.64
665.511	41443.6
665.862	41425.75
666.212	41371.29
666.562	41550.72
666.912	41513.88
667.262	41417.39
667.612	41537.38
667.962	41378.74
668.312	41281.34
668.662	41531.73
669.011	41491.06
669.361	41418.74
669.711	41393.43
670.06	41176.26
670.41	41196.37
670.76	41062.37
671.109	41215.36
671.459	41206.09
671.808	41042.48
672.157	41289.25
672.507	41027.57
672.856	41030.96
673.205	40987.79
673.554	41143.04
673.904	40917.06
674.253	41033.89
674.602	41046.55
674.951	40496.05
675.3	40060.13
675.649	40876.61
675.998	40859.89
676.346	40749.38
676.695	40841.58
677.044	40545.77
677.393	40772.66
677.741	40867.8
678.09	40597.75
678.438	40522.95
678.787	40715.94
679.135	40772.43
679.484	40386.68
679.832	40443.85
680.181	40240.24
680.529	40316.85
680.877	40216.29
681.225	40184.42
681.573	40358.66
681.922	40154.37
682.27	40171.77
682.618	40079.12
682.966	39874.38
683.314	40082.96
683.661	39820.37
684.009	39623.76
684.357	39648.39
684.705	39608.39
685.053	39675.06
685.4	39517.55
685.748	39445.23
686.095	39357.78
686.443	39244.11
686.79	39049.09
687.138	39161.63
687.485	39169.99
687.832	38912.14
688.18	39144.45
688.527	38908.98
688.874	38757.57
689.221	38786.04
689.568	38642.54
689.915	38553.51
690.262	38589.89
690.609	38342.66
690.956	38360.29
691.303	38310.12
691.65	38122.1
691.997	38087.3
692.344	37907.65
692.69	37918.27
693.037	38066.97
693.383	37656.81
693.73	37830.81
694.077	37582.23
694.423	37439.19
694.769	37548.33
695.116	37441.22
695.462	37344.95
695.808	37189.02
696.155	37173.43
696.501	36902.48
696.847	36901.57
697.193	36615.7
697.539	36831.29
697.885	36519.66
698.231	36438.08
698.577	36463.39
698.923	36328.48
699.269	36183.4
699.614	36031.09
699.96	36012.33
700.306	36007.13
700.651	35832.22
700.997	35763.07
701.342	35699.57
701.688	35624.54
702.033	35429.29
702.379	35405.57
702.724	35262.29
703.069	35353.82
703.415	35080.6
703.76	34919.03
704.105	35013.71
704.45	34750.22
704.795	34574.85
705.14	34601.29
705.485	34744.34
705.83	34414.86
706.175	34435.2
706.52	34341.64
706.865	34219.38
707.209	34253.28
707.554	34242.43
707.899	34224.58
708.243	33980.97
708.588	33857.36
708.932	33729.45
709.277	33739.85
709.621	33746.63
709.966	33534.2
710.31	33577.59
710.654	33258.28
710.998	33355.9
711.342	33405.39
711.687	33237.26
712.031	33151.16
712.375	33037.49
712.719	33079.98
713.063	32958.17
713.407	33171.95
713.75	32907.78
714.094	32786.88
714.438	32710.72
714.782	32855.8
715.125	32533.55
715.469	32727.9
715.812	32496.94
716.156	32478.19
716.499	32275.48
716.843	32293.11
717.186	32023.51
717.53	32386.44
717.873	32293.33
718.216	32121.81
718.559	32022.83
718.902	31915.49
719.246	31962.27
719.589	31834.59
719.932	31830.97
720.275	31731.54
720.617	31700.8
720.96	31671.2
721.303	31571.99
721.646	31642.5
721.989	31328.16
722.331	31525.44
722.674	31348.95
723.016	31275.05
723.359	31163.87
723.701	31228.27
724.044	31001.16
724.386	30983.54
724.729	31194.15
725.071	30779.02
725.413	31123.87
725.755	30887.94
726.097	30739.7
726.439	30780.6
726.782	30639.14
727.124	30711.68
727.465	30546.03
727.807	30615.41
728.149	30560.04
728.491	30471.68
728.833	30558.69
729.175	30354.85
729.516	30259.94
729.858	30156.89
730.199	30204.57
730.541	30175.65
730.882	30279.83
731.224	30321.86
731.565	30184.01
731.906	30038.02
732.248	30033.73
732.589	29802.32
732.93	29761.19
733.271	29800.52
733.612	29822.44
733.953	29653.18
734.294	29665.38
734.635	29582.44
734.976	29675.1
735.317	29434.88
735.658	29491.37
735.999	29419.06
736.339	29350.36
736.68	29517.81
737.021	29471.03
737.361	29186.52
737.702	29480.07
738.042	29280.3
738.383	29191.04
738.723	29251.38
739.063	29105.84
739.404	29144.04
739.744	29136.13
740.084	28942.23
740.424	29109.01
740.764	28960.99
741.104	29104.04
741.444	28791.05
741.784	28758.96
742.124	28832.18
742.464	28875.34
742.804	28696.59
743.143	28566.2
743.483	28690.94
743.823	28463.83
744.162	28421.12
744.502	28425.41
744.841	28341.12
745.181	28299.54
745.52	28249.6
745.86	28247.34
746.199	28208.92
746.538	28029.94
746.877	28114.46
747.216	28099.54
747.556	27988.36
747.895	27902.26
748.234	27783.85
748.573	27817.52
748.911	27737.29
749.25	27743.39
749.589	27668.14
749.928	27750.4
750.267	27759.21
750.605	27564.64
750.944	27524.19
751.283	27411.65
751.621	27596.05
751.96	27275.38
752.298	27164.2
752.636	27245.33
752.975	27191.54
753.313	27159.68
753.651	27089.17
