Data from plate_ceramic_FLMS001491_041.txt Node
Date: Tue Feb 07 11:16:49 GMT 2017
User: dcchb
Spectrometer: FLMS00149
Trigger mode: 0
Integration Time (sec): 2.000000E-2
Scans to average: 10
Electric dark correction enabled: true
Nonlinearity correction enabled: false
Boxcar width: 0
XAxis mode: Wavelengths
Number of Pixels in Spectrum: 2048
>>>>>Begin Spectral Data<<<<<
341.393	-13.22
341.776	-13.22
342.16	-13.22
342.543	-67.46
342.927	-41.02
343.31	-65.42
343.693	-77.85
344.077	-56.61
344.46	-64.97
344.843	-40.56
345.226	-50.28
345.61	-48.7
345.993	-12.54
346.376	3.28
346.759	9.83
347.142	25.42
347.525	50.28
347.908	45.31
348.291	71.75
348.674	94.57
349.057	116.49
349.44	113.78
349.823	142.71
350.206	155.82
350.588	200.56
350.971	217.73
351.354	228.36
351.737	213.21
352.119	252.99
352.502	248.24
352.884	290.95
353.267	263.61
353.65	294.57
354.032	313.55
354.414	313.1
354.797	320.56
355.179	333.66
355.562	325.3
355.944	335.25
356.326	337.73
356.709	340.89
357.091	356.94
357.473	362.59
357.855	343.83
358.238	359.43
358.62	347.45
359.002	347
359.384	333.89
359.766	345.41
360.148	355.58
360.53	362.36
360.912	337.51
361.294	346.54
361.676	344.96
362.057	330.5
362.439	348.35
362.821	353.1
363.203	317.84
363.584	336.83
363.966	332.53
364.348	354
364.729	355.58
365.111	323.72
365.493	341.57
365.874	318.52
366.256	350.39
366.637	334.12
367.019	333.66
367.4	349.26
367.781	341.35
368.163	339.09
368.544	341.12
368.925	332.53
369.306	342.7
369.688	330.27
370.069	336.38
370.45	352.65
370.831	338.86
371.212	347.9
371.593	371.4
371.974	358.52
372.355	347.67
372.736	351.97
373.117	344.06
373.498	334.12
373.879	333.21
374.26	367.33
374.641	360.56
375.021	367.11
375.402	377.05
375.783	346.32
376.163	353.78
376.544	384.06
376.925	362.82
377.305	370.27
377.686	374.57
378.066	390.84
378.447	381.57
378.827	378.63
379.208	370.05
379.588	383.83
379.968	382.93
380.349	385.19
380.729	414.57
381.109	388.13
381.489	389.03
381.87	385.87
382.25	411.85
382.63	399.65
383.01	397.39
383.39	437.39
383.77	410.95
384.15	423.6
384.53	415.47
384.91	405.98
385.29	439.88
385.67	414.57
386.049	445.07
386.429	447.78
386.809	445.53
387.189	455.47
387.568	433.77
387.948	450.5
388.328	449.37
388.707	463.83
389.087	453.21
389.466	453.89
389.846	468.35
390.225	481.46
390.605	457.95
390.984	495.47
391.363	455.69
391.743	471.06
392.122	506.99
392.501	502.92
392.881	499.99
393.26	504.28
393.639	503.38
394.018	515.13
394.397	499.99
394.776	517.16
395.155	495.92
395.534	535.92
395.913	510.61
396.292	542.25
396.671	562.81
397.05	544.28
397.429	559.42
397.808	541.34
398.186	555.35
398.565	569.59
398.944	580.21
399.323	582.92
399.701	543.6
400.08	587.44
400.458	581.79
400.837	574.56
401.215	596.48
401.594	602.36
401.972	629.47
402.351	599.87
402.729	630.15
403.107	622.92
403.486	629.7
403.864	637.38
404.242	625.18
404.62	648.68
404.999	680.32
405.377	665.86
405.755	666.08
406.133	673.54
406.511	693.43
406.889	684.84
407.267	708.12
407.645	698.63
408.023	713.31
408.401	720.77
408.779	736.82
409.156	730.49
409.534	734.33
409.912	753.99
410.29	765.74
410.667	783.37
411.045	790.6
411.422	764.39
411.8	808
412.178	841.45
412.555	823.37
412.933	836.48
413.31	851.39
413.687	862.24
414.065	864.27
414.442	864.95
414.819	884.38
415.197	879.64
415.574	901.78
415.951	909.02
416.328	914.21
416.705	942.69
417.082	923.48
417.46	927.77
417.837	965.29
418.214	927.77
418.591	951.27
418.967	970.03
419.344	1004.15
419.721	983.82
420.098	992.18
420.475	1027.88
420.852	1009.8
421.228	1048.9
421.605	1026.3
421.982	1067.43
422.358	1084.38
422.735	1086.86
423.111	1092.29
423.488	1111.72
423.864	1105.62
424.241	1128.22
424.617	1118.28
424.994	1125.51
425.37	1150.59
425.746	1157.82
426.123	1167.77
426.499	1154.88
426.875	1206.18
427.251	1242.57
427.627	1258.61
428.003	1237.37
428.379	1269.91
428.756	1304.49
429.132	1291.83
429.507	1322.56
429.883	1327.54
430.259	1332.96
430.635	1384.03
431.011	1358.04
431.387	1418.61
431.763	1415.22
432.138	1432.84
432.514	1442.33
432.89	1435.1
433.265	1463.35
433.641	1503.35
434.016	1525.95
434.392	1553.07
434.767	1561.65
435.143	1560.52
435.518	1598.26
435.894	1608.66
436.269	1632.84
436.644	1614.99
437.02	1658.37
437.395	1666.51
437.77	1686.4
438.145	1748.09
438.52	1741.76
438.895	1730.01
439.271	1720.75
439.646	1822.89
440.021	1764.36
440.395	1821.99
440.77	1784.92
441.145	1800.07
441.52	1858.14
441.895	1844.36
442.27	1866.5
442.645	1854.53
443.019	1899.05
443.394	1922.77
443.769	1924.36
444.143	1913.96
444.518	1967.29
444.892	1928.42
445.267	1928.42
445.641	1962.1
446.016	1985.37
446.39	1993.28
446.764	2037.57
447.139	2028.99
447.513	2066.95
447.887	2055.2
448.262	2072.6
448.636	2076.22
449.01	2092.49
449.384	2115.54
449.758	2129.55
450.132	2159.15
450.506	2182.43
450.88	2175.2
451.254	2176.55
451.628	2244.12
452.002	2210.68
452.376	2245.7
452.75	2283.44
453.123	2329.77
453.497	2332.93
453.871	2328.64
454.244	2435.08
454.618	2466.04
454.992	2488.86
455.365	2483.66
455.739	2525.92
456.112	2572.93
456.486	2583.1
456.859	2599.82
457.232	2653.15
457.606	2648.4
457.979	2657.9
458.352	2739.93
458.725	2759.59
459.099	2774.96
459.472	2824.45
459.845	2876.87
460.218	2909.42
460.591	2933.14
460.964	2921.39
461.337	3006.14
461.71	3066.93
462.083	3097.21
462.456	3109.41
462.829	3089.3
463.201	3173.81
463.574	3186.92
463.947	3253.81
464.32	3303.75
464.692	3357.09
465.065	3389.85
465.438	3404.32
465.81	3453.58
466.183	3487.93
466.555	3544.65
466.928	3593.01
467.3	3617.42
467.672	3679.79
468.045	3791.65
468.417	3766.79
468.789	3801.59
469.161	3847.7
469.534	3947.81
469.906	3990.29
470.278	4054.47
470.65	4059.22
471.022	4142.83
471.394	4218.31
471.766	4233.67
472.138	4290.85
472.51	4400
472.882	4487.68
473.253	4537.62
473.625	4578.52
473.997	4687
474.369	4741.01
474.74	4770.61
475.112	4867.78
475.484	4972.64
475.855	5017.61
476.227	5078.85
476.598	5209.47
476.97	5266.87
477.341	5329.92
477.713	5463.92
478.084	5452.62
478.455	5626.18
478.827	5721.54
479.198	5793.86
479.569	5824.14
479.94	6000.63
480.311	6096.22
480.682	6228.42
481.053	6340.96
481.424	6465.25
481.795	6462.99
482.166	6582.76
482.537	6708.41
482.908	6829.54
483.279	6950.21
483.65	7056.65
484.021	7187.27
484.391	7240.37
484.762	7267.94
485.133	7412.8
485.503	7527.15
485.874	7735.28
486.244	7745.22
486.615	7916.74
486.985	8018.66
487.356	8115.38
487.726	8228.82
488.097	8407.12
488.467	8415.94
488.837	8551.3
489.207	8735.48
489.578	8807.57
489.948	8975.02
490.318	8992.64
490.688	9036.94
491.058	9169.82
491.428	9333.88
491.798	9414.1
492.168	9589.01
492.538	9656.13
492.908	9742.68
493.278	9916.91
493.648	9970.02
494.017	10000.53
494.387	10129.56
494.757	10268.09
495.126	10363
495.496	10467.86
495.866	10531.36
496.235	10601.42
496.605	10710.57
496.974	10837.79
497.344	10906.49
497.713	10995.08
498.082	11114.4
498.452	11103.78
498.821	11235.52
499.19	11315.3
499.559	11381.73
499.928	11575.85
500.298	11565.01
500.667	11695.4
501.036	11639.81
501.405	11870.08
501.774	11864.66
502.143	11981.27
502.512	11983.98
502.88	12180.58
503.249	12212.9
503.618	12260.13
503.987	12384.42
504.356	12548.94
504.724	12567.24
505.093	12518.43
505.462	12685.2
505.83	12788.03
506.199	12906.67
506.567	13008.58
506.936	13052.2
507.304	13198.41
507.672	13215.81
508.041	13285.41
508.409	13509.36
508.777	13562.47
509.145	13689.7
509.514	13707.55
509.882	13857.83
510.25	13857.83
510.618	13982.8
510.986	14017.15
511.354	14275.9
511.722	14299.62
512.09	14415.78
512.458	14428.21
512.826	14535.32
513.193	14733.28
513.561	14680.86
513.929	14829.55
514.297	15081.98
514.664	15102.09
515.032	15185.7
515.4	15345.7
515.767	15493.49
516.135	15480.16
516.502	15507.28
516.869	15791.11
517.237	15821.62
517.604	15830.66
517.972	15996.08
518.339	16075.4
518.706	16183.42
519.073	16319.68
519.44	16436.52
519.808	16583.86
520.175	16659.34
520.542	16871.76
520.909	17070.85
521.276	16924.41
521.643	17206.67
522.009	17332.31
522.376	17497.05
522.743	17639.65
523.11	17752.19
523.477	17957.15
523.843	18078.51
524.21	18229.24
524.577	18356.24
524.943	18441.66
525.31	18600.3
525.676	18777.47
526.043	18774.76
526.409	18912.61
526.776	19208.2
527.142	19222.43
527.508	19435.76
527.874	19572.71
528.241	19693.61
528.607	19762.98
528.973	19913.71
529.339	19985.58
529.705	20192.35
530.071	20343.53
530.437	20403.87
530.803	20542.62
531.169	20642.96
531.535	20728.83
531.901	20752.79
532.267	20925.21
532.632	21115.26
532.998	21186
533.364	21247.24
533.73	21297.41
534.095	21477.29
534.461	21616.95
534.826	21800.9
535.192	21789.37
535.557	22001.79
535.923	21950.27
536.288	22084.96
536.653	22206.31
537.019	22049.7
537.384	22378.51
537.749	22440.43
538.114	22431.84
538.479	22586.64
538.845	22683.13
539.21	22676.13
539.575	22765.84
539.94	22802.45
540.305	23009.23
540.67	23012.62
541.034	23192.27
541.399	23288.99
541.764	23352.04
542.129	23386.62
542.494	23496.67
542.858	23559.49
543.223	23702.54
543.587	23839.94
543.952	23789.32
544.316	23825.25
544.681	23883.78
545.045	24019.59
545.41	24173.49
545.774	24245.58
546.138	24296.42
546.503	24410.32
546.867	24383.88
547.231	24639.92
547.595	24643.98
547.959	24820.03
548.324	24835.39
548.688	24952.9
549.052	24953.13
549.416	25003.98
549.779	25116.06
550.143	25290.97
550.507	25320.58
550.871	25553.57
551.235	25570.29
551.599	25663.17
551.962	25712.43
552.326	25855.25
552.689	25864.52
553.053	25958.3
553.417	26044.63
553.78	26429.25
554.143	26219.08
554.507	26406.42
554.87	26562.8
555.234	26738.62
555.597	26720.09
555.96	26847.54
556.323	26965.28
556.686	27041.21
557.05	27306.06
557.413	27394.42
557.776	27365.95
558.139	27659.05
558.502	27577.24
558.865	27717.12
559.228	27897.91
559.59	27986.95
559.953	27936.1
560.316	28364.11
560.679	28383.1
561.041	28591.68
561.404	28792.35
561.767	28972.46
562.129	28877.77
562.492	29193.02
562.854	29172.23
563.217	29245.45
563.579	29426.46
563.941	29581.48
564.304	29662.61
564.666	29912.55
565.028	29970.85
565.39	30132.2
565.753	30345.53
566.115	30343.04
566.477	30360.9
566.839	30561.34
567.201	30830.04
567.563	30662.36
567.925	31017.6
568.287	31078.17
568.648	31202.46
569.01	31291.04
569.372	31528.78
569.734	31391.6
570.095	31695.32
570.457	31746.62
570.819	31806.51
571.18	31805.83
571.542	32143.45
571.903	32153.39
572.265	32257.12
572.626	32328.75
572.987	32413.72
573.349	32644.9
573.71	32628.63
574.071	32653.27
574.432	32831.57
574.794	33095.74
575.155	33148.17
575.516	33024.1
575.877	33131.9
576.238	33221.61
576.599	33312.46
576.96	33329.18
577.32	33509.97
577.681	33650.75
578.042	33653.01
578.403	33601.26
578.763	33627.48
579.124	33746.57
579.485	33911.76
579.845	33862.27
580.206	33805.33
580.566	33866.57
580.927	33893.69
581.287	34142.72
581.648	33985.66
582.008	34172.1
582.368	33991.31
582.728	34176.39
583.089	34176.16
583.449	34029.73
583.809	34299.1
584.169	34177.75
584.529	34186.11
584.889	34603.04
585.249	34309.95
585.609	34255.03
585.969	34470.62
586.329	34344.75
586.688	34362.6
587.048	34468.59
587.408	34360.57
587.768	34354.92
588.127	34390.85
588.487	34402.6
588.846	34515.36
589.206	34413.67
589.565	34313.34
589.925	34552.2
590.284	34472.2
590.643	34505.19
591.003	34434.69
591.362	34669.71
591.721	34592.2
592.08	34689.37
592.44	34702.7
592.799	34742.7
593.158	34664.06
593.517	34733.66
593.876	34650.73
594.235	34588.81
594.593	34582.03
594.952	34785.19
595.311	34700.44
595.67	34705.87
596.029	34932.3
596.387	34978.85
596.746	34979.31
597.104	34912.19
597.463	34860.21
597.822	35005.29
598.18	34921.23
598.538	34875.13
598.897	35248.68
599.255	34856.82
599.613	35390.82
599.972	35078.51
600.33	35290.26
600.688	35055.69
601.046	35327.77
601.404	35346.08
601.762	35319.41
602.12	35494.32
602.478	35428.79
602.836	35379.52
603.194	35270.37
603.552	35371.16
603.91	35390.37
604.268	35477.82
604.625	35251.39
604.983	35566.64
605.341	35330.26
605.698	35591.95
606.056	35630.14
606.413	35667.2
606.771	35742.9
607.128	35740.19
607.485	35737.7
607.843	35768.21
608.2	35876.46
608.557	36016.79
608.914	35843.69
609.272	36147.86
609.629	36071.03
609.986	36157.81
610.343	36052.27
610.7	36370.91
611.057	36387.86
611.414	36211.14
611.771	36226.73
612.127	36430.12
612.484	36358.71
612.841	36492.49
613.198	36304.24
613.554	36334.98
613.911	36487.29
614.267	36547.4
614.624	36521.86
614.98	36564.58
615.337	36672.82
615.693	36725.7
616.05	36608.87
616.406	36945.13
616.762	36749.2
617.118	36711.01
617.475	36756.43
617.831	36964.79
618.187	36938.35
618.543	37040.04
618.899	37075.52
619.255	37003.89
619.611	36957.56
619.967	37129.98
620.323	37244.78
620.678	36985.58
621.034	36899.48
621.39	36987.16
621.746	36989.87
622.101	37382.41
622.457	37062.19
622.812	37113.49
623.168	37261.96
623.523	37246.82
623.879	37365.68
624.234	36987.62
624.589	37180.83
624.945	37156.88
625.3	37266.03
625.655	37186.71
626.01	37212.92
626.365	37276.87
626.72	37167.72
627.075	37163.2
627.43	37294.5
627.785	37057.22
628.14	37033.49
628.495	37032.13
628.85	37108.97
629.205	36920.95
629.559	37060.83
629.914	36936.99
630.269	37008.63
630.623	36799.6
630.978	36838.92
631.332	36802.31
631.687	37013.15
632.041	36759.15
632.396	36953.94
632.75	36682.76
633.104	36682.31
633.459	36649.32
633.813	36522.77
634.167	36486.61
634.521	36441.87
634.875	36642.99
635.229	36496.55
635.583	36335.88
635.937	36385.82
636.291	36279.84
636.645	36207.97
636.999	36155.32
637.352	36268.09
637.706	36094.53
638.06	36182.44
638.413	36037.36
638.767	35999.39
639.121	36102.67
639.474	35838.27
639.828	35979.73
640.181	35932.28
640.534	35822.22
640.888	35695.22
641.241	35681.21
641.594	35716.46
641.947	35800.08
642.301	35666.75
642.654	35641.44
643.007	35738.61
643.36	35603.24
643.713	35433.53
644.066	35510.14
644.419	35276.7
644.771	35051.62
645.124	34758.3
645.477	34692.31
645.83	34499.77
646.182	34324.18
646.535	34189.5
646.888	34434.91
647.24	34241.02
647.593	34303.84
647.945	34260.68
648.298	34208.48
648.65	34118.99
649.002	33971.2
649.355	34096.17
649.707	34016.17
650.059	34211.42
650.411	34483.95
650.763	34450.05
651.115	34798.29
651.467	34639.88
651.819	34743.15
652.171	34579.09
652.523	34530.05
652.875	34434.01
653.227	34376.84
653.578	34648.47
653.93	34418.64
654.282	34402.37
654.633	34312.88
654.985	34284.64
655.337	34373.67
655.688	34354.92
656.039	34457.29
656.391	34074.02
656.742	34226.56
657.094	34297.52
657.445	34328.25
657.796	34258.65
658.147	34074.02
658.498	34080.8
658.849	34181.36
659.2	34128.71
659.551	34001.03
659.902	34151.31
660.253	34089.84
660.604	34189.27
660.955	33919.22
661.306	33862.5
661.656	33935.27
662.007	33861.37
662.358	34006.45
662.708	33826.12
663.059	33843.74
663.409	33756.29
663.76	33914.02
664.11	33791.09
664.461	33900.46
664.811	33810.75
665.161	33793.57
665.511	33678.55
665.862	33728.94
666.212	33715.84
666.562	33653.69
666.912	33647.82
667.262	33505.67
667.612	33555.39
667.962	33598.55
668.312	33576.18
668.662	33711.77
669.011	33655.05
669.361	33513.13
669.711	33566.46
670.06	33576.18
670.41	33366.02
670.76	33457.09
671.109	33563.07
671.459	33372.34
671.808	33427.03
672.157	33512.23
672.507	33277.43
672.856	33186.13
673.205	33268.62
673.554	33298.9
673.904	33149.75
674.253	33273.14
674.602	33145.91
674.951	32859.59
675.3	32646.03
675.649	33083.31
675.998	33034.95
676.346	33158.34
676.695	33296.64
677.044	32997.66
677.393	33007.15
677.741	33090.32
678.09	33073.14
678.438	32884.9
678.787	32915.63
679.135	32944.56
679.484	32764.45
679.832	32891
680.181	32646.26
680.529	32782.75
680.877	32592.93
681.225	32589.09
681.573	32843.54
681.922	32476.32
682.27	32433.16
682.618	32550.9
682.966	32476.55
683.314	32508.64
683.661	32259.83
684.009	32226.16
684.357	32053.73
684.705	32039.04
685.053	32098.25
685.4	32083.34
685.748	31884.7
686.095	31940.06
686.443	31770.58
686.79	31815.77
687.138	31709.56
687.485	31649.45
687.832	31574.2
688.18	31599.73
688.527	31432.51
688.874	31527.42
689.221	31373.3
689.568	31186.41
689.915	31068.9
690.262	31205.62
690.609	31160.88
690.956	30908.9
691.303	31005.17
691.65	30775.57
691.997	30864.39
692.344	30667.78
692.69	30662.13
693.037	30807.44
693.383	30323.38
693.73	30625.07
694.077	30448.8
694.423	30453.1
694.769	30350.73
695.116	30183.05
695.462	30097.85
695.808	29849.5
696.155	30048.81
696.501	29810.85
696.847	29839.55
697.193	29532.44
697.539	29641.82
697.885	29299.46
698.231	29351.21
698.577	29289.51
698.923	29277.99
699.269	29149.18
699.614	29054.26
699.96	28976.53
700.306	28965.91
700.651	28868.73
700.997	28757.1
701.342	28662.64
701.688	28621.28
702.033	28468.29
702.379	28589.42
702.724	28452.92
703.069	28536.09
703.415	28328.63
703.76	28172.71
704.105	28180.84
704.45	28128.41
704.795	27958.25
705.14	27885.71
705.485	27771.81
705.83	27694.53
706.175	27736.33
706.52	27510.35
706.865	27649.33
707.209	27551.48
707.554	27420.63
707.899	27569.11
708.243	27352.16
708.588	27323.69
708.932	27052.28
709.277	27074.66
709.621	27094.32
709.966	26983.13
710.31	26996.47
710.654	26818.16
710.998	26907.2
711.342	26763.48
711.687	26694.78
712.031	26490.04
712.375	26614.55
712.719	26511.28
713.063	26459.76
713.407	26502.92
713.75	26473.99
714.094	26487.55
714.438	26355.35
714.782	26331.4
715.125	26227.22
715.469	26271.06
715.812	26113.1
716.156	25949.26
716.499	25880.56
716.843	25978.41
717.186	25880.11
717.53	26026.77
717.873	25911.97
718.216	25757.85
718.559	25677.4
718.902	25426.79
719.246	25540.46
719.589	25493
719.932	25371.65
720.275	25332.55
720.617	25276.06
720.96	25291.43
721.303	25336.85
721.646	25341.82
721.989	25075.61
722.331	25130.3
722.674	25085.33
723.016	25098.66
723.359	24963.3
723.701	24881.94
724.044	24806.01
724.386	24774.83
724.729	24929.4
725.071	24785
725.413	24746.81
725.755	24767.37
726.097	24704.77
726.439	24422.52
726.782	24487.38
727.124	24676.75
727.465	24449.87
727.807	24620.71
728.149	24487.38
728.491	24276.08
728.833	24329.87
729.175	24271.57
729.516	24261.62
729.858	24257.33
730.199	24231.79
730.541	24124.45
730.882	24061.85
731.224	24096.43
731.565	23985.92
731.906	24047.62
732.248	23978.92
732.589	23808.3
732.93	23687.4
733.271	23787.06
733.612	23795.19
733.953	23884.68
734.294	23690.79
734.635	23601.07
734.976	23705.25
735.317	23457.35
735.658	23509.78
735.999	23577.35
736.339	23451.7
736.68	23428.65
737.021	23386.84
737.361	23378.03
737.702	23517.46
738.042	23197.7
738.383	23221.65
738.723	23357.69
739.063	23136.23
739.404	23239.28
739.744	23188.88
740.084	23100.75
740.424	22993.63
740.764	23066.17
741.104	23142.78
741.444	22927.87
741.784	22919.96
742.124	22931.49
742.464	22875.67
742.804	22925.61
743.143	22693.53
743.483	22738.72
743.823	22700.08
744.162	22677.93
744.502	22680.19
744.841	22604.04
745.181	22541.89
745.52	22459.18
745.86	22542.57
746.199	22442.46
746.538	22387.09
746.877	22463.03
747.216	22341.67
747.556	22304.16
747.895	22365.17
748.234	22178.51
748.573	22066.2
748.911	22145.97
749.25	22107.1
749.589	21958.86
749.928	22069.14
750.267	21934.45
750.605	21961.57
750.944	21955.92
751.283	21834.34
751.621	21734.68
751.96	21786.66
752.298	21740.56
752.636	21646.78
752.975	21608.81
753.313	21600.67
753.651	21502.6
753.989	21468.48
754.327	21385.99
