Data from plate_ceramic_FLMS001491_026.txt Node
Date: Tue Feb 07 11:16:32 GMT 2017
User: dcchb
Spectrometer: FLMS00149
Trigger mode: 0
Integration Time (sec): 2.000000E-2
Scans to average: 10
Electric dark correction enabled: true
Nonlinearity correction enabled: false
Boxcar width: 0
XAxis mode: Wavelengths
Number of Pixels in Spectrum: 2048
>>>>>Begin Spectral Data<<<<<
341.393	-4.53
341.776	-4.53
342.16	-4.53
342.543	-80.01
342.927	-70.29
343.31	-80.46
343.693	-85.89
344.077	-55.61
344.46	-60.13
344.843	-60.13
345.226	-34.82
345.61	-25.78
345.993	-21.26
346.376	17.39
346.759	20.32
347.142	20.32
347.525	27.1
347.908	72.75
348.291	93.09
348.674	70.27
349.057	102.81
349.44	124.5
349.823	130.15
350.206	153.88
350.588	205.18
350.971	208.34
351.354	240.43
351.737	236.59
352.119	253.54
352.502	275.46
352.884	285.18
353.267	289.24
353.65	292.86
354.032	312.75
354.414	315.91
354.797	321.11
355.179	351.62
355.562	341.67
355.944	349.58
356.326	347.55
356.709	339.86
357.091	346.87
357.473	350.94
357.855	361.78
358.238	337.83
358.62	361.56
359.002	340.09
359.384	343.93
359.766	345.51
360.148	366.3
360.53	335.8
360.912	347.32
361.294	348.68
361.676	366.53
362.057	329.69
362.439	341.67
362.821	329.92
363.203	363.59
363.584	338.51
363.966	351.62
364.348	321.79
364.729	336.25
365.111	334.89
365.493	336.25
365.874	348.23
366.256	343.71
366.637	327.66
367.019	331.95
367.4	336.25
367.781	349.13
368.163	329.24
368.544	337.15
368.925	332.63
369.306	347.55
369.688	331.28
370.069	324.05
370.45	355.68
370.831	344.61
371.212	330.82
371.593	336.7
371.974	333.99
372.355	335.8
372.736	341.45
373.117	348
373.498	361.11
373.879	325.85
374.26	357.26
374.641	341.9
375.021	341.67
375.402	343.48
375.783	345.97
376.163	377.6
376.544	375.57
376.925	384.61
377.305	371.73
377.686	378.06
378.066	378.73
378.447	384.61
378.827	376.93
379.208	362.69
379.588	392.29
379.968	374.67
380.349	372.63
380.729	392.29
381.109	392.07
381.489	405.4
381.87	396.36
382.25	405.62
382.63	396.59
383.01	417.83
383.39	396.36
383.77	406.98
384.15	407.21
384.53	419.18
384.91	387.77
385.29	419.64
385.67	417.6
386.049	432.74
386.429	435.23
386.809	431.84
387.189	435
387.568	432.29
387.948	439.75
388.328	456.47
388.707	442.01
389.087	458.73
389.466	451.73
389.846	457.15
390.225	472.74
390.605	468.22
390.984	466.64
391.363	473.42
391.743	490.59
392.122	464.61
392.501	488.33
392.881	466.64
393.26	491.95
393.639	485.17
394.018	499.63
394.397	516.81
394.776	521.78
395.155	518.62
395.534	515.23
395.913	507.32
396.292	533.53
396.671	520.42
397.05	530.37
397.429	535.57
397.808	538.95
398.186	537.15
398.565	556.81
398.944	566.52
399.323	555.45
399.701	568.78
400.08	558.84
400.458	584.6
400.837	593.87
401.215	590.25
401.594	610.82
401.972	616.01
402.351	594.77
402.729	595.22
403.107	620.08
403.486	626.86
403.864	624.83
404.242	635
404.62	613.3
404.999	646.07
405.377	632.29
405.755	645.62
406.133	641.78
406.511	665.73
406.889	666.64
407.267	658.5
407.645	690.36
408.023	706.63
408.401	707.76
408.779	715.22
409.156	721.1
409.534	717.93
409.912	715
410.29	743.02
410.667	736.69
411.045	757.71
411.422	742.11
411.8	800.42
412.178	776.24
412.555	788.67
412.933	805.84
413.31	822.56
413.687	821.66
414.065	825.5
414.442	848.1
414.819	849.68
415.197	858.49
415.574	874.54
415.951	869.79
416.328	878.83
416.705	902.11
417.082	880.87
417.46	907.08
417.837	907.76
418.214	935.78
418.591	943.92
418.967	928.55
419.344	963.35
419.721	969
420.098	959.51
420.475	972.16
420.852	972.16
421.228	974.88
421.605	978.72
421.982	987.98
422.358	1020.3
422.735	1032.95
423.111	1029.56
423.488	1031.82
423.864	1092.16
424.241	1081.31
424.617	1100.07
424.994	1049
425.37	1107.08
425.746	1116.11
426.123	1122.44
426.499	1143.23
426.875	1165.38
427.251	1185.49
427.627	1170.12
428.003	1182.55
428.379	1197.92
428.756	1217.81
429.132	1262.33
429.507	1245.6
429.883	1257.13
430.259	1299.39
430.635	1293.74
431.011	1309.78
431.387	1340.52
431.763	1321.31
432.138	1374.86
432.514	1375.99
432.89	1379.38
433.265	1411.25
433.641	1407.86
434.016	1424.81
434.392	1449.67
434.767	1467.07
435.143	1518.59
435.518	1502.55
435.894	1548.19
436.269	1552.04
436.644	1557.69
437.02	1568.98
437.395	1588.42
437.77	1588.42
438.145	1634.75
438.52	1632.94
438.895	1645.37
439.271	1657.57
439.646	1677.23
440.021	1674.97
440.395	1710.68
440.77	1705.93
441.145	1726.72
441.52	1743.44
441.895	1759.26
442.27	1759.71
442.645	1767.17
443.019	1802.88
443.394	1812.59
443.769	1812.37
444.143	1833.38
444.518	1872.93
444.892	1848.52
445.267	1854.85
445.641	1871.35
446.016	1919.94
446.39	1907.05
446.764	1891.69
447.139	1916.32
447.513	1953.61
447.887	1951.12
448.262	1956.77
448.636	1962.19
449.01	1984.79
449.384	2022.31
449.758	2019.59
450.132	2043.77
450.506	2042.42
450.88	2071.57
451.254	2087.39
451.628	2069.99
452.002	2118.8
452.376	2152.02
452.75	2146.14
453.123	2187.95
453.497	2221.62
453.871	2223.43
454.244	2295.97
454.618	2298.91
454.992	2347.49
455.365	2350.21
455.739	2414.39
456.112	2390.21
456.486	2442.63
456.859	2460.94
457.232	2486.02
457.606	2513.37
457.979	2559.92
458.352	2562.4
458.725	2641.5
459.099	2629.97
459.472	2703.42
459.845	2696.86
460.218	2735.51
460.591	2761.04
460.964	2737.32
461.337	2855.5
461.71	2883.98
462.083	2889.4
462.456	2912
462.829	2977.53
463.201	2998.55
463.574	3053.46
463.947	3095.72
464.32	3142.73
464.692	3148.15
465.065	3190.86
465.438	3187.7
465.81	3287.81
466.183	3317.86
466.555	3377.98
466.928	3393.12
467.3	3387.92
467.672	3451.19
468.045	3572.55
468.417	3560.34
468.789	3626.33
469.161	3596.5
469.534	3696.39
469.906	3768.47
470.278	3817.06
470.65	3841.69
471.022	3908.58
471.394	3961.69
471.766	4035.13
472.138	4087.34
472.51	4136.37
472.882	4208.91
473.253	4276.71
473.625	4321.45
473.997	4455.91
474.369	4439.64
474.74	4479.87
475.112	4584.72
475.484	4674.67
475.855	4740.2
476.227	4780.88
476.598	4903.13
476.97	4941.1
477.341	5080.98
477.713	5113.52
478.084	5125.05
478.455	5316
478.827	5320.3
479.198	5509.45
479.569	5478.71
479.94	5664.02
480.311	5697.69
480.682	5869.44
481.053	6005.03
481.424	6072.59
481.795	6122.54
482.166	6214.29
482.537	6290.67
482.908	6386.94
483.279	6505.13
483.65	6649.3
484.021	6753.25
484.391	6812.91
484.762	6909.41
485.133	6993.02
485.503	7113.47
485.874	7262.85
486.244	7333.13
486.615	7403.63
486.985	7538.54
487.356	7646.56
487.726	7761.59
488.097	7881.13
488.467	7947.57
488.837	8065.99
489.207	8189.83
489.578	8286.55
489.948	8394.34
490.318	8515.92
490.688	8517.5
491.058	8710.27
491.428	8776.03
491.798	8952.29
492.168	9016.02
492.538	9045.62
492.908	9209.91
493.278	9303.92
493.648	9363.81
494.017	9484.93
494.387	9556.57
494.757	9637.7
495.126	9732.16
495.496	9820.97
495.866	9876.34
496.235	9970.35
496.605	10115.88
496.974	10114.3
497.344	10265.93
497.713	10350.9
498.082	10445.13
498.452	10528.3
498.821	10564.23
499.19	10703.43
499.559	10745.24
499.928	10852.58
500.298	10885.35
500.667	11072.92
501.036	11045.12
501.405	11131.44
501.774	11160.82
502.143	11270.88
502.512	11290.08
502.88	11448.72
503.249	11475.84
503.618	11579.79
503.987	11606.91
504.356	11675.61
504.724	11714.25
505.093	11850.3
505.462	11984.3
505.83	12056.17
506.199	12142.49
506.567	12276.05
506.936	12282.6
507.304	12377.74
507.672	12502.26
508.041	12532.09
508.409	12678.3
508.777	12816.82
509.145	12893.21
509.514	12903.83
509.882	13046.2
510.25	13135.69
510.618	13179.3
510.986	13215.91
511.354	13436.69
511.722	13524.15
512.09	13570.7
512.458	13582.45
512.826	13814.54
513.193	13783.8
513.561	13888.43
513.929	13973.63
514.297	14124.13
514.664	14286.84
515.032	14270.8
515.4	14428.76
515.767	14583.33
516.135	14571.81
516.502	14528.87
516.869	14838.92
517.237	14920.72
517.604	14875.53
517.972	15137.44
518.339	15176.31
518.706	15234.61
519.073	15360.71
519.44	15456.75
519.808	15696.3
520.175	15670.08
520.542	15964.99
520.909	15975.84
521.276	16020.58
521.643	16226.45
522.009	16329.5
522.376	16466.45
522.743	16577.86
523.11	16795.7
523.477	16839.77
523.843	17059.42
524.21	17220.32
524.577	17256.26
524.943	17360.66
525.31	17533.08
525.676	17686.75
526.043	17703.7
526.409	17935.56
526.776	18035.44
527.142	18167.19
527.508	18355.89
527.874	18473.4
528.241	18576.9
528.607	18627.97
528.973	18782.99
529.339	18800.17
529.705	19015.31
530.071	19069.99
530.437	19246.26
530.803	19344.79
531.169	19548.62
531.535	19514.95
531.901	19598.79
532.267	19789.97
532.632	19887.15
532.998	19957.2
533.364	20099.8
533.73	20104.54
534.095	20380.47
534.461	20352.67
534.826	20380.24
535.192	20535.72
535.557	20741.59
535.923	20767.35
536.288	20794.24
536.653	20832.43
537.019	20955.82
537.384	21090.5
537.749	21176.83
538.114	21296.15
538.479	21194.91
538.845	21279.88
539.21	21312.87
539.575	21595.58
539.94	21648.23
540.305	21792.41
540.67	21751.5
541.034	21949.69
541.399	21978.84
541.764	22081.21
542.129	22178.61
542.494	22171.83
542.858	22256.12
543.223	22414.54
543.587	22470.58
543.952	22503.57
544.316	22622.22
544.681	22575.21
545.045	22726.17
545.41	22897.69
545.774	22903.34
546.138	23008.65
546.503	23086.38
546.867	23040.74
547.231	23249.09
547.595	23337.45
547.959	23379.26
548.324	23390.56
548.688	23586.71
549.052	23574.96
549.416	23749.64
549.779	23822.41
550.143	23951.67
550.507	24018.34
550.871	24100.6
551.235	24066.25
551.599	24370.87
551.962	24414.03
552.326	24532
552.689	24595.27
553.053	24572.22
553.417	24609.28
553.78	24962.04
554.143	24876.62
554.507	24897.18
554.87	25065.99
555.234	25385.08
555.597	25298.98
555.96	25300.56
556.323	25527
556.686	25599.54
557.05	25742.59
557.413	25865.75
557.776	25872.53
558.139	26164.5
558.502	26154.55
558.865	26189.35
559.228	26527.88
559.59	26541.21
559.953	26564.49
560.316	26999.28
560.679	26887.64
561.041	27098.03
561.404	27208.31
561.767	27365.37
562.129	27276.78
562.492	27671.12
562.854	27569.43
563.217	27637.68
563.579	27819.82
563.941	28115.4
564.304	28173.26
564.666	28269.07
565.028	28332.35
565.39	28473.59
565.753	28632.45
566.115	28806.23
566.477	28823.63
566.839	28948.83
567.201	29136.85
567.563	29141.59
567.925	29374.58
568.287	29388.14
568.648	29554.24
569.01	29665.87
569.372	29837.17
569.734	29865.42
570.095	29917.17
570.457	30186.76
570.819	30149.48
571.18	30104.73
571.542	30343.59
571.903	30543.82
572.265	30653.64
572.626	30782.91
572.987	30843.92
573.349	30852.73
573.71	31040.53
574.071	31061.09
574.432	31231.93
574.794	31359.61
575.155	31322.78
575.516	31314.19
575.877	31536.33
576.238	31578.36
576.599	31665.14
576.96	31604.35
577.32	31671.24
577.681	31714.63
578.042	31898.81
578.403	31868.3
578.763	31992.14
579.124	32026.71
579.485	32203.88
579.845	32199.59
580.206	32218.12
580.566	32336.76
580.927	32165.47
581.287	32475.29
581.648	32346.25
582.008	32498.79
582.368	32362.52
582.728	32485.01
583.089	32450.66
583.449	32417.21
583.809	32537.89
584.169	32572.91
584.529	32539.92
584.889	32773.14
585.249	32597.77
585.609	32557.1
585.969	32726.58
586.329	32706.02
586.688	32784.21
587.048	32795.06
587.408	32604.1
587.768	32641.84
588.127	32534.95
588.487	32622.4
588.846	32857.65
589.206	32682.52
589.565	32730.42
589.925	32832.79
590.284	32706.24
590.643	32790.99
591.003	32901.49
591.362	32885.45
591.721	32953.24
592.08	32722.97
592.44	32983.75
592.799	32976.07
593.158	32971.77
593.517	32947.37
593.876	33077.08
594.235	32872.57
594.593	32965.67
594.952	33116.63
595.311	32939.01
595.67	33119.57
596.029	33342.61
596.387	33352.1
596.746	33276.63
597.104	33069.62
597.463	33175.61
597.822	33242.5
598.18	33227.36
598.538	33257.87
598.897	33524.98
599.255	33178.55
599.613	33778.08
599.972	33446.34
600.33	33399.56
600.688	33413.57
601.046	33546.45
601.404	33726.33
601.762	33573.57
602.12	33806.33
602.478	33692.43
602.836	33642.27
603.194	33518.65
603.552	33641.81
603.91	33475.72
604.268	33790.74
604.625	33780.11
604.983	33808.36
605.341	33680.68
605.698	34021.92
606.056	33868.02
606.413	33911.41
606.771	33953.44
607.128	34122.03
607.485	33962.03
607.843	34072.31
608.2	34162.25
608.557	34378.52
608.914	34096.94
609.272	34386.88
609.629	34396.37
609.986	34442.92
610.343	34279.76
610.7	34567.66
611.057	34576.48
611.414	34440.21
611.771	34488.34
612.127	34579.42
612.484	34555.46
612.841	34810.37
613.198	34564.27
613.554	34696.02
613.911	34894.44
614.267	34840.43
614.624	34778.51
614.98	34860.09
615.337	34967.2
615.693	34994.77
616.05	35078.39
616.406	35095.33
616.762	35114.77
617.118	35060.31
617.475	35173.07
617.831	35143.24
618.187	35213.07
618.543	35227.53
618.899	35311.37
619.255	35389.79
619.611	35236.35
619.967	35505.72
620.323	35586.39
620.678	35265.73
621.034	35153.19
621.39	35303.01
621.746	35160.19
622.101	35652.38
622.457	35224.6
622.812	35259.62
623.168	35463.23
623.523	35446.06
623.879	35585.49
624.234	35247.19
624.589	35435.21
624.945	35464.36
625.3	35529.45
625.655	35392.05
626.01	35491.93
626.365	35547.75
626.72	35464.36
627.075	35594.08
627.43	35342.11
627.785	35389.79
628.14	35263.69
628.495	35509.11
628.85	35389.34
629.205	35257.36
629.559	35418.49
629.914	35245.84
630.269	35279.28
630.623	35213.98
630.978	35193.86
631.332	35277.7
631.687	35285.39
632.041	35092.4
632.396	35194.99
632.75	34998.84
633.104	35120.64
633.459	34859.41
633.813	34898.5
634.167	34908.67
634.521	34860.99
634.875	34948.67
635.229	34888.11
635.583	34759.3
635.937	34832.97
636.291	34670.03
636.645	34684.72
636.999	34561.34
637.352	34711.16
637.706	34375.35
638.06	34681.33
638.413	34540.77
638.767	34298.75
639.121	34425.07
639.474	34207
639.828	34264.17
640.181	34442.92
640.534	34198.41
640.888	34184.62
641.241	33912.99
641.594	34063.27
641.947	34112.08
642.301	34028.7
642.654	34071.86
643.007	34077.51
643.36	34002.71
643.713	34065.98
644.066	33840.23
644.419	33772.21
644.771	33435.04
645.124	33128.15
645.477	33089.06
645.83	32841.83
646.182	32835.28
646.535	32901.04
646.888	32832.57
647.24	32736.07
647.593	32813.36
647.945	32829.63
648.298	32518
648.65	32529.3
649.002	32481.17
649.355	32574.04
649.707	32497.89
650.059	32616.53
650.411	32836.18
650.763	32931.78
651.115	33254.93
651.467	33112.79
651.819	33151.66
652.171	32979.46
652.523	32949.18
652.875	33035.73
653.227	32821.95
653.578	33131.09
653.93	33087.03
654.282	32798.22
654.633	32630.31
654.985	32803.42
655.337	32815.85
655.688	32881.61
656.039	32980.14
656.391	32649.75
656.742	32630.09
657.094	32550.99
657.445	32908.27
657.796	32796.64
658.147	32559.13
658.498	32531.11
658.849	32707.15
659.2	32598.9
659.551	32514.61
659.902	32646.13
660.253	32556.42
660.604	32459.02
660.955	32366.37
661.306	32567.49
661.656	32461.73
662.007	32475.29
662.358	32403.2
662.708	32349.19
663.059	32305.13
663.409	32283.43
663.76	32429.42
664.11	32325.69
664.461	32388.96
664.811	32418.34
665.161	32312.36
665.511	32154.85
665.862	32241.4
666.212	32251.12
666.562	32232.81
666.912	32209.31
667.262	32151.68
667.612	32166.37
667.962	32278.46
668.312	32078.24
668.662	32169.99
669.011	32142.19
669.361	31992.82
669.711	32081.85
670.06	32125.02
670.41	31955.3
670.76	31989.88
671.109	32129.31
671.459	31996.21
671.808	31885.02
672.157	32009.31
672.507	31878.7
672.856	31701.53
673.205	31922.76
673.554	31881.86
673.904	31795.53
674.253	32112.81
674.602	31807.96
674.951	31322.1
675.3	31290.46
675.649	31682.77
675.998	31682.09
676.346	31642.09
676.695	31866.94
677.044	31466.73
677.393	31583.79
677.741	31576.56
678.09	31536.33
678.438	31527.97
678.787	31550.57
679.135	31346.28
679.484	31270.58
679.832	31467.41
680.181	31217.24
680.529	31314.87
680.877	31253.63
681.225	31167.98
681.573	31423.34
681.922	31070.58
682.27	31086.4
682.618	31032.62
682.966	30996.46
683.314	31061.32
683.661	30859.51
684.009	30714.66
684.357	30639.86
684.705	30556.24
685.053	30703.81
685.4	30646.64
685.748	30559.63
686.095	30479.86
686.443	30312.18
686.79	30291.39
687.138	30443.71
687.485	30312.41
687.832	30142.24
688.18	30237.38
688.527	30188.12
688.874	30051.63
689.221	29870.84
689.568	29878.07
689.915	29770.28
690.262	29787
690.609	29821.12
690.956	29570.96
691.303	29586.1
691.65	29493.67
691.997	29525.31
692.344	29262.04
692.69	29366.45
693.037	29377.74
693.383	29183.63
693.73	29335.03
694.077	29036.06
694.423	29106.79
694.769	29100.69
695.116	28959.45
695.462	28757.2
695.808	28765.11
696.155	28631.55
696.501	28562.17
696.847	28479.24
697.193	28297.55
697.539	28430.2
697.885	28112.47
698.231	28050.77
698.577	28063.43
698.923	27926.71
699.269	27947.05
699.614	27668.86
699.96	27662.08
700.306	27715.64
700.651	27567.4
700.997	27575.53
701.342	27521.3
701.688	27438.36
702.033	27384.58
702.379	27355.88
702.724	27401.07
703.069	27325.14
703.415	26926.96
703.76	27021.42
704.105	26950.01
704.45	26938.71
704.795	26833.63
705.14	26778.04
705.485	26743.46
705.83	26490.14
706.175	26600.64
706.52	26430.48
706.865	26481.32
707.209	26457.6
707.554	26333.08
707.899	26399.29
708.243	26261.67
708.588	26150.03
708.932	25990.26
709.277	26037.49
709.621	26072.75
709.966	25762.47
710.31	25871.62
710.654	25750.04
710.998	25742.59
711.342	25787.33
711.687	25666.2
712.031	25582.59
712.375	25439.54
712.719	25452.65
713.063	25506.21
713.407	25446.1
713.75	25291.3
714.094	25261.02
714.438	25163.84
714.782	25062.15
715.125	25116.84
715.469	25183.28
715.812	24920.23
716.156	24941.7
716.499	24920.91
716.843	24923.62
717.186	24663.29
717.53	24854.47
717.873	24796.17
718.216	24738.77
718.559	24677.3
718.902	24543.3
719.246	24492.68
719.589	24399.8
719.932	24284.77
720.275	24380.59
720.617	24281.83
720.96	24197.99
721.303	24282.29
721.646	24194.38
721.989	24062.4
722.331	24142.18
722.674	24070.31
723.016	24019.69
723.359	23893.59
723.701	23980.15
724.044	23934.5
724.386	23742.86
724.729	23856.99
725.071	23779.25
725.413	23810.89
725.755	23698.35
726.097	23615.18
726.439	23487.96
726.782	23596.88
727.124	23672.58
727.465	23507.62
727.807	23531.12
728.149	23522.53
728.491	23357.56
728.833	23345.13
729.175	23305.36
729.516	23188.98
729.858	23189.43
730.199	23226.27
730.541	23135.87
730.882	23078.7
731.224	23197.34
731.565	23039.15
731.906	22908.99
732.248	22984.47
732.589	22868.31
732.93	22736.34
733.271	22828.31
733.612	22889.78
733.953	22831.25
734.294	22763.46
734.635	22736.56
734.976	22829.44
735.317	22640.07
735.658	22654.31
735.999	22602.33
736.339	22582.22
736.68	22451.6
737.021	22342
737.361	22433.07
737.702	22451.37
738.042	22405.5
738.383	22377.7
738.723	22421.09
739.063	22262
739.404	22275.78
739.744	22172.06
740.084	22164.37
740.424	22155.79
740.764	22077.82
741.104	22098.61
741.444	21973.65
741.784	21996.92
742.124	21970.48
742.464	21970.48
742.804	21892.74
743.143	21886.87
743.483	21872.63
743.823	21750.37
744.162	21673.77
744.502	21757.61
744.841	21544.28
745.181	21736.14
745.52	21533.66
745.86	21637.16
746.199	21547.89
746.538	21575.69
746.877	21537.72
747.216	21505.41
747.556	21464.28
747.895	21438.29
748.234	21280.1
748.573	21249.82
748.911	21261.8
749.25	21260.9
749.589	21078.53
749.928	21145.64
750.267	21151.29
750.605	20975.25
750.944	20999.43
751.283	20919.66
751.621	20990.39
751.96	20771.19
752.298	20821.13
752.636	20780
752.975	20792.43
753.313	20669.5
753.651	20747.69
753.989	20569.39
754.327	20530.07
754.666	20445.55
