Data from plate_porcelain_FLMS001491_048.txt Node
Date: Tue Feb 07 11:19:23 GMT 2017
User: dcchb
Spectrometer: FLMS00149
Trigger mode: 0
Integration Time (sec): 2.000000E-2
Scans to average: 10
Electric dark correction enabled: true
Nonlinearity correction enabled: false
Boxcar width: 0
XAxis mode: Wavelengths
Number of Pixels in Spectrum: 2048
>>>>>Begin Spectral Data<<<<<
341.393	-23.9
341.776	-23.9
342.16	-23.9
342.543	-50.11
342.927	-69.55
343.31	-77.46
343.693	-52.6
344.077	-71.13
344.46	-65.7
344.843	-63.22
345.226	-58.47
345.61	-37.46
345.993	-25.93
346.376	-0.85
346.759	13.39
347.142	40.96
347.525	47.74
347.908	52.26
348.291	94.07
348.674	96.1
349.057	108.3
349.44	131.35
349.823	160.5
350.206	174.06
350.588	224.01
350.971	226.49
351.354	246.83
351.737	289.77
352.119	278.24
352.502	281.41
352.884	314.62
353.267	330.67
353.65	325.47
354.032	325.25
354.414	343.32
354.797	346.94
355.179	360.95
355.562	345.81
355.944	369.99
356.326	401.4
356.709	416.54
357.091	391.01
357.473	380.61
357.855	383.1
358.238	399.37
358.62	393.49
359.002	385.13
359.384	409.54
359.766	403.21
360.148	400.72
360.53	391.68
360.912	388.52
361.294	389.2
361.676	384.23
362.057	403.44
362.439	386.71
362.821	393.27
363.203	404.34
363.584	400.5
363.966	404.79
364.348	383.32
364.729	401.63
365.111	387.62
365.493	401.63
365.874	401.85
366.256	371.57
366.637	408.41
367.019	383.1
367.4	398.01
367.781	405.7
368.163	402.08
368.544	407.5
368.925	395.3
369.306	417.9
369.688	391.23
370.069	402.98
370.45	395.98
370.831	413.38
371.212	399.59
371.593	404.57
371.974	417.9
372.355	420.16
372.736	420.61
373.117	449.54
373.498	424.45
373.879	412.93
374.26	417.9
374.641	424.68
375.021	418.12
375.402	443.66
375.783	447.28
376.163	481.85
376.544	479.14
376.925	456.09
377.305	427.62
377.686	436.2
378.066	453.38
378.447	495.86
378.827	466.71
379.208	471.46
379.588	460.38
379.968	487.28
380.349	482.76
380.729	487.05
381.109	502.42
381.489	498.57
381.87	498.35
382.25	505.35
382.63	502.64
383.01	526.82
383.39	525.92
383.77	529.76
384.15	535.64
384.53	528.86
384.91	539.48
385.29	534.51
385.67	561.4
386.049	553.71
386.429	544.22
386.809	556.88
387.189	559.36
387.568	594.84
387.948	615.41
388.328	609.53
388.707	621.06
389.087	621.51
389.466	624.45
389.846	620.61
390.225	621.51
390.605	652.02
390.984	626.03
391.363	646.82
391.743	651.11
392.122	659.02
392.501	683.65
392.881	675.07
393.26	688.63
393.639	675.52
394.018	706.03
394.397	694.95
394.776	731.11
395.155	737.66
395.534	752.35
395.913	741.28
396.292	764.56
396.671	771.11
397.05	757.55
397.429	783.09
397.808	760.26
398.186	777.44
398.565	796.87
398.944	806.36
399.323	815.4
399.701	823.99
400.08	821.28
400.458	842.52
400.837	836.42
401.215	846.14
401.594	848.17
401.972	866.93
402.351	866.7
402.729	885
403.107	923.42
403.486	924.78
403.864	917.09
404.242	923.2
404.62	958.9
404.999	963.87
405.377	968.62
405.755	974.04
406.133	986.7
406.511	1012.01
406.889	993.25
407.267	1037.32
407.645	1029.63
408.023	1058.56
408.401	1059.46
408.779	1079.8
409.156	1113.93
409.534	1126.35
409.912	1114.83
410.29	1170.87
410.667	1154.15
411.045	1179.46
411.422	1189.63
411.8	1184.88
412.178	1251.55
412.555	1238.22
412.933	1265.33
413.31	1275.28
413.687	1304.65
414.065	1281.15
414.442	1324.54
414.819	1344.2
415.197	1359.34
415.574	1416.52
415.951	1378.55
416.328	1400.92
416.705	1434.14
417.082	1432.79
417.46	1482.28
417.837	1470.3
418.214	1480.92
418.591	1477.53
418.967	1452.9
419.344	1524.08
419.721	1549.62
420.098	1537.64
420.475	1607.02
420.852	1585.78
421.228	1609.96
421.605	1631.43
421.982	1654.7
422.358	1685.89
422.735	1699.45
423.111	1693.35
423.488	1711.2
423.864	1757.07
424.241	1756.39
424.617	1772.67
424.994	1778.09
425.37	1798.88
425.746	1849.05
426.123	1841.82
426.499	1865.09
426.875	1902.15
427.251	1927.92
427.627	1969.5
428.003	1997.97
428.379	2033.68
428.756	1995.71
429.132	2079.1
429.507	2107.12
429.883	2118.42
430.259	2190.96
430.635	2178.98
431.011	2218.98
431.387	2263.27
431.763	2310.96
432.138	2326.55
432.514	2355.02
432.89	2378.75
433.265	2408.35
433.641	2425.76
434.016	2443.38
434.392	2537.84
434.767	2585.98
435.143	2558.41
435.518	2592.3
435.894	2603.83
436.269	2664.39
436.644	2696.48
437.02	2733.54
437.395	2761.34
437.77	2771.28
438.145	2800.66
438.52	2835.46
438.895	2839.76
439.271	2920.43
439.646	2929.7
440.021	3024.16
440.395	3010.6
440.77	2981.22
441.145	3034.1
441.52	3054.44
441.895	3108
442.27	3140.76
442.645	3149.58
443.019	3145.96
443.394	3166.75
443.769	3266.64
444.143	3235.45
444.518	3338.5
444.892	3309.12
445.267	3303.92
445.641	3325.84
446.016	3359.74
446.39	3374.66
446.764	3443.13
447.139	3402.68
447.513	3452.17
447.887	3463.24
448.262	3496.46
448.636	3529.23
449.01	3593.63
449.384	3593.63
449.758	3652.39
450.132	3739.85
450.506	3715.21
450.88	3706.85
451.254	3782.1
451.628	3795.44
452.002	3877.02
452.376	3867.07
452.75	3921.76
453.123	3985.49
453.497	4021.87
453.871	4093.96
454.244	4168.08
454.618	4218.93
454.992	4248.31
455.365	4277.46
455.739	4393.84
456.112	4354.97
456.486	4437.68
456.859	4490.56
457.232	4589.09
457.606	4559.48
457.979	4684.45
458.352	4739.59
458.725	4782.76
459.099	4842.19
459.472	4950.21
459.845	5044.67
460.218	5002.64
460.591	5113.14
460.964	5124.67
461.337	5245.57
461.71	5283.31
462.083	5411.44
462.456	5407.82
462.829	5458.44
463.201	5581.6
463.574	5604.43
463.947	5679.46
464.32	5760.81
464.692	5872.67
465.065	5853.01
465.438	6003.06
465.81	6071.08
466.183	6105.66
466.555	6250.29
466.928	6274.24
467.3	6262.49
467.672	6399.89
468.045	6658.64
468.417	6626.32
468.789	6656.38
469.161	6757.39
469.534	6869.25
469.906	7048.68
470.278	7072.64
470.65	7146.99
471.022	7291.39
471.394	7508.79
471.766	7476.92
472.138	7604.83
472.51	7788.1
472.882	7895.22
473.253	8003.01
473.625	8089.79
473.997	8321.65
474.369	8303.57
474.74	8407.52
475.112	8635.08
475.484	8817.9
475.855	8899.71
476.227	8940.61
476.598	9252.69
476.97	9346.48
477.341	9495.17
477.713	9686.81
478.084	9754.38
478.455	10000.47
478.827	10113.46
479.198	10437.3
479.569	10453.11
479.94	10752.32
480.311	10851.07
480.682	11043.83
481.053	11320.21
481.424	11518.4
481.795	11670.48
482.166	11761.78
482.537	11999.29
482.908	12230.24
483.279	12369.22
483.65	12566.05
484.021	12847.18
484.391	13009.88
484.762	13222.76
485.133	13246.04
485.503	13425.24
485.874	13748.62
486.244	13893.7
486.615	14165.56
486.985	14391.54
487.356	14613.91
487.726	14714.02
488.097	15062.49
488.467	15050.28
488.837	15386.32
489.207	15624.73
489.578	15841.22
489.948	16050.93
490.318	16207.54
490.688	16393.3
491.058	16655.21
491.428	16800.52
491.798	16970.01
492.168	17322.99
492.538	17389.66
492.908	17500.61
493.278	17861.51
493.648	17915.07
494.017	18163.42
494.387	18299.24
494.757	18451.55
495.126	18650.19
495.496	18774.93
495.866	18890.63
496.235	19146.45
496.605	19334.01
496.974	19452.43
497.344	19615.36
497.713	19721.12
498.082	19894.45
498.452	20166.98
498.821	20244.72
499.19	20300.99
499.559	20505.28
499.928	20641.32
500.298	20918.15
500.667	21042.89
501.036	21128.99
501.405	21269.78
501.774	21396.33
502.143	21565.37
502.512	21717.23
502.88	21934.85
503.249	21911.8
503.618	22137.55
503.987	22327.83
504.356	22435.17
504.724	22586.58
505.093	22599.24
505.462	22738.22
505.83	23049.17
506.199	23166.45
506.567	23427.01
506.936	23490.29
507.304	23840.11
507.672	23954
508.041	23906.55
508.409	24121.23
508.777	24295.69
509.145	24624.95
509.514	24654.32
509.882	24802.57
510.25	24906.75
510.618	25110.81
510.986	25262.44
511.354	25613.17
511.722	25760.74
512.09	25951.69
512.458	25813.16
512.826	26221.06
513.193	26384.22
513.561	26520.72
513.929	26706.47
514.297	26873.02
514.664	27281.6
515.032	27323.63
515.4	27581.03
515.767	27748.48
516.135	27869.15
516.502	27757.97
516.869	28372.19
517.237	28366.54
517.604	28390.5
517.972	28856.47
518.339	29016.02
518.706	29043.81
519.073	29287.2
519.44	29479.51
519.808	29869.1
520.175	29897.12
520.542	30287.4
520.909	30346.15
521.276	30502.31
521.643	30894.84
522.009	31122.85
522.376	31299.35
522.743	31533.46
523.11	31809.62
523.477	32088.03
523.843	32210.28
524.21	32633.32
524.577	32767.33
524.943	33031.05
525.31	33325.51
525.676	33570.02
526.043	33765.72
526.409	33976.56
526.776	34229.89
527.142	34481.86
527.508	34636.66
527.874	34894.96
528.241	35171.79
528.607	35273.93
528.973	35538.33
529.339	35758.21
529.705	35941.26
530.071	36276.84
530.437	36447.69
530.803	36689.71
531.169	36854.91
531.535	37017.39
531.901	37064.17
532.267	37162.24
532.632	37438.17
532.998	37531.27
533.364	38003.35
533.73	37904.14
534.095	38379.39
534.461	38442.66
534.826	38754.74
535.192	38792.93
535.557	39250.78
535.923	39121.06
536.288	39236.76
536.653	39449.41
537.019	39525.12
537.384	39689.63
537.749	39888.95
538.114	39909.97
538.479	40156.51
538.845	40273.35
539.21	40222.73
539.575	40440.35
539.94	40683.51
540.305	40912.88
540.67	40902.94
541.034	41089.37
541.399	41365.3
541.764	41464.28
542.129	41563.03
542.494	41573.65
542.858	41846.64
543.223	41799.64
543.587	42194.65
543.952	42123.47
544.316	42309
544.681	42368.89
545.045	42599.16
545.41	42672.83
545.774	42745.37
546.138	42815.43
546.503	43069.66
546.867	43178.81
547.231	43554.62
547.595	43406.82
547.959	43629.87
548.324	43790.54
548.688	43860.37
549.052	43957.32
549.416	44261.04
549.779	44208.16
550.143	44318.44
550.507	44762.27
550.871	44740.58
551.235	44828.93
551.599	45272.09
551.962	45138.08
552.326	45240.9
552.689	45538.52
553.053	45497.39
553.417	45658.97
553.78	46043.14
554.143	45908.68
554.507	46186.41
554.87	46486.52
555.234	46721.31
555.597	46522.68
555.96	46716.57
556.323	46963.34
556.686	46955.43
557.05	47300.28
557.413	47341.64
557.776	47545.7
558.139	47848.29
558.502	47935.52
558.865	47927.38
559.228	48298.22
559.59	48338.67
559.953	48471.32
560.316	48810.3
560.679	48788.6
561.041	49075.38
561.404	49300.91
561.767	49407.8
562.129	49530.05
562.492	49783.61
562.854	49858.18
563.217	49814.79
563.579	50019.98
563.941	50244.16
564.304	50373.2
564.666	50647.99
565.028	50767.31
565.39	50894.54
565.753	51111.93
566.115	51140.18
566.477	51345.15
566.839	51419.5
567.201	51545.14
567.563	51546.72
567.925	51820.84
568.287	51847.73
568.648	52061.29
569.01	52133.6
569.372	52241.62
569.734	52228.74
570.095	52550.54
570.457	52592.57
570.819	52669.63
571.18	52723.64
571.542	52896.29
571.903	52947.82
572.265	53117.08
572.626	53108.49
572.987	53250.41
573.349	53259
573.71	53444.3
574.071	53532.66
574.432	53509.16
574.794	53811.75
575.155	53798.87
575.516	53777.63
575.877	53841.8
576.238	53854.69
576.599	54011.97
576.96	54031.18
577.32	54067.56
577.681	54153.43
578.042	54236.14
578.403	54286.31
578.763	54287.22
579.124	54390.04
579.485	54503.03
579.845	54542.13
580.206	54541.22
580.566	54506.87
580.927	54502.35
581.287	54573.08
581.648	54561.33
582.008	54782.57
582.368	54650.6
582.728	54630.94
583.089	54683.82
583.449	54635.91
583.809	54798.84
584.169	54813.3
584.529	54764.94
584.889	54911.61
585.249	54736.24
585.609	54647.21
585.969	54884.26
586.329	54759.29
586.688	54879.07
587.048	54838.61
587.408	54789.35
587.768	54726.3
588.127	54796.58
588.487	54748.22
588.846	55002
589.206	54769.01
589.565	54861.21
589.925	54989.35
590.284	54881.55
590.643	54956.8
591.003	54962.91
591.362	55003.58
591.721	54913.64
592.08	55018.04
592.44	55042
592.799	55089.91
593.158	55047.87
593.517	55008.1
593.876	55003.13
594.235	54998.84
594.593	55089.68
594.952	55164.71
595.311	54994.09
595.67	55047.2
596.029	55311.14
596.387	55155.22
596.746	55275.89
597.104	55147.53
597.463	55194.09
597.822	55281.31
598.18	55171.94
598.538	55154.99
598.897	55363.8
599.255	55171.94
599.613	55616
599.972	55293.07
600.33	55445.38
600.688	55333.74
601.046	55421.88
601.404	55545.26
601.762	55445.38
602.12	55639.95
602.478	55657.12
602.836	55647.18
603.194	55519.73
603.552	55470.24
603.91	55535.77
604.268	55671.59
604.625	55601.76
604.983	55772.6
605.341	55665.94
605.698	55709.78
606.056	55815.09
606.413	55774.18
606.771	55790.91
607.128	55855.31
607.485	55786.16
607.843	55832.03
608.2	55927.63
608.557	56129.43
608.914	55980.96
609.272	56051.46
609.629	56078.58
609.986	56199.03
610.343	55960.39
610.7	56179.14
611.057	56223.21
611.414	56197.67
611.771	56202.19
612.127	56357.44
612.484	56279.25
612.841	56384.56
613.198	56278.58
613.554	56313.15
613.911	56429.31
614.267	56432.24
614.624	56449.87
614.98	56535.52
615.337	56636.99
615.693	56625.91
616.05	56528.74
616.406	56690.32
616.762	56569.64
617.118	56557.67
617.475	56622.52
617.831	56683.54
618.187	56749.52
618.543	56697.1
618.899	56928.05
619.255	56813.03
619.611	56783.2
619.967	56795.85
620.323	56926.7
620.678	56831.33
621.034	56761.28
621.39	56726.25
621.746	56752.46
622.101	57069.29
622.457	56757.66
622.812	56777.77
623.168	56987.48
623.523	56938.9
623.879	57034.94
624.234	56855.51
624.589	56947.03
624.945	56929.18
625.3	56934.15
625.655	56946.81
626.01	56933.93
626.365	56931.44
626.72	56934.6
627.075	56883.76
627.43	56884.66
627.785	56805.12
628.14	56845.79
628.495	56941.61
628.85	56801.95
629.205	56725.12
629.559	56849.86
629.914	56718.79
630.269	56769.41
630.623	56666.59
630.978	56615.97
631.332	56789.52
631.687	56821.16
632.041	56735.74
632.396	56695.51
632.75	56572.58
633.104	56578.91
633.459	56460.27
633.813	56538
634.167	56421.62
634.521	56490.77
634.875	56566.7
635.229	56428.63
635.583	56340.95
635.937	56359.7
636.291	56253.04
636.645	56300.5
636.999	56147.28
637.352	56361.96
637.706	56089.43
638.06	56239.03
638.413	56186.38
638.767	56168.75
639.121	56138.47
639.474	55991.35
639.828	56023.44
640.181	55985.03
640.534	55971.92
640.888	55928.53
641.241	55763.34
641.594	55857.8
641.947	55850.34
642.301	55761.08
642.654	55775.54
643.007	55805.82
643.36	55747.97
643.713	55720.17
644.066	55744.81
644.419	55520.63
644.771	55451.71
645.124	55152.5
645.477	55162.9
645.83	54868.22
646.182	54766.75
646.535	54665.51
646.888	54689.01
647.24	54549.81
647.593	54773.53
647.945	54728.33
648.298	54589.36
648.65	54485.4
649.002	54341
649.355	54478.4
649.707	54424.84
650.059	54566.76
650.411	54813.08
650.763	54820.08
651.115	55162.45
651.467	55040.19
651.819	55054.88
652.171	54878.16
652.523	54834.32
652.875	54852.17
653.227	54665.51
653.578	54856.47
653.93	54784.83
654.282	54689.47
654.633	54628.45
654.985	54671.16
655.337	54630.94
655.688	54644.95
656.039	54782.12
656.391	54501
656.742	54693.76
657.094	54617.15
657.445	54650.37
657.796	54616.7
658.147	54564.27
658.498	54489.7
658.849	54539.64
659.2	54495.57
659.551	54457.16
659.902	54560.88
660.253	54503.26
660.604	54518.62
660.955	54289.93
661.306	54419.42
661.656	54316.82
662.007	54341.23
662.358	54279.99
662.708	54338.29
663.059	54301.23
663.409	54150.27
663.76	54324.28
664.11	54228.01
664.461	54304.62
664.811	54230.49
665.161	54289.93
665.511	54204.51
665.862	54196.15
666.212	54253.32
666.562	54240.21
666.912	54215.13
667.262	54164.96
667.612	54133.32
667.962	54248.57
668.312	54115.7
668.662	54234.34
669.011	54092.42
669.361	54049.48
669.711	54124.96
670.06	54124.96
670.41	53933.78
670.76	53949.6
671.109	54074.57
671.459	53993.21
671.808	53948.02
672.157	54008.81
672.507	53877.28
672.856	53942.14
673.205	53808.59
673.554	53953.44
673.904	53741.02
674.253	53956.15
674.602	53774.46
674.951	53385.09
675.3	53340.35
675.649	53742.82
675.998	53698.98
676.346	53693.79
676.695	53748.47
677.044	53525.2
677.393	53665.99
677.741	53657.85
678.09	53603.17
678.438	53505.99
678.787	53468.26
679.135	53578.99
679.484	53367.01
679.832	53484.07
680.181	53213.8
680.529	53294.93
680.877	53208.6
681.225	53207.47
681.573	53401.14
681.922	53223.74
682.27	53153.01
682.618	53121.15
682.966	52998.21
683.314	53081.6
683.661	52946.23
684.009	52808.61
684.357	52725.68
684.705	52696.3
685.053	52778.56
685.4	52703.08
685.748	52519.13
686.095	52494.95
686.443	52294.05
686.79	52318.45
687.138	52369.07
687.485	52308.29
687.832	52305.57
688.18	52334.27
688.527	52108.29
688.874	52039.37
689.221	51991.01
689.568	51841.63
689.915	51829.43
690.262	51822.65
690.609	51687.74
690.956	51511.92
691.303	51583.33
691.65	51284.36
691.997	51299.72
692.344	51148.09
692.69	51197.58
693.037	51216.34
693.383	50844.82
693.73	51024.48
694.077	50849.79
694.423	50864.26
694.769	50624.49
695.116	50669.23
695.462	50655.67
695.808	50511.72
696.155	50461.33
696.501	50223.82
696.847	50228.11
697.193	50013.2
697.539	50116.93
697.885	49917.16
698.231	49758.07
698.577	49772.99
698.923	49656.83
699.269	49438.08
699.614	49200.8
699.96	49250.74
700.306	49226.33
700.651	49102.72
700.997	49055.04
701.342	48986.34
701.688	48862.5
702.033	48724.65
702.379	48574.6
702.724	48542.73
703.069	48699.57
703.415	48171.67
703.76	48254.15
704.105	48221.39
704.45	48236.75
704.795	47780.72
705.14	47701.63
705.485	47721.74
705.83	47597.68
706.175	47618.24
706.52	47501.63
706.865	47308.19
707.209	47237.68
707.554	47192.26
707.899	47230.68
708.243	47030.68
708.588	47006.73
708.932	46715.21
709.277	46742.56
709.621	46783.46
709.966	46524.48
710.31	46624.59
710.654	46117.94
710.998	46395.45
711.342	46267.54
711.687	46096.02
712.031	46009.69
712.375	45844.5
712.719	45926.53
713.063	45782.13
713.407	45883.6
713.75	45598.18
714.094	45577.62
714.438	45492.87
714.782	45451.06
715.125	45273.22
715.469	45407.45
715.812	45030.28
716.156	44896.28
716.499	44922.04
716.843	44729.5
717.186	44622.16
717.53	44918.65
717.873	44855.37
718.216	44692.44
718.559	44385.1
718.902	44388.49
719.246	44427.14
719.589	44219.68
719.932	44145.34
720.275	44038.22
720.617	44015.4
720.96	44033.02
721.303	43864.89
721.646	43825.57
721.989	43604.56
722.331	43766.36
722.674	43722.97
723.016	43724.56
723.359	43652.24
723.701	43532.02
724.044	43266.72
724.386	43058.59
724.729	43287.28
725.071	43065.36
725.413	43115.08
725.755	42989.89
726.097	42899.95
726.439	42645.26
726.782	42791.25
727.124	42809.33
727.465	42675.54
727.807	42506.74
728.149	42535.89
728.491	42397.81
728.833	42601.2
729.175	42272.84
729.516	42155.33
729.858	42230.36
730.199	42132.28
730.541	42056.58
730.882	42051.15
731.224	42108.1
731.565	41831.72
731.906	41815.68
732.248	41823.36
732.589	41657.94
732.93	41437.61
733.271	41572.75
733.612	41575.91
733.953	41451.4
734.294	41344.73
734.635	41179.31
734.976	41391.06
735.317	41119.65
735.658	41183.15
735.999	41142.25
736.339	40988.36
736.68	41078.3
737.021	40942.48
737.361	40704.75
737.702	40879.89
738.042	40800.57
738.383	40664.07
738.723	40903.61
739.063	40589.05
739.404	40613.68
739.744	40427.47
740.084	40360.8
740.424	40369.84
740.764	40240.13
741.104	40396.06
741.444	40011.43
741.784	39978.89
742.124	39995.62
742.464	40052.11
742.804	39844.88
743.143	40015.05
743.483	39900.25
743.823	39665.23
744.162	39695.28
744.502	39712.46
744.841	39353.37
745.181	39586.81
745.52	39395.63
745.86	39398.34
746.199	39396.31
746.538	39195.41
746.877	39300.94
747.216	39173.49
747.556	38911.12
747.895	39030.67
748.234	38684.01
748.573	38769.66
748.911	38707.29
749.25	38530.57
749.589	38597.46
749.928	38532.83
750.267	38435.43
750.605	38364.25
750.944	38317.69
751.283	38158.83
751.621	38217.58
751.96	38094.65
752.298	37933.52
752.636	38117.92
752.975	37790.7
