Data from plate_ceramic_FLMS001491_019.txt Node
Date: Tue Feb 07 11:16:23 GMT 2017
User: dcchb
Spectrometer: FLMS00149
Trigger mode: 0
Integration Time (sec): 2.000000E-2
Scans to average: 10
Electric dark correction enabled: true
Nonlinearity correction enabled: false
Boxcar width: 0
XAxis mode: Wavelengths
Number of Pixels in Spectrum: 2048
>>>>>Begin Spectral Data<<<<<
341.393	-24.69
341.776	-24.69
342.16	-24.69
342.543	-60.17
342.927	-62.43
343.31	-77.12
343.693	-58.81
344.077	-62.43
344.46	-58.59
344.843	-66.95
345.226	-43.67
345.61	-40.96
345.993	-28.08
346.376	4.92
346.759	18.25
347.142	25.48
347.525	58.02
347.908	68.64
348.291	73.39
348.674	78.13
349.057	109.77
349.44	138.7
349.823	139.15
350.206	186.83
350.588	218.47
350.971	228.19
351.354	272.7
351.737	262.08
352.119	273.16
352.502	268.64
352.884	297.56
353.267	293.04
353.65	305.02
354.032	315.19
354.414	335.98
354.797	342.08
355.179	349.54
355.562	329.43
355.944	331.23
356.326	352.48
356.709	357.67
357.091	379.14
357.473	366.71
357.855	381.85
358.238	374.85
358.62	385.47
359.002	352.93
359.384	393.38
359.766	375.3
360.148	376.88
360.53	361.06
360.912	363.55
361.294	352.93
361.676	356.32
362.057	343.89
362.439	367.17
362.821	345.92
363.203	378.01
363.584	346.38
363.966	345.7
364.348	355.41
364.729	344.34
365.111	371.01
365.493	346.83
365.874	349.31
366.256	356.09
366.637	357.9
367.019	363.78
367.4	353.15
367.781	361.74
368.163	366.49
368.544	369.88
368.925	359.71
369.306	369.88
369.688	354.51
370.069	366.94
370.45	368.75
370.831	366.04
371.212	358.13
371.593	357.45
371.974	361.74
372.355	380.05
372.736	379.82
373.117	371.46
373.498	376.66
373.879	393.83
374.26	357.22
374.641	383.44
375.021	374.62
375.402	370.33
375.783	404.9
376.163	394.06
376.544	397
376.925	392.02
377.305	407.16
377.686	426.15
378.066	420.05
378.447	423.21
378.827	418.01
379.208	407.62
379.588	425.24
379.968	429.08
380.349	411.68
380.729	424.79
381.109	429.31
381.489	437.9
381.87	424.79
382.25	431.8
382.63	451.91
383.01	448.07
383.39	448.29
383.77	451.23
384.15	468.63
384.53	456.65
384.91	466.6
385.29	458.24
385.67	482.87
386.049	475.86
386.429	499.14
386.809	484
387.189	506.82
387.568	485.81
387.948	492.59
388.328	498.46
388.707	506.37
389.087	518.12
389.466	507.05
389.846	528.97
390.225	528.52
390.605	538.69
390.984	513.6
391.363	537.78
391.743	555.86
392.122	557.67
392.501	550.89
392.881	574.39
393.26	543.43
393.639	569.19
394.018	559.25
394.397	564.45
394.776	566.26
395.155	582.98
395.534	593.37
395.913	601.51
396.292	607.61
396.671	623.66
397.05	612.36
397.429	633.6
397.808	627.5
398.186	642.41
398.565	622.07
398.944	642.41
399.323	636.99
399.701	618.23
400.08	641.06
400.458	670.66
400.837	672.69
401.215	685.8
401.594	651.68
401.972	676.08
402.351	704.56
402.729	704.11
403.107	705.46
403.486	700.04
403.864	715.63
404.242	736.42
404.62	735.74
404.999	747.72
405.377	721.05
405.755	749.3
406.133	769.19
406.511	778.23
406.889	787.27
407.267	791.11
407.645	819.58
408.023	795.85
408.401	824.1
408.779	809.41
409.156	843.31
409.534	839.02
409.912	855.29
410.29	875.4
410.667	893.93
411.045	902.29
411.422	907.26
411.8	907.72
412.178	936.42
412.555	948.17
412.933	969.64
413.31	969.64
413.687	982.29
414.065	986.81
414.442	1006.02
414.819	1042.63
415.197	1024.32
415.574	1013.7
415.951	1047.6
416.328	1041.95
416.705	1056.86
417.082	1075.17
417.46	1080.82
417.837	1092.57
418.214	1131.67
418.591	1137.77
418.967	1142.51
419.344	1130.54
419.721	1159.24
420.098	1162.85
420.475	1190.42
420.852	1213.92
421.228	1162.17
421.605	1199.01
421.982	1247.37
422.358	1233.58
422.735	1266.35
423.111	1244.2
423.488	1275.62
423.864	1316.75
424.241	1297.31
424.617	1327.14
424.994	1310.64
425.37	1349.74
425.746	1336.63
426.123	1361.04
426.499	1376.86
426.875	1398.1
427.251	1410.53
427.627	1454.37
428.003	1447.14
428.379	1470.41
428.756	1492.33
429.132	1496.18
429.507	1557.42
429.883	1579.34
430.259	1566.23
430.635	1582.95
431.011	1606.91
431.387	1634.93
431.763	1658.88
432.138	1652.33
432.514	1679
432.89	1697.75
433.265	1730.07
433.641	1753.8
434.016	1805.32
434.392	1794.7
434.767	1850.97
435.143	1832.44
435.518	1865.66
435.894	1859.78
436.269	1914.47
436.644	1927.58
437.02	1944.07
437.395	1951.53
437.77	1999.44
438.145	2026.1
438.52	2050.29
438.895	2049.16
439.271	2054.35
439.646	2100
440.021	2108.59
440.395	2122.83
440.77	2134.58
441.145	2175.03
441.52	2217.51
441.895	2180.68
442.27	2241.01
442.645	2182.71
443.019	2215.7
443.394	2253.67
443.769	2309.71
444.143	2248.47
444.518	2315.81
444.892	2321.46
445.267	2323.5
445.641	2375.7
446.016	2348.58
446.39	2376.83
446.764	2392.65
447.139	2391.07
447.513	2445.53
447.887	2426.32
448.262	2455.92
448.636	2499.31
449.01	2539.99
449.384	2567.79
449.758	2554.9
450.132	2581.8
450.506	2577.73
450.88	2609.82
451.254	2612.3
451.628	2681.23
452.002	2735.92
452.376	2699.08
452.75	2796.71
453.123	2767.1
453.497	2805.52
453.871	2865.86
454.244	2916.7
454.618	2922.58
454.992	2958.06
455.365	2949.7
455.739	3018.4
456.112	3064.27
456.486	3129.8
456.859	3128.67
457.232	3206.64
457.606	3198.5
457.979	3236.24
458.352	3286.18
458.725	3327.99
459.099	3382.45
459.472	3424.94
459.845	3467.2
460.218	3485.73
460.591	3568.44
460.964	3542.9
461.337	3620.87
461.71	3695.21
462.083	3748.32
462.456	3736.12
462.829	3768.21
463.201	3829.22
463.574	3812.95
463.947	3946.28
464.32	4035.77
464.692	4016.11
465.065	4048.42
465.438	4139.27
465.81	4162.32
466.183	4233.73
466.555	4312.82
466.928	4331.13
467.3	4327.06
467.672	4445.7
468.045	4508.07
468.417	4558.02
468.789	4562.54
469.161	4644.79
469.534	4778.8
469.906	4866.71
470.278	4799.82
470.65	4922.53
471.022	5006.82
471.394	5125.01
471.766	5152.12
472.138	5189.64
472.51	5334.27
472.882	5393.25
473.253	5489.74
473.625	5552.11
473.997	5671.66
474.369	5725.22
474.74	5798.44
475.112	5863.29
475.484	5982.61
475.855	6076.85
476.227	6080.24
476.598	6332.66
476.97	6396.16
477.341	6498.3
477.713	6625.76
478.084	6610.62
478.455	6795.47
478.827	6912.53
479.198	7136.71
479.569	7079.08
479.94	7293.54
480.311	7399.52
480.682	7576.92
481.053	7682.91
481.424	7849
481.795	7902.79
482.166	8023.46
482.537	8191.59
482.908	8366.05
483.279	8482.66
483.65	8567.85
484.021	8682.88
484.391	8834.74
484.762	8928.97
485.133	8981.85
485.503	9089.2
485.874	9361.96
486.244	9415.29
486.615	9633.14
486.985	9700.03
487.356	9980.47
487.726	9969.85
488.097	10230.41
488.467	10244.65
488.837	10484.64
489.207	10683.96
489.578	10776.16
489.948	10880.34
490.318	11029.26
490.688	11043.95
491.058	11245.07
491.428	11301.12
491.798	11485.29
492.168	11743.59
492.538	11829.91
492.908	11962.79
493.278	11984.71
493.648	12141.77
494.017	12284.59
494.387	12408.88
494.757	12501.31
495.126	12732.04
495.496	12701.08
495.866	12871.7
496.235	12965.03
496.605	13090.67
496.974	13221.06
497.344	13352.81
497.713	13420.38
498.082	13498.35
498.452	13692.01
498.821	13717.1
499.19	13830.77
499.559	13897.88
499.928	13953.02
500.298	14048.16
500.667	14257.42
501.036	14306.46
501.405	14418.1
501.774	14427.81
502.143	14533.12
502.512	14691.08
502.88	14980.79
503.249	14835.94
503.618	15060.34
503.987	15153.44
504.356	15166.55
504.724	15268.47
505.093	15319.54
505.462	15592.98
505.83	15577.84
506.199	15656.93
506.567	15789.81
506.936	15946.64
507.304	16098.5
507.672	16151.84
508.041	16265.05
508.409	16358.16
508.777	16470.92
509.145	16696.68
509.514	16677.47
509.882	16916.33
510.25	16928.31
510.618	17023.45
510.986	17141.64
511.354	17317.23
511.722	17522.42
512.09	17636.32
512.458	17647.84
512.826	17806.48
513.193	17906.82
513.561	18027.94
513.929	18135.96
514.297	18376.41
514.664	18589.29
515.032	18634.71
515.4	18674.93
515.767	18850.75
516.135	18988.37
516.502	18893.46
516.869	19225.43
517.237	19367.34
517.604	19349.49
517.972	19578.64
518.339	19750.84
518.706	19738.18
519.073	19986.31
519.44	20026.08
519.808	20398.28
520.175	20469.01
520.542	20666.97
520.909	20742.9
521.276	20773.18
521.643	21036
522.009	21196.45
522.376	21306.73
522.743	21443.22
523.11	21673.95
523.477	21943.32
523.843	21990.78
524.21	22346.02
524.577	22426.92
524.943	22555.96
525.31	22630.76
525.676	22863.75
526.043	22976.06
526.409	23157.75
526.776	23456.28
527.142	23600
527.508	23632.09
527.874	23811.75
528.241	24012.19
528.607	24112.98
528.973	24308.91
529.339	24311.85
529.705	24542.58
530.071	24756.35
530.437	24933.53
530.803	25079.74
531.169	25257.58
531.535	25305.04
531.901	25314.08
532.267	25432.72
532.632	25655.09
532.998	25792.71
533.364	25952.93
533.73	26138.47
534.095	26348.18
534.461	26447.84
534.826	26617.32
535.192	26618.45
535.557	26925.34
535.923	26857.09
536.288	27055.73
536.653	27147.48
537.019	27089.63
537.384	27245.1
537.749	27591.53
538.114	27424.99
538.479	27603.29
538.845	27761.02
539.21	27785.2
539.575	27914.46
539.94	28050.73
540.305	28252.31
540.67	28261.35
541.034	28257.96
541.399	28460.89
541.764	28594.45
542.129	28558.06
542.494	28837.38
542.858	28854.33
543.223	28863.14
543.587	29071.27
543.952	29050.48
544.316	29196.01
544.681	29190.59
545.045	29568.88
545.41	29581.76
545.774	29675.1
546.138	29720.52
546.503	29948.53
546.867	29885.49
547.231	30158.92
547.595	30262.2
547.959	30305.81
548.324	30314.63
548.688	30336.32
549.052	30577.22
549.416	30721.4
549.779	30769.53
550.143	30938.57
550.507	31083.65
550.871	31243.64
551.235	31209.74
551.599	31511.43
551.962	31405.9
552.326	31637.08
552.689	31931.53
553.053	31833
553.417	31966.56
553.78	32275.93
554.143	32133.79
554.507	32344.4
554.87	32460.56
555.234	32853.54
555.597	32817.39
555.96	32861.23
556.323	33053.09
556.686	33185.29
557.05	33383.47
557.413	33425.28
557.776	33623.47
558.139	33906.85
558.502	33845.83
558.865	33826.17
559.228	34221.64
559.59	34263.9
559.953	34460.28
560.316	34786.37
560.679	34832.47
561.041	35060.94
561.404	35178
561.767	35306.81
562.129	35255.06
562.492	35701.83
562.854	35913.58
563.217	35815.5
563.579	36072.67
563.941	36321.7
564.304	36504.29
564.666	36612.99
565.028	36659.77
565.39	36840.56
565.753	37049.82
566.115	37170.72
566.477	37292.07
566.839	37474.66
567.201	37672.17
567.563	37559.41
567.925	37812.96
568.287	38056.34
568.648	38082.33
569.01	38227.41
569.372	38414.75
569.734	38473.51
570.095	38695.88
570.457	38872.82
570.819	38868.98
571.18	39095.19
571.542	39231.91
571.903	39291.79
572.265	39454.5
572.626	39501.28
572.987	39654.27
573.349	39784.43
573.71	39800.93
574.071	40024.2
574.432	39999.12
574.794	40357.53
575.155	40213.58
575.516	40185.1
575.877	40487.01
576.238	40599.78
576.599	40624.19
576.96	40765.2
577.32	40783.73
577.681	40999.54
578.042	41124.29
578.403	41065.53
578.763	41131.29
579.124	41350.27
579.485	41399.53
579.845	41452.86
580.206	41361.79
580.566	41527.67
580.927	41302.59
581.287	41626.65
581.648	41590.94
582.008	41650.83
582.368	41588.68
582.728	41658.96
583.089	41594.56
583.449	41773.76
583.809	41640.43
584.169	41837.49
584.529	41731.28
584.889	42034.54
585.249	41815.57
585.609	41757.04
585.969	41936.47
586.329	41855.57
586.688	41955
587.048	42001.33
587.408	41982.79
587.768	41875.9
588.127	41793.65
588.487	41838.39
588.846	42162.45
589.206	41994.55
589.565	41912.74
589.925	42268.66
590.284	41972.4
590.643	42181.89
591.003	42288.55
591.362	42365.38
591.721	42227.31
592.08	42156.58
592.44	42478.6
592.799	42451.48
593.158	42251.04
593.517	42235.44
593.876	42326.74
594.235	42312.05
594.593	42517.02
594.952	42477.02
595.311	42350.47
595.67	42382.33
596.029	42479.73
596.387	42637.92
596.746	42627.75
597.104	42450.35
597.463	42648.31
597.822	42762.43
598.18	42550.01
598.538	42531.25
598.897	42871.81
599.255	42433.18
599.613	43022.99
599.972	42768.31
600.33	42878.36
600.688	42792.72
601.046	42954.97
601.404	43089.21
601.762	42828.42
602.12	43181.86
602.478	43175.98
602.836	43143.22
603.194	43070.22
603.552	42957.23
603.91	42886.73
604.268	43209.43
604.625	43229.32
604.983	43439.48
605.341	43197.68
605.698	43411.91
606.056	43599.25
606.413	43390.22
606.771	43589.08
607.128	43598.8
607.485	43360.84
607.843	43376.2
608.2	43693.94
608.557	43752.92
608.914	43739.58
609.272	43939.58
609.629	43905.91
609.986	44154.94
610.343	43926.25
610.7	44156.07
611.057	44107.94
611.414	44043.76
611.771	44101.83
612.127	44294.6
612.484	44166.24
612.841	44414.37
613.198	44229.52
613.554	44238.55
613.911	44475.16
614.267	44375.05
614.624	44470.41
614.98	44511.54
615.337	44745.21
615.693	44609.62
616.05	44605.32
616.406	44845.77
616.762	44680.12
617.118	44805.09
617.475	44730.07
617.831	44906.11
618.187	45026.56
618.543	44906.33
618.899	45053.9
619.255	45123.95
619.611	44942.26
619.967	45257.74
620.323	45205.76
620.678	45172.99
621.034	44966.67
621.39	45033.56
621.746	45044.63
622.101	45556.94
622.457	45273.56
622.812	45203.27
623.168	45242.37
623.523	45330.5
623.879	45457.28
624.234	45205.08
624.589	45223.84
624.945	45268.13
625.3	45222.94
625.655	45165.54
626.01	45292.09
626.365	45288.47
626.72	45284.85
627.075	45248.02
627.43	45103.84
627.785	45134.8
628.14	45145.2
628.495	45344.74
628.85	45237.4
629.205	44977.97
629.559	45255.93
629.914	44919.67
630.269	45056.16
630.623	44976.61
630.978	44814.36
631.332	45054.8
631.687	45120.79
632.041	44905.88
632.396	44924.64
632.75	44693.46
633.104	44779.78
633.459	44601.03
633.813	44607.81
634.167	44631.76
634.521	44626.79
634.875	44669.05
635.229	44592.67
635.583	44192
635.937	44321.49
636.291	44333.02
636.645	44289.63
636.999	44177.54
637.352	44285.33
637.706	44014.83
638.06	44147.71
638.413	44119.69
638.767	44003.98
639.121	44099.35
639.474	43742.75
639.828	43896.64
640.181	43842.63
640.534	43990.2
640.888	43753.6
641.241	43627.04
641.594	43527.84
641.947	43632.24
642.301	43666.82
642.654	43524.22
643.007	43654.84
643.36	43610.32
643.713	43524
644.066	43572.13
644.419	43290.78
644.771	42954.29
645.124	42572.38
645.477	42534.64
645.83	42272.5
646.182	42060.31
646.535	41918.62
646.888	42103.02
647.24	41952.51
647.593	42328.77
647.945	42022.12
648.298	41922.01
648.65	41839.3
649.002	41726.53
649.355	41921.78
649.707	41685.63
650.059	42020.76
650.411	42371.48
650.763	42323.58
651.115	42643.12
651.467	42418.72
651.819	42427.53
652.171	42368.77
652.523	42223.01
652.875	42333.52
653.227	42137.37
653.578	42424.14
653.93	42316.8
654.282	42172.17
654.633	42047.88
654.985	42208.55
655.337	42200.87
655.688	42182.56
656.039	42102.34
656.391	41805.17
656.742	42009.91
657.094	41987.54
657.445	41989.57
657.796	41995.45
658.147	41993.19
658.498	41864.61
658.849	41917.71
659.2	41886.75
659.551	41749.13
659.902	41929.01
660.253	41715.23
660.604	41839.07
660.955	41562.01
661.306	41814.66
661.656	41766.75
662.007	41692.63
662.358	41496.25
662.708	41637.27
663.059	41611.96
663.409	41206.77
663.76	41537.61
664.11	41438.85
664.461	41488.34
664.811	41466.2
665.161	41563.82
665.511	41424.17
665.862	41445.63
666.212	41524.28
666.562	41591.84
666.912	41461
667.262	41505.29
667.612	41376.26
667.962	41468.23
668.312	41224.4
668.662	41524.5
669.011	41317.05
669.361	41402.92
669.711	41387.56
670.06	41368.8
670.41	40950.28
670.76	41121.12
671.109	41247.67
671.459	41085.87
671.808	41161.57
672.157	41203.61
672.507	40990.28
672.856	41024.85
673.205	41034.57
673.554	41174.45
673.904	40916.83
674.253	41065.76
674.602	40872.32
674.951	40358.43
675.3	40325.89
675.649	40802.71
675.998	40755.93
676.346	40732.66
676.695	40873.45
677.044	40577.18
677.393	40676.16
677.741	40914.12
678.09	40706.67
678.438	40696.27
678.787	40626.9
679.135	40718.19
679.484	40385.77
679.832	40560.68
680.181	40302.16
680.529	40315.72
680.877	40282.95
681.225	40217.19
681.573	40396.4
681.922	40141.94
682.27	40015.61
682.618	40001.15
682.966	40010.42
683.314	40083.64
683.661	39841.16
684.009	39581.95
684.357	39556.87
684.705	39462.86
685.053	39666.02
685.4	39554.84
685.748	39486.36
686.095	39371.56
686.443	39168.18
686.79	39116.66
687.138	39209.99
687.485	39146.03
687.832	39006.38
688.18	39159.82
688.527	38825.59
688.874	38883.67
689.221	38729.32
689.568	38597.12
689.915	38515.31
690.262	38504.69
690.609	38393.74
690.956	38448.65
691.303	38293.4
691.65	38021.77
691.997	37996.68
692.344	37913.75
692.69	37833.75
693.037	37973.63
693.383	37649.8
693.73	37733.64
694.077	37547.43
694.423	37413.88
694.769	37641.44
695.116	37440.99
695.462	37300.43
695.808	37223.6
696.155	37214.11
696.501	36807.11
696.847	36844.62
697.193	36553.11
697.539	36735.93
697.885	36535.71
698.231	36513.11
698.577	36439.66
698.923	36343.85
699.269	36166
699.614	35885.33
699.96	35879
700.306	35904.76
700.651	35866.35
700.997	35856.4
701.342	35661.83
701.688	35626.8
702.033	35390.88
702.379	35356.53
702.724	35327.83
703.069	35377.32
703.415	35020.94
703.76	35111.56
704.105	35030.43
704.45	34877.67
704.795	34608.3
705.14	34452.82
705.485	34462.31
705.83	34460.05
706.175	34448.76
706.52	34409.43
706.865	34238.82
707.209	34142.77
707.554	34187.52
707.899	34304.35
708.243	34043.57
708.588	33834.76
708.932	33754.54
709.277	33717.7
709.621	33760.19
709.966	33477.93
710.31	33574.65
710.654	33443.81
710.998	33515.9
711.342	33455.34
711.687	33346.86
712.031	33100.32
712.375	33006.99
712.719	33148.22
713.063	33036.14
713.407	33202.46
713.75	32876.14
714.094	32807.44
714.438	32648.58
714.782	32816.48
715.125	32667.79
715.469	32625.75
715.812	32520.67
716.156	32443.84
716.499	32324.07
716.843	32306.66
717.186	32014.69
717.53	32233.9
717.873	32247.23
718.216	32241.13
718.559	32135.82
718.902	31946.45
719.246	31952.55
719.589	32035.71
719.932	31737.19
720.275	31820.58
720.617	31613.8
720.96	31615.84
721.303	31539.68
721.646	31574.48
721.989	31300.82
722.331	31513.92
722.674	31414.03
723.016	31389.4
723.359	31270.99
723.701	31324.77
724.044	31019.24
724.386	30975.4
724.729	31085.23
725.071	31027.83
725.413	31068.05
725.755	30988.28
726.097	30798
726.439	30604.79
726.782	30666.26
727.124	30853.82
727.465	30622.19
727.807	30564.79
728.149	30360.28
728.491	30570.44
728.833	30647.73
729.175	30313.95
729.516	30233.05
729.858	30321.18
730.199	30201.86
730.541	30175.65
730.882	30240.96
731.224	30184.91
731.565	30069.44
731.906	29991.7
732.248	30043.67
732.589	29946.95
732.93	29693.85
733.271	29850.91
733.612	29813.85
733.953	29915.32
734.294	29637.13
734.635	29487.53
734.976	29679.16
735.317	29489.79
735.658	29377.93
735.999	29570.69
736.339	29523.69
736.68	29534.99
737.021	29225.84
737.361	29229.01
737.702	29431.71
738.042	29284.37
738.383	29144.49
738.723	29325.27
739.063	29013.64
739.404	29275.11
739.744	29102.91
740.084	29022.23
740.424	29114.88
740.764	29042.34
741.104	29020.2
741.444	28744.72
741.784	28692.75
742.124	28767.77
742.464	28807.77
742.804	28570.27
743.143	28552.87
743.483	28734.33
743.823	28438.29
744.162	28483.71
744.502	28443.26
744.841	28213.66
745.181	28362.14
745.52	28268.58
745.86	28270.61
746.199	28125.76
746.538	28037.4
746.877	28023.39
747.216	28005.76
747.556	27980.9
747.895	27990.62
748.234	27813.68
748.573	27790.85
748.911	27922.6
749.25	27774.58
749.589	27668.82
749.928	27695.03
750.267	27743.62
750.605	27541.37
750.944	27599.67
751.283	27504.53
751.621	27474.25
751.96	27286.23
752.298	27255.5
752.636	27261.83
752.975	27145.44
753.313	27005.56
753.651	27238.32
753.989	26909.07
