Data from plate_porcelain_FLMS001491_024.txt Node
Date: Tue Feb 07 11:19:01 GMT 2017
User: dcchb
Spectrometer: FLMS00149
Trigger mode: 0
Integration Time (sec): 2.000000E-2
Scans to average: 10
Electric dark correction enabled: true
Nonlinearity correction enabled: false
Boxcar width: 0
XAxis mode: Wavelengths
Number of Pixels in Spectrum: 2048
>>>>>Begin Spectral Data<<<<<
341.393	-10.52
341.776	-10.52
342.16	-10.52
342.543	-46
342.927	-63.85
343.31	-71.76
343.693	-75.38
344.077	-66.57
344.46	-54.14
344.843	-51.65
345.226	-55.27
345.61	-23.4
345.993	-17.08
346.376	-15.04
346.759	22.92
347.142	16.14
347.525	41.23
347.908	47.33
348.291	61.11
348.674	115.35
349.057	126.2
349.44	115.8
349.823	130.49
350.206	179.76
350.588	219.98
350.971	229.47
351.354	246.87
351.737	273.76
352.119	287.55
352.502	297.49
352.884	314.21
353.267	332.52
353.65	329.58
354.032	327.32
354.414	352.86
354.797	352.63
355.179	361.9
355.562	365.96
355.944	360.09
356.326	368.45
356.709	393.53
357.091	389.24
357.473	391.28
357.855	387.89
358.238	386.3
358.62	388.56
359.002	378.62
359.384	376.13
359.766	407.55
360.148	402.35
360.53	391.28
360.912	395.12
361.294	402.12
361.676	391.28
362.057	413.2
362.439	398.73
362.821	392.4
363.203	396.02
363.584	396.7
363.966	385.63
364.348	401.22
364.729	396.25
365.111	377.49
365.493	390.37
365.874	402.12
366.256	379.52
366.637	395.34
367.019	407.32
367.4	379.52
367.781	381.78
368.163	391.05
368.544	379.07
368.925	379.07
369.306	412.07
369.688	400.31
370.069	409.13
370.45	411.39
370.831	405.29
371.212	395.79
371.593	397.38
371.974	425.17
372.355	396.02
372.736	407.55
373.117	409.58
373.498	429.47
373.879	424.49
374.26	412.74
374.641	416.59
375.021	429.47
375.402	420.65
375.783	467.43
376.163	478.73
376.544	464.72
376.925	477.37
377.305	448.45
377.686	452.74
378.066	462.91
378.447	461.33
378.827	475.79
379.208	452.97
379.588	496.13
379.968	486.41
380.349	471.05
380.729	484.38
381.109	491.16
381.489	493.87
381.87	506.3
382.25	518.28
382.63	502.23
383.01	503.36
383.39	507.66
383.77	541.33
384.15	544.04
384.53	539.75
384.91	523.25
385.29	548.79
385.67	540.2
386.049	566.19
386.429	557.82
386.809	582.91
387.189	584.49
387.568	583.59
387.948	567.77
388.328	591.95
388.707	595.79
389.087	587.65
389.466	622.23
389.846	624.04
390.225	609.12
390.605	638.27
390.984	632.17
391.363	653.87
391.743	649.8
392.122	658.84
392.501	664.04
392.881	671.27
393.26	676.69
393.639	685.96
394.018	724.15
394.397	716.01
394.776	701.1
395.155	710.81
395.534	731.15
395.913	722.79
396.292	720.76
396.671	726.18
397.05	751.27
397.429	768.89
397.808	779.29
398.186	781.32
398.565	785.39
398.944	807.54
399.323	791.94
399.701	819.06
400.08	822.45
400.458	817.7
400.837	847.31
401.215	850.92
401.594	865.39
401.972	855.44
402.351	853.41
402.729	886.86
403.107	897.02
403.486	888.89
403.864	911.04
404.242	906.29
404.62	915.78
404.999	941.09
405.377	960.07
405.755	972.5
406.133	978.83
406.511	982.45
406.889	1007.3
407.267	1018.6
407.645	1031.71
408.023	1040.75
408.401	1064.03
408.779	1078.94
409.156	1095.44
409.534	1095.66
409.912	1126.62
410.29	1123.69
410.667	1180.41
411.045	1160.97
411.422	1196.9
411.8	1173.63
412.178	1204.36
412.555	1238.26
412.933	1273.51
413.31	1268.09
413.687	1285.04
414.065	1300.63
414.442	1303.79
414.819	1321.87
415.197	1370.01
415.574	1384.02
415.951	1383.11
416.328	1395.32
416.705	1406.84
417.082	1411.81
417.46	1444.58
417.837	1454.07
418.214	1467.86
418.591	1486.84
418.967	1509.44
419.344	1500.17
419.721	1543.56
420.098	1540.4
420.475	1541.3
420.852	1562.32
421.228	1591.02
421.605	1606.84
421.982	1634.18
422.358	1649.77
422.735	1663.33
423.111	1697
423.488	1692.48
423.864	1714.18
424.241	1748.08
424.617	1756.89
424.994	1778.81
425.37	1842.99
425.746	1807.06
426.123	1827.62
426.499	1862.2
426.875	1880.05
427.251	1922.53
427.627	1971.35
428.003	1954.62
428.379	1998.01
428.756	1999.14
429.132	2049.99
429.507	2088.63
429.883	2115.75
430.259	2135.64
430.635	2149.19
431.011	2169.08
431.387	2249.98
431.763	2277.78
432.138	2287.72
432.514	2335.4
432.89	2356.42
433.265	2430.77
433.641	2430.32
434.016	2411.79
434.392	2481.84
434.767	2539.02
435.143	2547.15
435.518	2552.8
435.894	2613.14
436.269	2667.6
436.644	2708.73
437.02	2708.05
437.395	2734.04
437.77	2755.96
438.145	2823.08
438.52	2807.03
438.895	2818.56
439.271	2877.76
439.646	2895.39
440.021	2926.35
440.395	2986.01
440.77	2944.2
441.145	3055.84
441.52	3051.54
441.895	3048.61
442.27	3112.11
442.645	3134.48
443.019	3144.65
443.394	3167.25
443.769	3190.52
444.143	3195.5
444.518	3203.86
444.892	3222.61
445.267	3243.4
445.641	3320.24
446.016	3324.98
446.39	3367.02
446.764	3408.14
447.139	3428.94
447.513	3424.64
447.887	3453.79
448.262	3466
448.636	3483.62
449.01	3551.19
449.384	3579.44
449.758	3612.21
450.132	3674.13
450.506	3683.39
450.88	3696.5
451.254	3685.65
451.628	3807
452.002	3830.96
452.376	3847.46
452.75	3956.61
453.123	3942.59
453.497	4020.33
453.871	4041.35
454.244	4093.78
454.618	4150.72
454.992	4194.56
455.365	4238.63
455.739	4355.46
456.112	4338.52
456.486	4385.52
456.859	4411.51
457.232	4543.93
457.606	4547.32
457.979	4640.2
458.352	4690.6
458.725	4796.36
459.099	4744.15
459.472	4893.76
459.845	4954.32
460.218	5016.24
460.591	5028.22
460.964	5045.39
461.337	5167.42
461.71	5268.89
462.083	5307.76
462.456	5330.81
462.829	5427.53
463.201	5528.09
463.574	5574.42
463.947	5632.49
464.32	5743.45
464.692	5817.35
465.065	5844.46
465.438	5924.24
465.81	6062.31
466.183	6087.62
466.555	6227.96
466.928	6225.92
467.3	6262.08
467.672	6393.38
468.045	6626.59
468.417	6545.01
468.789	6643.77
469.161	6726.02
469.534	6865.23
469.906	6974.6
470.278	6969.18
470.65	7121.95
471.022	7290.75
471.394	7384.09
471.766	7452.11
472.138	7555.38
472.51	7721.7
472.882	7852.32
473.253	7921.7
473.625	8033.79
473.997	8232.2
474.369	8249.37
474.74	8417.96
475.112	8601
475.484	8675.58
475.855	8825.18
476.227	8953.76
476.598	9140.65
476.97	9304.71
477.341	9475.1
477.713	9606.85
478.084	9688.43
478.455	9946.96
478.827	10064.47
479.198	10420.84
479.569	10309.88
479.94	10694.73
480.311	10751.68
480.682	11065.57
481.053	11315.28
481.424	11465.79
481.795	11574.71
482.166	11722.5
482.537	11893.57
482.908	12237.52
483.279	12339.21
483.65	12559.32
484.021	12781.23
484.391	12903.94
484.762	13089.47
485.133	13160.88
485.503	13391.61
485.874	13669.12
486.244	13717.25
486.615	14158.37
486.985	14297.35
487.356	14507.06
487.726	14704.35
488.097	14980.27
488.467	14982.3
488.837	15448.28
489.207	15540.48
489.578	15794.94
489.948	15965.55
490.318	16137.98
490.688	16152.22
491.058	16554.01
491.428	16695.48
491.798	16956.04
492.168	17341.56
492.538	17343.15
492.908	17548.56
493.278	17674.66
493.648	17890.7
494.017	18115.1
494.387	18259.51
494.757	18337.92
495.126	18603.45
495.496	18725.26
495.866	18889.09
496.235	19068.98
496.605	19237.79
496.974	19383.54
497.344	19542.86
497.713	19771.78
498.082	19813.59
498.452	20023.08
498.821	20148.95
499.19	20305.55
499.559	20411.99
499.928	20629.84
500.298	20738.31
500.667	21041.81
501.036	20931.07
501.405	21223.95
501.774	21297.84
502.143	21536.48
502.512	21572.86
502.88	21836.59
503.249	21807.21
503.618	22068.45
503.987	22232.96
504.356	22299.63
504.724	22474.99
505.093	22637.7
505.462	22724.25
505.83	23026.61
506.199	23147.74
506.567	23489.42
506.936	23310.45
507.304	23734.39
507.672	23711.34
508.041	23897.32
508.409	24060.71
508.777	24279.01
509.145	24532.11
509.514	24559.68
509.882	24837.64
510.25	24812.33
510.618	25010.06
510.986	25163.73
511.354	25415.48
511.722	25703.15
512.09	25915.8
512.458	25819.31
512.826	26203.48
513.193	26260.43
513.561	26523.02
513.929	26707.42
514.297	27044.59
514.664	27117.58
515.032	27298.82
515.4	27605.25
515.767	27700.61
516.135	27872.59
516.502	27782.87
516.869	28194.61
517.237	28311.44
517.604	28338.79
517.972	28783.97
518.339	28925.89
518.706	29040.92
519.073	29152.1
519.44	29298.99
519.808	29765.42
520.175	29836.15
520.542	30185.75
520.909	30388
521.276	30451.5
521.643	30835.45
522.009	31057.36
522.376	31328.54
522.743	31391.59
523.11	31796.55
523.477	32080.39
523.843	32221.62
524.21	32626.81
524.577	32777.99
524.943	32993.13
525.31	33187.93
525.676	33477.18
526.043	33629.5
526.409	33876.95
526.776	34282.81
527.142	34475.35
527.508	34590.6
527.874	35014.32
528.241	35066.07
528.607	35194.65
528.973	35546.96
529.339	35527.07
529.705	35955.99
530.071	36317.34
530.437	36423.32
530.803	36779.92
531.169	36807.04
531.535	36779.47
531.901	36929.07
532.267	37334.71
532.632	37511.2
532.998	37719.79
533.364	37881.81
533.73	38174.91
534.095	38282.93
534.461	38462.14
534.826	38616.71
535.192	38883.82
535.557	38981.22
535.923	39051.95
536.288	39243.36
536.653	39434.77
537.019	39409.46
537.384	39821.88
537.749	39804.93
538.114	40016.9
538.479	40042.44
538.845	40165.37
539.21	40262.32
539.575	40446.94
539.94	40585.25
540.305	40870.66
540.67	40692.36
541.034	41037.89
541.399	41281.05
541.764	41240.82
542.129	41525.33
542.494	41504.54
542.858	41697.31
543.223	41868.6
543.587	42087.81
543.952	42129.16
544.316	42167.35
544.681	42340
545.045	42455.93
545.41	42670.62
545.774	42790.39
546.138	42796.26
546.503	43079.64
546.867	43153.54
547.231	43408.68
547.595	43397.83
547.959	43634.66
548.324	43860.64
548.688	43878.72
549.052	44025.38
549.416	44050.01
549.779	44387.41
550.143	44439.83
550.507	44690.68
550.871	44665.59
551.235	44711.92
551.599	45125.92
551.962	45103.77
552.326	45334.95
552.689	45517.55
553.053	45426.7
553.417	45548.05
553.78	46129.73
554.143	45970.42
554.507	46276.4
554.87	46306.9
555.234	46755.03
555.597	46648.36
555.96	46797.29
556.323	46951.63
556.686	47006.77
557.05	47275.92
557.413	47401.79
557.776	47506.42
558.139	47800.42
558.502	47773.53
558.865	47985.96
559.228	48169.23
559.59	48324.25
559.953	48500.29
560.316	48747.07
560.679	48869.1
561.041	49030.45
561.404	49290.33
561.767	49478.35
562.129	49448.74
562.492	49890.54
562.854	49764.67
563.217	49760.15
563.579	50103.19
563.941	50316.97
564.304	50369.85
564.666	50702.95
565.028	50683.96
565.39	50839.44
565.753	51018.64
566.115	51157.4
566.477	51243.27
566.839	51401.23
567.201	51629.02
567.563	51617.95
567.925	51841.45
568.287	51882.35
568.648	51927.55
569.01	52072.85
569.372	52300.64
569.734	52338.16
570.095	52458.61
570.457	52620.18
570.819	52629.45
571.18	52659.05
571.542	52897.47
571.903	53043.68
572.265	53001.19
572.626	53038.7
572.987	53058.14
573.349	53285.03
573.71	53379.26
574.071	53433.95
574.432	53605.24
574.794	53826.71
575.155	53801.4
575.516	53652.47
575.877	53874.84
576.238	53925.69
576.599	54037.55
576.96	53980.15
577.32	54017.44
577.681	54167.94
578.042	54305.79
578.403	54317.31
578.763	54316.18
579.124	54305.79
579.485	54516.41
579.845	54589.62
580.206	54470.08
580.566	54558.89
580.927	54593.92
581.287	54691.99
581.648	54545.33
582.008	54714.37
582.368	54650.19
582.728	54707.36
583.089	54673.46
583.449	54698.55
583.809	54728.83
584.169	54911.2
584.529	54749.85
584.889	54924.76
585.249	54696.97
585.609	54696.29
585.969	54873.01
586.329	54743.74
586.688	54796.85
587.048	54885.89
587.408	54793.46
587.768	54820.8
588.127	54787.13
588.487	54743.97
588.846	54953.91
589.206	54768.83
589.565	54845.21
589.925	54946.68
590.284	54882.5
590.643	54952.55
591.003	55000.01
591.362	55029.61
591.721	54981.03
592.08	55023.28
592.44	55047.01
592.799	55117.52
593.158	55060.8
593.517	55023.06
593.876	55051.98
594.235	55044.75
594.593	55105.77
594.952	55094.47
595.311	55026.9
595.67	55089.72
596.029	55223.28
596.387	55208.36
596.746	55266.67
597.104	55092.21
597.463	55247.01
597.822	55277.74
598.18	55299.66
598.538	55201.59
598.897	55398.42
599.255	55236.84
599.613	55536.72
599.972	55396.83
600.33	55474.57
600.688	55346.89
601.046	55536.72
601.404	55590.05
601.762	55557.51
602.12	55656.71
602.478	55603.16
602.836	55659.65
603.194	55546.89
603.552	55548.24
603.91	55465.76
604.268	55682.02
604.625	55567.68
604.983	55736.49
605.341	55648.13
605.698	55773.32
606.056	55871.17
606.413	55779.65
606.771	55844.51
607.128	55863.04
607.485	55853.32
607.843	55897.61
608.2	55963.37
608.557	55973.32
608.914	55945.97
609.272	56068.91
609.629	56124.27
609.986	56234.33
610.343	56091.73
610.7	56299.18
611.057	56220.99
611.414	56228.9
611.771	56279.3
612.127	56423.93
612.484	56343.02
612.841	56422.12
613.198	56322.23
613.554	56413.53
613.911	56530.59
614.267	56427.54
614.624	56467.99
614.98	56471.38
615.337	56647.2
615.693	56594.09
616.05	56543.7
616.406	56705.73
616.762	56545.96
617.118	56585.96
617.475	56593.87
617.831	56718.61
618.187	56650.13
618.543	56716.8
618.899	56934.42
619.255	56859.85
619.611	56852.39
619.967	56924.25
620.323	56933.07
620.678	56823.46
621.034	56817.59
621.39	56817.14
621.746	56794.54
622.101	57107.75
622.457	56824.14
622.812	56912.5
623.168	56964.02
623.523	56987.53
623.879	57063.46
624.234	56886.96
624.589	56954.76
624.945	56922.22
625.3	56996.79
625.655	56956.79
626.01	56972.61
626.365	57045.83
626.72	56955.21
627.075	56854.2
627.43	56883.12
627.785	56794.31
628.14	56848.32
628.495	56935.55
628.85	56797.7
629.205	56683.13
629.559	56875.44
629.914	56726.29
630.269	56881.09
630.623	56686.52
630.978	56679.74
631.332	56761.77
631.687	56851.03
632.041	56684.03
632.396	56701.21
632.75	56566.52
633.104	56655.78
633.459	56533.08
633.813	56531.72
634.167	56529.91
634.521	56505.96
634.875	56601.1
635.229	56477.26
635.583	56320.43
635.937	56323.59
636.291	56329.92
636.645	56270.94
636.999	56217.6
637.352	56256.25
637.706	56077.72
638.06	56216.93
638.413	56158.62
638.767	56105.74
639.121	56109.81
639.474	55981
639.828	56034.11
640.181	56031.17
640.534	55970.83
640.888	55880.44
641.241	55807.45
641.594	55838.63
641.947	55858.74
642.301	55800.67
642.654	55839.76
643.007	55826.2
643.36	55701.91
643.713	55660.1
644.066	55848.12
644.419	55660.33
644.771	55440.68
645.124	55176.5
645.477	55173.11
645.83	54960.24
646.182	54722.28
646.535	54671.2
646.888	54742.61
647.24	54565.44
647.593	54826.45
647.945	54695.61
648.298	54516.41
648.65	54501.26
649.002	54430.31
649.355	54469.85
649.707	54544.65
650.059	54560.02
650.411	54897.41
650.763	54946.9
651.115	55241.81
651.467	55078.2
651.819	55079.55
652.171	54995.26
652.523	54889.73
652.875	54872.33
653.227	54814.93
653.578	54937.86
653.93	54846.57
654.282	54655.61
654.633	54624.88
654.985	54735.38
655.337	54720.24
655.688	54754.37
656.039	54755.5
656.391	54536.74
656.742	54584.88
657.094	54629.17
657.445	54768.38
657.796	54682.05
658.147	54576.74
658.498	54621.49
658.849	54589.62
659.2	54499.91
659.551	54476.63
659.902	54639.79
660.253	54509.85
660.604	54566.12
660.955	54336.75
661.306	54355.05
661.656	54431.21
662.007	54298.56
662.358	54328.84
662.708	54420.36
663.059	54378.33
663.409	54133.14
663.76	54393.47
664.11	54261.72
664.461	54325.45
664.811	54324.77
665.161	54341.49
665.511	54240.48
665.862	54209.29
666.212	54290.65
666.562	54286.81
666.912	54263.98
667.262	54191.89
667.612	54184.44
667.962	54252.23
668.312	54198.9
668.662	54346.92
669.011	54193.7
669.361	54130.88
669.711	54131.33
670.06	54134.27
670.41	53987.83
670.76	54032.35
671.109	54118.45
671.459	54029.19
671.808	53920.04
672.157	54063.99
672.507	53872.58
672.856	53853.37
673.205	53980.6
673.554	54000.71
673.904	53896.31
674.253	54035.97
674.602	53734.73
674.951	53434.85
675.3	53289.32
675.649	53716.2
675.998	53751.68
676.346	53796.42
676.695	53720.95
677.044	53622.42
677.393	53640.27
677.741	53801.85
678.09	53737.22
678.438	53569.76
678.787	53581.06
679.135	53641.4
679.484	53381.07
679.832	53542.42
680.181	53377.9
680.529	53414.97
680.877	53279.83
681.225	53245.93
681.573	53422.87
681.922	53187.17
682.27	53162.32
682.618	53136.78
682.966	53083
683.314	53159.38
683.661	53040.06
684.009	52892.72
684.357	52762.33
684.705	52842.55
685.053	52872.15
685.4	52751.25
685.748	52622.44
686.095	52552.84
686.443	52458.61
686.79	52245.96
687.138	52380.42
687.485	52371.38
687.832	52298.38
688.18	52262.23
688.527	52193.98
688.874	52168.22
689.221	51968.22
689.568	51949.02
689.915	51974.78
690.262	51845.97
690.609	51735.01
690.956	51737.27
691.303	51649.81
691.65	51413.89
691.997	51333.21
692.344	51177.51
692.69	51243.27
693.037	51331.4
693.383	51001.7
693.73	51053.9
694.077	50847.8
694.423	50853.45
694.769	50729.84
695.116	50641.48
695.462	50680.35
695.808	50471.77
696.155	50592.44
696.501	50312.45
696.847	50356.51
697.193	50052.57
697.539	50132.57
697.885	49941.61
698.231	49889.18
698.577	49846.7
698.923	49706.81
699.269	49566.03
699.614	49297.33
699.96	49291.01
700.306	49386.14
700.651	49154.51
700.997	49149.54
701.342	48947.96
701.688	48988.19
702.033	48704.81
702.379	48734.18
702.724	48597.47
703.069	48767.18
703.415	48269.11
703.76	48321.77
704.105	48240.19
704.45	48141.66
704.795	48001.32
705.14	47775.11
705.485	47765.62
705.83	47687.21
706.175	47670.48
706.52	47586.42
706.865	47543.71
707.209	47420.09
707.554	47370.6
707.899	47403.6
708.243	47202.47
708.588	47006.77
708.932	46845.19
709.277	46790.73
709.621	46891.52
709.966	46609.95
710.31	46685.2
710.654	46204.08
710.998	46473
711.342	46331.54
711.687	46292.67
712.031	46099.68
712.375	45839.35
712.719	46018.32
713.063	45787.82
713.407	46124.54
713.75	45763.64
714.094	45796.18
714.438	45539.47
714.782	45606.13
715.125	45303.09
715.469	45502.63
715.812	45244.33
716.156	44866.26
716.499	44995.75
716.843	45002.76
717.186	44728.41
717.53	44885.02
717.873	44855.64
718.216	44791.24
718.559	44698.13
718.902	44586.72
719.246	44507.4
719.589	44488.87
719.932	44327.97
720.275	44142.67
720.617	44158.03
720.96	44071.71
721.303	44001.88
721.646	44121.2
721.989	43718.5
722.331	43837.82
722.674	43795.56
723.016	43824.26
723.359	43716.24
723.701	43620.87
724.044	43413.87
724.386	43325.74
724.729	43490.93
725.071	43261.33
725.413	43201.45
725.755	43231.05
726.097	42972.3
726.439	42791.29
726.782	42855.47
727.124	43043.03
727.465	42786.54
727.807	42644.85
728.149	42653.44
728.491	42591.97
728.833	42716.94
729.175	42509.49
729.516	42423.62
729.858	42298.2
730.199	42345.43
730.541	42092.55
730.882	42022.95
731.224	42152.44
731.565	41931.2
731.906	41961.48
732.248	42070.63
732.589	41673.35
732.93	41586.8
733.271	41629.74
733.612	41716.29
733.953	41713.13
734.294	41402.85
734.635	41218.68
734.976	41525.11
735.317	41185.46
735.658	41149.3
735.999	41123.31
736.339	41224.1
736.68	41217.32
737.021	40853.94
737.361	40901.85
737.702	41027.72
738.042	40801.51
738.383	40766.94
738.723	40842.87
739.063	40647.62
739.404	40586.6
739.744	40491.24
740.084	40409.21
740.424	40421.63
740.764	40322.43
741.104	40469.09
741.444	40384.8
741.784	40033.4
742.124	40171.25
742.464	40040.18
742.804	39957.01
743.143	40045.37
743.483	40067.75
743.823	39766.06
744.162	39803.12
744.502	39799.28
744.841	39608.1
745.181	39841.99
745.52	39512.28
745.86	39630.92
746.199	39357.71
746.538	39276.58
746.877	39490.13
747.216	39279.07
747.556	39081.78
747.895	39002.46
748.234	38959.75
748.573	38862.13
748.911	38826.87
749.25	38774.45
749.589	38630.5
749.928	38719.31
750.267	38623.26
750.605	38610.84
750.944	38418.07
751.283	38320.22
751.621	38495.81
751.96	38163.62
752.298	38258.3
752.636	38104.86
