Data from plate_porcelain_FLMS001491_080.txt Node
Date: Tue Feb 07 11:19:53 GMT 2017
User: dcchb
Spectrometer: FLMS00149
Trigger mode: 0
Integration Time (sec): 2.000000E-2
Scans to average: 10
Electric dark correction enabled: true
Nonlinearity correction enabled: false
Boxcar width: 0
XAxis mode: Wavelengths
Number of Pixels in Spectrum: 2048
>>>>>Begin Spectral Data<<<<<
341.393	-6.38
341.776	-6.38
342.16	-6.38
342.543	-55.2
342.927	-52.26
343.31	-75.08
343.693	-58.36
344.077	-64.01
344.46	-60.85
344.843	-60.62
345.226	-52.03
345.61	-46.38
345.993	-4.8
346.376	2.43
346.759	-1.64
347.142	16.21
347.525	22.09
347.908	74.29
348.291	86.95
348.674	98.02
349.057	123.78
349.44	121.3
349.823	146.61
350.206	186.61
350.588	236.32
350.971	252.82
351.354	265.02
351.737	281.07
352.119	300.73
352.502	302.99
352.884	333.95
353.267	328.3
353.65	338.92
354.032	338.24
354.414	357.9
354.797	364.68
355.179	374.85
355.562	374.62
355.944	376.88
356.326	375.3
356.709	404.9
357.091	397.9
357.473	395.41
357.855	400.61
358.238	422.98
358.62	401.06
359.002	401.74
359.384	398.35
359.766	404.45
360.148	378.01
360.53	407.39
360.912	409.2
361.294	390.22
361.676	397.9
362.057	402.19
362.439	395.41
362.821	400.84
363.203	402.42
363.584	413.27
363.966	418.24
364.348	406.94
364.729	399.71
365.111	421.85
365.493	421.63
365.874	402.64
366.256	408.52
366.637	414.4
367.019	401.29
367.4	415.3
367.781	418.46
368.163	421.18
368.544	406.26
368.925	407.84
369.306	420.72
369.688	418.69
370.069	433.6
370.45	432.47
370.831	425.7
371.212	418.92
371.593	418.46
371.974	439.25
372.355	437.9
372.736	440.84
373.117	441.74
373.498	450.33
373.879	441.97
374.26	451.91
374.641	422.08
375.021	436.32
375.402	453.49
375.783	455.75
376.163	485.13
376.544	486.94
376.925	482.87
377.305	471.8
377.686	474.28
378.066	511.57
378.447	512.7
378.827	496.88
379.208	490.33
379.588	525.58
379.968	523.55
380.349	519.48
380.729	532.58
381.109	544.11
381.489	524.22
381.87	536.43
382.25	550.89
382.63	540.49
383.01	569.87
383.39	553.15
383.77	548.18
384.15	564.9
384.53	588.63
384.91	580.95
385.29	602.64
385.67	576.65
386.049	610.77
386.429	614.62
386.809	615.07
387.189	610.32
387.568	634.28
387.948	633.6
388.328	628.85
388.707	648.97
389.087	647.16
389.466	657.1
389.846	688.74
390.225	705.91
390.605	683.09
390.984	707.04
391.363	685.8
391.743	712.92
392.122	716.99
392.501	724.67
392.881	747.04
393.26	749.3
393.639	781.84
394.018	757.89
394.397	773.48
394.776	803.99
395.155	805.57
395.534	791.11
395.913	828.4
396.292	812.35
396.671	849.86
397.05	843.31
397.429	844.89
397.808	868.62
398.186	843.54
398.565	864.78
398.944	878.11
399.323	882.63
399.701	875.4
400.08	923.54
400.458	910.88
400.837	933.93
401.215	933.7
401.594	938.22
401.972	953.14
402.351	987.71
402.729	982.06
403.107	1025.23
403.486	1019.13
403.864	1015.28
404.242	1014.83
404.62	1032.01
404.999	1060.03
405.377	1061.84
405.755	1056.86
406.133	1112.68
406.511	1122.17
406.889	1097.99
407.267	1142.29
407.645	1145.22
408.023	1184.09
408.401	1206.69
408.779	1202.62
409.156	1241.04
409.534	1252.34
409.912	1256.41
410.29	1256.41
410.667	1315.16
411.045	1343.41
411.422	1316.07
411.8	1353.13
412.178	1354.94
412.555	1383.64
412.933	1404.2
413.31	1446.01
413.687	1463.63
414.065	1480.81
414.442	1454.37
414.819	1518.1
415.197	1522.39
415.574	1542.05
415.951	1550.41
416.328	1556.06
416.705	1607.58
417.082	1595.61
417.46	1637.64
417.837	1643.06
418.214	1648.49
418.591	1694.59
418.967	1695.49
419.344	1733.23
419.721	1739.78
420.098	1749.73
420.475	1800.57
420.852	1779.33
421.228	1815.71
421.605	1832.66
421.982	1844.64
422.358	1904.98
422.735	1928.03
423.111	1884.64
423.488	1969.84
423.864	1941.81
424.241	1977.29
424.617	2012.09
424.994	2047.57
425.37	2063.84
425.746	2054.58
426.123	2116.95
426.499	2102.71
426.875	2118.98
427.251	2177.29
427.627	2212.77
428.003	2236.49
428.379	2271.3
428.756	2317.4
429.132	2358.3
429.507	2373.89
429.883	2437.62
430.259	2444.17
430.635	2464.51
431.011	2544.74
431.387	2584.28
431.763	2586.09
432.138	2632.19
432.514	2645.52
432.89	2665.18
433.265	2725.52
433.641	2751.51
434.016	2791.06
434.392	2807.55
434.767	2883.71
435.143	2892.07
435.518	2918.74
435.894	2987.89
436.269	3030.6
436.644	3040.54
437.02	3101.78
437.395	3131.16
437.77	3179.29
438.145	3197.83
438.52	3252.51
438.895	3279.41
439.271	3305.85
439.646	3360.53
440.021	3366.86
440.395	3437.14
440.77	3371.15
441.145	3458.61
441.52	3524.82
441.895	3496.8
442.27	3510.81
442.645	3575.44
443.019	3630.13
443.394	3622.45
443.769	3644.37
444.143	3613.41
444.518	3744.48
444.892	3713.29
445.267	3741.99
445.641	3836.23
446.016	3829.67
446.39	3866.96
446.764	3913.51
447.139	3884.14
447.513	3992.83
447.887	3978.37
448.262	4017.01
448.636	4022.44
449.01	4063.57
449.384	4111.25
449.758	4158.25
450.132	4198.03
450.506	4226.73
450.88	4255.42
451.254	4258.14
451.628	4351.24
452.002	4402.99
452.376	4420.84
452.75	4513.05
453.123	4548.52
453.497	4584.23
453.871	4626.94
454.244	4680.95
454.618	4723.89
454.992	4781.51
455.365	4828.74
455.739	4985.12
456.112	5000.94
456.486	5061.73
456.859	5123.42
457.232	5249.52
457.606	5191.22
457.979	5288.84
458.352	5432.57
458.725	5508.05
459.099	5495.62
459.472	5650.64
459.845	5728.61
460.218	5707.82
460.591	5800.69
460.964	5808.38
461.337	5999.11
461.71	6077.07
462.083	6178.99
462.456	6146.45
462.829	6219.22
463.201	6334.92
463.574	6329.49
463.947	6489.04
464.32	6576.95
464.692	6709.82
465.065	6737.17
465.438	6791.4
465.81	6941.23
466.183	6963.6
466.555	7171.51
466.928	7189.58
467.3	7242.69
467.672	7314.1
468.045	7537.15
468.417	7542.8
468.789	7663.7
469.161	7728.55
469.534	7930.13
469.906	8043.57
470.278	8140.07
470.65	8208.32
471.022	8394.3
471.394	8534.18
471.766	8617.8
472.138	8683.33
472.51	8911.35
472.882	9002.64
473.253	9139.82
473.625	9274.28
473.997	9528.51
474.369	9515.4
474.74	9631.55
475.112	9901.6
475.484	10066.57
475.855	10167.36
476.227	10298.66
476.598	10601.02
476.97	10683.5
477.341	10994.46
477.713	11083.27
478.084	11141.35
478.455	11470.38
478.827	11622.24
479.198	11985.84
479.569	11892.74
479.94	12355.55
480.311	12415.89
480.682	12747.18
481.053	13067.62
481.424	13156.89
481.795	13339.48
482.166	13510.55
482.537	13717.32
482.908	14016.75
483.279	14179.46
483.65	14386.46
484.021	14637.3
484.391	14974.92
484.762	15069.38
485.133	15171.75
485.503	15430.5
485.874	15751.17
486.244	15908
486.615	16313.86
486.985	16419.85
487.356	16804.93
487.726	16965.83
488.097	17307.06
488.467	17355.42
488.837	17717.44
489.207	17873.37
489.578	18235.4
489.948	18306.35
490.318	18578.66
490.688	18810.97
491.058	19034.92
491.428	19377.74
491.798	19362.15
492.168	19892.08
492.538	20135.69
492.908	20180.88
493.278	20439.18
493.648	20560.08
494.017	20852.28
494.387	21032.38
494.757	21244.58
495.126	21433.05
495.496	21558.7
495.866	21646.83
496.235	21975.64
496.605	22201.62
496.974	22334.5
497.344	22531.55
497.713	22646.81
498.082	22929.28
498.452	23053.8
498.821	23153.68
499.19	23287.69
499.559	23621.24
499.928	23766.55
500.298	23917.05
500.667	24202.47
501.036	24143.49
501.405	24410.6
501.774	24424.39
502.143	24788.44
502.512	24816.92
502.88	25130.58
503.249	25109.11
503.618	25323.12
503.987	25454.42
504.356	25746.61
504.724	25853.73
505.093	25995.64
505.462	26178.01
505.83	26352.92
506.199	26461.39
506.567	26967.37
506.936	26895.96
507.304	27218.44
507.672	27245.78
508.041	27559.67
508.409	27636.28
508.777	27984.97
509.145	28122.82
509.514	28121.92
509.882	28469.93
510.25	28561.68
510.618	28808
510.986	28881.44
511.354	29365.05
511.722	29417.25
512.09	29665.15
512.458	29704.02
512.826	30034.18
513.193	30169.09
513.561	30314.63
513.929	30614.73
514.297	30846.14
514.664	31021.5
515.032	31227.6
515.4	31645.89
515.767	31616.06
516.135	31804.76
516.502	31839.56
516.869	32269.38
517.237	32526.32
517.604	32467.79
517.972	32912.3
518.339	33178.96
518.706	33274.77
519.073	33482
519.44	33668.66
519.808	34012.38
520.175	34212.6
520.542	34530.79
520.909	34735.08
521.276	34763.1
521.643	35227.72
522.009	35470.2
522.376	35706.35
522.743	35893.91
523.11	36315.15
523.477	36557.63
523.843	36894.79
524.21	37300.43
524.577	37523.93
524.943	37656.81
525.31	37730.93
525.676	38189
526.043	38490.23
526.409	38581.75
526.776	39093.6
527.142	39282.53
527.508	39483.2
527.874	39836.41
528.241	40055.84
528.607	40146.23
528.973	40502.16
529.339	40449.28
529.705	40927.91
530.071	41327.67
530.437	41458.51
530.803	41753.2
531.169	41797.71
531.535	41941.89
531.901	42119.06
532.267	42280.19
532.632	42688.31
532.998	42707.75
533.364	43009.89
533.73	43195.19
534.095	43664.11
534.461	43695.97
534.826	43893.48
535.192	43951.1
535.557	44230.19
535.923	44424.09
536.288	44599.67
536.653	44791.76
537.019	44607.81
537.384	45003.51
537.749	45101.58
538.114	45135.03
538.479	45283.5
538.845	45443.95
539.21	45443.95
539.575	45922.8
539.94	45909.7
540.305	46175
540.67	46106.3
541.034	46340.87
541.399	46576.8
541.764	46692.5
542.129	46936.79
542.494	46741.99
542.858	47094.07
543.223	47026.73
543.587	47482.76
543.952	47432.14
544.316	47597.56
544.681	47611.35
545.045	47848.63
545.41	48099.02
545.774	48019.92
546.138	48166.36
546.503	48307.37
546.867	48342.18
547.231	48786.46
547.595	48725.44
547.959	48859.68
548.324	48950.97
548.688	49023.06
549.052	49122.95
549.416	49338.08
549.779	49339.89
550.143	49537.62
550.507	49727
550.871	49884.73
551.235	49898.97
551.599	50212.63
551.962	50214.44
552.326	50266.87
552.689	50534.66
553.053	50528.78
553.417	50589.35
553.78	51040.18
554.143	50901.43
554.507	51057.81
554.87	51271.59
555.234	51632.26
555.597	51452.38
555.96	51597.91
556.323	51785.47
556.686	51820.05
557.05	52057.33
557.413	52121.06
557.776	52273.6
558.139	52448.73
558.502	52480.82
558.865	52591.56
559.228	52761.49
559.59	52888.04
559.953	53078.77
560.316	53299.56
560.679	53317.41
561.041	53497.29
561.404	53669.49
561.767	53937.51
562.129	53765.31
562.492	54094.79
562.854	54118.52
563.217	54199.87
563.579	54345.86
563.941	54487.32
564.304	54620.2
564.666	54737.49
565.028	54849.57
565.39	54925.5
565.753	55130.25
566.115	55159.4
566.477	55308.55
566.839	55382.89
567.201	55542.66
567.563	55619.05
567.925	55780.85
568.287	55824.46
568.648	55874.86
569.01	56066.94
569.372	56172.48
569.734	56108.98
570.095	56401.85
570.457	56427.61
570.819	56449.53
571.18	56586.48
571.542	56720.26
571.903	56717.77
572.265	56849.3
572.626	56902.85
572.987	56929.97
573.349	57066.01
573.71	57116.86
574.071	57175.84
574.432	57225.56
574.794	57409.28
575.155	57370.41
575.516	57312.56
575.877	57510.3
576.238	57619.67
576.599	57605.89
576.96	57703.06
577.32	57647.47
577.681	57755.04
578.042	57856.73
578.403	57904.86
578.763	57972.66
579.124	57957.29
579.485	58002.03
579.845	58038.64
580.206	57981.24
580.566	58068.7
580.927	58100.11
581.287	58243.38
581.648	58119.09
582.008	58230.5
582.368	58209.26
582.728	58296.94
583.089	58200
583.449	58229.37
583.809	58249.71
584.169	58343.27
584.529	58224.63
584.889	58451.74
585.249	58201.35
585.609	58232.76
585.969	58345.75
586.329	58234.34
586.688	58361.35
587.048	58335.13
587.408	58341.23
587.768	58291.97
588.127	58287.9
588.487	58216.27
588.846	58428.01
589.206	58309.6
589.565	58344.62
589.925	58462.14
590.284	58383.95
590.643	58429.59
591.003	58489.71
591.362	58503.72
591.721	58437.28
592.08	58488.12
592.44	58534
592.799	58571.28
593.158	58520.66
593.517	58473.21
593.876	58538.52
594.235	58439.31
594.593	58459.42
594.952	58603.6
595.311	58523.6
595.67	58581.91
596.029	58690.83
596.387	58689.47
596.746	58691.96
597.104	58621
597.463	58683.37
597.822	58748.68
598.18	58633.43
598.538	58594.79
598.897	58847.89
599.255	58611.96
599.613	58940.09
599.972	58764.5
600.33	58851.05
600.688	58750.04
601.046	58875.46
601.404	59011.73
601.762	58961.11
602.12	58996.58
602.478	59014.89
602.836	59074.32
603.194	58967.88
603.552	58997.04
603.91	58907.1
604.268	59052.63
604.625	58996.36
604.983	59169.91
605.341	58991.84
605.698	59213.75
606.056	59166.75
606.413	59092.85
606.771	59215.56
607.128	59296.92
607.485	59125.85
607.843	59181.66
608.2	59333.3
608.557	59392.28
608.914	59326.75
609.272	59431.15
609.629	59482
609.986	59511.37
610.343	59401.55
610.7	59527.42
611.057	59569
611.414	59554.99
611.771	59524.48
612.127	59652.16
612.484	59618.71
612.841	59689.22
613.198	59620.97
613.554	59677.7
613.911	59868.43
614.267	59767.41
614.624	59747.3
614.98	59837.24
615.337	59952.94
615.693	59897.8
616.05	59879.5
616.406	60059.83
616.762	59902.78
617.118	59947.29
617.475	59938.71
617.831	59968.08
618.187	60022.77
618.543	60008.76
618.899	60136.22
619.255	60084.24
619.611	60059.83
619.967	60084.92
620.323	60192.03
620.678	60066.61
621.034	60051.92
621.39	60061.64
621.746	60157.01
622.101	60348.87
622.457	60078.59
622.812	60131.02
623.168	60209.89
623.523	60266.61
623.879	60288.53
624.234	60126.72
624.589	60207.85
624.945	60199.26
625.3	60230
625.655	60173.28
626.01	60187.51
626.365	60195.65
626.72	60192.94
627.075	60179.38
627.43	60166.27
627.785	60112.71
628.14	60197.23
628.495	60116.1
628.85	60049.66
629.205	59978.48
629.559	60204.24
629.914	60018.48
630.269	60056.67
630.623	60001.53
630.978	59905.26
631.332	60037.46
631.687	60065.71
632.041	59911.36
632.396	59978.71
632.75	59860.52
633.104	59912.94
633.459	59734.87
633.813	59825.04
634.167	59850.8
634.521	59776.9
634.875	59820.52
635.229	59725.6
635.583	59640.41
635.937	59616
636.291	59601.77
636.645	59556.34
636.999	59521.32
637.352	59561.09
637.706	59460.3
638.06	59621.65
638.413	59469.57
638.767	59413.97
639.121	59456.46
639.474	59251.04
639.828	59288.33
640.181	59252.85
640.534	59326.07
640.888	59276.13
641.241	59229.57
641.594	59095.34
641.947	59265.73
642.301	59175.56
642.654	59190.48
643.007	59142.57
643.36	59091.95
643.713	59061.89
644.066	59120.87
644.419	58928.34
644.771	58760.43
645.124	58594.34
645.477	58476.15
645.83	58327.22
646.182	58242.03
646.535	58124.52
646.888	58238.41
647.24	58098.3
647.593	58164.52
647.945	58136.72
648.298	57950.74
648.65	57988.25
649.002	57845.65
649.355	57996.16
649.707	57966.55
650.059	58024.18
650.411	58338.3
650.763	58369.48
651.115	58603.37
651.467	58435.47
651.819	58376.94
652.171	58345.75
652.523	58322.25
652.875	58322.25
653.227	58159.32
653.578	58367.22
653.93	58262.82
654.282	58207.9
654.633	58161.58
654.985	58147.34
655.337	58170.62
655.688	58080.9
656.039	58201.8
656.391	58026.67
656.742	58062.82
657.094	58017.4
657.445	58142.82
657.796	58065.08
658.147	58015.82
658.498	58048.59
658.849	58054.46
659.2	57912.77
659.551	57943.28
659.902	58069.6
660.253	57965.43
660.604	57992.77
660.955	57834.36
661.306	57945.09
661.656	57850.63
662.007	57875.03
662.358	57837.74
662.708	57865.99
663.059	57797.29
663.409	57656.73
663.76	57859.21
664.11	57704.64
664.461	57816.95
664.811	57795.71
665.161	57706.22
665.511	57746
665.862	57713.23
666.212	57840.68
666.562	57841.13
666.912	57712.1
667.262	57724.75
667.612	57654.92
667.962	57742.15
668.312	57720.01
668.662	57753.91
669.011	57614.47
669.361	57631.42
669.711	57628.03
670.06	57537.87
670.41	57510.97
670.76	57507.81
671.109	57520.69
671.459	57524.98
671.808	57497.41
672.157	57611.08
672.507	57335.84
672.856	57427.13
673.205	57435.95
673.554	57503.06
673.904	57406.8
674.253	57397.76
674.602	57407.25
674.951	57003.19
675.3	56957.32
675.649	57336.29
675.998	57275.73
676.346	57248.38
676.695	57232.34
677.044	57220.36
677.393	57255.84
677.741	57338.55
678.09	57179.91
678.438	57120.93
678.787	57148.5
679.135	57136.75
679.484	57043.19
679.832	57134.03
680.181	56892.46
680.529	57001.83
680.877	56908.73
681.225	56933.81
681.573	57049.06
681.922	56817.88
682.27	56792.35
682.618	56725.91
682.966	56670.09
683.314	56680.71
683.661	56603.88
684.009	56506.71
684.357	56478.68
684.705	56397.1
685.053	56430.1
685.4	56390.1
685.748	56285.47
686.095	56200.95
686.443	56115.08
686.79	56117.79
687.138	56157.34
687.485	56171.8
687.832	56041.86
688.18	56013.84
688.527	55853.84
688.874	55870.56
689.221	55754.41
689.568	55690
689.915	55662.89
690.262	55655.2
690.609	55535.43
690.956	55420.63
691.303	55391.71
691.65	55259.06
691.997	55259.28
692.344	55054.77
692.69	55103.13
693.037	55128.66
693.383	54933.87
693.73	54987.65
694.077	54797.15
694.423	54796.47
694.769	54685.96
695.116	54680.99
695.462	54581.33
695.808	54481.67
696.155	54543.59
696.501	54397.84
696.847	54388.34
697.193	54157.16
697.539	54191.96
697.885	54049.14
698.231	53998.75
698.577	53954.46
698.923	53856.38
699.269	53758.08
699.614	53565.31
699.96	53514.02
700.306	53521.93
700.651	53372.33
700.997	53349.05
701.342	53335.04
701.688	53190.41
702.033	53076.29
702.379	53026.35
702.724	52967.36
703.069	53028.38
703.415	52692.57
703.76	52679.91
704.105	52609.86
704.45	52560.37
704.795	52321.05
705.14	52303.65
705.485	52328.96
705.83	52220.49
706.175	52221.4
706.52	52069.08
706.865	51949.31
707.209	51951.8
707.554	51838.13
707.899	51910.89
708.243	51750.22
708.588	51751.58
708.932	51401.08
709.277	51370.34
709.621	51565.14
709.966	51247.64
710.31	51323.79
710.654	50964.71
710.998	51143.91
711.342	50984.14
711.687	50851.26
712.031	50774.65
712.375	50770.36
712.719	50754.32
713.063	50667.76
713.407	50707.31
713.75	50442.23
714.094	50501.89
714.438	50378.96
714.782	50406.75
715.125	50282.69
715.469	50281.33
715.812	50061.68
716.156	49877.5
716.499	49813.55
716.843	49962.02
717.186	49622.59
717.53	49893.32
717.873	49809.93
718.216	49719.77
718.559	49696.72
718.902	49549.38
719.246	49436.16
719.589	49340.79
719.932	49051.54
720.275	49252.89
720.617	49060.35
720.96	49061.25
721.303	49040.46
721.646	48869.39
721.989	48736.74
722.331	48774.71
722.674	48630.76
723.016	48770.41
723.359	48630.98
723.701	48562.28
724.044	48318.9
724.386	48179.47
724.729	48339.24
725.071	48206.13
725.413	48189.86
725.755	47987.61
726.097	47894.05
726.439	47731.57
726.782	47779.48
727.124	47994.16
727.465	47740.16
727.807	47774.96
728.149	47638.92
728.491	47543.1
728.833	47642.76
729.175	47342.88
729.516	47391.01
729.858	47316.44
730.199	47243.22
730.541	47033.74
730.882	47188.08
731.224	47241.64
731.565	46968.43
731.906	47011.36
732.248	47039.61
732.589	46848.88
732.93	46640.75
733.271	46704.48
733.612	46744.93
733.953	46757.36
734.294	46465.61
734.635	46378.39
734.976	46538.15
735.317	46205.96
735.658	46139.52
735.999	46185.62
736.339	46074.21
736.68	46257.03
737.021	46005.06
737.361	45919.41
737.702	45897.49
738.042	45851.85
738.383	45716.93
738.723	45775.92
739.063	45685.52
739.404	45724.16
739.744	45294.35
740.084	45456.38
740.424	45457.96
740.764	45392.65
741.104	45545.19
741.444	45080.11
741.784	44997.63
742.124	45146.1
742.464	44986.11
742.804	44962.38
743.143	44929.38
743.483	44839.67
743.823	44717.86
744.162	44739.78
744.502	44585.44
744.841	44460.7
745.181	44598.54
745.52	44338.44
745.86	44369.62
746.199	44259.34
746.538	44333.47
746.877	44270.19
747.216	44185
747.556	44078.56
747.895	43940.71
748.234	43793.14
748.573	43781.84
748.911	43738.68
749.25	43696.65
749.589	43545.24
749.928	43551.57
750.267	43399.71
750.605	43383.66
750.944	43240.16
751.283	43034.97
751.621	43200.62
751.96	42911.81
752.298	42987.51
752.636	43051.01
752.975	42882.88
