Data from plate_porcelain_FLMS001491_029.txt Node
Date: Tue Feb 07 11:19:02 GMT 2017
User: dcchb
Spectrometer: FLMS00149
Trigger mode: 0
Integration Time (sec): 2.000000E-2
Scans to average: 10
Electric dark correction enabled: true
Nonlinearity correction enabled: false
Boxcar width: 0
XAxis mode: Wavelengths
Number of Pixels in Spectrum: 2048
>>>>>Begin Spectral Data<<<<<
341.393	-15.76
341.776	-15.76
342.16	-15.76
342.543	-58.25
342.927	-74.97
343.31	-86.04
343.693	-68.64
344.077	-62.31
344.46	-56.89
344.843	-38.81
345.226	-43.11
345.61	-49.66
345.993	-1.75
346.376	6.16
346.759	1.41
347.142	35.54
347.525	60.17
347.908	26.04
348.291	54.07
348.674	103.78
349.057	120.05
349.44	128.41
349.823	139.49
350.206	173.61
350.588	239.15
350.971	233.72
351.354	239.82
351.737	272.14
352.119	283.44
352.502	294.29
352.884	288.64
353.267	343.55
353.65	335.64
354.032	346.71
354.414	341.29
354.797	360.27
355.179	363.44
355.562	365.02
355.944	377.67
356.326	392.14
356.709	386.94
357.091	379.03
357.473	384.23
357.855	398.92
358.238	389.65
358.62	402.53
359.002	385.13
359.384	412.48
359.766	393.49
360.148	367.96
360.53	406.37
360.912	391.68
361.294	379.03
361.676	389.2
362.057	388.07
362.439	385.36
362.821	382.42
363.203	351.46
363.584	372.48
363.966	402.53
364.348	387.62
364.729	374.06
365.111	403.44
365.493	372.48
365.874	378.58
366.256	371.8
366.637	405.24
367.019	375.41
367.4	392.14
367.781	388.52
368.163	382.87
368.544	410.89
368.925	421.51
369.306	398.69
369.688	397.11
370.069	400.95
370.45	409.09
370.831	417.67
371.212	400.05
371.593	401.4
371.974	413.38
372.355	388.97
372.736	403.66
373.117	416.09
373.498	409.54
373.879	422.42
374.26	431.68
374.641	397.79
375.021	401.63
375.402	433.49
375.783	456.99
376.163	477.33
376.544	468.07
376.925	438.24
377.305	454.73
377.686	447.95
378.066	462.19
378.447	456.32
378.827	467.84
379.208	488.41
379.588	477.33
379.968	468.29
380.349	473.49
380.729	502.42
381.109	494.05
381.489	501.29
381.87	496.99
382.25	494.28
382.63	490.67
383.01	522.98
383.39	532.02
383.77	509.42
384.15	527.05
384.53	526.82
384.91	534.96
385.29	540.83
385.67	560.95
386.049	578.8
386.429	573.6
386.809	570.21
387.189	590.32
387.568	586.71
387.948	564.34
388.328	596.2
388.707	601.17
389.087	608.18
389.466	632.81
389.846	615.41
390.225	617.89
390.605	642.98
390.984	640.27
391.363	640.72
391.743	647.05
392.122	659.25
392.501	657.67
392.881	675.07
393.26	659.7
393.639	690.89
394.018	707.16
394.397	730.88
394.776	713.48
395.155	705.8
395.534	711.22
395.913	721.85
396.292	752.13
396.671	753.93
397.05	743.99
397.429	775.63
397.808	771.56
398.186	813.37
398.565	782.18
398.944	792.58
399.323	819.02
399.701	797.55
400.08	813.14
400.458	840.26
400.837	827.38
401.215	848.4
401.594	863.31
401.972	854.95
402.351	881.39
402.729	879.81
403.107	872.35
403.486	888.17
403.864	921.39
404.242	928.17
404.62	938.11
404.999	929.07
405.377	956.87
405.755	970.43
406.133	968.17
406.511	1011.33
406.889	1000.93
407.267	1038.45
407.645	1044.77
408.023	1033.25
408.401	1050.65
408.779	1070.76
409.156	1091.1
409.534	1132.23
409.912	1115.96
410.29	1142.17
410.667	1152.57
411.045	1157.31
411.422	1189.4
411.8	1176.52
412.178	1221.27
412.555	1225.11
412.933	1264.43
413.31	1280.93
413.687	1296.97
414.065	1299.23
414.442	1315.05
414.819	1324.99
415.197	1337.65
415.574	1384.65
415.951	1399.34
416.328	1390.98
416.705	1402.96
417.082	1412.67
417.46	1425.56
417.837	1506.68
418.214	1472.56
418.591	1491.54
418.967	1490.64
419.344	1547.36
419.721	1526.12
420.098	1558.89
420.475	1571.77
420.852	1559.34
421.228	1597.98
421.605	1607.7
421.982	1606.79
422.358	1646.11
422.735	1655.83
423.111	1683.18
423.488	1711.65
423.864	1741.93
424.241	1776.96
424.617	1778.09
424.994	1798.65
425.37	1795.94
425.746	1816.28
426.123	1861.02
426.499	1825.32
426.875	1845.88
427.251	1941.47
427.627	1920.68
428.003	1971.76
428.379	1988.7
428.756	2000.46
429.132	2064.41
429.507	2048.14
429.883	2109.61
430.259	2153.22
430.635	2163.84
431.011	2176.5
431.387	2244.07
431.763	2277.06
432.138	2270.51
432.514	2312.99
432.89	2325.42
433.265	2365.42
433.641	2451.52
434.016	2436.83
434.392	2484.06
434.767	2518.86
435.143	2520.89
435.518	2570.38
435.894	2593.43
436.269	2619.87
436.644	2683.6
437.02	2708.91
437.395	2724.05
437.77	2777.61
438.145	2805.18
438.52	2776.25
438.895	2845.18
439.271	2887.21
439.646	2922.92
440.021	2991.39
440.395	2959.98
440.77	2965.63
441.145	2993.42
441.52	3045.4
441.895	3059.19
442.27	3072.29
442.645	3084.04
443.019	3133.53
443.394	3161.1
443.769	3211.27
444.143	3164.72
444.518	3240.2
444.892	3254.89
445.267	3262.57
445.641	3352.51
446.016	3327.88
446.39	3334.21
446.764	3399.06
447.139	3403.13
447.513	3446.97
447.887	3450.14
448.262	3475.9
448.636	3522.68
449.01	3552.73
449.384	3587.53
449.758	3592.73
450.132	3685.84
450.506	3709.56
450.88	3703.24
451.254	3701.43
451.628	3783.69
452.002	3832.95
452.376	3831.37
452.75	3914.98
453.123	3933.29
453.497	4003.79
453.871	4067.97
454.244	4131.25
454.618	4187.29
454.992	4261.64
455.365	4251.92
455.739	4330.56
456.112	4388.19
456.486	4428.41
456.859	4432.71
457.232	4545.02
457.606	4555.42
457.979	4607.84
458.352	4725.58
458.725	4743.89
459.099	4775.3
459.472	4907.27
459.845	4907.5
460.218	4978
460.591	5014.39
460.964	5076.76
461.337	5241.05
461.71	5293.25
462.083	5368.73
462.456	5364.44
462.829	5404.21
463.201	5517.88
463.574	5505
463.947	5642.85
464.32	5787.93
464.692	5798.1
465.065	5856.17
465.438	5902.73
465.81	6028.37
466.183	6123.51
466.555	6205.32
466.928	6261.59
467.3	6230.63
467.672	6417.97
468.045	6563.95
468.417	6560.56
468.789	6632.65
469.161	6703.84
469.534	6864.96
469.906	6982.02
470.278	7002.36
470.65	7143.82
471.022	7239.41
471.394	7453.42
471.766	7408.22
472.138	7558.73
472.51	7705.39
472.882	7863.58
473.253	7936.57
473.625	8048.66
473.997	8253.17
474.369	8335.88
474.74	8394.19
475.112	8553.5
475.484	8730.67
475.855	8901.29
476.227	8951.23
476.598	9202.98
476.97	9299.25
477.341	9501.95
477.713	9626.24
478.084	9720.48
478.455	9977.42
478.827	10023.3
479.198	10418.99
479.569	10369.5
479.94	10653.79
480.311	10746.21
480.682	11138.52
481.053	11276.37
481.424	11480.43
481.795	11634.33
482.166	11724.49
482.537	11862.12
482.908	12189.79
483.279	12324.03
483.65	12494.87
484.021	12749.55
484.391	12985.03
484.762	13104.34
485.133	13202.65
485.503	13438.57
485.874	13628.85
486.244	13785.91
486.615	14092.79
486.985	14147.71
487.356	14515.16
487.726	14683.29
488.097	14956.5
488.467	14937.52
488.837	15374.79
489.207	15583.15
489.578	15763.94
489.948	15890.26
490.318	16155.34
490.688	16208.22
491.058	16468.78
491.428	16779.05
491.798	16934.75
492.168	17358.47
492.538	17261.75
492.908	17505.81
493.278	17796.42
493.648	17838.91
494.017	18128.17
494.387	18242.97
494.757	18388.95
495.126	18550.53
495.496	18708.49
495.866	18844.08
496.235	19066
496.605	19247.23
496.974	19394.35
497.344	19532.42
497.713	19633.21
498.082	19869.59
498.452	20018.97
498.821	20213.31
499.19	20253.54
499.559	20460.99
499.928	20568.33
500.298	20722.45
500.667	20995.66
501.036	20918.6
501.405	21242.44
501.774	21228.88
502.143	21451.7
502.512	21599.94
502.88	21813.72
503.249	21923.32
503.618	22053.26
503.987	22166.25
504.356	22408.73
504.724	22506.58
505.093	22528.96
505.462	22717.65
505.83	22927.82
506.199	23143.63
506.567	23299.56
506.936	23380.01
507.304	23773.67
507.672	23852.99
508.041	23886.66
508.409	24085.98
508.777	24390.83
509.145	24470.83
509.514	24575.46
509.882	24811.61
510.25	24876.92
510.618	24975.67
510.986	25229.68
511.354	25531.36
511.722	25740.4
512.09	25809.55
512.458	25856.1
512.826	26181.51
513.193	26228.75
513.561	26444.78
513.929	26694.04
514.297	26949.86
514.664	27191.43
515.032	27232.11
515.4	27563.63
515.767	27599.1
516.135	27898.53
516.502	27751.19
516.869	28240.67
517.237	28484.05
517.604	28455.81
517.972	28791.16
518.339	28931.5
518.706	29083.81
519.073	29175.79
519.44	29336.23
519.808	29840.63
520.175	29774.19
520.542	30135.99
520.909	30428.18
521.276	30423.44
521.643	30865.91
522.009	31044.21
522.376	31255.51
522.743	31530.98
523.11	31683.52
523.477	32059.78
523.843	32253.22
524.21	32702.25
524.577	32870.15
524.943	32997.38
525.31	33218.84
525.676	33528.21
526.043	33700.87
526.409	33911.48
526.776	34197.8
527.142	34327.74
527.508	34616.77
527.874	34881.63
528.241	35184.67
528.607	35152.35
528.973	35541.27
529.339	35593.02
529.705	35935.83
530.071	36235.49
530.437	36395.94
530.803	36669.6
531.169	37005.41
531.535	36807.9
531.901	36959.99
532.267	37183.71
532.632	37493.31
532.998	37596.58
533.364	37928.55
533.73	38035.21
534.095	38312.04
534.461	38342.78
534.826	38647.85
535.192	38811.69
535.557	39069.99
535.923	39019.6
536.288	39189.53
536.653	39514.05
537.019	39555.85
537.384	39634.04
537.749	39836.07
538.114	39916.75
538.479	39987.93
538.845	40265.44
539.21	40272.67
539.575	40407.81
539.94	40697.97
540.305	40882.82
540.67	40890.96
541.034	41121.91
541.399	41337.73
541.764	41355.81
542.129	41514.45
542.494	41570.71
542.858	41757.83
543.223	41887.54
543.587	42030.14
543.952	42094.09
544.316	42278.27
544.681	42359.39
545.045	42584.47
545.41	42756.22
545.774	42807.74
546.138	42800.51
546.503	43011.81
546.867	43021.75
547.231	43532.25
547.595	43441.63
547.959	43674.84
548.324	43694.73
548.688	43848.85
549.052	43871.9
549.416	44104.89
549.779	44197.99
550.143	44355.27
550.507	44585.78
550.871	44781.48
551.235	44837.52
551.599	45129.49
551.962	45114.35
552.326	45384.4
552.689	45533.1
553.053	45462.36
553.417	45586.88
553.78	46130.82
554.143	45953.65
554.507	46239.97
554.87	46432.51
555.234	46849.9
555.597	46531.26
555.96	46722.9
556.323	47034.98
556.686	46921.76
557.05	47253.5
557.413	47371.24
557.776	47509.54
558.139	47799.25
558.502	47744.79
558.865	47947.72
559.228	48236.08
559.59	48328.73
559.953	48406.69
560.316	48828.15
560.679	48852.11
561.041	49119.67
561.404	49307.23
561.767	49499.09
562.129	49364.18
562.492	49839.65
562.854	49777.5
563.217	49850.05
563.579	50011.62
563.941	50245.74
564.304	50466.75
564.666	50745.39
565.028	50724.15
565.39	51039.62
565.753	51010.01
566.115	51147.86
566.477	51283
566.839	51374.3
567.201	51583.56
567.563	51601.86
567.925	51857
568.287	51843.21
568.648	51998.24
569.01	52101.51
569.372	52316.87
569.734	52281.39
570.095	52579.46
570.457	52607.03
570.819	52659.91
571.18	52613.81
571.542	52876.18
571.903	52977.65
572.265	53046.12
572.626	53083.18
572.987	53211.09
573.349	53325.89
573.71	53439.78
574.071	53519.78
574.432	53498.99
574.794	53766.33
575.155	53753.67
575.516	53722.71
575.877	53797.51
576.238	53919.32
576.599	54039.77
576.96	54053.32
577.32	54064.17
577.681	54136.71
578.042	54282.7
578.403	54279.76
578.763	54335.12
579.124	54372.41
579.485	54436.37
579.845	54526.08
580.206	54432.3
580.566	54492.18
580.927	54571.05
581.287	54677.49
581.648	54472.75
582.008	54654.89
582.368	54757.94
582.728	54744.61
583.089	54654.21
583.449	54702.8
583.809	54790.03
584.169	54862.12
584.529	54775.79
584.889	54935.56
585.249	54701.22
585.609	54675
585.969	54832.74
586.329	54782.8
586.688	54884.49
587.048	54825.06
587.408	54812.4
587.768	54867.54
588.127	54809.69
588.487	54799.29
588.846	55024.37
589.206	54814.66
589.565	54882.68
589.925	54919.97
590.284	54843.36
590.643	54914.54
591.003	54998.16
591.362	55030.93
591.721	54995.45
592.08	55000.64
592.44	55040.19
592.799	55010.14
593.158	54999.74
593.517	55031.83
593.876	55008.1
594.235	55068.67
594.593	54961.55
594.952	55067.08
595.311	55078.16
595.67	55151.37
596.029	55241.09
596.387	55210.81
596.746	55284.93
597.104	55186.85
597.463	55131.94
597.822	55345.04
598.18	55254.87
598.538	55154.09
598.897	55348.21
599.255	55149.79
599.613	55477.02
599.972	55323.12
600.33	55515.21
600.688	55319.05
601.046	55401.54
601.404	55560.86
601.762	55446.06
602.12	55670.23
602.478	55610.57
602.836	55721.3
603.194	55499.16
603.552	55630.68
603.91	55524.92
604.268	55717.24
604.625	55639.95
604.983	55750.91
605.341	55554.53
605.698	55788.87
606.056	55784.58
606.413	55785.71
606.771	55898.25
607.128	55939.6
607.485	55803.11
607.843	55791.36
608.2	55942.31
608.557	55995.65
608.914	55940.51
609.272	56102.08
609.629	56155.42
609.986	56138.47
610.343	56044.23
610.7	56293.27
611.057	56224.34
611.414	56230.22
611.771	56270.44
612.127	56360.83
612.484	56368.52
612.841	56451
613.198	56285.13
613.554	56379.82
613.911	56552.92
614.267	56523.99
614.624	56421.62
614.98	56532.36
615.337	56679.02
615.693	56571.9
616.05	56624.56
616.406	56701.84
616.762	56638.57
617.118	56619.81
617.475	56669.53
617.831	56725.8
618.187	56691.9
618.543	56749.3
618.899	56874.49
619.255	56840.37
619.611	56797.89
619.967	56876.75
620.323	56930.99
620.678	56830.43
621.034	56811.9
621.39	56842.86
621.746	56771.67
622.101	57095.73
622.457	56869.75
622.812	56938.45
623.168	56962.63
623.523	56918.11
623.879	57075.17
624.234	56913.59
624.589	56952.01
624.945	56974.6
625.3	56969.63
625.655	56899.8
626.01	56976.41
626.365	57083.08
626.72	56979.35
627.075	56885.11
627.43	56961.5
627.785	56844.66
628.14	56861.16
628.495	56913.81
628.85	56838.11
629.205	56732.58
629.559	56894.83
629.914	56756.98
630.269	56787.49
630.623	56748.85
630.978	56649.64
631.332	56782.74
631.687	56821.84
632.041	56731.45
632.396	56793.14
632.75	56656.42
633.104	56582.98
633.459	56583.65
633.813	56472.24
634.167	56545.01
634.521	56556.76
634.875	56547.27
635.229	56489.87
635.583	56367.39
635.937	56356.09
636.291	56296.2
636.645	56193.16
636.999	56285.36
637.352	56257.11
637.706	56184.12
638.06	56241.06
638.413	56154.06
638.767	56089.66
639.121	56177.79
639.474	55914.29
639.828	55951.13
640.181	56008.08
640.534	55952.48
640.888	55918.81
641.241	55814.86
641.594	55860.51
641.947	55868.42
642.301	55817.57
642.654	55828.65
643.007	55804.69
643.36	55729.21
643.713	55722.43
644.066	55888.98
644.419	55582.55
644.771	55472.27
645.124	55135.56
645.477	55174.65
645.83	54886.75
646.182	54771.05
646.535	54717.71
646.888	54739.41
647.24	54614.44
647.593	54730.59
647.945	54665.06
648.298	54537.61
648.65	54436.37
649.002	54460.32
649.355	54559.75
649.707	54454.9
650.059	54578.96
650.411	54882.91
650.763	54959.06
651.115	55172.62
651.467	55078.83
651.819	55030.7
652.171	54974.66
652.523	54950.25
652.875	54936.92
653.227	54829.58
653.578	54884.72
653.93	54863.02
654.282	54691.5
654.633	54630.48
654.985	54713.42
655.337	54687.66
655.688	54650.14
656.039	54763.36
656.391	54578.06
656.742	54642.69
657.094	54628.22
657.445	54751.16
657.796	54691.73
658.147	54557.72
658.498	54571.05
658.849	54600.88
659.2	54544.39
659.551	54464.39
659.902	54623.7
660.253	54458.96
660.604	54448.57
660.955	54315.01
661.306	54448.79
661.656	54365.41
662.007	54399.3
662.358	54353.66
662.708	54388.68
663.059	54366.31
663.409	54211.74
663.76	54386.65
664.11	54294
664.461	54303.04
664.811	54254.9
665.161	54258.97
665.511	54214.45
665.862	54211.06
666.212	54350.94
666.562	54339.42
666.912	54242.02
667.262	54203.38
667.612	54247.9
667.962	54272.53
668.312	54173.55
668.662	54339.87
669.011	54197.28
669.361	54141.01
669.711	54154.34
670.06	54132.64
670.41	54019.2
670.76	53990.5
671.109	54094
671.459	54031.86
671.808	53996.38
672.157	54077.28
672.507	53934.23
672.856	53949.6
673.205	53984.63
673.554	54063.72
673.904	53838.87
674.253	53891.29
674.602	53740.34
674.951	53514.36
675.3	53331.31
675.649	53696.5
675.998	53765.42
676.346	53692.88
676.695	53743.95
677.044	53609.95
677.393	53671.19
677.741	53758.64
678.09	53638.19
678.438	53533.79
678.787	53612.88
679.135	53721.58
679.484	53377.64
679.832	53507.35
680.181	53327.02
680.529	53347.58
680.877	53320.24
681.225	53273.01
681.573	53507.35
681.922	53220.58
682.27	53212.44
682.618	53237.98
682.966	53106
683.314	53143.07
683.661	52975.61
684.009	52825.79
684.357	52789.18
684.705	52812.23
685.053	52854.26
685.4	52820.59
685.748	52614.94
686.095	52534.72
686.443	52397.55
686.79	52351
687.138	52474.38
687.485	52350.09
687.832	52327.72
688.18	52329.75
688.527	52174.05
688.874	52052.7
689.221	52051.8
689.568	51894.96
689.915	51812.03
690.262	51840.95
690.609	51706.95
690.956	51631.47
691.303	51654.97
691.65	51362.77
691.997	51374.52
692.344	51118.03
692.69	51146.28
693.037	51229.67
693.383	50939.51
693.73	51078.04
694.077	50782
694.423	50838.49
694.769	50714.43
695.116	50697.48
695.462	50626.3
695.808	50605.28
696.155	50612.74
696.501	50290.94
696.847	50292.52
697.193	50026.09
697.539	50102.92
697.885	49903.15
698.231	49864.06
698.577	49843.49
698.923	49757.17
699.269	49480.11
699.614	49335.93
699.96	49313.11
700.306	49417.97
700.651	49178.2
700.997	49116.96
701.342	49065.43
701.688	48968.03
702.033	48807.13
702.379	48741.15
702.724	48715.16
703.069	48721.26
703.415	48401.72
703.76	48333.02
704.105	48264.1
704.45	48145.23
704.795	47965.8
705.14	47802.64
705.485	47838.12
705.83	47536.66
706.175	47756.99
706.52	47653.49
706.865	47423.22
707.209	47417.11
707.554	47305.25
707.899	47442.65
708.243	47247.18
708.588	47183.45
708.932	46924.92
709.277	47002.66
709.621	46865.04
709.966	46608.32
710.31	46713.18
710.654	46371.27
710.998	46450.81
711.342	46405.39
711.687	46252.63
712.031	46105.74
712.375	45887.44
712.719	46029.13
713.063	45878.85
713.407	45925.4
713.75	45790.94
714.094	45720.21
714.438	45634.11
714.782	45578.97
715.125	45441.8
715.469	45381.01
715.812	45171.3
716.156	44917.97
716.499	45041.36
716.843	45048.82
717.186	44602.95
717.53	44947.8
717.873	44979.89
718.216	44785.09
718.559	44727.24
718.902	44407.93
719.246	44535.61
719.589	44365.67
719.932	44275.05
720.275	44217.88
720.617	44226.69
720.96	44016.98
721.303	44107.82
721.646	44190.08
721.989	43728.85
722.331	43993.48
722.674	43770.66
723.016	43896.76
723.359	43627.38
723.701	43710.09
724.044	43407.95
724.386	43228.75
724.729	43411.8
725.071	43311.46
725.413	43366.83
725.755	43103.1
726.097	43092.71
726.439	42818.59
726.782	42793.51
727.124	42904.24
727.465	42656.11
727.807	42586.06
728.149	42550.12
728.491	42557.58
728.833	42714.19
729.175	42445.95
729.516	42455.66
729.858	42305.38
730.199	42370.47
730.541	42180.42
730.882	42122.79
731.224	42179.74
731.565	41901.55
731.906	41855.68
732.248	41989.91
732.589	41779.07
732.93	41590.15
733.271	41758.05
733.612	41809.13
733.953	41735.46
734.294	41290.72
734.635	41319.65
734.976	41592.41
735.317	41147.45
735.658	41189.26
735.999	41242.36
736.339	41138.64
736.68	41081.69
737.021	41095.7
737.361	40734.58
737.702	41061.12
738.042	40812.54
738.383	40778.65
738.723	40808.02
739.063	40595.15
739.404	40810.73
739.744	40588.82
740.084	40329.84
740.424	40449.84
740.764	40407.58
741.104	40583.62
741.444	40102.73
741.784	39931.21
742.124	40099.34
742.464	40082.39
742.804	39879.23
743.143	39927.37
743.483	39917.88
743.823	39746.13
744.162	39737.32
744.502	39813.92
744.841	39676.3
745.181	39807.6
745.52	39451.45
745.86	39648.96
746.199	39434.95
746.538	39450.77
746.877	39343.65
747.216	39324.22
747.556	39100.95
747.895	39088.52
748.234	38941.86
748.573	38927.17
748.911	38840.62
749.25	38956.32
749.589	38760.85
749.928	38681.07
750.267	38619.61
750.605	38443.11
750.944	38438.37
751.283	38264.59
751.621	38495.54
751.96	38179.84
752.298	38185.04
752.636	38151.6
