Data from plate_porcelain_FLMS001491_028.txt Node
Date: Tue Feb 07 11:19:02 GMT 2017
User: dcchb
Spectrometer: FLMS00149
Trigger mode: 0
Integration Time (sec): 2.000000E-2
Scans to average: 10
Electric dark correction enabled: true
Nonlinearity correction enabled: false
Boxcar width: 0
XAxis mode: Wavelengths
Number of Pixels in Spectrum: 2048
>>>>>Begin Spectral Data<<<<<
341.393	-23.56
341.776	-23.56
342.16	-23.56
342.543	-74.4
342.927	-73.95
343.31	-70.34
343.693	-65.37
344.077	-77.79
344.46	-51.81
344.843	-47.29
345.226	-60.62
345.61	-36.44
345.993	-3.45
346.376	7.4
346.759	17.8
347.142	22.32
347.525	36.33
347.908	49.89
348.291	73.84
348.674	87.4
349.057	118.13
349.44	121.97
349.823	121.75
350.206	163.78
350.588	246.26
350.971	227.73
351.354	253.04
351.737	277.68
352.119	269.54
352.502	287.39
352.884	297.11
353.267	312.93
353.65	312.48
354.032	350.44
354.414	337.79
354.797	358.8
355.179	358.58
355.562	355.41
355.944	375.3
356.326	372.14
356.709	378.01
357.091	358.13
357.473	391.12
357.855	378.69
358.238	387.05
358.62	387.5
359.002	379.37
359.384	395.87
359.766	397.22
360.148	388.18
360.53	389.54
360.912	385.24
361.294	376.2
361.676	378.92
362.057	377.33
362.439	394.28
362.821	386.6
363.203	376.88
363.584	392.93
363.966	394.28
364.348	391.8
364.729	382.08
365.111	361.29
365.493	374.85
365.874	405.13
366.256	389.54
366.637	401.06
367.019	387.5
367.4	386.83
367.781	377.33
368.163	382.31
368.544	395.87
368.925	390.67
369.306	395.41
369.688	385.92
370.069	418.46
370.45	385.47
370.831	426.37
371.212	398.8
371.593	388.86
371.974	407.39
372.355	378.92
372.736	408.29
373.117	409.65
373.498	418.24
373.879	406.71
374.26	411.91
374.641	387.28
375.021	421.85
375.402	414.17
375.783	459.37
376.163	482.64
376.544	466.82
376.925	450.33
377.305	447.84
377.686	452.14
378.066	462.98
378.447	484.45
378.827	462.53
379.208	465.92
379.588	457.78
379.968	468.63
380.349	487.84
380.729	489.65
381.109	490.55
381.489	474.73
381.87	508.18
382.25	490.33
382.63	504.11
383.01	510.21
383.39	515.64
383.77	528.97
384.15	517.9
384.53	527.39
384.91	535.07
385.29	549.31
385.67	546.14
386.049	560.38
386.429	559.25
386.809	568.74
387.189	571.45
387.568	576.2
387.948	587.72
388.328	582.98
388.707	591.11
389.087	598.35
389.466	589.76
389.846	613.03
390.225	611.68
390.605	620.04
390.984	632.02
391.363	652.13
391.743	638.8
392.122	665.46
392.501	662.75
392.881	674.95
393.26	686.03
393.639	685.58
394.018	694.16
394.397	696.2
394.776	698
395.155	722.41
395.534	693.26
395.913	728.96
396.292	732.35
396.671	770.54
397.05	738.23
397.429	772.35
397.808	777.1
398.186	765.12
398.565	794.5
398.944	771.67
399.323	779.81
399.701	808.96
400.08	808.51
400.458	820.03
400.837	854.61
401.215	836.76
401.594	830.2
401.972	846.02
402.351	875.85
402.729	889.41
403.107	889.41
403.486	888.96
403.864	913.37
404.242	908.39
404.62	907.26
404.999	936.19
405.377	947.72
405.755	965.79
406.133	948.62
406.511	964.89
406.889	1001.27
407.267	996.75
407.645	1027.71
408.023	1031.55
408.401	1068.84
408.779	1060.93
409.156	1089.41
409.534	1092.8
409.912	1110.87
410.29	1122.4
410.667	1150.65
411.045	1145.45
411.422	1160.82
411.8	1184.77
412.178	1216.86
412.555	1232.68
412.933	1246.92
413.31	1251.89
413.687	1286.92
414.065	1314.26
414.442	1313.36
414.819	1320.81
415.197	1356.29
415.574	1391.55
415.951	1364.65
416.328	1377.31
416.705	1417.76
417.082	1413.24
417.46	1423.86
417.837	1429.74
418.214	1462.5
418.591	1471.77
418.967	1485.78
419.344	1516.74
419.721	1507.02
420.098	1546.57
420.475	1546.8
420.852	1546.8
421.228	1594.03
421.605	1617.08
421.982	1636.74
422.358	1656.17
422.735	1691.42
423.111	1640.35
423.488	1714.47
423.864	1703.18
424.241	1757.86
424.617	1768.94
424.994	1751.54
425.37	1803.29
425.746	1809.84
426.123	1838.09
426.499	1836.51
426.875	1878.99
427.251	1946.33
427.627	1940.01
428.003	1968.48
428.379	2015.26
428.756	2005.77
429.132	2042.15
429.507	2072.88
429.883	2088.93
430.259	2143.39
430.635	2154.92
431.011	2182.94
431.387	2250.05
431.763	2269.04
432.138	2271.75
432.514	2336.38
432.89	2346.55
433.265	2391.07
433.641	2402.59
434.016	2472.65
434.392	2497.05
434.767	2512.87
435.143	2551.51
435.518	2578.86
435.894	2612.08
436.269	2631.06
436.644	2640.33
437.02	2714.9
437.395	2713.32
437.77	2764.62
438.145	2736.37
438.52	2842.13
438.895	2853.65
439.271	2864.73
439.646	2958.74
440.021	2922.8
440.395	2997.38
440.77	2984.95
441.145	2969.36
441.52	3052.29
441.895	3060.65
442.27	3050.48
442.645	3083.25
443.019	3126.87
443.394	3103.14
443.769	3167.09
444.143	3184.94
444.518	3286.86
444.892	3221.78
445.267	3275.34
445.641	3332.06
446.016	3310.36
446.39	3386.52
446.764	3342.45
447.139	3385.84
447.513	3454.09
447.887	3430.59
448.262	3485.73
448.636	3435.79
449.01	3600.53
449.384	3579.28
449.758	3609.79
450.132	3710.13
450.506	3695.67
450.88	3725.04
451.254	3698.38
451.628	3777.92
452.002	3797.81
452.376	3838.94
452.75	3910.35
453.123	3938.6
453.497	4009.56
453.871	4002.78
454.244	4143.79
454.618	4134.3
454.992	4197.57
455.365	4212.49
455.739	4320.73
456.112	4364.8
456.486	4431.24
456.859	4477.57
457.232	4525.25
457.606	4506.27
457.979	4611.57
458.352	4684.57
458.725	4762.3
459.099	4807.27
459.472	4877.33
459.845	4942.41
460.218	4967.72
460.591	5017.89
460.964	5042.3
461.337	5198
461.71	5276.64
462.083	5334.04
462.456	5388.05
462.829	5418.78
463.201	5506.92
463.574	5483.87
463.947	5604.77
464.32	5739.68
464.692	5797.98
465.065	5832.33
465.438	5888.38
465.81	6029.39
466.183	6105.09
466.555	6227.58
466.928	6256.05
467.3	6260.8
467.672	6353.67
468.045	6584.63
468.417	6536.49
468.789	6596.61
469.161	6679.32
469.534	6866.2
469.906	6911.4
470.278	7054.22
470.65	7109.36
471.022	7286.98
471.394	7385.06
471.766	7460.76
472.138	7610.14
472.51	7747.76
472.882	7891.49
473.253	7941.88
473.625	8089
473.997	8253.06
474.369	8225.26
474.74	8346.84
475.112	8489.66
475.484	8723.33
475.855	8822.08
476.227	8892.59
476.598	9178.69
476.97	9248.06
477.341	9468.17
477.713	9636.3
478.084	9693.7
478.455	9960.36
478.827	10025.22
479.198	10397.18
479.569	10385.43
479.94	10678.53
480.311	10769.15
480.682	11036.49
481.053	11264.05
481.424	11423.6
481.795	11544.72
482.166	11771.61
482.537	11826.3
482.908	12192.17
483.279	12246.4
483.65	12546.28
484.021	12782.43
484.391	12859.27
484.762	13005.25
485.133	13179.71
485.503	13429.19
485.874	13656.08
486.244	13873.7
486.615	14158.44
486.985	14261.72
487.356	14565.44
487.726	14750.74
488.097	14965.43
488.467	14971.08
488.837	15363.16
489.207	15594.56
489.578	15758.4
489.948	15944.38
490.318	16180.99
490.688	16203.59
491.058	16494.43
491.428	16648.09
491.798	16830.46
492.168	17237.23
492.538	17380.5
492.908	17538.92
493.278	17757.89
493.648	17802.19
494.017	18040.37
494.387	18218.67
494.757	18471.77
495.126	18626.57
495.496	18704.54
495.866	18819.34
496.235	19070.85
496.605	19330.06
496.974	19366.89
497.344	19622.7
497.713	19657.96
498.082	19828.8
498.452	20093.88
498.821	20228.79
499.19	20216.14
499.559	20413.87
499.928	20571.38
500.298	20813.41
500.667	21132.95
501.036	21002.78
501.405	21246.16
501.774	21192.83
502.143	21488.64
502.512	21721.41
502.88	21881.4
503.249	21933.15
503.618	22064.67
503.987	22158.23
504.356	22430.77
504.724	22458.79
505.093	22593.7
505.462	22677.54
505.83	22917.31
506.199	23130.41
506.567	23476.39
506.936	23291.76
507.304	23786.21
507.672	23745.99
508.041	23873.89
508.409	24182.36
508.777	24396.36
509.145	24555.68
509.514	24554.78
509.882	24857.14
510.25	24892.62
510.618	24968.78
510.986	25236.34
511.354	25548.65
511.722	25568.54
512.09	25924.23
512.458	25826.38
512.826	26144.57
513.193	26263.66
513.561	26500.72
513.929	26744.1
514.297	26819.58
514.664	27180.7
515.032	27301.82
515.4	27566.9
515.767	27627.69
516.135	27922.6
516.502	27715.82
516.869	28281.46
517.237	28363.49
517.604	28432.87
517.972	28845.29
518.339	28964.15
518.706	29089.57
519.073	29129.8
519.44	29409.34
519.808	29751.7
520.175	29972.71
520.542	30224.69
520.909	30321.41
521.276	30439.6
521.643	30788.96
522.009	31107.37
522.376	31270.76
522.743	31594.59
523.11	31710.52
523.477	32034.36
523.843	32254.69
524.21	32555.92
524.577	32804.5
524.943	32929.7
525.31	33211.73
525.676	33604.94
526.043	33667.76
526.409	33882.22
526.776	34232.94
527.142	34432.48
527.508	34665.02
527.874	34916.31
528.241	35131
528.607	35282.86
528.973	35655.96
529.339	35628.16
529.705	36050.97
530.071	36190.4
530.437	36330.97
530.803	36652.09
531.169	36888.47
531.535	36849.6
531.901	36955.81
532.267	37234.67
532.632	37416.59
532.998	37560.09
533.364	37831.49
533.73	38050.69
534.095	38396.45
534.461	38483.45
534.826	38634.86
535.192	38870.56
535.557	39053.61
535.923	39064.45
536.288	39304.67
536.653	39505.57
537.019	39388.74
537.384	39531.33
537.749	39709.63
538.114	39904.88
538.479	40112.11
538.845	40207.93
539.21	40213.12
539.575	40506
539.94	40565.43
540.305	40824.86
540.67	40825.54
541.034	41092.87
541.399	41265.3
541.764	41321.57
542.129	41482.69
542.494	41677.94
542.858	41721.33
543.223	41736.47
543.587	42170.13
543.952	42001.55
544.316	42236.57
544.681	42379.17
545.045	42469.79
545.41	42726.96
545.774	42787.97
546.138	42720.4
546.503	43015.08
546.867	42977.34
547.231	43575.97
547.595	43537.33
547.959	43769.87
548.324	43681.96
548.688	43779.81
549.052	43978.22
549.416	44022.74
549.779	44194.04
550.143	44370.75
550.507	44627.24
550.871	44849.39
551.235	44916.28
551.599	45165.54
551.962	45103.16
552.326	45320.33
552.689	45493.89
553.053	45431.74
553.417	45608.01
553.78	46085.51
554.143	45800.32
554.507	46146.53
554.87	46359.63
555.234	46725.72
555.597	46513.07
555.96	46864.7
556.323	46949.67
556.686	46994.87
557.05	47339.49
557.413	47373.84
557.776	47681.4
558.139	47721.63
558.502	47899.7
558.865	48042.3
559.228	48255.17
559.59	48340.59
559.953	48418.11
560.316	48845.44
560.679	48799.56
561.041	49187.58
561.404	49325.2
561.767	49394.12
562.129	49433.67
562.492	49755.02
562.854	49837.28
563.217	49913.21
563.579	49931.06
563.941	50234.55
564.304	50389.58
564.666	50716.58
565.028	50723.58
565.39	50907.98
565.753	50948.43
566.115	51137.58
566.477	51232.49
566.839	51371.7
567.201	51639.72
567.563	51660.51
567.925	51862.08
568.287	51908.41
568.648	51883.33
569.01	52186.59
569.372	52303.2
569.734	52202.86
570.095	52445.12
570.457	52559.24
570.819	52580.71
571.18	52730.53
571.542	52927.82
571.903	52921.72
572.265	52993.58
572.626	53045.1
572.987	53243.97
573.349	53312.67
573.71	53452.32
574.071	53520.12
574.432	53592.88
574.794	53756.27
575.155	53714.46
575.516	53701.81
575.877	53864.52
576.238	53897.28
576.599	53954.46
576.96	53971.63
577.32	54019.31
577.681	54175.92
578.042	54257.73
578.403	54285.07
578.763	54398.74
579.124	54356.48
579.485	54502.01
579.845	54556.25
580.206	54482.35
580.566	54503.82
580.927	54594.89
581.287	54662.69
581.648	54552.86
582.008	54736.81
582.368	54609.81
582.728	54755.11
583.089	54647.77
583.449	54668.56
583.809	54798.05
584.169	54856.81
584.529	54744.94
584.889	54953.3
585.249	54749.01
585.609	54663.59
585.969	54796.02
586.329	54754.44
586.688	54928.89
587.048	54795.34
587.408	54740.43
587.768	54762.8
588.127	54789.01
588.487	54693.42
588.846	54979.74
589.206	54800.99
589.565	54823.36
589.925	54928.44
590.284	54883.25
590.643	54942.68
591.003	54992.17
591.362	55070.36
591.721	54937.03
592.08	54987.88
592.44	55127.31
592.799	55073.3
593.158	55045.28
593.517	55042.34
593.876	55132.28
594.235	55040.53
594.593	55074.43
594.952	55221.54
595.311	55074.43
595.67	55098.16
596.029	55167.98
596.387	55306.29
596.746	55266.06
597.104	55110.36
597.463	55172.28
597.822	55307.42
598.18	55163.92
598.538	55205.5
598.897	55403.01
599.255	55135.89
599.613	55552.83
599.972	55365.72
600.33	55403.46
600.688	55298.38
601.046	55445.49
601.404	55565.26
601.762	55434.42
602.12	55592.15
602.478	55620.4
602.836	55664.47
603.194	55586.96
603.552	55561.87
603.91	55507.64
604.268	55609.55
604.625	55612.04
604.983	55711.47
605.341	55604.36
605.698	55715.09
606.056	55752.15
606.413	55725.03
606.771	55795.54
607.128	55914.63
607.485	55793.28
607.843	55760.29
608.2	55932.26
608.557	56055.64
608.914	55959.15
609.272	56117.56
609.629	56097.68
609.986	56134.51
610.343	56047.51
610.7	56299.71
611.057	56222.19
611.414	56222.19
611.771	56244.57
612.127	56339.93
612.484	56333.6
612.841	56461.51
613.198	56356.88
613.554	56421.28
613.911	56429.42
614.267	56464.67
614.624	56508.97
614.98	56476.2
615.337	56655.85
615.693	56594.84
616.05	56606.14
616.406	56750.09
616.762	56630.54
617.118	56602.52
617.475	56686.14
617.831	56786.92
618.187	56737.66
618.543	56716.87
618.899	56880.48
619.255	56803.87
619.611	56808.17
619.967	56854.95
620.323	56947.6
620.678	56806.81
621.034	56801.16
621.39	56776.08
621.746	56811.78
622.101	57014.04
622.457	56845.68
622.812	56874.38
623.168	56961.84
623.523	56924.77
623.879	56990.54
624.234	56861.27
624.589	56942.4
624.945	56972.23
625.3	56973.36
625.655	56926.13
626.01	56956.41
626.365	56976.75
626.72	56932.46
627.075	56930.88
627.43	56905.34
627.785	56820.6
628.14	56894.94
628.495	56860.6
628.85	56771.11
629.205	56746.47
629.559	56934.72
629.914	56725.01
630.269	56827.15
630.623	56739.24
630.978	56611.79
631.332	56792.8
631.687	56750.32
632.041	56684.55
632.396	56749.86
632.75	56627.16
633.104	56642.3
633.459	56532.47
633.813	56518.46
634.167	56525.46
634.521	56543.77
634.875	56525.46
635.229	56445.24
635.583	56383.09
635.937	56374.05
636.291	56328.18
636.645	56294.96
636.999	56210.89
637.352	56345.35
637.706	56155.53
638.06	56181.97
638.413	56164.34
638.767	56096.1
639.121	56188.97
639.474	55975.87
639.828	55969.32
640.181	56039.37
640.534	56009.77
640.888	55919.83
641.241	55739.72
641.594	55908.08
641.947	55903.56
642.301	55837.35
642.654	55770.68
643.007	55789.66
643.36	55739.04
643.713	55707.63
644.066	55818.36
644.419	55598.71
644.771	55454.08
645.124	55146.29
645.477	55147.87
645.83	54930.25
646.182	54740.65
646.535	54689.58
646.888	54768.67
647.24	54589.47
647.593	54722.12
647.945	54754.44
648.298	54476.03
648.65	54521
649.002	54436.7
649.355	54588.11
649.707	54488.68
650.059	54605.74
650.411	54938.39
650.763	54915.34
651.115	55076.01
651.467	55059.74
651.819	55127.08
652.171	55019.06
652.523	54894.09
652.875	54885.96
653.227	54705.85
653.578	54891.83
653.93	54893.42
654.282	54754.89
654.633	54618.17
654.985	54754.21
655.337	54709.69
655.688	54767.32
656.039	54769.8
656.391	54527.55
656.742	54681.67
657.094	54654.1
657.445	54849.57
657.796	54709.69
658.147	54498.62
658.498	54513.09
658.849	54647.09
659.2	54599.19
659.551	54432.86
659.902	54533.42
660.253	54480.32
660.604	54582.46
660.955	54349.47
661.306	54424.95
661.656	54389.93
662.007	54384.5
662.358	54361.9
662.708	54307.89
663.059	54363.94
663.409	54166.43
663.76	54318.97
664.11	54247.78
664.461	54335.69
664.811	54322.36
665.161	54329.36
665.511	54167.33
665.862	54250.95
666.212	54396.25
666.562	54332.53
666.912	54183.38
667.262	54245.75
667.612	54205.52
667.962	54288.46
668.312	54166.43
668.662	54295.24
669.011	54205.07
669.361	54138.41
669.711	54143.15
670.06	54115.13
670.41	53954.68
670.76	53998.52
671.109	54105.19
671.459	54040.56
671.808	54018.64
672.157	54087.56
672.507	53949.71
672.856	53900.9
673.205	53925.31
673.554	53844.63
673.904	53823.84
674.253	54036.94
674.602	53871.07
674.951	53401.25
675.3	53268.37
675.649	53779.77
675.998	53738.64
676.346	53747.68
676.695	53866.1
677.044	53605.99
677.393	53742.26
677.741	53704.07
678.09	53657.29
678.438	53597.4
678.787	53635.37
679.135	53613.68
679.484	53509.95
679.832	53549.04
680.181	53414.81
680.529	53489.16
680.877	53268.37
681.225	53203.06
681.573	53491.42
681.922	53199.67
682.27	53128.49
682.618	53139.11
682.966	53138.89
683.314	53057.31
683.661	52920.59
684.009	52866.35
684.357	52747.26
684.705	52832
685.053	52844.88
685.4	52705.9
685.748	52526.47
686.095	52594.72
686.443	52416.42
686.79	52354.73
687.138	52446.47
687.485	52425.46
687.832	52293.03
688.18	52380.71
688.527	52173.71
688.874	52158.12
689.221	51947.28
689.568	51902.08
689.915	51884
690.262	51846.26
690.609	51755.87
690.956	51622.54
691.303	51630.68
691.65	51401.76
691.997	51408.99
692.344	51160.86
692.69	51257.35
693.037	51316.11
693.383	51020.3
693.73	51076.11
694.077	50758.83
694.423	50895.1
694.769	50686.29
695.116	50723.36
695.462	50565.85
695.808	50568.56
696.155	50584.6
696.501	50307.77
696.847	50215.8
697.193	50022.36
697.539	50078.17
697.885	50043.37
698.231	49970.61
698.577	49917.28
698.923	49795.47
699.269	49462.6
699.614	49459.89
699.96	49234.36
700.306	49275.94
700.651	49238.42
700.997	49102.16
701.342	49070.52
701.688	48826
702.033	48704.88
702.379	48777.42
702.724	48644.54
703.069	48732.67
703.415	48347.15
703.76	48380.37
704.105	48296.3
704.45	48190.77
704.795	47844.79
705.14	47848.85
705.485	47772.25
705.83	47718.46
706.175	47756.2
706.52	47536.77
706.865	47487.73
707.209	47470.11
707.554	47208.19
707.899	47384.69
708.243	47160.06
708.588	47056.79
708.932	46832.61
709.277	46796.91
709.621	46827.41
709.966	46598.04
710.31	46669.45
710.654	46308.78
710.998	46431.49
711.342	46396.01
711.687	46233.76
712.031	46170.25
712.375	45990.82
712.719	46068.11
713.063	45864.27
713.407	45913.31
713.75	45768.91
714.094	45669.03
714.438	45541.34
714.782	45586.77
715.125	45388.81
715.469	45397.39
715.812	45076.95
716.156	44960.34
716.499	45013.9
716.843	44996.27
717.186	44741.37
717.53	44921.02
717.873	44851.42
718.216	44807.35
718.559	44769.84
718.902	44519.68
719.246	44583.4
719.589	44488.04
719.932	44273.13
720.275	44189.97
720.617	44203.3
720.96	44103.19
721.303	44107.48
721.646	44083.53
721.989	43757.66
722.331	43956.53
722.674	43805.12
723.016	43895.29
723.359	43699.36
723.701	43715.63
724.044	43422.08
724.386	43114.29
724.729	43470.44
725.071	43143.22
725.413	43157.23
725.755	43248.3
726.097	43012.15
726.439	42791.81
726.782	42902.77
727.124	42930.79
727.465	42558.37
727.807	42701.65
728.149	42596.56
728.491	42568.54
728.833	42548.88
729.175	42505.72
729.516	42394.31
729.858	42230.92
730.199	42408.09
730.541	41968.11
730.882	41953.42
731.224	42120.19
731.565	41792.06
731.906	41962.23
732.248	41880.88
732.589	41665.51
732.93	41595.46
733.271	41681.56
733.612	41684.05
733.953	41728.56
734.294	41500.77
734.635	41354.11
734.976	41444.28
735.317	41224.85
735.658	41160.9
735.999	41165.87
736.339	41043.16
736.68	41273.66
737.021	41020.33
737.361	40887.91
737.702	41077.51
738.042	40786.89
738.383	40911.64
738.723	40906.66
739.063	40583.74
739.404	40681.81
739.744	40586.45
740.084	40430.74
740.424	40576.96
740.764	40420.8
741.104	40396.4
741.444	40240.69
741.784	40054.26
742.124	40200.69
742.464	40159.57
742.804	39986.69
743.143	39932
743.483	39887.48
743.823	39661.05
744.162	39786.02
744.502	39830.99
744.841	39667.6
745.181	39670.54
745.52	39455.18
745.86	39509.41
746.199	39473.48
746.538	39341.28
746.877	39477.78
747.216	39334.5
747.556	39043.89
747.895	39076.2
748.234	38914.17
748.573	38819.94
748.911	38899.49
749.25	38747.17
749.589	38606.61
749.928	38794.86
750.267	38620.4
750.605	38507.86
750.944	38390.57
751.283	38279.16
751.621	38465.15
751.96	38085.95
752.298	38114.2
752.636	38163.91
752.975	37866.07
