Data from plate_ceramic_FLMS001491_059.txt Node
Date: Tue Feb 07 11:17:00 GMT 2017
User: dcchb
Spectrometer: FLMS00149
Trigger mode: 0
Integration Time (sec): 2.000000E-2
Scans to average: 10
Electric dark correction enabled: true
Nonlinearity correction enabled: false
Boxcar width: 0
XAxis mode: Wavelengths
Number of Pixels in Spectrum: 2048
>>>>>Begin Spectral Data<<<<<
341.393	-5.89
341.776	-5.89
342.16	-5.89
342.543	-76.4
342.927	-55.38
343.31	-71.65
343.693	-54.25
344.077	-55.38
344.46	-68.71
344.843	-52.67
345.226	-37.98
345.61	-41.37
345.993	-23.52
346.376	-0.47
346.759	3.83
347.142	18.74
347.525	57.16
347.908	51.96
348.291	86.99
348.674	92.19
349.057	95.12
349.44	117.27
349.823	142.58
350.206	171.96
350.588	198.17
350.971	214.67
351.354	236.59
351.737	247.89
352.119	257.61
352.502	272.97
352.884	291.73
353.267	306.64
353.65	289.02
354.032	346.42
354.414	307.1
354.797	337.15
355.179	362.01
355.562	323.82
355.944	341.9
356.326	368.11
356.709	335.8
357.091	350.03
357.473	347.77
357.855	356.59
358.238	362.69
358.62	355.23
359.002	350.26
359.384	365.4
359.766	358.85
360.148	368.79
360.53	357.94
360.912	377.15
361.294	357.04
361.676	371.73
362.057	357.72
362.439	371.05
362.821	334.89
363.203	374.44
363.584	345.06
363.966	372.86
364.348	357.26
364.729	349.13
365.111	342.35
365.493	360.2
365.874	347.55
366.256	329.02
366.637	333.54
367.019	326.08
367.4	367.43
367.781	366.53
368.163	360.65
368.544	346.19
368.925	366.76
369.306	366.76
369.688	349.81
370.069	338.28
370.45	350.26
370.831	363.82
371.212	366.76
371.593	379.18
371.974	382.57
372.355	362.46
372.736	374.21
373.117	367.89
373.498	388
373.879	389.81
374.26	374.44
374.641	348.23
375.021	368.34
375.402	383.48
375.783	388.68
376.163	413.53
376.544	402.91
376.925	405.85
377.305	404.27
377.686	396.13
378.066	393.65
378.447	412.18
378.827	403.37
379.208	409.92
379.588	399.98
379.968	391.84
380.349	416.47
380.729	426.42
381.109	423.48
381.489	418.73
381.87	445.85
382.25	439.07
382.63	427.32
383.01	445.17
383.39	428.68
383.77	450.6
384.15	444.49
384.53	443.36
384.91	456.02
385.29	457.83
385.67	443.59
386.049	470.48
386.429	433.42
386.809	463.93
387.189	474.1
387.568	476.81
387.948	486.75
388.328	485.17
388.707	510.48
389.087	488.33
389.466	517.49
389.846	498.5
390.225	517.03
390.605	500.54
390.984	511.16
391.363	518.62
391.743	525.17
392.122	534.44
392.501	545.28
392.881	547.99
393.26	535.11
393.639	555.68
394.018	552.97
394.397	541.89
394.776	560.42
395.155	572.63
395.534	586.19
395.913	597.48
396.292	577.82
396.671	576.47
397.05	595
397.429	592.74
397.808	588.22
398.186	586.41
398.565	623.47
398.944	614.88
399.323	612.4
399.701	620.31
400.08	641.1
400.458	632.96
400.837	651.72
401.215	654.66
401.594	656.01
401.972	670.25
402.351	665.28
402.729	679.29
403.107	671.38
403.486	702.11
403.864	705.05
404.242	701.89
404.62	707.99
404.999	729.68
405.377	712.06
405.755	724.94
406.133	753.41
406.511	767.88
406.889	781.43
407.267	755.22
407.645	799.29
408.023	805.84
408.401	805.84
408.779	801.09
409.156	799.74
409.534	823.47
409.912	843.35
410.29	848.78
410.667	871.15
411.045	893.75
411.422	878.38
411.8	881.54
412.178	919.74
412.555	899.62
412.933	906.18
413.31	961.09
413.687	971.49
414.065	967.42
414.442	978.72
414.819	1001.32
415.197	1007.87
415.574	1030.47
415.951	1023.46
416.328	1029.11
416.705	1011.94
417.082	1058.94
417.46	1042.44
417.837	1080.64
418.214	1075.89
418.591	1079.51
418.967	1101.65
419.344	1112.05
419.721	1111.14
420.098	1107.75
420.475	1125.61
420.852	1130.35
421.228	1181.65
421.605	1173.51
421.982	1179.62
422.358	1219.61
422.735	1234.3
423.111	1225.72
423.488	1234.53
423.864	1252.16
424.241	1271.36
424.617	1309.78
424.994	1256.9
425.37	1300.97
425.746	1308.65
426.123	1308.43
426.499	1325.37
426.875	1323.79
427.251	1368.31
427.627	1395.2
428.003	1420.06
428.379	1459.61
428.756	1463.9
429.132	1488.53
429.507	1492.6
429.883	1472.49
430.259	1512.71
430.635	1548.42
431.011	1576.22
431.387	1598.59
431.763	1596.78
432.138	1616.44
432.514	1641.07
432.89	1671.13
433.265	1704.12
433.641	1716.78
434.016	1743.89
434.392	1741.41
434.767	1790.22
435.143	1755.19
435.518	1811.69
435.894	1835.64
436.269	1846.72
436.644	1830.9
437.02	1869.77
437.395	1902.53
437.77	1900.95
438.145	1980.5
438.52	1986.6
438.895	1989.76
439.271	2001.52
439.646	2055.98
440.021	2067.28
440.395	2084.9
440.77	2038.8
441.145	2094.17
441.52	2101.17
441.895	2128.97
442.27	2129.65
442.645	2121.74
443.019	2171.91
443.394	2164
443.769	2213.04
444.143	2191.79
444.518	2215.29
444.892	2268.17
445.267	2261.4
445.641	2307.5
446.016	2303.2
446.39	2304.11
446.764	2328.96
447.139	2329.19
447.513	2376.65
447.887	2360.83
448.262	2386.59
448.636	2411.9
449.01	2426.14
449.384	2500.49
449.758	2491.22
450.132	2506.81
450.506	2531.67
450.88	2532.57
451.254	2562.63
451.628	2579.35
452.002	2645.34
452.376	2625.91
452.75	2660.93
453.123	2688.28
453.497	2698.22
453.871	2756.98
454.244	2830.87
454.618	2806.01
454.992	2867.93
455.365	2882.85
455.739	2919.91
456.112	2966.91
456.486	3007.82
456.859	3019.57
457.232	3091.2
457.606	3032.22
457.979	3168.04
458.352	3158.09
458.725	3221.14
459.099	3246.68
459.472	3311.31
459.845	3359.22
460.218	3387.24
460.591	3435.83
460.964	3435.6
461.337	3551.53
461.71	3615.71
462.083	3613.22
462.456	3628.59
462.829	3648.03
463.201	3676.05
463.574	3714.24
463.947	3777.97
464.32	3849.83
464.692	3888.02
465.065	3911.52
465.438	3956.49
465.81	4031.97
466.183	4085.98
466.555	4209.14
466.928	4244.85
467.3	4227.22
467.672	4258.4
468.045	4410.49
468.417	4396.71
468.789	4411.85
469.161	4501.56
469.534	4575.46
469.906	4644.38
470.278	4691.39
470.65	4754.89
471.022	4834.44
471.394	4876.24
471.766	4958.73
472.138	5031.04
472.51	5085.73
472.882	5255.21
473.253	5297.25
473.625	5406.85
473.997	5473.06
474.369	5463.35
474.74	5567.3
475.112	5700.17
475.484	5788.08
475.855	5900.4
476.227	5906.05
476.598	6130.9
476.97	6160.95
477.341	6318.69
477.713	6412.7
478.084	6471.91
478.455	6650.66
478.827	6663.31
479.198	6844.33
479.569	6838.68
479.94	7074.15
480.311	7120.25
480.682	7326.57
481.053	7449.28
481.424	7569.96
481.795	7639.33
482.166	7774.24
482.537	7877.07
482.908	8044.07
483.279	8125.65
483.65	8242.71
484.021	8444.96
484.391	8539.2
484.762	8695.12
485.133	8674.79
485.503	8841.34
485.874	9086.53
486.244	9061.44
486.615	9312.06
486.985	9385.28
487.356	9543.69
487.726	9654.87
488.097	9829.78
488.467	9893.29
488.837	10166.27
489.207	10293.5
489.578	10417.34
489.948	10439.49
490.318	10652.36
490.688	10682.42
491.058	10880.83
491.428	11008.74
491.798	11188.84
492.168	11355.17
492.538	11354.72
492.908	11482.17
493.278	11611.66
493.648	11750.41
494.017	11860.01
494.387	11999.9
494.757	12103.4
495.126	12229.72
495.496	12331.87
495.866	12386.78
496.235	12496.15
496.605	12635.36
496.974	12752.42
497.344	12984.5
497.713	12977.95
498.082	13054.78
498.452	13100.21
498.821	13220.2
499.19	13282.12
499.559	13485.96
499.928	13485.06
500.298	13582.68
500.667	13806.4
501.036	13847.31
501.405	13831.26
501.774	13964.59
502.143	14179.05
502.512	14172.27
502.88	14322.77
503.249	14370.68
503.618	14573.84
503.987	14544.24
504.356	14661.07
504.724	14839.6
505.093	14843.89
505.462	14904.68
505.83	15065.8
506.199	15203.65
506.567	15414.72
506.936	15444.55
507.304	15682.29
507.672	15646.81
508.041	15825.56
508.409	15916.86
508.777	16003.63
509.145	16083.4
509.514	16109.84
509.882	16315.94
510.25	16386.9
510.618	16524.98
510.986	16574.69
511.354	16809.94
511.722	16933.55
512.09	17063.04
512.458	17038.86
512.826	17226.2
513.193	17366.31
513.561	17466.19
513.929	17711.84
514.297	17830.03
514.664	17920.64
515.032	18026.63
515.4	18203.35
515.767	18288.09
516.135	18349.33
516.502	18370.58
516.869	18602.21
517.237	18764.46
517.604	18677.91
517.972	19057.56
518.339	19098.92
518.706	19074.51
519.073	19376.43
519.44	19481.96
519.808	19627.04
520.175	19714.5
520.542	20025
520.909	20109.06
521.276	20040.59
521.643	20287.14
522.009	20446.68
522.376	20704.07
522.743	20741.36
523.11	20903.17
523.477	21173.21
523.843	21438.07
524.21	21605.75
524.577	21715.12
524.943	21882.8
525.31	21919.18
525.676	22177.93
526.043	22317.37
526.409	22362.34
526.776	22621.09
527.142	22881.42
527.508	23002.09
527.874	23206.38
528.241	23238.7
528.607	23374.06
528.973	23676.43
529.339	23660.15
529.705	23809.53
530.071	24083.87
530.437	24153.93
530.803	24422.85
531.169	24581.49
531.535	24465.78
531.901	24556.4
532.267	24653.57
532.632	24889.27
532.998	24985.09
533.364	25294.46
533.73	25310.96
534.095	25535.81
534.461	25533.55
534.826	25772.64
535.192	25862.36
535.557	26102.58
535.923	26067.55
536.288	26206.08
536.653	26355
537.019	26321.55
537.384	26485.39
537.749	26595.67
538.114	26693.3
538.479	26783.24
538.845	26999.05
539.21	26905.95
539.575	27112.95
539.94	27183.23
540.305	27299.38
540.67	27285.6
541.034	27493.27
541.399	27629.54
541.764	27800.38
542.129	27704.34
542.494	27936.43
542.858	27956.09
543.223	28083.54
543.587	28264.55
543.952	28166.25
544.316	28366.92
544.681	28403.98
545.045	28575.51
545.41	28743.64
545.774	28897.08
546.138	28894.37
546.503	29052.78
546.867	29004.19
547.231	29368.93
547.595	29187.69
547.959	29417.74
548.324	29444.86
548.688	29580.23
549.052	29625.87
549.416	29799.2
549.779	29964.4
550.143	30046.2
550.507	30099.53
550.871	30246.2
551.235	30360.77
551.599	30509.01
551.962	30585.4
552.326	30730.03
552.689	30883.02
553.053	30790.81
553.417	30990.13
553.78	31381.31
554.143	31227.41
554.507	31410.69
554.87	31470.8
555.234	31830.11
555.597	31725.48
555.96	31879.83
556.323	31920.95
556.686	32089.31
557.05	32256.54
557.413	32485.01
557.776	32546.47
558.139	32666.25
558.502	32849.07
558.865	33025.78
559.228	33144.88
559.59	33445.43
559.953	33489.95
560.316	33744.64
560.679	33722.26
561.041	34020.11
561.404	34028.24
561.767	34314.79
562.129	34310.95
562.492	34680.43
562.854	34659.87
563.217	34866.64
563.579	34924.04
563.941	35022.79
564.304	35359.96
564.666	35506.4
565.028	35551.82
565.39	35616.68
565.753	35939.15
566.115	36010.11
566.477	36193.16
566.839	36260.05
567.201	36409.42
567.563	36455.75
567.925	36769.64
568.287	36818
568.648	36774.84
569.01	37136.18
569.372	37323.98
569.734	37275.84
570.095	37548.15
570.457	37668.15
570.819	37773.68
571.18	37762.38
571.542	38050.51
571.903	38057.29
572.265	38280.34
572.626	38388.36
572.987	38423.16
573.349	38577.05
573.71	38672.64
574.071	38798.51
574.432	38706.09
574.794	39085.96
575.155	39139.07
575.516	39153.76
575.877	39263.36
576.238	39397.37
576.599	39405.05
576.96	39561.43
577.32	39636.68
577.681	39723.91
578.042	39850.46
578.403	39862.67
578.763	39873.06
579.124	39946.96
579.485	40098.37
579.845	40212.94
580.206	40116.9
580.566	40180.85
580.927	40334.97
581.287	40353.05
581.648	40268.31
582.008	40437.57
582.368	40396.89
582.728	40399.6
583.089	40346.27
583.449	40424.01
583.809	40495.42
584.169	40620.16
584.529	40407.51
584.889	40776.09
585.249	40428.08
585.609	40468.3
585.969	40664
586.329	40618.13
586.688	40672.36
587.048	40687.05
587.408	40640.95
587.768	40628.07
588.127	40582.87
588.487	40708.75
588.846	40982.41
589.206	40496.77
589.565	40656.77
589.925	40905.58
590.284	40709.42
590.643	40805.47
591.003	40927.72
591.362	41003.65
591.721	40732.93
592.08	40786.26
592.44	41161.62
592.799	40966.14
593.158	40923.66
593.517	41054.5
593.876	41100.83
594.235	40925.69
594.593	41029.19
594.952	41051.56
595.311	41046.36
595.67	41153.25
596.029	41215.85
596.387	41206.59
596.746	41405.9
597.104	41320.71
597.463	41250.43
597.822	41386.92
598.18	41323.42
598.538	41201.61
598.897	41540.14
599.255	41247.26
599.613	41843.18
599.972	41607.93
600.33	41649.74
600.688	41499.91
601.046	41768.38
601.404	41793.69
601.762	41653.58
602.12	41834.14
602.478	41875.04
602.836	41909.84
603.194	41630.53
603.552	41703.52
603.91	41699.91
604.268	41846.8
604.625	41814.48
604.983	42022.84
605.341	41865.1
605.698	42023.29
606.056	42126.79
606.413	42082.5
606.771	42157.52
607.128	42390.96
607.485	41996.85
607.843	42239.33
608.2	42489.04
608.557	42475.03
608.914	42389.38
609.272	42569.49
609.629	42604.97
609.986	42630.5
610.343	42473.45
610.7	42865.3
611.057	42819.88
611.414	42697.85
611.771	42851.06
612.127	42971.29
612.484	42914.34
612.841	42863.27
613.198	42878.18
613.554	42987.78
613.911	43191.62
614.267	42975.13
614.624	43147.33
614.98	43174.22
615.337	43346.42
615.693	43425.28
616.05	43435.23
616.406	43506.64
616.762	43364.27
617.118	43457.83
617.475	43399.3
617.831	43519.52
618.187	43644.26
618.543	43653.08
618.899	43822.56
619.255	43638.84
619.611	43587.31
619.967	43807.2
620.323	43959.51
620.678	43776.01
621.034	43616.92
621.39	43640.65
621.746	43585.96
622.101	44176.68
622.457	43734.88
622.812	43992.73
623.168	43968.77
623.523	44103.23
623.879	44028.43
624.234	43793.86
624.589	43896.68
624.945	43909.34
625.3	43885.61
625.655	43900.07
626.01	44006.74
626.365	43894.65
626.72	43873.41
627.075	43840.64
627.43	43904.59
627.785	43715.45
628.14	43979.17
628.495	43896.46
628.85	43814.88
629.205	43699.4
629.559	43806.97
629.914	43538.5
630.269	43676.8
630.623	43592.51
630.978	43510.71
631.332	43509.35
631.687	43744.82
632.041	43600.2
632.396	43622.34
632.75	43272.75
633.104	43409.92
633.459	43106.42
633.813	43212.63
634.167	43368.79
634.521	43327.21
634.875	43241.56
635.229	43024.84
635.583	43071.62
635.937	42949.14
636.291	42800.67
636.645	42995.01
636.999	42844.06
637.352	42879.31
637.706	42641.8
638.06	42819.2
638.413	42755.25
638.767	42694.68
639.121	42657.17
639.474	42398.87
639.828	42564.29
640.181	42358.19
640.534	42540.11
640.888	42355.03
641.241	42316.84
641.594	42152.55
641.947	42432.77
642.301	42191.19
642.654	42271.42
643.007	42206.79
643.36	42157.75
643.713	42079.78
644.066	42134.92
644.419	41943.06
644.771	41692.22
645.124	41387.37
645.477	41229.86
645.83	40872.13
646.182	40729.99
646.535	40591.46
646.888	40826.26
647.24	40678.01
647.593	40853.83
647.945	40809.99
648.298	40631.91
648.65	40430.11
649.002	40334.07
649.355	40497.68
649.707	40446.83
650.059	40643.44
650.411	41078.68
650.763	41238.68
651.115	41298.79
651.467	41254.49
651.819	41131.11
652.171	41105.35
652.523	41006.14
652.875	41031.68
653.227	40922.75
653.578	41103.31
653.93	41015.63
654.282	40856.54
654.633	40696.99
654.985	40897.89
655.337	40896.31
655.688	40794.39
656.039	40882.53
656.391	40370.68
656.742	40618.58
657.094	40614.06
657.445	40804.79
657.796	40645.47
658.147	40609.31
658.498	40431.92
658.849	40547.62
659.2	40451.8
659.551	40318.47
659.902	40704.9
660.253	40527.06
660.604	40497
660.955	40272.83
661.306	40477.57
661.656	40391.92
662.007	40365.25
662.358	40303.11
662.708	40330
663.059	40172.04
663.409	39987.41
663.76	40273.28
664.11	40155.31
664.461	40162.09
664.811	40219.49
665.161	40253.62
665.511	40152.83
665.862	40171.81
666.212	40293.16
666.562	40309.66
666.912	40113.51
667.262	40167.97
667.612	40075.32
667.962	40143.34
668.312	39992.15
668.662	40163.9
669.011	40053.85
669.361	40065.6
669.711	40018.59
670.06	39913.51
670.41	39997.13
670.76	39840.52
671.109	39862.21
671.459	39907.86
671.808	39804.59
672.157	39880.29
672.507	39618.38
672.856	39721.2
673.205	39593.75
673.554	39690.02
673.904	39582.45
674.253	39649.11
674.602	39630.58
674.951	39151.5
675.3	38991.73
675.649	39672.62
675.998	39452.96
676.346	39323.7
676.695	39543.8
677.044	39298.61
677.393	39415.22
677.741	39425.16
678.09	39284.6
678.438	39242.34
678.787	39109.69
679.135	39319.4
679.484	39021.11
679.832	39260.42
680.181	38996.7
680.529	38985.85
680.877	38954.89
681.225	38874.22
681.573	38921.9
681.922	38846.2
682.27	38762.13
682.618	38700.66
682.966	38752.19
683.314	38717.16
683.661	38523.72
684.009	38363.95
684.357	38154.01
684.705	38261.35
685.053	38313.78
685.4	38261.8
685.748	38111.07
686.095	38044.41
686.443	37795.6
686.79	37810.52
687.138	37670.63
687.485	37849.16
687.832	37726
688.18	37792.89
688.527	37614.82
688.874	37504.54
689.221	37361.04
689.568	37229.52
689.915	37191.78
690.262	37214.15
690.609	37040.37
690.956	37015.28
691.303	36977.77
691.65	36764.22
691.997	36666.59
692.344	36614.39
692.69	36630.44
693.037	36724.67
693.383	36452.13
693.73	36474.06
694.077	36265.02
694.423	36282.87
694.769	36165.81
695.116	36126.27
695.462	36039.26
695.808	35892.6
696.155	35821.64
696.501	35666.39
696.847	35507.07
697.193	35472.73
697.539	35550.24
697.885	35214.88
698.231	35174.88
698.577	35234.09
698.923	35195.44
699.269	34927.88
699.614	34686.31
699.96	34640.43
700.306	34808.56
700.651	34654.67
700.997	34539.19
701.342	34446.09
701.688	34353.88
702.033	34212.65
702.379	34225.07
702.724	34101.69
703.069	34215.58
703.415	33773.34
703.76	33715.26
704.105	33760
704.45	33634.81
704.795	33372.22
705.14	33249.28
705.485	33312.78
705.83	33262.84
706.175	33319.56
706.52	33181.49
706.865	33065.56
707.209	33048.16
707.554	32974.03
707.899	32953.7
708.243	32792.34
708.588	32744.89
708.932	32469.64
709.277	32485.23
709.621	32479.36
709.966	32297.89
710.31	32418.12
710.654	32054.51
710.998	32272.81
711.342	32154.62
711.687	32091.8
712.031	31984.46
712.375	31906.94
712.719	31884.35
713.063	31811.35
713.407	31794.4
713.75	31592.15
714.094	31605.71
714.438	31489.1
714.782	31618.36
715.125	31496.56
715.469	31530.23
715.812	31277.36
716.156	31168.43
716.499	31083.91
716.843	31062.9
717.186	30895.22
717.53	31068.1
717.873	31045.72
718.216	30909.46
718.559	30865.39
718.902	30532.06
719.246	30775.9
719.589	30697.48
719.932	30507.66
720.275	30541.56
720.617	30558.73
720.96	30357.15
721.303	30314.89
721.646	30443.93
721.989	30151.74
722.331	30325.97
722.674	30165.75
723.016	30111.74
723.359	30047.78
723.701	30047.11
724.044	29856.6
724.386	29754.46
724.729	29956.49
725.071	29824.74
725.413	29773.67
725.755	29667.68
726.097	29666.32
726.439	29368.03
726.782	29380.23
727.124	29558.76
727.465	29282.83
727.807	29410.51
728.149	29211.87
728.491	29456.84
728.833	29423.17
729.175	29027.92
729.516	29011.88
729.858	28994.7
730.199	29045.78
730.541	29003.29
730.882	28951.77
731.224	29009.62
731.565	28740.7
731.906	28923.52
732.248	28776.86
732.589	28692.79
732.93	28435.62
733.271	28616.18
733.612	28592.91
733.953	28642.17
734.294	28496.41
734.635	28435.4
734.976	28446.92
735.317	28241.96
735.658	28277.43
735.999	28270.43
736.339	28267.27
736.68	28247.83
737.021	28196.98
737.361	28080.6
737.702	28169.41
738.042	28148.85
738.383	28058.91
738.723	28014.62
739.063	27947.73
739.404	27920.83
739.744	27905.69
740.084	27800.38
740.424	27880.16
740.764	27857.11
741.104	27889.87
741.444	27532.82
741.784	27559.94
742.124	27506.83
742.464	27658.47
742.804	27417.57
743.143	27420.96
743.483	27553.39
743.823	27295.99
744.162	27213.96
744.502	27176.45
744.841	27118.82
745.181	27144.36
745.52	27045.83
745.86	27098.48
746.199	26917.02
746.538	26942.1
746.877	26981.65
747.216	26839.05
747.556	26790.24
747.895	26852.61
748.234	26705.05
748.573	26642.9
748.911	26562.23
749.25	26581.66
749.589	26571.72
749.928	26558.84
750.267	26587.76
750.605	26558.38
750.944	26382.79
751.283	26296.7
751.621	26341.44
751.96	26195
752.298	26186.42
752.636	26083.37
752.975	26021.45
753.313	25808.12
753.651	26028.23
753.989	25860.77
