Data from plate_porcelain_FLMS001491_003.txt Node
Date: Tue Feb 07 11:18:38 GMT 2017
User: dcchb
Spectrometer: FLMS00149
Trigger mode: 0
Integration Time (sec): 2.000000E-2
Scans to average: 10
Electric dark correction enabled: true
Nonlinearity correction enabled: false
Boxcar width: 0
XAxis mode: Wavelengths
Number of Pixels in Spectrum: 2048
>>>>>Begin Spectral Data<<<<<
341.393	-7.39
341.776	-7.39
342.16	-7.39
342.543	-25.92
342.927	-81.06
343.31	-70.66
343.693	-64.33
344.077	-46.71
344.46	-70.89
344.843	-65.69
345.226	-49.65
345.61	-25.69
345.993	-20.72
346.376	-2.64
346.759	6.62
347.142	27.41
347.525	40.75
347.908	61.54
348.291	84.81
348.674	74.64
349.057	121.2
349.44	121.65
349.823	152.38
350.206	179.27
350.588	208.2
350.971	240.74
351.354	257.01
351.737	256.79
352.119	285.03
352.502	309.89
352.884	309.22
353.267	314.86
353.65	344.02
354.032	359.61
354.414	346.28
354.797	363.22
355.179	358.93
355.562	373.39
355.944	366.39
356.326	383.34
356.709	373.62
357.091	372.72
357.473	378.14
357.855	382.43
358.238	384.92
358.62	404.13
359.002	404.58
359.384	374.75
359.766	392.6
360.148	404.13
360.53	392.15
360.912	384.47
361.294	393.96
361.676	390.79
362.057	395.54
362.439	402.32
362.821	397.35
363.203	403.68
363.584	376.56
363.966	390.79
364.348	384.47
364.729	385.82
365.111	386.95
365.493	401.64
365.874	380.17
366.256	388.76
366.637	414.3
367.019	367.07
367.4	399.38
367.781	392.83
368.163	393.73
368.544	382.21
368.925	402.32
369.306	408.42
369.688	414.52
370.069	393.96
370.45	393.73
370.831	396.9
371.212	398.25
371.593	401.19
371.974	413.39
372.355	394.64
372.736	457.91
373.117	419.95
373.498	406.39
373.879	435.09
374.26	431.25
374.641	440.06
375.021	424.69
375.402	427.4
375.783	458.82
376.163	454.75
376.544	466.73
376.925	451.36
377.305	459.49
377.686	474.63
378.066	480.96
378.447	477.8
378.827	489.55
379.208	475.31
379.588	503.56
379.968	479.15
380.349	495.42
380.729	513.28
381.109	491.81
381.489	502.66
381.87	524.58
382.25	506.27
382.63	523.67
383.01	514.86
383.39	530.9
383.77	532.49
384.15	541.98
384.53	559.15
384.91	545.82
385.29	573.16
385.67	556.89
386.049	546.95
386.429	562.77
386.809	574.97
387.189	575.2
387.568	584.01
387.948	603.67
388.328	596.44
388.707	601.64
389.087	629.21
389.466	628.98
389.846	614.52
390.225	625.36
390.605	609.09
390.984	644.12
391.363	676.21
391.743	667.17
392.122	671.69
392.501	694.97
392.881	698.36
393.26	684.8
393.639	690.9
394.018	715.76
394.397	697
394.776	725.7
395.155	740.62
395.534	726.38
395.913	743.33
396.292	768.41
396.671	787.17
397.05	768.64
397.429	773.38
397.808	798.92
398.186	792.82
398.565	800.95
398.944	817.9
399.323	833.04
399.701	815.87
400.08	841.63
400.458	832.37
400.837	847.51
401.215	864.91
401.594	876.21
401.972	881.18
402.351	893.15
402.729	889.31
403.107	906.04
403.486	929.09
403.864	939.48
404.242	932.7
404.62	961.85
404.999	945.13
405.377	950.33
405.755	960.27
406.133	998.24
406.511	1004.79
406.889	1046.14
407.267	1023.09
407.645	1032.13
408.023	1046.6
408.401	1070.32
408.779	1098.8
409.156	1126.59
409.534	1104.67
409.912	1131.11
410.29	1165.69
410.667	1176.54
411.045	1193.49
411.422	1221.51
411.8	1234.84
412.178	1235.52
412.555	1237.78
412.933	1247.04
413.31	1295.4
413.687	1293.37
414.065	1303.09
414.442	1329.3
414.819	1360.94
415.197	1378.79
415.574	1389.19
415.951	1393.93
416.328	1410.88
416.705	1423.31
417.082	1433.71
417.46	1486.81
417.837	1490.88
418.214	1488.39
418.591	1504.21
418.967	1524.32
419.344	1502.63
419.721	1572.91
420.098	1562.74
420.475	1573.14
420.852	1592.12
421.228	1630.54
421.605	1615.4
421.982	1645.45
422.358	1656.3
422.735	1695.17
423.111	1710.76
423.488	1717.99
423.864	1732.45
424.241	1762.96
424.617	1801.83
424.994	1812.45
425.37	1842.06
425.746	1832.11
426.123	1892.9
426.499	1865.56
426.875	1923.18
427.251	1941.49
427.627	1982.84
428.003	2016.06
428.379	2029.62
428.756	2053.12
429.132	2095.83
429.507	2104.65
429.883	2119.34
430.259	2167.92
430.635	2218.09
431.011	2196.17
431.387	2258.54
431.763	2308.26
432.138	2336.28
432.514	2341.25
432.89	2385.09
433.265	2429.16
433.641	2439.55
434.016	2509.61
434.392	2536.73
434.767	2585.09
435.143	2570.4
435.518	2657.18
435.894	2627.35
436.269	2689.72
436.644	2717.06
437.02	2723.61
437.395	2772.43
437.77	2789.38
438.145	2818.98
438.52	2857.85
438.895	2907.79
439.271	2937.62
439.646	2991.18
440.021	3002.48
440.395	3006.77
440.77	2985.08
441.145	3065.07
441.52	3085.19
441.895	3085.19
442.27	3124.06
442.645	3149.59
443.019	3171.29
443.394	3160.67
443.769	3244.28
444.143	3228.91
444.518	3311.85
444.892	3267.33
445.267	3298.29
445.641	3356.59
446.016	3407.66
446.39	3430.71
446.764	3418.96
447.139	3477.27
447.513	3501.45
447.887	3542.35
448.262	3513.65
448.636	3569.02
449.01	3585.97
449.384	3611.73
449.758	3662.35
450.132	3724.72
450.506	3750.48
450.88	3757.26
451.254	3766.3
451.628	3837.94
452.002	3896.92
452.376	3916.35
452.75	3914.54
453.123	3952.28
453.497	4071.83
453.871	4079.29
454.244	4201.99
454.618	4169.23
454.992	4275.89
455.365	4285.38
455.739	4407.19
456.112	4426.85
456.486	4479.95
456.859	4509.78
457.232	4644.47
457.606	4625.26
457.979	4697.8
458.352	4822.77
458.725	4815.54
459.099	4861.64
459.472	4978.7
459.845	5006.94
460.218	5022.54
460.591	5134.17
460.964	5100.05
461.337	5264.11
461.71	5358.35
462.083	5448.97
462.456	5433.6
462.829	5446.26
463.201	5545.91
463.574	5602.18
463.947	5686.7
464.32	5835.17
464.692	5808.28
465.065	5885.79
465.438	6035.62
465.81	6120.14
466.183	6156.97
466.555	6304.54
466.928	6286.23
467.3	6334.37
467.672	6439
468.045	6600.58
468.417	6598.09
468.789	6701.14
469.161	6834.02
469.534	6822.04
469.906	7042.82
470.278	7038.76
470.65	7229.49
471.022	7374.79
471.394	7493.21
471.766	7575.24
472.138	7644.84
472.51	7767.78
472.882	7931.39
473.253	7990.82
473.625	8137.71
473.997	8265.84
474.369	8404.6
474.74	8469.23
475.112	8632.61
475.484	8830.57
475.855	8946.73
476.227	9052.94
476.598	9346.27
476.97	9360.5
477.341	9566.37
477.713	9677.1
478.084	9729.31
478.455	10014.95
478.827	10110.54
479.198	10430.08
479.569	10398.44
479.94	10713.24
480.311	10788.94
480.682	11116.61
481.053	11397.51
481.424	11523.38
481.795	11626.88
482.166	11791.17
482.537	12014.22
482.908	12212.18
483.279	12408.33
483.65	12634.31
484.021	12919.96
484.391	13047.19
484.762	13151.14
485.133	13261.64
485.503	13461.64
485.874	13816.88
486.244	13882.42
486.615	14203.09
486.985	14382.74
487.356	14635.62
487.726	14700.25
488.097	15079
488.467	15098.66
488.837	15376.62
489.207	15605.76
489.578	15856.6
489.948	16048.24
490.318	16282.35
490.688	16319.87
491.058	16608.22
491.428	16735.9
491.798	17044.37
492.168	17362.1
492.538	17378.6
492.908	17638.48
493.278	17853.39
493.648	17906.72
494.017	18214.05
494.387	18317.78
494.757	18515.74
495.126	18761.39
495.496	18792.34
495.866	19007.71
496.235	19092.9
496.605	19388.04
496.974	19460.35
497.344	19583.28
497.713	19822.6
498.082	20079.77
498.452	20102.37
498.821	20323.83
499.19	20289.93
499.559	20618.74
499.928	20750.49
500.298	20848.56
500.667	21170.36
501.036	21041.33
501.405	21363.35
501.774	21430.02
502.143	21701.19
502.512	21665.94
502.88	21921.75
503.249	21924.69
503.618	22299.37
503.987	22344.34
504.356	22352.93
504.724	22625.69
505.093	22692.81
505.462	22749.08
505.83	22978
506.199	23244.21
506.567	23559.23
506.936	23471.77
507.304	23745.66
507.672	23888.71
508.041	24005.54
508.409	24327.34
508.777	24470.39
509.145	24723.94
509.514	24696.14
509.882	24892.98
510.25	24902.24
510.618	25236.92
510.986	25259.75
511.354	25477.82
511.722	25744.48
512.09	25887.98
512.458	25960.52
512.826	26221.53
513.193	26395.08
513.561	26534.97
513.929	26802.53
514.297	27067.61
514.664	27229.19
515.032	27319.13
515.4	27680.7
515.767	27773.58
516.135	27906.91
516.502	27967.02
516.869	28397.74
517.237	28458.53
517.604	28580.34
517.972	28805.41
518.339	29087.22
518.706	29103.94
519.073	29364.27
519.44	29553.64
519.808	29782.56
520.175	29920.41
520.542	30357.46
520.909	30518.14
521.276	30647.17
521.643	30954.51
522.009	31079.48
522.376	31428.62
522.743	31541.61
523.11	31846.69
523.477	32119
523.843	32293.46
524.21	32647.8
524.577	32862.03
524.943	33144.74
525.31	33246.2
525.676	33616.14
526.043	33751.27
526.409	34095.22
526.776	34423.12
527.142	34503.12
527.508	34679.61
527.874	34978.59
528.241	35170.67
528.607	35250.67
528.973	35707.61
529.339	35628.74
529.705	36093.36
530.071	36431.43
530.437	36590.52
530.803	36814.24
531.169	36879.1
531.535	36902.15
531.901	37134.46
532.267	37208.13
532.632	37484.51
532.998	37846.76
533.364	38107.32
533.73	38161.78
534.095	38409.23
534.461	38549.57
534.826	38869.56
535.192	38912.49
535.557	39233.16
535.923	39245.37
536.288	39345.7
536.653	39750.89
537.019	39502.99
537.384	39638.35
537.749	39841.28
538.114	39997.66
538.479	40073.82
538.845	40464.77
539.21	40366.47
539.575	40674.26
539.94	40764.2
540.305	40960.58
540.67	41052.1
541.034	41232.21
541.399	41379.32
541.764	41370.28
542.129	41603.5
542.494	41568.24
542.858	41859.53
543.223	42022.47
543.587	42210.03
543.952	42287.32
544.316	42477.6
544.681	42495.68
545.045	42761.21
545.41	42786.29
545.774	42938.83
546.138	43027.64
546.503	43234.19
546.867	43309.67
547.231	43645.25
547.595	43620.62
547.959	43736.77
548.324	43761.63
548.688	43942.19
549.052	44037.78
549.416	44284.56
549.779	44306.93
550.143	44597.32
550.507	44823.07
550.871	44809.29
551.235	44910.3
551.599	45294.02
551.962	45251.76
552.326	45335.6
552.689	45597.29
553.053	45594.8
553.417	45712.99
553.78	46261
554.143	46005.64
554.507	46304.16
554.87	46532.18
555.234	46912.28
555.597	46626.42
555.96	47056.69
556.323	47054.2
556.686	47147.76
557.05	47455.32
557.413	47565.6
557.776	47644.24
558.139	47955.65
558.502	47959.04
558.865	48164.23
559.228	48284
559.59	48460.04
559.953	48581.62
560.316	48943.64
560.679	48932.34
561.041	49209.4
561.404	49396.51
561.767	49572.1
562.129	49534.36
562.492	49848.03
562.854	49949.27
563.217	49899.1
563.579	50064.52
563.941	50445.3
564.304	50600.1
564.666	50730.94
565.028	50803.48
565.39	50946.53
565.753	51144.49
566.115	51243.69
566.477	51384.93
566.839	51384.03
567.201	51731.59
567.563	51694.08
567.925	52054.3
568.287	51916.45
568.648	52051.81
569.01	52222.65
569.372	52435.08
569.734	52370.67
570.095	52512.81
570.457	52680.49
570.819	52767.5
571.18	52808.85
571.542	53007.26
571.903	52952.35
572.265	53174.94
572.626	53199.58
572.987	53270.08
573.349	53341.49
573.71	53457.42
574.071	53489.96
574.432	53685.21
574.794	53817.19
575.155	53827.81
575.516	53849.28
575.877	53978.09
576.238	54019.67
576.599	54041.59
576.96	54184.41
577.32	54125.2
577.681	54288.36
578.042	54268.25
578.403	54422.82
578.763	54439.09
579.124	54510.05
579.485	54506.43
579.845	54604.06
580.206	54563.83
580.566	54586.21
580.927	54682.25
581.287	54759.76
581.648	54640.44
582.008	54862.81
582.368	54763.83
582.728	54858.52
583.089	54773.77
583.449	54744.62
583.809	54798.4
584.169	54874.11
584.529	54832.08
584.889	54998.85
585.249	54803.6
585.609	54716.15
585.969	54884.96
586.329	54860.1
586.688	54995.69
587.048	54875.24
587.408	54876.14
587.768	54897.38
588.127	54889.25
588.487	54855.13
588.846	55074.55
589.206	54799.08
589.565	54894.67
589.925	55010.6
590.284	54918.17
590.643	55115.46
591.003	54955.69
591.362	55108.23
591.721	55040.21
592.08	55004.5
592.44	55076.14
592.799	55131.28
593.158	55052.86
593.517	55085.18
593.876	55146.42
594.235	55113.42
594.593	55163.37
594.952	55160.2
595.311	55108.23
595.67	55120.43
596.029	55312.29
596.387	55355.9
596.746	55233.19
597.104	55213.53
597.463	55306.64
597.822	55331.5
598.18	55314.77
598.538	55241.1
598.897	55463.02
599.255	55190.03
599.613	55607.65
599.972	55336.69
600.33	55496.24
600.688	55428.67
601.046	55534.2
601.404	55581.21
601.762	55482.45
602.12	55652.62
602.478	55672.96
602.836	55689.91
603.194	55553.41
603.552	55647.2
603.91	55524.49
604.268	55613.75
604.625	55642
604.983	55791.15
605.341	55635.44
605.698	55753.18
606.056	55865.04
606.413	55780.52
606.771	55925.61
607.128	55970.8
607.485	55744.37
607.843	55866.62
608.2	56027.98
608.557	56131.25
608.914	55905.72
609.272	56137.13
609.629	56107.75
609.986	56232.94
610.343	56150.68
610.7	56328.76
611.057	56247.18
611.414	56236.56
611.771	56218.48
612.127	56418.47
612.484	56341.64
612.841	56487.85
613.198	56338.7
613.554	56399.72
613.911	56498.02
614.267	56488.75
614.624	56463.22
614.98	56507.74
615.337	56690.33
615.693	56559.49
616.05	56622.76
616.406	56771.69
616.762	56666.6
617.118	56659.82
617.475	56660.05
617.831	56693.5
618.187	56725.58
618.543	56797
618.899	56925.13
619.255	56868.86
619.611	56859.37
619.967	56850.33
620.323	56917.9
620.678	56820.05
621.034	56813.04
621.39	56802.64
621.746	56809.42
622.101	57138.23
622.457	56782.31
622.812	56889.42
623.168	56991.34
623.523	56954.73
623.879	57082.41
624.234	56870.21
624.589	56963.32
624.945	57013.03
625.3	57052.81
625.655	56976.65
626.01	56951.79
626.365	56988.63
626.72	56974.84
627.075	56902.76
627.43	56956.09
627.785	56838.35
628.14	56956.77
628.495	56879.25
628.85	56909.76
629.205	56760.84
629.559	56918.35
629.914	56799.03
630.269	56777.56
630.623	56821.4
630.978	56682.65
631.332	56752.02
631.687	56807.39
632.041	56673.16
632.396	56752.25
632.75	56615.53
633.104	56716.55
633.459	56575.31
633.813	56568.53
634.167	56505.93
634.521	56512.26
634.875	56515.65
635.229	56446.27
635.583	56380.28
635.937	56360.17
636.291	56304.8
636.645	56369.89
636.999	56215.99
637.352	56314.97
637.706	56174.64
638.06	56251.02
638.413	56147.29
638.767	56126.5
639.121	56154.98
639.474	55957.7
639.828	55990.69
640.181	55983.23
640.534	55980.07
640.888	55955.89
641.241	55757.7
641.594	55880.41
641.947	55968.99
642.301	55913.63
642.654	55821.2
643.007	55812.16
643.36	55747.08
643.713	55727.64
644.066	55820.75
644.419	55605.61
644.771	55374.66
645.124	55155.68
645.477	55132.41
645.83	54855.58
646.182	54800.66
646.535	54667.56
646.888	54836.14
647.24	54654.45
647.593	54778.29
647.945	54738.29
648.298	54528.35
648.65	54468.47
649.002	54384.4
649.355	54521.12
649.707	54534
650.059	54592.76
650.411	54871.17
650.763	54944.84
651.115	55172.86
651.467	55032.52
651.819	55027.1
652.171	54952.98
652.523	54848.12
652.875	54883.15
653.227	54778.97
653.578	54892.64
653.93	54842.02
654.282	54679.76
654.633	54627.11
654.985	54710.5
655.337	54782.58
655.688	54695.58
656.039	54870.27
656.391	54481.8
656.742	54512.31
657.094	54570.16
657.445	54703.04
657.796	54730.61
658.147	54592.53
658.498	54543.04
658.849	54583.95
659.2	54577.39
659.551	54493.33
659.902	54531.52
660.253	54513.67
660.604	54575.36
660.955	54346.44
661.306	54454.23
661.656	54341.01
662.007	54418.07
662.358	54376.95
662.708	54364.06
663.059	54284.74
663.409	54069.61
663.76	54292.43
664.11	54339.43
664.461	54323.61
664.811	54311.18
665.161	54299.66
665.511	54228.02
665.862	54299.21
666.212	54371.75
666.562	54263.95
666.912	54296.95
667.262	54129.95
667.612	54118.2
667.962	54189.61
668.312	54180.34
668.662	54282.94
669.011	54104.86
669.361	54098.54
669.711	54112.55
670.06	54067.12
670.41	54056.73
670.76	54041.81
671.109	54096.95
671.459	54002.72
671.808	53921.14
672.157	54075.26
672.507	53771.76
672.856	53872.78
673.205	53882.04
673.554	53950.74
673.904	53842.27
674.253	54017.63
674.602	53837.53
674.951	53456.97
675.3	53334.26
675.649	53796.62
675.998	53711.65
676.346	53733.35
676.695	53799.79
677.044	53586.23
677.393	53770.63
677.741	53772.67
678.09	53623.97
678.438	53609.51
678.787	53622.84
679.135	53611.32
679.484	53450.19
679.832	53517.99
680.181	53404.09
680.529	53493.13
680.877	53303.98
681.225	53238.22
681.573	53345.11
681.922	53308.27
682.27	53181.95
682.618	53103.31
682.966	53112.57
683.314	53180.14
683.661	52997.55
684.009	52871.67
684.357	52783.99
684.705	52706.03
685.053	52769.76
685.4	52739.7
685.748	52587.16
686.095	52610.66
686.443	52371.57
686.79	52373.61
687.138	52397.79
687.485	52449.99
687.832	52222.88
688.18	52228.53
688.527	52130.68
688.874	52072.15
689.221	51985.6
689.568	51802.1
689.915	51794.41
690.262	51851.59
690.609	51724.59
690.956	51620.63
691.303	51525.72
691.65	51329.57
691.997	51327.53
692.344	51110.82
692.69	51196.46
693.037	51287.08
693.383	50882.12
693.73	51002.8
694.077	50717.38
694.423	50807.32
694.769	50567.55
695.116	50633.77
695.462	50571.85
695.808	50539.76
696.155	50517.16
696.501	50288.47
696.847	50264.96
697.193	49947.46
697.539	50174.57
697.885	49921.02
698.231	49761.02
698.577	49780.91
698.923	49606.68
699.269	49444.42
699.614	49214.6
699.96	49327.81
700.306	49283.75
700.651	49272.9
700.997	49087.37
701.342	49064.54
701.688	48833.14
702.033	48846.24
702.379	48646.25
702.724	48600.6
703.069	48659.36
703.415	48183.66
703.76	48217.33
704.105	48201.97
704.45	48107.05
704.795	47792.71
705.14	47683.56
705.485	47786.16
705.83	47675.2
706.175	47587.29
706.52	47531.48
706.865	47364.25
707.209	47284.48
707.554	47183.69
707.899	47343.01
708.243	47008.78
708.588	46993.41
708.932	46742.12
709.277	46836.58
709.621	46684.49
709.966	46530.82
710.31	46663.25
710.654	46206.77
710.998	46451.28
711.342	46332.19
711.687	46069.14
712.031	45947.79
712.375	45844.74
712.719	45871.18
713.063	45741.47
713.407	45885.64
713.75	45725.2
714.094	45693.33
714.438	45507.8
714.782	45482.04
715.125	45274.81
715.469	45420.57
715.812	45058.55
716.156	44792.79
716.499	44872.56
716.843	44927.93
717.186	44638.44
717.53	44778.55
717.873	44874.82
718.216	44766.58
718.559	44525.68
718.902	44475.29
719.246	44422.86
719.589	44336.76
719.932	44153.94
720.275	44157.78
720.617	43955.98
720.96	43921.18
721.303	43899.71
721.646	43955.53
721.989	43752.37
722.331	43875.75
722.674	43803.44
723.016	43685.02
723.359	43532.71
723.701	43617
724.044	43470.11
724.386	43045.94
724.729	43342.21
725.071	43089.79
725.413	43139.28
725.755	43085.49
726.097	42909.22
726.439	42852.5
726.782	42807.08
727.124	42803.24
727.465	42579.97
727.807	42692.73
728.149	42388.11
728.491	42466.98
728.833	42386.53
729.175	42238.73
729.516	42122.8
729.858	42161.45
730.199	42183.37
730.541	42146.08
730.882	42144.73
731.224	42180.66
731.565	41842.13
731.906	41932.75
732.248	41880.78
732.589	41623.83
732.93	41608.02
733.271	41548.13
733.612	41615.7
733.953	41547.45
734.294	41249.38
734.635	41308.81
734.976	41399.43
735.317	41181.13
735.658	41118.54
735.999	41113.34
736.339	40991.99
736.68	41109.5
737.021	40805.78
737.361	40718.77
737.702	40908.37
738.042	40766.91
738.383	40661.37
738.723	40925.77
739.063	40613.24
739.404	40537.54
739.744	40475.39
740.084	40360.82
740.424	40425.67
740.764	40231.1
741.104	40343.64
741.444	40125.8
741.784	39885.8
742.124	39865.46
742.464	40046.93
742.804	39838.8
743.143	39893.48
743.483	39793.15
743.823	39664.56
744.162	39555.87
744.502	39567.84
744.841	39427.73
745.181	39526.49
745.52	39377.34
745.86	39363.78
746.199	39298.47
746.538	39220.96
746.877	39170.79
747.216	39180.51
747.556	39020.51
747.895	39029.1
748.234	38896.22
748.573	38778.49
748.911	38738.94
749.25	38819.61
749.589	38618.49
749.928	38616.91
750.267	38578.72
750.605	38431.38
750.944	38181.67
751.283	38219.63
751.621	38241.1
751.96	38037.04
752.298	38087.88
752.636	38098.73
752.975	37798.85
