Data from plate_porcelain_FLMS001491_013.txt Node
Date: Tue Feb 07 11:18:51 GMT 2017
User: dcchb
Spectrometer: FLMS00149
Trigger mode: 0
Integration Time (sec): 2.000000E-2
Scans to average: 10
Electric dark correction enabled: true
Nonlinearity correction enabled: false
Boxcar width: 0
XAxis mode: Wavelengths
Number of Pixels in Spectrum: 2048
>>>>>Begin Spectral Data<<<<<
341.393	7.66
341.776	7.66
342.16	7.66
342.543	-58.33
342.927	-67.82
343.31	-59.46
343.693	-60.14
344.077	-72.79
344.46	-43.87
344.843	-53.59
345.226	-30.99
345.61	-47.71
345.993	-19.69
346.376	-16.52
346.759	10.37
347.142	17.15
347.525	37.94
347.908	72.96
348.291	62.57
348.674	92.4
349.057	111.38
349.44	120.42
349.823	119.52
350.206	175.79
350.588	221.66
350.971	234.09
351.354	248.55
351.737	259.17
352.119	274.77
352.502	284.71
352.884	302.56
353.267	309.79
353.65	317.93
354.032	332.84
354.414	347.53
354.797	334.88
355.179	358.15
355.562	340.53
355.944	348.21
356.326	370.81
356.709	378.94
357.091	390.7
357.473	373.75
357.855	386.4
358.238	371.49
358.62	388.44
359.002	376.46
359.384	384.37
359.766	380.98
360.148	381.43
360.53	380.98
360.912	368.32
361.294	383.69
361.676	384.82
362.057	366.29
362.439	383.69
362.821	392.05
363.203	368.1
363.584	369.68
363.966	375.33
364.348	381.66
364.729	354.31
365.111	382.79
365.493	369.68
365.874	387.08
366.256	375.78
366.637	381.66
367.019	388.44
367.4	381.43
367.781	376.69
368.163	389.34
368.544	359.74
368.925	387.98
369.306	396.8
369.688	380.98
370.069	415.55
370.45	397.02
370.831	393.63
371.212	400.87
371.593	387.76
371.974	409
372.355	410.36
372.736	412.62
373.117	409
373.498	422.79
373.879	423.24
374.26	420.53
374.641	402.9
375.021	392.5
375.402	405.38
375.783	453.52
376.163	478.15
376.544	435.67
376.925	430.69
377.305	431.15
377.686	411.03
378.066	431.15
378.447	452.84
378.827	440.41
379.208	464.59
379.588	439.06
379.968	467.98
380.349	460.52
380.729	457.36
381.109	470.92
381.489	474.99
381.87	491.03
382.25	478.38
382.63	489.22
383.01	489
383.39	485.38
383.77	497.81
384.15	497.13
384.53	523.57
384.91	496.23
385.29	514.08
385.67	511.6
386.049	529.9
386.429	525.61
386.809	538.26
387.189	568.54
387.568	542.33
387.948	552.05
388.328	578.49
388.707	554.53
389.087	575.1
389.466	584.14
389.846	593.85
390.225	583.69
390.605	599.96
390.984	619.84
391.363	618.94
391.743	616.23
392.122	611.03
392.501	619.16
392.881	637.92
393.26	641.99
393.639	651.48
394.018	659.16
394.397	624.36
394.776	668.65
395.155	674.3
395.534	683.57
395.913	683.8
396.292	689.9
396.671	699.61
397.05	727.18
397.429	708.65
397.808	703.91
398.186	697.35
398.565	722.21
398.944	766.51
399.323	757.24
399.701	759.73
400.08	738.03
400.458	777.13
400.837	772.15
401.215	762.89
401.594	791.59
401.972	802.89
402.351	810.35
402.729	805.37
403.107	817.58
403.486	814.19
403.864	842.89
404.242	840.85
404.62	859.38
404.999	881.53
405.377	866.39
405.755	892.38
406.133	907.29
406.511	900.29
406.889	894.41
407.267	907.74
407.645	950.68
408.023	940.51
408.401	961.75
408.779	991.13
409.156	998.14
409.534	1001.98
409.912	1028.65
410.29	1029.55
410.667	1063.9
411.045	1078.59
411.422	1089.89
411.8	1080.85
412.178	1079.27
412.555	1102.99
412.933	1127.17
413.31	1164.01
413.687	1185.25
414.065	1203.56
414.442	1166.04
414.819	1204.91
415.197	1225.02
415.574	1245.14
415.951	1263.44
416.328	1258.24
416.705	1285.14
417.082	1278.36
417.46	1312.25
417.837	1269.54
418.214	1303.44
418.591	1362.42
418.967	1345.93
419.344	1372.82
419.721	1368.75
420.098	1380.5
420.475	1405.36
420.852	1424.57
421.228	1433.83
421.605	1429.76
421.982	1425.92
422.358	1459.37
422.735	1514.28
423.111	1465.92
423.488	1535.98
423.864	1528.07
424.241	1549.54
424.617	1549.54
424.994	1587.5
425.37	1578.24
425.746	1607.84
426.123	1668.85
426.499	1673.37
426.875	1676.76
427.251	1699.81
427.627	1751.11
428.003	1752.69
428.379	1782.75
428.756	1755.86
429.132	1797.66
429.507	1858
429.883	1851.22
430.259	1880.6
430.635	1923.31
431.011	1943.88
431.387	1954.95
431.763	2009.18
432.138	1990.65
432.514	2046.47
432.89	2076.75
433.265	2120.82
433.641	2145.68
434.016	2163.08
434.392	2177.09
434.767	2240.14
435.143	2229.29
435.518	2279.46
435.894	2257.54
436.269	2336.63
436.644	2345.9
437.02	2335.5
437.395	2358.55
437.77	2389.74
438.145	2420.25
438.52	2434.94
438.895	2457.08
439.271	2501.6
439.646	2542.5
440.021	2537.76
440.395	2567.36
440.77	2586.8
441.145	2602.62
441.52	2641.71
441.895	2637.42
442.27	2671.09
442.645	2681.71
443.019	2691.43
443.394	2728.71
443.769	2748.15
444.143	2775.72
444.518	2807.81
444.892	2819.78
445.267	2836.73
445.641	2876.51
446.016	2868.14
446.39	2864.76
446.764	2863.17
447.139	2883.51
447.513	2940.01
447.887	2967.58
448.262	2995.37
448.636	3016.62
449.01	3055.26
449.384	3086.67
449.758	3079.89
450.132	3112.21
450.506	3163.05
450.88	3191.98
451.254	3210.06
451.628	3216.38
452.002	3238.76
452.376	3280.56
452.75	3314.69
453.123	3423.84
453.497	3421.8
453.871	3429.49
454.244	3490.05
454.618	3525.3
454.992	3590.61
455.365	3598.97
455.739	3713.55
456.112	3729.59
456.486	3765.07
456.859	3799.87
457.232	3845.75
457.606	3862.92
457.979	3917.16
458.352	4001.67
458.725	4061.33
459.099	4064.5
459.472	4107.21
459.845	4186.98
460.218	4233.76
460.591	4267.88
460.964	4306.07
461.337	4404.6
461.71	4428.56
462.083	4527.76
462.456	4567.76
462.829	4568.89
463.201	4607.99
463.574	4676.91
463.947	4761.2
464.32	4822.22
464.692	4882.33
465.065	4909.22
465.438	4958.03
465.81	5047.3
466.183	5128.65
466.555	5228.31
466.928	5266.27
467.3	5280.28
467.672	5353.73
468.045	5481.86
468.417	5542.65
468.789	5535.42
469.161	5615.42
469.534	5753.04
469.906	5864
470.278	5831.46
470.65	5986.26
471.022	6095.86
471.394	6193.48
471.766	6230.54
472.138	6295.17
472.51	6497.88
472.882	6568.61
473.253	6647.71
473.625	6692.9
473.997	6861.26
474.369	6878.21
474.74	6995.95
475.112	7167.01
475.484	7180.57
475.855	7360
476.227	7469.61
476.598	7624.86
476.97	7672.54
477.341	7900.1
477.713	7983.26
478.084	8097.84
478.455	8305.29
478.827	8398.39
479.198	8572.4
479.569	8580.54
479.94	8831.6
480.311	8913.18
480.682	9152.05
481.053	9350.23
481.424	9460.97
481.795	9544.81
482.166	9721.52
482.537	9777.34
482.908	10148.18
483.279	10193.38
483.65	10403.31
484.021	10550.43
484.391	10692.8
484.762	10733.25
485.133	10876.3
485.503	11041.26
485.874	11218.66
486.244	11415.26
486.615	11613.9
486.985	11719.21
487.356	11971.63
487.726	12050.28
488.097	12301.34
488.467	12391.06
488.837	12664.27
489.207	12802.12
489.578	13045.05
489.948	13158.5
490.318	13282.56
490.688	13311.26
491.058	13528.66
491.428	13699.5
491.798	13876.22
492.168	14201.18
492.538	14214.29
492.908	14433.49
493.278	14685.69
493.648	14648.63
494.017	14787.83
494.387	14881.61
494.757	15193.7
495.126	15309.63
495.496	15306.24
495.866	15509.39
496.235	15643.4
496.605	15853.57
496.974	15888.14
497.344	15969.72
497.713	16113.45
498.082	16307.11
498.452	16417.62
498.821	16463.27
499.19	16514.34
499.559	16818.29
499.928	16832.52
500.298	17052.63
500.667	17142.57
501.036	17130.82
501.405	17279.07
501.774	17412.4
502.143	17671.37
502.512	17704.59
502.88	17845.38
503.249	17868.2
503.618	18049.44
503.987	18166.5
504.356	18309.32
504.724	18328.98
505.093	18465.02
505.462	18584.34
505.83	18760.61
506.199	18911.56
506.567	19168.28
506.936	19052.13
507.304	19331.21
507.672	19354.72
508.041	19634.26
508.409	19694.37
508.777	19869.05
509.145	20051.87
509.514	20043.74
509.882	20186.11
510.25	20341.58
510.618	20484.63
510.986	20605.53
511.354	20760.33
511.722	20894.34
512.09	21050.49
512.458	21065.63
512.826	21275.57
513.193	21483.02
513.561	21519.63
513.929	21791.49
514.297	22039.17
514.664	22100.63
515.032	22257.92
515.4	22431.25
515.767	22429.44
516.135	22717.11
516.502	22603.9
516.869	22994.17
517.237	23103.09
517.604	23263.99
517.972	23407.49
518.339	23672.57
518.706	23675.51
519.073	23890.42
519.44	24069.62
519.808	24314.59
520.175	24348.94
520.542	24725.42
520.909	24790.51
521.276	24877.96
521.643	25108.69
522.009	25329.25
522.376	25404.73
522.743	25708.9
523.11	25880.42
523.477	26178.04
523.843	26324.03
524.21	26639.27
524.577	26813.28
524.943	26812.15
525.31	27051.01
525.676	27348.18
526.043	27554.73
526.409	27670.66
526.776	27953.36
527.142	28142.73
527.508	28220.02
527.874	28513.57
528.241	28660.24
528.607	28855.71
528.973	29059.55
529.339	29068.36
529.705	29245.76
530.071	29673.77
530.437	29681.68
530.803	29901.11
531.169	30010.71
531.535	30144.26
531.901	30252.28
532.267	30523.46
532.632	30729.33
532.998	30805.49
533.364	30978.59
533.73	31043.45
534.095	31364.57
534.461	31402.54
534.826	31602.76
535.192	31725.24
535.557	31926.14
535.923	31979.47
536.288	32139.69
536.653	32263.3
537.019	32213.81
537.384	32561.83
537.749	32590.3
538.114	32572.67
538.479	32720.47
538.845	33037.3
539.21	32915.04
539.575	33161.36
539.94	33300.79
540.305	33405.87
540.67	33404.07
541.034	33629.37
541.399	33830.04
541.764	33784.39
542.129	34041.56
542.494	34030.26
542.858	34309.35
543.223	34350.25
543.587	34589.12
543.952	34481.55
544.316	34658.04
544.681	34653.07
545.045	34957.02
545.41	35095.55
545.774	35110.69
546.138	35212.15
546.503	35398.36
546.867	35346.39
547.231	35672.48
547.595	35759.71
547.959	35972.81
548.324	35998.12
548.688	36098.91
549.052	36311.33
549.416	36415.96
549.779	36403.76
550.143	36537.32
550.507	36796.29
550.871	37010.75
551.235	36889.4
551.599	37255.26
551.962	37247.35
552.326	37395.6
552.689	37585.65
553.053	37479.66
553.417	37652.32
553.78	38171.4
554.143	38023.15
554.507	38182.92
554.87	38294.78
555.234	38748.11
555.597	38440.77
555.96	38719.86
556.323	38985.39
556.686	39042.34
557.05	39381.99
557.413	39426.05
557.776	39533.62
558.139	39773.84
558.502	39855.42
558.865	39982.65
559.228	40398.91
559.59	40392.81
559.953	40475.97
560.316	40889.74
560.679	40863.53
561.041	41036.63
561.404	41334.48
561.767	41548.71
562.129	41489.28
562.492	41926.1
562.854	41875.93
563.217	42054.91
563.579	42148.69
563.941	42522.02
564.304	42624.39
564.666	42758.17
565.028	43004.49
565.39	43023.02
565.753	43358.38
566.115	43390.47
566.477	43695.09
566.839	43679.95
567.201	43988.87
567.563	44028.64
567.925	44259.37
568.287	44394.74
568.648	44405.81
569.01	44893.48
569.372	44866.14
569.734	44905.91
570.095	45010.99
570.457	45180.7
570.819	45397.2
571.18	45390.64
571.542	45660.92
571.903	45754.47
572.265	45950.85
572.626	45927.58
572.987	46106.56
573.349	46322.82
573.71	46487.34
574.071	46539.76
574.432	46591.29
574.794	46819.76
575.155	46833.54
575.516	46732.75
575.877	47020.2
576.238	47020.66
576.599	47222.01
576.96	47288.67
577.32	47294.1
577.681	47446.18
578.042	47490.7
578.403	47528.67
578.763	47539.96
579.124	47663.35
579.485	47819.05
579.845	47934.76
580.206	47685.72
580.566	47869
580.927	47748.77
581.287	47980.63
581.648	47861.99
582.008	48119.16
582.368	47981.53
582.728	48056.79
583.089	47924.14
583.449	47975.21
583.809	48202.77
584.169	48206.16
584.529	48149.89
584.889	48340.85
585.249	48101.31
585.609	48115.32
585.969	48287.06
586.329	48286.16
586.688	48357.34
587.048	48094.53
587.408	48244.8
587.768	48172.94
588.127	48191.02
588.487	48134.53
588.846	48459.49
589.206	48103.34
589.565	48342.88
589.925	48405.7
590.284	48232.38
590.643	48308.31
591.003	48432.37
591.362	48477.34
591.721	48505.81
592.08	48526.15
592.44	48494.74
592.799	48518.24
593.158	48421.3
593.517	48550.33
593.876	48452.94
594.235	48506.72
594.593	48561.18
594.952	48658.13
595.311	48448.19
595.67	48706.94
596.029	48788.07
596.387	48776.54
596.746	48757.56
597.104	48697.45
597.463	48699.71
597.822	48806.37
598.18	48782.19
598.538	48688.64
598.897	48963.66
599.255	48634.63
599.613	49287.26
599.972	48944
600.33	48941.74
600.688	48837.33
601.046	49029.19
601.404	49303.99
601.762	49078.68
602.12	49197.77
602.478	49338.34
602.836	49276.87
603.194	49144.22
603.552	49185.8
603.91	49095.4
604.268	49240.48
604.625	49160.71
604.983	49343.99
605.341	49294.95
605.698	49488.39
606.056	49470.54
606.413	49354.38
606.771	49613.13
607.128	49512.12
607.485	49392.35
607.843	49474.6
608.2	49754.37
608.557	49790.98
608.914	49569.52
609.272	49785.1
609.629	49858.1
609.986	49980.13
610.343	49838.21
610.7	50054.02
611.057	50030.52
611.414	50033.23
611.771	50020.58
612.127	50108.94
612.484	50204.53
612.841	50340.79
613.198	50289.5
613.554	50153.23
613.911	50426.22
614.267	50364.52
614.624	50298.31
614.98	50403.17
615.337	50499.43
615.693	50501.02
616.05	50430.74
616.406	50663.95
616.762	50428.02
617.118	50516.61
617.475	50451.75
617.831	50599.55
618.187	50615.36
618.543	50721.58
618.899	50867.56
619.255	50684.97
619.611	50766.09
619.967	50770.84
620.323	50875.02
620.678	50813.78
621.034	50703.5
621.39	50777.62
621.746	50786.43
622.101	51073.43
622.457	50747.56
622.812	50830.27
623.168	51024.39
623.523	50934
623.879	51027.33
624.234	50858.3
624.589	50984.17
624.945	50988.46
625.3	51117.5
625.655	50952.08
626.01	50890.61
626.365	50921.57
626.72	50956.82
627.075	50864.17
627.43	50913.21
627.785	50777.39
628.14	50851.74
628.495	50829.6
628.85	50715.02
629.205	50692.65
629.559	50955.24
629.914	50624.86
630.269	50744.17
630.623	50692.42
630.978	50482.94
631.332	50672.76
631.687	50621.92
632.041	50616.72
632.396	50674.35
632.75	50474.12
633.104	50673.67
633.459	50320
633.813	50419.21
634.167	50294.02
634.521	50275.94
634.875	50406.56
635.229	50237.97
635.583	50185.77
635.937	50223.96
636.291	50047.02
636.645	50109.39
636.999	50070.52
637.352	50033.01
637.706	49808.15
638.06	49972.44
638.413	49866.91
638.767	49750.08
639.121	49906
639.474	49622.62
639.828	49615.39
640.181	49671.66
640.534	49740.58
640.888	49618.1
641.241	49388.5
641.594	49473.7
641.947	49496.52
642.301	49461.95
642.654	49294.95
643.007	49360.48
643.36	49306.92
643.713	49278.22
644.066	49325.91
644.419	49065.35
644.771	48784
645.124	48423.56
645.477	48278.7
645.83	48050.69
646.182	48011.59
646.535	47955.55
646.888	47939.05
647.24	47805.04
647.593	48164.58
647.945	47947.41
648.298	47690.92
648.65	47620.41
649.002	47496.8
649.355	47751.26
649.707	47446.86
650.059	47631.04
650.411	48070.35
650.763	48091.81
651.115	48465.14
651.467	48386.95
651.819	48260.62
652.171	48327.06
652.523	48091.14
652.875	48111.93
653.227	47908.54
653.578	47990.35
653.93	47945.15
654.282	47779.05
654.633	47752.84
654.985	47708.55
655.337	47733.18
655.688	47776.12
656.039	47958.26
656.391	47528.21
656.742	47721.2
657.094	47699.73
657.445	47840.07
657.796	47737.47
658.147	47613.64
658.498	47748.32
658.849	47741.32
659.2	47513.07
659.551	47573.18
659.902	47628.78
660.253	47574.54
660.604	47543.13
660.955	47291.38
661.306	47455
661.656	47355.56
662.007	47403.7
662.358	47396.47
662.708	47243.25
663.059	47374.32
663.409	47257.71
663.76	47363.02
664.11	47409.57
664.461	47342.68
664.811	47384.49
665.161	47340.2
665.511	47195.57
665.862	47158.28
666.212	47276.47
666.562	47422.23
666.912	47249.58
667.262	47116.25
667.612	47355.11
667.962	47256.58
668.312	47031.28
668.662	47289.35
669.011	47092.29
669.361	47051.39
669.711	47055.23
670.06	47024.95
670.41	46876.25
670.76	46851.62
671.109	46996.25
671.459	46770.27
671.808	46834.45
672.157	46871.06
672.507	46677.84
672.856	46674.22
673.205	46707.22
673.554	46785.41
673.904	46658.63
674.253	46812.53
674.602	46699.76
674.951	46088.03
675.3	45890.52
675.649	46555.81
675.998	46615.24
676.346	46404.85
676.695	46624.96
677.044	46288.25
677.393	46331.86
677.741	46462.93
678.09	46300
678.438	46207.34
678.787	46328.92
679.135	46251.64
679.484	45961.7
679.832	46183.16
680.181	46045.99
680.529	46073.11
680.877	45920.35
681.225	45934.58
681.573	46037.86
681.922	45799.9
682.27	45545.21
682.618	45726.91
682.966	45472.22
683.314	45547.93
683.661	45406.46
684.009	45455.5
684.357	45192.91
684.705	45174.15
685.053	45272.23
685.4	45246.47
685.748	44867.94
686.095	44935.97
686.443	44734.84
686.79	44770.32
687.138	44732.13
687.485	44726.25
687.832	44520.38
688.18	44683.32
688.527	44307.28
688.874	44360.61
689.221	44186.38
689.568	44139.15
689.915	44030.23
690.262	43939.61
690.609	43912.49
690.956	43746.17
691.303	43626.4
691.65	43457.36
691.997	43523.57
692.344	43086.75
692.69	43243.35
693.037	43278.16
693.383	42930.14
693.73	43244.94
694.077	42749.13
694.423	42755.01
694.769	42681.79
695.116	42477.5
695.462	42510.04
695.808	42323.83
696.155	42421
696.501	41937.63
696.847	42169.48
697.193	41906.21
697.539	41929.72
697.885	41628.71
698.231	41546.68
698.577	41611.76
698.923	41607.92
699.269	41267.14
699.614	41110.53
699.96	41084.99
700.306	41094.26
700.651	40859.46
700.997	40842.06
701.342	40781.5
701.688	40708.73
702.033	40535.63
702.379	40576.08
702.724	40532.24
703.069	40435.07
703.415	40054.06
703.76	40020.16
704.105	40092.25
704.45	39914.18
704.795	39541.53
705.14	39525.03
705.485	39538.59
705.83	39292.72
706.175	39450.01
706.52	39237.36
706.865	39245.27
707.209	39156
707.554	38935.45
707.899	39108.77
708.243	38853.87
708.588	38797.82
708.932	38514.21
709.277	38493.65
709.621	38535.46
709.966	38207.1
710.31	38391.5
710.654	38081
710.998	38135.01
711.342	38172.08
711.687	38046.65
712.031	37863.16
712.375	37631.52
712.719	37757.62
713.063	37671.75
713.407	37800.79
713.75	37487.8
714.094	37507.01
714.438	37309.27
714.782	37424.75
715.125	37181.37
715.469	37252.78
715.812	36984.99
716.156	36873.8
716.499	36996.74
716.843	36870.87
717.186	36694.83
717.53	36848.95
717.873	36604.21
718.216	36760.81
718.559	36549.29
718.902	36428.17
719.246	36397.21
719.589	36280.37
719.932	36069.08
720.275	36208.96
720.617	36004.67
720.96	36037.22
721.303	35975.07
721.646	36026.37
721.989	35647.62
722.331	35785.47
722.674	35521.98
723.016	35663.21
723.359	35604.91
723.701	35560.39
724.044	35408.53
724.386	35169.89
724.729	35324.69
725.071	35242.43
725.413	35040.86
725.755	35226.62
726.097	35057.13
726.439	34839.51
726.782	34973.29
727.124	34988.43
727.465	34756.35
727.807	34778.94
728.149	34667.08
728.491	34553.41
728.833	34670.02
729.175	34506.18
729.516	34531.95
729.858	34495.56
730.199	34446.07
730.541	34361.33
730.882	34298.5
731.224	34354.32
731.565	34107.32
731.906	34152.52
732.248	34235.23
732.589	33807.67
732.93	33788.24
733.271	33945.75
733.612	33935.8
733.953	33856.03
734.294	33697.39
734.635	33610.84
734.976	33681.8
735.317	33446.32
735.658	33534.91
735.999	33640.67
736.339	33317.97
736.68	33442.71
737.021	33276.16
737.361	33074.81
737.702	33215.37
738.042	33070.97
738.383	33201.36
738.723	33242.94
739.063	33068.03
739.404	32989.39
739.744	32872.55
740.084	32757.98
740.424	32770.18
740.764	32733.35
741.104	32797.98
741.444	32617.42
741.784	32582.84
742.124	32697.42
742.464	32445.45
742.804	32528.61
743.143	32392.34
743.483	32362.51
743.823	32186.24
744.162	32217.88
744.502	32306.24
744.841	32187.6
745.181	32120.71
745.52	31910.09
745.86	32056.53
746.199	31943.54
746.538	31828.51
746.877	31922.75
747.216	31944.22
747.556	31788.06
747.895	31660.61
748.234	31565.7
748.573	31425.36
748.911	31436.89
749.25	31353.27
749.589	31332.71
749.928	31260.39
750.267	31331.58
750.605	31155.76
750.944	30997.8
751.283	30955.32
751.621	31007.97
751.96	30864.02
752.298	30858.82
752.636	30841.65
752.975	30652.95
753.313	30564.14
