Data from plate_ceramic_FLMS001491_100.txt Node
Date: Tue Feb 07 11:17:36 GMT 2017
User: dcchb
Spectrometer: FLMS00149
Trigger mode: 0
Integration Time (sec): 2.000000E-2
Scans to average: 10
Electric dark correction enabled: true
Nonlinearity correction enabled: false
Boxcar width: 0
XAxis mode: Wavelengths
Number of Pixels in Spectrum: 2048
>>>>>Begin Spectral Data<<<<<
341.393	-8.62
341.776	-8.62
342.16	-8.62
342.543	-60.82
342.927	-81.16
343.31	-79.57
343.693	-83.19
344.077	-60.14
344.46	-69.63
344.843	-51.55
345.226	-30.99
345.61	-31.21
345.993	-19.91
346.376	1.78
346.759	10.14
347.142	18.95
347.525	43.59
347.908	62.79
348.291	72.29
348.674	88.11
349.057	128.56
349.44	134.21
349.823	131.72
350.206	150.02
350.588	194.99
350.971	237.48
351.354	232.28
351.737	252.17
352.119	255.11
352.502	285.39
352.884	281.55
353.267	302.34
353.65	310.25
354.032	325.39
354.414	340.75
354.797	353.63
355.179	337.36
355.562	337.14
355.944	347.31
356.326	378.04
356.709	344.37
357.091	364.93
357.473	377.14
357.855	362.45
358.238	361.32
358.62	356.8
359.002	366.74
359.384	362.9
359.766	388.66
360.148	365.39
360.53	380.98
360.912	366.29
361.294	362.45
361.676	349.12
362.057	362.45
362.439	347.99
362.821	365.61
363.203	344.37
363.584	376.69
363.966	341.21
364.348	352.96
364.729	356.57
365.111	338.49
365.493	340.75
365.874	362
366.256	347.99
366.637	359.74
367.019	362
367.4	345.5
367.781	356.8
368.163	364.48
368.544	365.61
368.925	361.54
369.306	374.88
369.688	348.21
370.069	373.97
370.45	371.71
370.831	347.08
371.212	381.66
371.593	368.32
371.974	385.72
372.355	362.9
372.736	375.56
373.117	369.45
373.498	383.24
373.879	379.62
374.26	397.7
374.641	390.47
375.021	380.98
375.402	385.5
375.783	417.36
376.163	411.49
376.544	402
376.925	402.45
377.305	408.77
377.686	397.7
378.066	409.23
378.447	401.09
378.827	407.19
379.208	399.74
379.588	396.8
379.968	430.02
380.349	427.31
380.729	439.96
381.109	427.08
381.489	436.57
381.87	441.09
382.25	441.09
382.63	443.12
383.01	436.12
383.39	438.83
383.77	448.77
384.15	455.78
384.53	440.41
384.91	451.26
385.29	458.72
385.67	453.75
386.049	456.68
386.429	461.88
386.809	456.46
387.189	495.33
387.568	479.96
387.948	474.31
388.328	494.65
388.707	488.09
389.087	507.3
389.466	493.29
389.846	504.14
390.225	511.82
390.605	524.25
390.984	512.27
391.363	517.47
391.743	516.57
392.122	551.14
392.501	535.32
392.881	545.27
393.26	545.72
393.639	551.6
394.018	567.41
394.397	567.19
394.776	615.1
395.155	573.97
395.534	586.85
395.913	586.17
396.292	612.61
396.671	599.96
397.05	595.21
397.429	603.35
397.808	606.06
398.186	619.84
398.565	620.07
398.944	617.13
399.323	633.63
399.701	679.95
400.08	672.5
400.458	657.13
400.837	673.17
401.215	658.26
401.594	667.98
401.972	673.4
402.351	693.74
402.729	698.94
403.107	665.04
403.486	742.78
403.864	724.25
404.242	702.33
404.62	734.64
404.999	747.07
405.377	736.22
405.755	756.79
406.133	760.86
406.511	768.99
406.889	770.12
407.267	811.93
407.645	793.85
408.023	794.75
408.401	797.92
408.779	853.28
409.156	855.09
409.534	839.05
409.912	846.96
410.29	858.48
410.667	894.19
411.045	890.12
411.422	922.66
411.8	897.35
412.178	932.38
412.555	933.51
412.933	933.73
413.31	977.35
413.687	981.19
414.065	1003.79
414.442	993.17
414.819	1003.56
415.197	1025.26
415.574	1030.45
415.951	1029.55
416.328	1038.81
416.705	1043.56
417.082	1047.4
417.46	1074.52
417.837	1074.75
418.214	1074.75
418.591	1133.28
418.967	1139.83
419.344	1121.52
419.721	1129.89
420.098	1151.13
420.475	1158.59
420.852	1183.22
421.228	1203.33
421.605	1197.91
421.982	1213.27
422.358	1210.79
422.735	1226.15
423.111	1235.42
423.488	1236.78
423.864	1272.93
424.241	1288.75
424.617	1293.5
424.994	1304.34
425.37	1305.47
425.746	1333.72
426.123	1361.29
426.499	1355.64
426.875	1382.08
427.251	1434.96
427.627	1435.64
428.003	1449.2
428.379	1449.43
428.756	1488.75
429.132	1507.73
429.507	1506.6
429.883	1529.42
430.259	1545.92
430.635	1564.45
431.011	1545.47
431.387	1618.91
431.763	1664.79
432.138	1650.78
432.514	1701.62
432.89	1681.96
433.265	1713.6
433.641	1712.02
434.016	1742.75
434.392	1762.19
434.767	1800.6
435.143	1816.87
435.518	1887.83
435.894	1865.23
436.269	1904.78
436.644	1915.85
437.02	1926.02
437.395	1924.21
437.77	1974.38
438.145	1985.46
438.52	2001.05
438.895	2014.38
439.271	2034.04
439.646	2087.83
440.021	2107.49
440.395	2096.64
440.77	2090.31
441.145	2141.84
441.52	2199.24
441.895	2169.86
442.27	2186.81
442.645	2178.67
443.019	2236.75
443.394	2215.51
443.769	2277.43
444.143	2238.56
444.518	2306.13
444.892	2292.79
445.267	2302.51
445.641	2321.72
446.016	2359.01
446.39	2391.55
446.764	2362.85
447.139	2356.29
447.513	2438.55
447.887	2419.34
448.262	2459.12
448.636	2445.33
449.01	2476.52
449.384	2515.61
449.758	2528.72
450.132	2566.68
450.506	2557.42
450.88	2572.79
451.254	2633.57
451.628	2629.28
452.002	2633.35
452.376	2681.48
452.75	2706.57
453.123	2774.59
453.497	2798.32
453.871	2824.08
454.244	2852.1
454.618	2902.95
454.992	2874.47
455.365	2946.33
455.739	3036.28
456.112	3065.2
456.486	3043.73
456.859	3058.42
457.232	3160.34
457.606	3140.23
457.979	3161.24
458.352	3259.77
458.725	3294.12
459.099	3337.96
459.472	3392.88
459.845	3409.6
460.218	3455.7
460.591	3476.94
460.964	3514
461.337	3563.49
461.71	3614.11
462.083	3717.84
462.456	3713.55
462.829	3709.93
463.201	3813.43
463.574	3798.06
463.947	3854.79
464.32	3984.05
464.692	3967.55
465.065	3992.18
465.438	4059.3
465.81	4142.91
466.183	4159.18
466.555	4290.03
466.928	4319.63
467.3	4335.68
467.672	4350.37
468.045	4447.09
468.417	4433.53
468.789	4493.86
469.161	4610.02
469.534	4663.13
469.906	4767.08
470.278	4782.67
470.65	4828.77
471.022	4957.58
471.394	5069.89
471.766	5118.93
472.138	5144.92
472.51	5270.12
472.882	5377.01
473.253	5393.73
473.625	5477.57
473.997	5583.1
474.369	5636.21
474.74	5659.26
475.112	5783.32
475.484	5902.42
475.855	5970.21
476.227	6065.35
476.598	6234.16
476.97	6231.45
477.341	6400.93
477.713	6535.85
478.084	6550.08
478.455	6760.47
478.827	6822.17
479.198	6959.56
479.569	6981.71
479.94	7182.61
480.311	7257.86
480.682	7400
481.053	7589.38
481.424	7747.34
481.795	7750.28
482.166	7890.84
482.537	8033.43
482.908	8191.85
483.279	8295.35
483.65	8494.21
484.021	8610.37
484.391	8758.16
484.762	8772.62
485.133	8873.41
485.503	9018.72
485.874	9227.98
486.244	9259.84
486.615	9518.59
486.985	9552.04
487.356	9765.14
487.726	9916.32
488.097	10087.62
488.467	10081.06
488.837	10307.72
489.207	10450.32
489.578	10668.17
489.948	10675.4
490.318	10900.48
490.688	10892.79
491.058	11108.83
491.428	11231.31
491.798	11311.54
492.168	11545.43
492.538	11632.21
492.908	11704.07
493.278	11874.91
493.648	11904.97
494.017	12108.81
494.387	12177.73
494.757	12373.88
495.126	12505.86
495.496	12463.82
495.866	12665.4
496.235	12769.35
496.605	12872.85
496.974	12889.58
497.344	13156.91
497.713	13184.71
498.082	13298.38
498.452	13395.33
498.821	13556.68
499.19	13574.76
499.559	13705.37
499.928	13801.42
500.298	13878.93
500.667	14028.98
501.036	14093.84
501.405	14199.82
501.774	14270.56
502.143	14474.85
502.512	14473.26
502.88	14607.27
503.249	14702.64
503.618	14755.29
503.987	14773.37
504.356	14949.64
504.724	14960.03
505.093	15214.94
505.462	15273.92
505.83	15411.09
506.199	15517.53
506.567	15736.28
506.936	15584.65
507.304	15822.15
507.672	15896.05
508.041	16013.79
508.409	16102.15
508.777	16286.55
509.145	16440.22
509.514	16409.94
509.882	16600.89
510.25	16589.37
510.618	16781
510.986	16857.38
511.354	17180.08
511.722	17221.67
512.09	17402.68
512.458	17330.36
512.826	17528.55
513.193	17649.68
513.561	17700.98
513.929	17911.37
514.297	18066.62
514.664	18163.56
515.032	18313.16
515.4	18538.69
515.767	18485.14
516.135	18657.33
516.502	18639.71
516.869	18876.76
517.237	18962.41
517.604	19020.04
517.972	19310.88
518.339	19425
518.706	19446.69
519.073	19613.24
519.44	19740.47
519.808	20024.3
520.175	20007.36
520.542	20235.15
520.909	20455.93
521.276	20500.9
521.643	20657.96
522.009	20817.05
522.376	20929.82
522.743	21097.04
523.11	21447.54
523.477	21539.52
523.843	21704.94
524.21	21890.7
524.577	22019.51
524.943	22112.61
525.31	22201.87
525.676	22579.04
526.043	22663.1
526.409	22699.26
526.776	23056.54
527.142	23106.26
527.508	23316.87
527.874	23477.77
528.241	23622.4
528.607	23662.85
528.973	23962.73
529.339	24029.17
529.705	24162.73
530.071	24319.78
530.437	24495.15
530.803	24675.26
531.169	24966.09
531.535	24830.96
531.901	25018.52
532.267	25138.52
532.632	25254.45
532.998	25371.96
533.364	25535.8
533.73	25750.71
534.095	25898.95
534.461	25972.4
534.826	26003.58
535.192	26141.43
535.557	26500.29
535.923	26438.15
536.288	26718.82
536.653	26701.42
537.019	26670
537.384	26740.96
537.749	26991.8
538.114	26994.06
538.479	27134.17
538.845	27313.6
539.21	27246.71
539.575	27365.58
539.94	27579.59
540.305	27782.07
540.67	27725.34
541.034	27839.69
541.399	27902.97
541.764	28055.28
542.129	28253.24
542.494	28334.14
542.858	28415.27
543.223	28475.83
543.587	28583.63
543.952	28594.7
544.316	28676.96
544.681	28803.28
545.045	28937.52
545.41	29137.74
545.774	29276.72
546.138	29214.57
546.503	29296.83
546.867	29409.37
547.231	29658.4
547.595	29770.94
547.959	29866.53
548.324	29977.71
548.688	29972.07
549.052	30039.18
549.416	30257.03
549.779	30381.55
550.143	30287.54
550.507	30612.5
550.871	30756.9
551.235	30742.89
551.599	30969.1
551.962	30988.08
552.326	31135.42
552.689	31410.22
553.053	31268.53
553.417	31405.47
553.78	31754.39
554.143	31701.74
554.507	31938.12
554.87	31939.24
555.234	32299.24
555.597	32195.28
555.96	32364.54
556.323	32620.36
556.686	32507.14
557.05	32862.84
557.413	32952.33
557.776	33028.71
558.139	33302.82
558.502	33367
558.865	33431.64
559.228	33682.48
559.59	33822.81
559.953	33900.32
560.316	34177.83
560.679	34135.57
561.041	34426.86
561.404	34584.15
561.767	34803.35
562.129	34789.79
562.492	35126.05
562.854	35131.25
563.217	35251.02
563.579	35523.56
563.941	35764.91
564.304	35898.46
564.666	36072.7
565.028	36198.57
565.39	36284.44
565.753	36419.35
566.115	36595.39
566.477	36623.42
566.839	36615.28
567.201	37019.56
567.563	37104.31
567.925	37275.38
568.287	37433.56
568.648	37412.77
569.01	37620.68
569.372	37787.9
569.734	37832.88
570.095	37950.16
570.457	38124.62
570.819	38301.56
571.18	38422.69
571.542	38604.83
571.903	38611.84
572.265	38897.71
572.626	38977.03
572.987	39010.7
573.349	39190.35
573.71	39285.72
574.071	39237.36
574.432	39520.29
574.794	39701.75
575.155	39676.44
575.516	39705.14
575.877	39859.94
576.238	39821.75
576.599	40187.16
576.96	40099.26
577.32	40163.89
577.681	40341.74
578.042	40587.38
578.403	40402.98
578.763	40447.27
579.124	40571.33
579.485	40824.44
579.845	40962.28
580.206	40793.02
580.566	40792.8
580.927	41026.92
581.287	40977.65
581.648	40717.09
582.008	41028.72
582.368	40998.22
582.728	41120.02
583.089	40989.85
583.449	40948.05
583.809	41130.64
584.169	41258.77
584.529	41024.66
584.889	41395.72
585.249	41084.09
585.609	41035.28
585.969	41417.19
586.329	41299.68
586.688	41326.12
587.048	41274.59
587.408	41256.51
587.768	41182.84
588.127	41209.51
588.487	41306.46
588.846	41531.08
589.206	41269.17
589.565	41378.54
589.925	41415.83
590.284	41383.97
590.643	41654.24
591.003	41590.29
591.362	41600.23
591.721	41588.71
592.08	41573.57
592.44	41703.96
592.799	41800.23
593.158	41598.65
593.517	41759.1
593.876	41725.65
594.235	41644.53
594.593	41764.52
594.952	41799.78
595.311	41624.87
595.67	41771.08
596.029	41924.75
596.387	41863.5
596.746	41985.08
597.104	41825.31
597.463	41855.82
597.822	42086.55
598.18	41877.29
598.538	41912.09
598.897	42122.71
599.255	41844.97
599.613	42516.82
599.972	42285.87
600.33	42336.26
600.688	42139.88
601.046	42363.38
601.404	42395.69
601.762	42426.88
602.12	42567.67
602.478	42519.53
602.836	42488.8
603.194	42348.91
603.552	42521.11
603.91	42249.48
604.268	42633.88
604.625	42500.78
604.983	42689.92
605.341	42483.37
605.698	42789.13
606.056	42821.9
606.413	42762.01
606.771	42870.26
607.128	42968.56
607.485	42744.16
607.843	42784.84
608.2	43020.31
608.557	43040.65
608.914	42945.06
609.272	43287.2
609.629	43223.24
609.986	43347.98
610.343	43311.38
610.7	43519.28
611.057	43456.46
611.414	43392.05
611.771	43500.52
612.127	43520.86
612.484	43640.86
612.841	43738.71
613.198	43633.17
613.554	43664.36
613.911	44021.41
614.267	43717.01
614.624	44036.55
614.98	44015.31
615.337	44192.48
615.693	44033.62
616.05	44018.02
616.406	44269.99
616.762	44115.2
617.118	43963.34
617.475	44102.77
617.831	44058.25
618.187	44229.54
618.543	44237.9
618.899	44369.88
619.255	44377.79
619.611	44335.76
619.967	44489.88
620.323	44517.9
620.678	44426.83
621.034	44347.51
621.39	44476.99
621.746	44422.53
622.101	44750.66
622.457	44507.95
622.812	44508.86
623.168	44611.23
623.523	44646.71
623.879	44659.59
624.234	44447.84
624.589	44584.79
624.945	44576.43
625.3	44534.85
625.655	44418.69
626.01	44544.79
626.365	44651
626.72	44598.35
627.075	44589.99
627.43	44498.46
627.785	44341.63
628.14	44451.23
628.495	44530.55
628.85	44497.33
629.205	44314.06
629.559	44570.78
629.914	44345.02
630.269	44400.84
630.623	44241.52
630.978	44154.52
631.332	44411.01
631.687	44377.79
632.041	44170.34
632.396	44236.1
632.75	44114.07
633.104	44033.39
633.459	43970.57
633.813	43856.9
634.167	43871.36
634.521	43862.1
634.875	43714.98
635.229	43905.03
635.583	43592.05
635.937	43607.86
636.291	43554.53
636.645	43608.54
636.999	43473.86
637.352	43628.2
637.706	43247.2
638.06	43500.75
638.413	43372.62
638.767	43338.72
639.121	43421.88
639.474	43150.25
639.828	43135.11
640.181	43139.63
640.534	43262.79
640.888	43089.91
641.241	42793.2
641.594	42838.62
641.947	43148.89
642.301	42998.62
642.654	42863.93
643.007	42890.37
643.36	42871.39
643.713	42764.95
644.066	42886.3
644.419	42520.21
644.771	42433.43
645.124	41891.75
645.477	41866.22
645.83	41650.18
646.182	41467.58
646.535	41293.58
646.888	41453.57
647.24	41303.74
647.593	41589.16
647.945	41446.34
648.298	41193.46
648.65	41109.4
649.002	41004.32
649.355	41170.19
649.707	41168.83
650.059	41350.07
650.411	41764.3
650.763	41663.96
651.115	41999.55
651.467	41903.5
651.819	41865.09
652.171	41697.41
652.523	41783.05
652.875	41647.46
653.227	41605.21
653.578	41785.99
653.93	41745.54
654.282	41422.16
654.633	41439.79
654.985	41499.67
655.337	41531.08
655.688	41529.73
656.039	41606.11
656.391	41228.04
656.742	41291.54
657.094	41306.68
657.445	41411.09
657.796	41278.89
658.147	41200.92
658.498	41146.69
658.849	41293.35
659.2	41197.98
659.551	41075.95
659.902	41244.31
660.253	41149.4
660.604	41127.7
660.955	40925.9
661.306	41119.12
661.656	40981.49
662.007	41025.79
662.358	40995.05
662.708	41016.75
663.059	40849.52
663.409	40589.64
663.76	41014.26
664.11	40831.21
664.461	40851.78
664.811	40807.26
665.161	40780.82
665.511	40810.65
665.862	40703.08
666.212	40874.83
666.562	40985.56
666.912	40889.97
667.262	40786.02
667.612	40761.16
667.962	40875.51
668.312	40788.28
668.662	40932.91
669.011	40873.93
669.361	40771.1
669.711	40718
670.06	40538.79
670.41	40547.61
670.76	40434.61
671.109	40615.4
671.459	40558.23
671.808	40444.33
672.157	40538.11
672.507	40326.14
672.856	40329.08
673.205	40242.53
673.554	40485.46
673.904	40180.16
674.253	40486.59
674.602	40303.77
674.951	39741.53
675.3	39715.76
675.649	40140.84
675.998	39887.74
676.346	40077.56
676.695	40120.72
677.044	39929.32
677.393	40023.55
677.741	40151.46
678.09	39977.45
678.438	39800.96
678.787	40000.95
679.135	40005.93
679.484	39765.03
679.832	39969.54
680.181	39650.23
680.529	39668.99
680.877	39554.64
681.225	39450.46
681.573	39749.21
681.922	39410.91
682.27	39400.07
682.618	39483.91
682.966	39280.97
683.314	39304.02
683.661	39117.81
684.009	38981.32
684.357	38785.62
684.705	39021.77
685.053	39001.21
685.4	38889.34
685.748	38942.45
686.095	38706.07
686.443	38494.78
686.79	38493.87
687.138	38546.53
687.485	38353.99
687.832	38280.1
688.18	38566.42
688.527	38188.35
688.874	38221.79
689.221	38061.57
689.568	37815.93
689.915	37787.23
690.262	37992.65
690.609	37981.57
690.956	37751.07
691.303	37584.97
691.65	37508.14
691.997	37490.51
692.344	37307.24
692.69	37269.95
693.037	37249.84
693.383	37057.3
693.73	37090.97
694.077	36902.96
694.423	36966.01
694.769	36924.2
695.116	36774.82
695.462	36734.37
695.808	36664.32
696.155	36728.72
696.501	36332.58
696.847	36201.51
697.193	36018.01
697.539	36201.28
697.885	35985.69
698.231	35876.32
698.577	35879.71
698.923	35726.94
699.269	35456.44
699.614	35277.01
699.96	35221.42
700.306	35306.61
700.651	35205.15
700.997	35074.76
701.342	35127.64
701.688	34960.63
702.033	34764.71
702.379	34879.51
702.724	34719.74
703.069	34820.98
703.415	34292.86
703.76	34348
704.105	34390.48
704.45	34272.97
704.795	34145.74
705.14	34002.92
705.485	33959.08
705.83	33867.33
706.175	33731.29
706.52	33800.44
706.865	33640.67
707.209	33771.51
707.554	33446.1
707.899	33444.29
708.243	33369.49
708.588	33257.18
708.932	33013.34
709.277	33092.43
709.621	33019.22
709.966	32867.36
710.31	32983.06
710.654	32727.47
710.998	32765.66
711.342	32774.93
711.687	32629.85
712.031	32648.15
712.375	32457.2
712.719	32574.26
713.063	32506.01
713.407	32463.75
713.75	32207.49
714.094	32304.21
714.438	32046.81
714.782	32284.32
715.125	32055.17
715.469	32129.52
715.812	32004.78
716.156	31749.19
716.499	31772.02
716.843	31806.59
717.186	31621.97
717.53	31595.98
717.873	31619.03
718.216	31570.44
718.559	31516.88
718.902	31211.13
719.246	31354.18
719.589	31257.45
719.932	31086.61
720.275	31107.85
720.617	30974.75
720.96	30984.69
721.303	30949.89
721.646	30919.16
721.989	30745.15
722.331	30960.06
722.674	30763.91
723.016	30725.04
723.359	30695.89
723.701	30709.67
724.044	30466.06
724.386	30226.3
724.729	30509.68
725.071	30403.01
725.413	30213.41
725.755	30306.52
726.097	30062.46
726.439	30040.54
726.782	30036.02
727.124	30131.61
727.465	29975.91
727.807	29928.22
728.149	29882.35
728.491	29785.63
728.833	29880.54
729.175	29648.46
729.516	29697.27
729.858	29598.06
730.199	29671.28
730.541	29572.75
730.882	29557.39
731.224	29630.83
731.565	29425.64
731.906	29409.82
732.248	29351.74
732.589	29211.18
732.93	29085.99
733.271	29120.34
733.612	29170.5
733.953	29156.95
734.294	29128.92
734.635	29122.37
734.976	29191.52
735.317	28904.75
735.658	28852.32
735.999	28919.89
736.339	28798.08
736.68	28870.4
737.021	28775.03
737.361	28492.78
737.702	28754.7
738.042	28617.3
738.383	28547.02
738.723	28597.86
739.063	28467.25
739.404	28530.52
739.744	28332.11
740.084	28337.08
740.424	28460.01
740.764	28330.07
741.104	28387.47
741.444	28242.39
741.784	28117.65
742.124	28128.72
742.464	27970.99
742.804	28005.11
743.143	28083.53
743.483	27952.68
743.823	27909.75
744.162	27769.19
744.502	27872.91
744.841	27697.55
745.181	27752.91
745.52	27597.44
745.86	27723.99
746.199	27510.66
746.538	27594.73
746.877	27520.38
747.216	27457.78
747.556	27354.73
747.895	27354.28
748.234	27185.02
748.573	27168.3
748.911	27100.5
749.25	27240.39
749.589	27057.11
749.928	27124
750.267	26931.24
750.605	26974.63
750.944	26893.95
751.283	26839.94
751.621	26835.2
751.96	26691.93
752.298	26760.17
752.636	26593.62
752.975	26341.65
753.313	26456.45
