Data from plate_porcelain_FLMS001491_012.txt Node
Date: Tue Feb 07 11:18:51 GMT 2017
User: dcchb
Spectrometer: FLMS00149
Trigger mode: 0
Integration Time (sec): 2.000000E-2
Scans to average: 10
Electric dark correction enabled: true
Nonlinearity correction enabled: false
Boxcar width: 0
XAxis mode: Wavelengths
Number of Pixels in Spectrum: 2048
>>>>>Begin Spectral Data<<<<<
341.393	-29.05
341.776	-29.05
342.16	-29.05
342.543	-65.21
342.927	-54.36
343.31	-69.73
343.693	-42.84
344.077	-65.89
344.46	-59.56
344.843	-57.75
345.226	-47.36
345.61	-22.5
345.993	-36.51
346.376	-13.46
346.759	15.92
347.142	32.19
347.525	57.95
347.908	37.16
348.291	50.49
348.674	95.92
349.057	125.97
349.44	144.28
349.823	146.08
350.206	151.28
350.588	223.37
350.971	202.13
351.354	250.26
351.737	260.21
352.119	281.45
352.502	291.84
352.884	293.65
353.267	309.24
353.65	333.2
354.032	350.37
354.414	332.75
354.797	343.14
355.179	351.28
355.562	353.99
355.944	363.48
356.326	370.71
356.709	377.26
357.091	360.77
357.473	389.92
357.855	373.65
358.238	389.24
358.62	385.17
359.002	382.01
359.384	381.56
359.766	381.11
360.148	380.43
360.53	376.81
360.912	381.11
361.294	373.87
361.676	394.89
362.057	360.99
362.439	386.3
362.821	377.49
363.203	367.09
363.584	379.3
363.966	378.39
364.348	372.07
364.729	379.75
365.111	382.24
365.493	363.03
365.874	399.86
366.256	405.51
366.637	386.08
367.019	380.88
367.4	370.48
367.781	388.34
368.163	373.87
368.544	391.28
368.925	390.37
369.306	407.32
369.688	410.26
370.069	395.12
370.45	388.56
370.831	404.38
371.212	399.41
371.593	385.85
371.974	408.45
372.355	405.96
372.736	393.31
373.117	424.49
373.498	407.09
373.879	427.66
374.26	416.59
374.641	387.21
375.021	392.86
375.402	437.6
375.783	419.3
376.163	463.36
376.544	451.84
376.925	447.54
377.305	434.66
377.686	463.36
378.066	453.42
378.447	436.47
378.827	457.26
379.208	448
379.588	468.56
379.968	460.2
380.349	459.75
380.729	473.53
381.109	475.79
381.489	495.23
381.87	482.57
382.25	480.09
382.63	501.1
383.01	503.14
383.39	479.63
383.77	515.57
384.15	517.15
384.53	516.24
384.91	522.8
385.29	533.19
385.67	538.16
386.049	521.89
386.429	539.75
386.809	542.46
387.189	539.07
387.568	548.79
387.948	573.64
388.328	566.19
388.707	576.81
389.087	579.97
389.466	568.9
389.846	607.31
390.225	585.39
390.605	579.29
390.984	607.09
391.363	614.55
391.743	634.21
392.122	609.8
392.501	636.92
392.881	636.47
393.26	658.61
393.639	643.92
394.018	664.71
394.397	681.66
394.776	676.92
395.155	706.29
395.534	671.27
395.913	661.78
396.292	682.11
396.671	691.15
397.05	703.81
397.429	734.09
397.808	732.28
398.186	719.85
398.565	727.31
398.944	726.41
399.323	732.51
399.701	758.72
400.08	756.46
400.458	768.44
400.837	776.8
401.215	793.75
401.594	800.98
401.972	813.41
402.351	820.64
402.729	813.64
403.107	818.61
403.486	850.25
403.864	828.55
404.242	832.39
404.62	848.21
404.999	874.2
405.377	882.79
405.755	902.67
406.133	920.3
406.511	930.47
406.889	934.31
407.267	928.89
407.645	939.28
408.023	969.34
408.401	977.93
408.779	978.83
409.156	985.38
409.534	974.31
409.912	1011.15
410.29	1018.38
410.667	1071.94
411.045	1054.53
411.422	1072.84
411.8	1100.86
412.178	1107.87
412.555	1116.68
412.933	1129.33
413.31	1169.33
413.687	1168.2
414.065	1184.02
414.442	1188.77
414.819	1220.18
415.197	1194.64
415.574	1220.41
415.951	1246.85
416.328	1271.7
416.705	1259.95
417.082	1288.88
417.46	1312.38
417.837	1291.82
418.214	1323.68
418.591	1317.13
418.967	1333.4
419.344	1353.74
419.721	1383.34
420.098	1378.14
420.475	1383.57
420.852	1417.01
421.228	1427.86
421.605	1440.96
421.982	1470.79
422.358	1484.81
422.735	1492.04
423.111	1512.38
423.488	1536.56
423.864	1514.18
424.241	1533.17
424.617	1567.74
424.994	1589.44
425.37	1586.05
425.746	1605.03
426.123	1647.29
426.499	1665.14
426.875	1696.1
427.251	1706.27
427.627	1738.13
428.003	1715.08
428.379	1742.88
428.756	1812.93
429.132	1828.53
429.507	1831.46
429.883	1860.84
430.259	1908.75
430.635	1892.03
431.011	1913.27
431.387	1968.41
431.763	2016.09
432.138	2027.16
432.514	2048.41
432.89	2071.46
433.265	2116.43
433.641	2132.02
434.016	2167.05
434.392	2189.42
434.767	2232.36
435.143	2216.31
435.518	2258.34
435.894	2259.25
436.269	2316.42
436.644	2319.13
437.02	2331.56
437.395	2376.53
437.77	2421.28
438.145	2421.28
438.52	2440.49
438.895	2512.12
439.271	2499.92
439.646	2561.84
440.021	2594.61
440.395	2570.43
440.77	2578.11
441.145	2592.8
441.52	2666.02
441.895	2641.39
442.27	2681.38
442.645	2696.75
443.019	2720.93
443.394	2745.79
443.769	2731.1
444.143	2741.5
444.518	2822.85
444.892	2801.16
445.267	2859.68
445.641	2886.8
446.016	2878.67
446.39	2895.16
446.764	2920.47
447.139	2922.51
447.513	2956.41
447.887	2954.37
448.262	3013.58
448.636	3007.48
449.01	3038.21
449.384	3077.08
449.758	3070.98
450.132	3196.4
450.506	3154.37
450.88	3183.74
451.254	3201.37
451.628	3250.41
452.002	3287.24
452.376	3298.77
452.75	3342.61
453.123	3401.59
453.497	3402.27
453.871	3428.03
454.244	3476.84
454.618	3513.9
454.992	3581.25
455.365	3571.98
455.739	3698.76
456.112	3769.94
456.486	3756.61
456.859	3828.25
457.232	3911.18
457.606	3897.17
457.979	3928.36
458.352	4015.81
458.725	4058.3
459.099	4092.42
459.472	4174.45
459.845	4195.92
460.218	4209.71
460.591	4287.67
460.964	4336.26
461.337	4427.1
461.71	4499.87
462.083	4543.71
462.456	4528.12
462.829	4565.4
463.201	4677.04
463.574	4663.71
463.947	4745.28
464.32	4828.67
464.692	4938.05
465.065	4942.57
465.438	4989.57
465.81	5090.59
466.183	5082.68
466.555	5212.84
466.928	5284.71
467.3	5293.52
467.672	5390.24
468.045	5498.94
468.417	5490.8
468.789	5525.6
469.161	5646.73
469.534	5716.56
469.906	5854.18
470.278	5874.75
470.65	5968.53
471.022	6092.14
471.394	6196.09
471.766	6219.14
472.138	6315.87
472.51	6449.42
472.882	6573.03
473.253	6617.55
473.625	6687.38
473.997	6906.36
474.369	6903.42
474.74	6939.58
475.112	7114.71
475.484	7243.07
475.855	7319
476.227	7396.51
476.598	7610.52
476.97	7765.54
477.341	7884.19
477.713	7969.83
478.084	8039.66
478.455	8305.64
478.827	8374.34
479.198	8602.13
479.569	8677.84
479.94	8877.83
480.311	8954.44
480.682	9138.16
481.053	9341.77
481.424	9505.61
481.795	9550.81
482.166	9702.22
482.537	9760.52
482.908	10087.52
483.279	10145.82
483.65	10339.04
484.021	10525.7
484.391	10691.12
484.762	10802.07
485.133	10891.11
485.503	11069.64
485.874	11270.31
486.244	11361.38
486.615	11661.04
486.985	11707.81
487.356	11992.33
487.726	12109.38
488.097	12331.07
488.467	12354.8
488.837	12668.92
489.207	12747.11
489.578	12971.28
489.948	13000.44
490.318	13296.25
490.688	13365.62
491.058	13636.12
491.428	13772.62
491.798	13818.94
492.168	14206.96
492.538	14248.54
492.908	14418.93
493.278	14584.8
493.648	14594.29
494.017	14871.57
494.387	14921.97
494.757	15125.35
495.126	15301.84
495.496	15364.67
495.866	15465.91
496.235	15616.86
496.605	15811.66
496.974	15936.4
497.344	16041.48
497.713	16042.16
498.082	16230.86
498.452	16491.42
498.821	16526.44
499.19	16626.33
499.559	16788.81
499.928	16831.29
500.298	16960.1
500.667	17133.21
501.036	17169.14
501.405	17443.26
501.774	17347.89
502.143	17636.92
502.512	17680.99
502.88	17898.84
503.249	17906.97
503.618	18129.11
503.987	18160.75
504.356	18215.67
504.724	18360.29
505.093	18458.82
505.462	18571.59
505.83	18675.77
506.199	18862.2
506.567	19139.26
506.936	19062.42
507.304	19381.74
507.672	19502.41
508.041	19591.22
508.409	19629.64
508.777	19803.42
509.145	19967.71
509.514	19980.14
509.882	20235.5
510.25	20271.66
510.618	20574.93
510.986	20576.73
511.354	20768.59
511.722	21012.65
512.09	21095.36
512.458	21178.3
512.826	21365.19
513.193	21482.7
513.561	21568.12
513.929	21778.06
514.297	22049.91
514.664	22120.2
515.032	22260.53
515.4	22514.99
515.767	22521.77
516.135	22723.12
516.502	22679.5
516.869	23031.36
517.237	23158.81
517.604	23178.02
517.972	23455.75
518.339	23572.13
518.706	23656.88
519.073	23881.05
519.44	23991.11
519.808	24374.83
520.175	24250.99
520.542	24627.47
520.909	24821.14
521.276	24884.87
521.643	25121.47
522.009	25242.6
522.376	25460.22
522.743	25629.03
523.11	25965.74
523.477	26336.58
523.843	26316.02
524.21	26585.39
524.577	26817.02
524.943	26916.23
525.31	26969.79
525.676	27386.95
526.043	27551.01
526.409	27565.25
526.776	28076.87
527.142	27941.06
527.508	28317.09
527.874	28663.98
528.241	28684.32
528.607	28747.82
528.973	28983.97
529.339	29128.6
529.705	29328.14
530.071	29569.72
530.437	29788.69
530.803	29803.16
531.169	30160.66
531.535	30028.69
531.901	30172.86
532.267	30338.74
532.632	30641.1
532.998	30760.87
533.364	30883.13
533.73	30969.68
534.095	31260.52
534.461	31359.95
534.826	31637.46
535.192	31562.66
535.557	31900.95
535.923	31999.71
536.288	32176.65
536.653	32283.09
537.019	32167.39
537.384	32315.18
537.749	32547.49
538.114	32651.9
538.479	32755.17
538.845	32935.28
539.21	32947.71
539.575	33078.1
539.94	33291.88
540.305	33577.07
540.67	33373.68
541.034	33577.07
541.399	33752.21
541.764	33880.34
542.129	34074.91
542.494	34116.26
542.858	34146.77
543.223	34275.58
543.587	34623.37
543.952	34591.05
544.316	34838.28
544.681	34597.83
545.045	34931.61
545.41	35044.83
545.774	35025.62
546.138	35164.37
546.503	35303.35
546.867	35426.06
547.231	35723.68
547.595	35739.5
547.959	35987.85
548.324	35923.45
548.688	36021.75
549.052	36321.4
549.416	36354.62
549.779	36305.13
550.143	36455.41
550.507	36756.42
550.871	37026.7
551.235	36968.62
551.599	37215.84
551.962	37242.06
552.326	37379.46
552.689	37512.56
553.053	37499.9
553.417	37694.02
553.78	38045.43
554.143	37882.49
554.507	38271.18
554.87	38440.67
555.234	38703.49
555.597	38560.44
555.96	38687.9
556.323	38948.23
556.686	38935.35
557.05	39315.22
557.413	39415.56
557.776	39605.39
558.139	39797.7
558.502	39975.09
558.865	40011.48
559.228	40298.02
559.59	40339.6
559.953	40428.19
560.316	40801.29
560.679	40865.24
561.041	41099.81
561.404	41326.02
561.767	41622.96
562.129	41538.22
562.492	41961.03
562.854	41916.06
563.217	42042.16
563.579	42226.33
563.941	42474.01
564.304	42688.92
564.666	42838.07
565.028	42811.63
565.39	43024.96
565.753	43403.93
566.115	43393.99
566.477	43525.73
566.839	43718.05
567.201	43971.82
567.563	44019.51
567.925	44267.41
568.287	44274.41
568.648	44498.82
569.01	44591.02
569.372	45082.76
569.734	45038.24
570.095	45149.19
570.457	45333.14
570.819	45423.76
571.18	45412.69
571.542	45591.22
571.903	45765
572.265	45934.26
572.626	45965.22
572.987	46123.18
573.349	46149.62
573.71	46397.97
574.071	46568.59
574.432	46620.34
574.794	46816.04
575.155	46786.44
575.516	46586.22
575.877	46922.93
576.238	47078.41
576.599	47214
576.96	47188.01
577.32	47346.42
577.681	47330.15
578.042	47551.39
578.403	47509.81
578.763	47631.84
579.124	47655.79
579.485	47738.05
579.845	47848.78
580.206	47798.62
580.566	47899.63
580.927	47886.52
581.287	47992.28
581.648	47743.7
582.008	48034.77
582.368	48025.73
582.728	48061.21
583.089	48072.96
583.449	48137.36
583.809	48130.13
584.169	48186.4
584.529	48159.74
584.889	48503
585.249	48136.23
585.609	48119.96
585.969	48370.8
586.329	48306.4
586.688	48156.8
587.048	48190.47
587.408	48149.34
587.768	48140.75
588.127	48177.36
588.487	48244.03
588.846	48400.86
589.206	48268.89
589.565	48247.87
589.925	48298.04
590.284	48302.56
590.643	48334.42
591.003	48372.39
591.362	48444.93
591.721	48481.76
592.08	48420.97
592.44	48697.35
592.799	48548.43
593.158	48608.99
593.517	48501.42
593.876	48599.27
594.235	48442.44
594.593	48598.37
594.952	48720.63
595.311	48590.23
595.67	48601.98
596.029	48757.69
596.387	48787.29
596.746	48905.71
597.104	48664.81
597.463	48611.93
597.822	48835.65
598.18	48835.65
598.538	48701.42
598.897	48935.99
599.255	48677.69
599.613	49206.04
599.972	48973.05
600.33	49025.48
600.688	48915.65
601.046	49048.75
601.404	49152.93
601.762	49070.22
602.12	49396.99
602.478	49305.7
602.836	49253.27
603.194	49079.49
603.552	49186.15
603.91	49045.14
604.268	49291.46
604.625	49253.04
604.983	49395.18
605.341	49156.77
605.698	49425.69
606.056	49549.98
606.413	49399.03
606.771	49605.57
607.128	49610.77
607.485	49514.5
607.843	49478.12
608.2	49781.16
608.557	49774.84
608.914	49661.39
609.272	49794.95
609.629	49793.59
609.986	50080.36
610.343	49790.88
610.7	50093.7
611.057	49890.09
611.414	50044.21
611.771	50013.47
612.127	50141.15
612.484	50128.05
612.841	50328.95
613.198	50111.32
613.554	50131.66
613.911	50369.17
614.267	50298.44
614.624	50209.85
614.98	50423.41
615.337	50587.92
615.693	50496.85
616.05	50428.15
616.406	50566
616.762	50554.02
617.118	50462.73
617.475	50529.17
617.831	50647.81
618.187	50725.09
618.543	50746.79
618.899	50705.66
619.255	50719.44
619.611	50781.81
619.967	50808.93
620.323	50813.45
620.678	50881.92
621.034	50716.96
621.39	50683.51
621.746	50695.26
622.101	51040.56
622.457	50694.36
622.812	50868.37
623.168	50921.47
623.523	50923.51
623.879	51077.85
624.234	50657.07
624.589	50871.76
624.945	50943.62
625.3	51011.41
625.655	50825.66
626.01	50922.83
626.365	50968.02
626.72	50771.19
627.075	50849.16
627.43	50806.22
627.785	50741.59
628.14	50860.23
628.495	50814.81
628.85	50799.44
629.205	50730.29
629.559	50896.39
629.914	50655.04
630.269	50785.66
630.623	50607.13
630.978	50569.84
631.332	50690.74
631.687	50635.38
632.041	50471.09
632.396	50686.9
632.75	50508.6
633.104	50609.84
633.459	50397.87
633.813	50303.86
634.167	50332.79
634.521	50288.72
634.875	50330.07
635.229	50301.6
635.583	50150.87
635.937	50089.86
636.291	50104.54
636.645	50164.66
636.999	49998.56
637.352	50039.69
637.706	49876.98
638.06	49942.06
638.413	49897.09
638.767	49770.32
639.121	49885.79
639.474	49590.43
639.828	49654.61
640.181	49593.15
640.534	49665.01
640.888	49497.55
641.241	49392.02
641.594	49491.23
641.947	49436.99
642.301	49396.54
642.654	49316.32
643.007	49422.98
643.36	49353.83
643.713	49241.97
644.066	49408.97
644.419	48993.84
644.771	48802.88
645.124	48321.77
645.477	48299.17
645.83	47969.46
646.182	47914.09
646.535	47858.28
646.888	47985.96
647.24	47743.7
647.593	48075.67
647.945	47896.47
648.298	47715.45
648.65	47580.54
649.002	47525.63
649.355	47699.41
649.707	47594.33
650.059	47666.19
650.411	47959.97
650.763	48087.42
651.115	48426.62
651.467	48320.41
651.819	48441.76
652.171	48187.08
652.523	48117.03
652.875	48127.42
653.227	47913.42
653.578	48125.84
653.93	47911.61
654.282	47778.96
654.633	47613.99
654.985	47839.74
655.337	47747.54
655.688	47727.66
656.039	47957.03
656.391	47589.58
656.742	47692.63
657.094	47730.6
657.445	47915.9
657.796	47644.5
658.147	47615.34
658.498	47639.98
658.849	47640.2
659.2	47561.56
659.551	47549.58
659.902	47699.18
660.253	47533.76
660.604	47605.4
660.955	47279.53
661.306	47426.42
661.656	47435.91
662.007	47433.2
662.358	47341
662.708	47340.78
663.059	47263.71
663.409	47075.25
663.76	47289.93
664.11	47403.37
664.461	47332.41
664.811	47312.75
665.161	47276.6
665.511	47101.91
665.862	47230.04
666.212	47324.73
666.562	47322.92
666.912	47195.69
667.262	47219.2
667.612	47197.73
667.962	47225.75
668.312	47116.37
668.662	47174.68
669.011	47122.7
669.361	47022.14
669.711	46945.76
670.06	46895.59
670.41	46825.76
670.76	46830.51
671.109	47046.09
671.459	46800.9
671.808	46808.36
672.157	46992.31
672.507	46537.86
672.856	46588.03
673.205	46797.06
673.554	46854.01
673.904	46578.99
674.253	46751.41
674.602	46589.16
674.951	46282.5
675.3	45937.42
675.649	46542.38
675.998	46551.87
676.346	46544.86
676.695	46626.67
677.044	46338.09
677.393	46366.11
677.741	46513.45
678.09	46316.85
678.438	46141.26
678.787	46206.34
679.135	46258.77
679.484	46001.15
679.832	46198.21
680.181	45866.46
680.529	46068.27
680.877	45884.99
681.225	45819.23
681.573	45980.81
681.922	45691.1
682.27	45677.99
682.618	45663.08
682.966	45584.89
683.314	45687.71
683.661	45385.12
684.009	45388.74
684.357	45214.5
684.705	45174.5
685.053	45242.98
685.4	45080.72
685.748	44947.17
686.095	44922.08
686.443	44937.45
686.79	44619.72
687.138	44736.55
687.485	44737
687.832	44658.81
688.18	44601.64
688.527	44369.1
688.874	44359.38
689.221	44202.55
689.568	44176.56
689.915	44014.08
690.262	43959.17
690.609	43867.42
690.956	43727.08
691.303	43742.23
691.65	43467.43
691.997	43430.37
692.344	43308.34
692.69	43299.07
693.037	43250.04
693.383	42741.12
693.73	42940.44
694.077	42806.66
694.423	42730.5
694.769	42635.14
695.116	42636.49
695.462	42556.95
695.808	42343.62
696.155	42418.42
696.501	42124.41
696.847	42095.26
697.193	41848.04
697.539	42102.49
697.885	41761.94
698.231	41569.63
698.577	41693.92
698.923	41502.74
699.269	41251.44
699.614	41184.78
699.96	41120.37
700.306	41214.61
700.651	41027.27
700.997	40840.15
701.342	40836.31
701.688	40572.59
702.033	40633.83
702.379	40477
702.724	40284.46
703.069	40516.1
703.415	40195.2
703.76	40028.65
704.105	39904.59
704.45	39924.7
704.795	39703.01
705.14	39581.66
705.485	39452.39
705.83	39289.01
706.175	39431.38
706.52	39321.78
706.865	39147.54
707.209	39143.25
707.554	39082.91
707.899	39104.38
708.243	38904.61
708.588	38835.24
708.932	38566.32
709.277	38395.02
709.621	38553.44
709.966	38194.8
710.31	38478.41
710.654	38111.87
710.998	38073.9
711.342	38176.72
711.687	37897.86
712.031	37751.65
712.375	37735.38
712.719	37769.28
713.063	37736.06
713.407	37607.7
713.75	37542.39
714.094	37513.24
714.438	37321.6
714.782	37525.21
715.125	37088.62
715.469	37282.96
715.812	36932.01
716.156	36875.51
716.499	36924.1
716.843	36951.67
717.186	36718.46
717.53	36824.44
717.873	36913.25
718.216	36708.29
718.559	36558.91
718.902	36377.67
719.246	36451.8
719.589	36248.19
719.932	36013.84
720.275	36022.43
720.617	35964.58
720.96	35970.45
721.303	35893.39
721.646	36019.49
721.989	35782.21
722.331	35835.54
722.674	35647.75
723.016	35694.3
723.359	35496.79
723.701	35523.46
724.044	35367.3
724.386	35271.71
724.729	35334.99
725.071	35234.2
725.413	35169.34
725.755	35094.09
726.097	34901.1
726.439	34892.74
726.782	34987.43
727.124	35008.67
727.465	34836.25
727.807	34763.03
728.149	34726.64
728.491	34585.4
728.833	34657.49
729.175	34522.81
729.516	34484.84
729.858	34451.17
730.199	34416.14
730.541	34320.33
730.882	34311.74
731.224	34368.91
731.565	34087.11
731.906	34019.54
732.248	34072.42
732.589	33969.15
732.93	33816.38
733.271	33879.89
733.612	33922.37
733.953	33923.73
734.294	33565.32
734.635	33656.62
734.976	33607.8
735.317	33575.49
735.658	33568.48
735.999	33456.85
736.339	33493.68
736.68	33460.46
737.021	33248.72
737.361	33112.67
737.702	33429.28
738.042	33262.05
738.383	33191.77
738.723	33092.34
739.063	32992.23
739.404	33121.26
739.744	32847.14
740.084	32825.9
740.424	32862.74
740.764	32746.36
741.104	32798.56
741.444	32553.14
741.784	32550.66
742.124	32656.87
742.464	32479.24
742.804	32542.75
743.143	32432.24
743.483	32278.57
743.823	32259.14
744.162	32223.88
744.502	32233.6
744.841	32039.03
745.181	32205.35
745.52	31933.95
745.86	32056.21
746.199	31894.63
746.538	31900.73
746.877	31986.15
747.216	31848.53
747.556	31856.44
747.895	31783.67
748.234	31603.79
748.573	31468.88
748.911	31584.35
749.25	31440.63
749.589	31339.61
749.928	31281.31
750.267	31367.18
750.605	31032.5
750.944	31061.88
751.283	30810.36
751.621	31015.33
751.96	30823.47
752.298	30882
752.636	30792.96
752.975	30578.73
