Data from plate_ceramic_FLMS001491_048.txt Node
Date: Tue Feb 07 11:16:50 GMT 2017
User: dcchb
Spectrometer: FLMS00149
Trigger mode: 0
Integration Time (sec): 2.000000E-2
Scans to average: 10
Electric dark correction enabled: true
Nonlinearity correction enabled: false
Boxcar width: 0
XAxis mode: Wavelengths
Number of Pixels in Spectrum: 2048
>>>>>Begin Spectral Data<<<<<
341.393	4.01
341.776	4.01
342.16	4.01
342.543	-87.96
342.927	-72.82
343.31	-72.82
343.693	-69.21
344.077	-52.71
344.46	-50.68
344.843	-68.76
345.226	-44.58
345.61	-50.9
345.993	-13.62
346.376	1.3
346.759	6.95
347.142	27.06
347.525	53.95
347.908	63.22
348.291	82.43
348.674	86.04
349.057	102.31
349.44	120.17
349.823	150.22
350.206	153.39
350.588	219.82
350.971	243.1
351.354	246.49
351.737	255.08
352.119	259.37
352.502	272.03
352.884	283.1
353.267	281.74
353.65	318.35
354.032	313.16
354.414	306.6
354.797	333.95
355.179	322.87
355.562	350.44
355.944	344.34
356.326	351.57
356.709	348.41
357.091	348.18
357.473	363.32
357.855	351.57
358.238	362.19
358.62	341.4
359.002	342.53
359.384	365.58
359.766	368.07
360.148	345.92
360.53	362.65
360.912	353.38
361.294	370.78
361.676	369.2
362.057	353.83
362.439	371.91
362.821	352.25
363.203	343.44
363.584	369.65
363.966	356.32
364.348	362.65
364.729	345.7
365.111	352.93
365.493	372.82
365.874	326.94
366.256	355.41
366.637	354.06
367.019	351.57
367.4	359.03
367.781	354.74
368.163	349.09
368.544	344.34
368.925	343.44
369.306	363.32
369.688	333.72
370.069	352.48
370.45	356.32
370.831	343.44
371.212	342.99
371.593	357.22
371.974	333.72
372.355	347.28
372.736	362.87
373.117	382.98
373.498	343.89
373.879	376.43
374.26	364.68
374.641	357.45
375.021	366.04
375.402	356.09
375.783	369.43
376.163	393.61
376.544	385.47
376.925	378.69
377.305	392.48
377.686	388.18
378.066	369.65
378.447	401.06
378.827	380.95
379.208	407.16
379.588	392.02
379.968	398.8
380.349	399.93
380.729	408.52
381.109	387.28
381.489	402.87
381.87	406.71
382.25	401.51
382.63	431.12
383.01	419.59
383.39	423.66
383.77	421.4
384.15	431.57
384.53	417.79
384.91	430.89
385.29	435.64
385.67	428.41
386.049	417.79
386.429	450.78
386.809	436.77
387.189	453.49
387.568	436.32
387.948	455.3
388.328	439.71
388.707	462.08
389.087	452.36
389.466	477.67
389.846	479.48
390.225	465.24
390.605	465.92
390.984	492.13
391.363	515.64
391.743	485.13
392.122	498.01
392.501	528.29
392.881	513.15
393.26	504.56
393.639	510.44
394.018	514.73
394.397	519.03
394.776	550.89
395.155	517.44
395.534	527.61
395.913	528.97
396.292	536.65
396.671	548.63
397.05	570.1
397.429	542.3
397.808	529.87
398.186	555.41
398.565	571.23
398.944	557.44
399.323	580.04
399.701	585.24
400.08	585.24
400.458	600.38
400.837	608.06
401.215	630.21
401.594	614.16
401.972	590.21
402.351	620.49
402.729	629.76
403.107	637.67
403.486	647.84
403.864	647.84
404.242	627.72
404.62	655.29
404.999	654.39
405.377	659.59
405.755	657.55
406.133	675.18
406.511	665.69
406.889	705.69
407.267	716.53
407.645	688.29
408.023	718.34
408.401	725.8
408.779	744.56
409.156	758.79
409.534	752.47
409.912	754.27
410.29	774.61
410.667	788.17
411.045	816.19
411.422	796.08
411.8	809.87
412.178	817.78
412.555	838.57
412.933	838.79
413.31	869.07
413.687	848.73
414.065	885.57
414.442	875.17
414.819	880.37
415.197	912.01
415.574	904.78
415.951	932.12
416.328	919.92
416.705	931.9
417.082	912.46
417.46	931.9
417.837	952.46
418.214	973.48
418.591	968.73
418.967	967.38
419.344	1008.5
419.721	999.69
420.098	997.21
420.475	1015.06
420.852	1020.71
421.228	1027.94
421.605	1056.19
421.982	1072.01
422.358	1066.58
422.735	1086.02
423.111	1097.09
423.488	1088.73
423.864	1125.34
424.241	1120.82
424.617	1145.22
424.994	1143.19
425.37	1156.52
425.746	1187.26
426.123	1193.58
426.499	1184.32
426.875	1198.1
427.251	1228.61
427.627	1262.28
428.003	1275.39
428.379	1264.77
428.756	1282.62
429.132	1286.69
429.507	1304.99
429.883	1344.31
430.259	1344.09
430.635	1362.17
431.011	1373.69
431.387	1407.36
431.763	1447.36
432.138	1417.99
432.514	1454.82
432.89	1477.19
433.265	1488.72
433.641	1525.1
434.016	1494.37
434.392	1538.89
434.767	1586.79
435.143	1591.54
435.518	1585.44
435.894	1604.42
436.269	1649.84
436.644	1643.97
437.02	1682.39
437.395	1647.13
437.77	1683.74
438.145	1718.32
438.52	1746.56
438.895	1732.78
439.271	1737.07
439.646	1805.32
440.021	1779.78
440.395	1768.71
440.77	1784.08
441.145	1838.77
441.52	1838.99
441.895	1845.77
442.27	1887.58
442.645	1874.02
443.019	1902.27
443.394	1914.7
443.769	1945.88
444.143	1898.42
444.518	1956.28
444.892	1938.88
445.267	1963.28
445.641	1993.34
446.016	1991.98
446.39	1998.99
446.764	2031.3
447.139	2019.78
447.513	2045.09
447.887	2089.61
448.262	2084.63
448.636	2092.77
449.01	2128.02
449.384	2153.11
449.758	2147.68
450.132	2179.77
450.506	2167.8
450.88	2180.23
451.254	2187.68
451.628	2220.68
452.002	2275.36
452.376	2295.48
452.75	2303.39
453.123	2323.5
453.497	2371.86
453.871	2386.1
454.244	2412.54
454.618	2419.99
454.992	2479.65
455.365	2480.33
455.739	2543.83
456.112	2547.9
456.486	2582.02
456.859	2583.38
457.232	2670.83
457.606	2671.51
457.979	2662.92
458.352	2755.58
458.725	2728.91
459.099	2799.64
459.472	2855.91
459.845	2828.57
460.218	2905.18
460.591	2971.62
460.964	2941.11
461.337	2986.53
461.71	3064.95
462.083	3068.56
462.456	3097.49
462.829	3148.79
463.201	3186.53
463.574	3222.68
463.947	3235.79
464.32	3303.59
464.692	3376.8
465.065	3362.57
465.438	3453.64
465.81	3472.62
466.183	3509.68
466.555	3612.05
466.928	3609.57
467.3	3597.14
467.672	3677.81
468.045	3759.84
468.417	3774.31
468.789	3811.59
469.161	3819.28
469.534	3891.59
469.906	3965.94
470.278	4047.97
470.65	4031.48
471.022	4164.81
471.394	4247.74
471.766	4277.12
472.138	4296.78
472.51	4390.56
472.882	4480.96
473.253	4487.51
473.625	4587.17
473.997	4725.47
474.369	4693.15
474.74	4784.9
475.112	4857.89
475.484	4892.02
475.855	5020.38
476.227	5092.24
476.598	5175.63
476.97	5254.72
477.341	5366.58
477.713	5398.67
478.084	5517.99
478.455	5651.55
478.827	5711.88
479.198	5853.57
479.569	5872.56
479.94	6074.36
480.311	6091.31
480.682	6243.62
481.053	6370.17
481.424	6446.1
481.795	6535.14
482.166	6619.2
482.537	6730.39
482.908	6781.69
483.279	6877.73
483.65	7061.23
484.021	7157.04
484.391	7296.47
484.762	7335.34
485.133	7403.14
485.503	7532.17
485.874	7697.37
486.244	7822.56
486.615	7980.3
486.985	8008.09
487.356	8153.4
487.726	8261.2
488.097	8441.08
488.467	8376.9
488.837	8589.77
489.207	8720.62
489.578	8829.77
489.948	8930.1
490.318	8995.19
490.688	9076.99
491.058	9217.78
491.428	9385.23
491.798	9394.27
492.168	9610.09
492.538	9637.66
492.908	9774.6
493.278	9897.54
493.648	9942.28
494.017	10154.93
494.387	10149.06
494.757	10261.37
495.126	10383.85
495.496	10451.42
495.866	10469.72
496.235	10672.43
496.605	10734.58
496.974	10780
497.344	10895.02
497.713	11042.59
498.082	11030.39
498.452	11147.67
498.821	11283.04
499.19	11290.95
499.559	11405.52
499.928	11572.29
500.298	11581.79
500.667	11705.85
501.036	11661.11
501.405	11797.83
501.774	11804.6
502.143	11990.14
502.512	11983.81
502.88	12280.98
503.249	12160.98
503.618	12265.61
503.987	12354.19
504.356	12474.64
504.724	12490.01
505.093	12567.3
505.462	12682.55
505.83	12748.99
506.199	12854.97
506.567	12985.14
506.936	13085.48
507.304	13181.52
507.672	13219.48
508.041	13354.85
508.409	13426.03
508.777	13565.69
509.145	13694.95
509.514	13732.69
509.882	13760.94
510.25	13801.84
510.618	14034.83
510.986	14065.79
511.354	14239.34
511.722	14305.56
512.09	14364.54
512.458	14411.54
512.826	14568.15
513.193	14624.64
513.561	14800.23
513.929	14901.92
514.297	15006.55
514.664	15105.99
515.032	15199.54
515.4	15336.49
515.767	15409.71
516.135	15587.1
516.502	15449.25
516.869	15822.13
517.237	15840.88
517.604	15905.06
517.972	16063.48
518.339	16161.33
518.706	16132.85
519.073	16263.92
519.44	16511.37
519.808	16564.25
520.175	16676.34
520.542	16976.45
520.909	16979.61
521.276	17099.61
521.643	17166.27
522.009	17345.48
522.376	17502.08
522.743	17590.89
523.11	17675.86
523.477	18010.09
523.843	18034.05
524.21	18170.77
524.577	18347.94
524.943	18436.52
525.31	18416.63
525.676	18754.7
526.043	18861.59
526.409	18956.51
526.776	19213.22
527.142	19300.68
527.508	19399.66
527.874	19534.8
528.241	19608.02
528.607	19694.11
528.973	19902.92
529.339	19875.13
529.705	20163.26
530.071	20320.77
530.437	20493.87
530.803	20638.95
531.169	20638.72
531.535	20665.84
531.901	20758.72
532.267	20962.33
532.632	21024.48
532.998	21211.59
533.364	21222.21
533.73	21343.34
534.095	21540.17
534.461	21455.2
534.826	21631.92
535.192	21755.76
535.557	21951.46
535.923	21927.5
536.288	22102.64
536.653	22259.25
537.019	22168.85
537.384	22328.17
537.749	22447.49
538.114	22498.79
538.479	22583.98
538.845	22602.29
539.21	22598.22
539.575	22807.48
539.94	22881.38
540.305	23117.3
540.67	22974.25
541.034	23239.33
541.399	23190.07
541.764	23358.43
542.129	23402.04
542.494	23439.33
542.858	23625.09
543.223	23566.1
543.587	23734.23
543.952	23786.66
544.316	23888.58
544.681	23892.87
545.045	24098.07
545.41	24210.61
545.774	24173.77
546.138	24224.17
546.503	24353.88
546.867	24436.36
547.231	24646.75
547.595	24712.51
547.959	24795.68
548.324	24844.49
548.688	24870.02
549.052	24982.11
549.416	25131.71
549.779	25028.66
550.143	25277.24
550.507	25407.19
550.871	25514.53
551.235	25543.45
551.599	25670.23
551.962	25716.33
552.326	25832.94
552.689	25952.48
553.053	26013.5
553.417	25998.81
553.78	26401.51
554.143	26306.37
554.507	26481.73
554.87	26554.5
555.234	26944.09
555.597	26669.07
555.96	26856.86
556.323	27028.84
556.686	27015.73
557.05	27326.68
557.413	27309.96
557.776	27450.3
558.139	27646.9
558.502	27690.06
558.865	27655.04
559.228	27821.81
559.59	27920.34
559.953	28059.77
560.316	28292.08
560.679	28398.29
561.041	28579.08
561.404	28782.24
561.767	28829.02
562.129	28810.71
562.492	29217.25
562.854	29166.18
563.217	29292.96
563.579	29382.67
563.941	29625.15
564.304	29644.81
564.666	29983.56
565.028	29960.74
565.39	30069.44
565.753	30215.65
566.115	30294.29
566.477	30369.09
566.839	30489.76
567.201	30715.75
567.563	30855.63
567.925	31035.96
568.287	31015.17
568.648	31133.14
569.01	31510.75
569.372	31578.32
569.734	31417.65
570.095	31737.87
570.457	31847.24
570.819	31859.22
571.18	31828.94
571.542	31993.45
571.903	32283.84
572.265	32298.76
572.626	32350.73
572.987	32399.54
573.349	32570.39
573.71	32700.55
574.071	32657.39
574.432	32848.57
574.794	33150.71
575.155	33095.57
575.516	32988
575.877	33153.87
576.238	33225.74
576.599	33364.26
576.96	33319.75
577.32	33375.11
577.681	33659.62
578.042	33673.63
578.403	33590.7
578.763	33719.51
579.124	33794.31
579.485	33922.22
579.845	34039.27
580.206	33990.46
580.566	33929.9
580.927	34017.35
581.287	34094.64
581.648	33972.61
582.008	34142.77
582.368	34057.81
582.728	34159.27
583.089	34018.03
583.449	34095.77
583.809	34296.22
584.169	34288.53
584.529	34227.29
584.889	34518.58
585.249	34293.28
585.609	34157.24
585.969	34349.55
586.329	34253.73
586.688	34386.38
587.048	34294.86
587.408	34398.59
587.768	34331.7
588.127	34364.46
588.487	34370.79
588.846	34616.89
589.206	34413.95
589.565	34413.5
589.925	34509.77
590.284	34392.71
590.643	34498.7
591.003	34502.31
591.362	34604.01
591.721	34612.14
592.08	34606.49
592.44	34870.21
592.799	34780.27
593.158	34547.28
593.517	34637.45
593.876	34630.22
594.235	34611.91
594.593	34688.97
594.952	34754.96
595.311	34661.63
595.67	34759.93
596.029	34905.01
596.387	34897.11
596.746	35097.55
597.104	34852.36
597.463	34879.03
597.822	35041.06
598.18	34834.51
598.538	34916.09
598.897	35149.3
599.255	34914.73
599.613	35274.72
599.972	35178.23
600.33	35317.21
600.688	35144.1
601.046	35231.79
601.404	35608.72
601.762	35291.44
602.12	35492.12
602.478	35389.97
602.836	35467.26
603.194	35375.96
603.552	35444.21
603.91	35318.11
604.268	35552.68
604.625	35375.96
604.983	35601.72
605.341	35438.79
605.698	35500.7
606.056	35601.72
606.413	35535.51
606.771	35815.05
607.128	35797.87
607.485	35716.97
607.843	35756.97
608.2	35797.87
608.557	35998.77
608.914	35870.64
609.272	35988.38
609.629	35984.76
609.986	36142.5
610.343	36020.01
610.7	36275.83
611.057	36286.22
611.414	36274.92
611.771	36266.79
612.127	36302.94
612.484	36325.99
612.841	36414.81
613.198	36302.49
613.554	36351.3
613.911	36461.13
614.267	36488.25
614.624	36534.58
614.98	36537.06
615.337	36709.49
615.693	36823.38
616.05	36724.18
616.406	36814.79
616.762	36752.42
617.118	36868.13
617.475	36828.58
617.831	36938.18
618.187	36877.84
618.543	36860.67
618.899	37224.95
619.255	36963.27
619.611	36955.13
619.967	36939.76
620.323	37209.59
620.678	36939.54
621.034	37087.56
621.39	37035.58
621.746	37058.86
622.101	37277.38
622.457	37001.91
622.812	36999.42
623.168	37246.87
623.523	37287.32
623.879	37363.25
624.234	37012.08
624.589	37212.75
624.945	37222.47
625.3	37162.81
625.655	37257.49
626.01	37190.83
626.365	37295.91
626.72	37114.9
627.075	37140.44
627.43	37154.45
627.785	37064.51
628.14	37041
628.495	37151.06
628.85	37201.9
629.205	37041.91
629.559	37011.17
629.914	36962.36
630.269	36988.8
630.623	36827.45
630.978	36782.71
631.332	36914.23
631.687	37073.09
632.041	36705.87
632.396	36908.13
632.75	36789.03
633.104	36765.08
633.459	36447.12
633.813	36527.57
634.167	36498.87
634.521	36541.36
634.875	36514.69
635.229	36524.41
635.583	36441.92
635.937	36275.37
636.291	36300.91
636.645	36206.22
636.999	36218.88
637.352	36292.77
637.706	36076.96
638.06	36206.9
638.413	36085.77
638.767	36013.01
639.121	36036.74
639.474	35791.09
639.828	35911.09
640.181	35981.37
640.534	35898.66
640.888	35803.97
641.241	35755.16
641.594	35634.71
641.947	35667.48
642.301	35650.08
642.654	35668.61
643.007	35681.27
643.36	35511.1
643.713	35475.62
644.066	35600.36
644.419	35336.42
644.771	35148.17
645.124	34689.88
645.477	34721.06
645.83	34474.07
646.182	34249.66
646.535	34281.08
646.888	34298.25
647.24	34188.2
647.593	34397.68
647.945	34288.31
648.298	34061.19
648.65	34148.42
649.002	33902.33
649.355	33992.5
649.707	33948.66
650.059	34056.9
650.411	34535.31
650.763	34503.9
651.115	34750.67
651.467	34640.16
651.819	34723.78
652.171	34610.56
652.523	34526.04
652.875	34567.17
653.227	34342.09
653.578	34582.54
653.93	34572.37
654.282	34325.37
654.633	34270.45
654.985	34330.11
655.337	34474.29
655.688	34354.52
656.039	34448.53
656.391	34102.1
656.742	34231.59
657.094	34277.69
657.445	34422.77
657.796	34202.66
658.147	34205.82
658.498	34134.64
658.849	34208.99
659.2	34138.48
659.551	34042.89
659.902	34204.92
660.253	33924.02
660.604	34097.13
660.955	33906.62
661.306	33997.02
661.656	33908.66
662.007	33914.31
662.358	33764.48
662.708	33897.13
663.059	33802.44
663.409	33639.51
663.76	33937.81
664.11	33962.89
664.461	33947.3
664.811	33788.21
665.161	33820.52
665.511	33625.05
665.862	33794.99
666.212	33659.62
666.562	33776
666.912	33663.01
667.262	33635.44
667.612	33628.21
667.962	33609.46
668.312	33543.24
668.662	33579.4
669.011	33692.62
669.361	33451.95
669.711	33556.8
670.06	33457.59
670.41	33393.42
670.76	33397.94
671.109	33400.65
671.459	33445.62
671.808	33357.48
672.157	33443.81
672.507	33244.04
672.856	33130.6
673.205	33188.9
673.554	33332.63
673.904	33026.19
674.253	33391.38
674.602	33171.73
674.951	32773.32
675.3	32672.76
675.649	33315.68
675.998	33037.94
676.346	33244.49
676.695	33213.76
677.044	32977.83
677.393	32974.22
677.741	33147.32
678.09	32954.56
678.438	32889.47
678.787	32930.38
679.135	32943.71
679.484	32611.52
679.832	32878.18
680.181	32653.77
680.529	32633.44
680.877	32526.77
681.225	32617.62
681.573	32825.97
681.922	32503.72
682.27	32485.19
682.618	32435.7
682.966	32310.28
683.314	32444.29
683.661	32246.78
684.009	32136.27
684.357	32094.01
684.705	32134.47
685.053	32067.12
685.4	31954.13
685.748	31882.5
686.095	31876.62
686.443	31769.28
686.79	31791.42
687.138	31710.52
687.485	31749.17
687.832	31544.42
688.18	31701.71
688.527	31550.3
688.874	31412.22
689.221	31348.05
689.568	31155.96
689.915	31262.17
690.262	31207.71
690.609	30971.11
690.956	30925.68
691.303	30948.96
691.65	30829.19
691.997	30839.58
692.344	30756.65
692.69	30695.41
693.037	30708.29
693.383	30384.68
693.73	30585.81
694.077	30376.77
694.423	30426.71
694.769	30396.43
695.116	30259.94
695.462	30198.92
695.808	30047.52
696.155	30016.1
696.501	29783.57
696.847	29813.85
697.193	29471.71
697.539	29653.18
697.885	29406.18
698.231	29282.11
698.577	29410.24
698.923	29313.97
699.269	29172.74
699.614	28970.03
699.96	28871.05
700.306	29007.32
700.651	28769.36
700.997	28663.37
701.342	28728.68
701.688	28582.69
702.033	28567.55
702.379	28441.91
702.724	28479.65
703.069	28512.41
703.415	28188.35
703.76	28147.9
704.105	28181.12
704.45	28108.81
704.795	27997.4
705.14	27963.95
705.485	27908.14
705.83	27711.31
706.175	27794.01
706.52	27716.05
706.865	27681.7
707.209	27502.27
707.554	27482.38
707.899	27558.31
708.243	27280.36
708.588	27293.24
708.932	27176.18
709.277	27127.59
709.621	27119.91
709.966	26953.81
710.31	27151.55
710.654	26810.31
710.998	26893.47
711.342	26890.31
711.687	26732.57
712.031	26577.1
712.375	26448.74
712.719	26538.91
713.063	26556.76
713.407	26545.91
713.75	26392.7
714.094	26403.09
714.438	26338.69
714.782	26350.89
715.125	26190.22
715.469	26364.67
715.812	26081.29
716.156	26091.46
716.499	26009.2
716.843	25899.6
717.186	25819.38
717.53	26013.5
717.873	25999.03
718.216	25820.06
718.559	25706.84
718.902	25543.45
719.246	25623.9
719.589	25412.83
719.932	25468.88
720.275	25430.24
720.617	25333.74
720.96	25309.33
721.303	25364.25
721.646	25350.01
721.989	25075.89
722.331	25175.33
722.674	25129.9
723.016	25018.49
723.359	24893.75
723.701	25003.58
724.044	24840.42
724.386	24676.13
724.729	24887.2
725.071	24725.17
725.413	24829.35
725.755	24807.88
726.097	24642.91
726.439	24508.45
726.782	24490.82
727.124	24567.43
727.465	24513.88
727.807	24525.4
728.149	24368.34
728.491	24321.79
728.833	24457.83
729.175	24251.28
729.516	24256.93
729.858	24154.11
730.199	24191.17
730.541	24097.16
730.882	24036.15
731.224	24232.53
731.565	23933.55
731.906	24022.81
732.248	24011.52
732.589	23862.59
732.93	23742.82
733.271	23836.6
733.612	23817.85
733.953	23873.89
734.294	23593
734.635	23620.79
734.976	23626.67
735.317	23532.43
735.658	23548.7
735.999	23613.56
736.339	23415.37
736.68	23486.11
737.021	23349.39
737.361	23294.02
737.702	23476.61
738.042	23278.88
738.383	23295.83
738.723	23231.42
739.063	23128.15
739.404	23322.27
739.744	23186.9
740.084	22987.59
740.424	23102.61
740.764	23065.78
741.104	23094.25
741.444	22961.37
741.784	22882.73
742.124	22880.02
742.464	22945.1
742.804	22891.32
743.143	22743.75
743.483	22844.77
743.823	22636.86
744.162	22686.8
744.502	22597.32
744.841	22507.83
745.181	22562.74
745.52	22511.67
745.86	22466.02
746.199	22503.76
746.538	22430.54
746.877	22372.69
747.216	22398.45
747.556	22407.26
747.895	22296.08
748.234	22175.86
748.573	22197.55
748.911	22179.7
749.25	22097.67
749.589	22035.3
749.928	22009.08
750.267	22014.96
750.605	21927.5
750.944	21835.08
751.283	21807.96
751.621	21849.54
751.96	21733.61
752.298	21643.67
752.636	21800.05
752.975	21602.99
753.313	21556.89
753.651	21666.27
753.989	21533.39
