Data from plate_porcelain_FLMS001491_097.txt Node
Date: Tue Feb 07 11:20:13 GMT 2017
User: dcchb
Spectrometer: FLMS00149
Trigger mode: 0
Integration Time (sec): 2.000000E-2
Scans to average: 10
Electric dark correction enabled: true
Nonlinearity correction enabled: false
Boxcar width: 0
XAxis mode: Wavelengths
Number of Pixels in Spectrum: 2048
>>>>>Begin Spectral Data<<<<<
341.393	-6.95
341.776	-6.95
342.16	-6.95
342.543	-65.7
342.927	-84.01
343.31	-70.9
343.693	-84.01
344.077	-66.61
344.46	-60.96
344.843	-37.68
345.226	-22.09
345.61	-35.2
345.993	-23.9
346.376	0.28
346.759	0.96
347.142	28.08
347.525	26.95
347.908	60.85
348.291	77.12
348.674	89.09
349.057	118.02
349.44	134.06
349.823	129.09
350.206	170.9
350.588	235.98
350.971	263.78
351.354	252.71
351.737	260.16
352.119	286.15
352.502	289.77
352.884	322.53
353.267	325.47
353.65	326.38
354.032	347.84
354.414	332.7
354.797	360.72
355.179	360.05
355.562	374.51
355.944	375.41
356.326	387.39
356.709	381.52
357.091	386.49
357.473	408.63
357.855	390.78
358.238	401.85
358.62	414.28
359.002	419.03
359.384	403.89
359.766	407.05
360.148	405.47
360.53	396.88
360.912	413.83
361.294	412.48
361.676	398.01
362.057	410.67
362.439	402.08
362.821	409.76
363.203	386.26
363.584	389.88
363.966	408.63
364.348	408.18
364.729	394.17
365.111	382.87
365.493	409.09
365.874	399.82
366.256	391.91
366.637	405.24
367.019	383.32
367.4	407.28
367.781	411.35
368.163	406.6
368.544	410.22
368.925	400.5
369.306	413.38
369.688	413.15
370.069	411.8
370.45	412.02
370.831	450.89
371.212	398.46
371.593	426.03
371.974	437.79
372.355	430.33
372.736	454.28
373.117	449.31
373.498	433.27
373.879	424.68
374.26	428.97
374.641	428.75
375.021	428.07
375.402	460.16
375.783	473.94
376.163	484.11
376.544	468.29
376.925	479.59
377.305	490.21
377.686	463.1
378.066	475.98
378.447	490.21
378.827	482.08
379.208	501.74
379.588	473.26
379.968	494.28
380.349	505.13
380.729	521.62
381.109	509.87
381.489	516.2
381.87	515.75
382.25	514.39
382.63	555.75
383.01	551.68
383.39	537.9
383.77	550.78
384.15	538.57
384.53	556.65
384.91	555.75
385.29	570.89
385.67	556.43
386.049	583.09
386.429	567.95
386.809	589.65
387.189	601.4
387.568	607.27
387.948	610.66
388.328	622.19
388.707	603.88
389.087	620.83
389.466	631
389.846	656.31
390.225	664.67
390.605	674.62
390.984	655.41
391.363	670.77
391.743	671.9
392.122	694.95
392.501	701.28
392.881	698.34
393.26	717.1
393.639	720.04
394.018	740.38
394.397	748.96
394.776	753.93
395.155	764.78
395.534	734.05
395.913	768.62
396.292	784.22
396.671	793.93
397.05	806.81
397.429	780.6
397.808	802.3
398.186	796.19
398.565	822.86
398.944	835.74
399.323	822.86
399.701	835.74
400.08	850.43
400.458	855.63
400.837	897.66
401.215	890.88
401.594	904.21
401.972	894.04
402.351	915.96
402.729	931.11
403.107	945.34
403.486	950.31
403.864	928.62
404.242	964.1
404.62	985.57
404.999	982.63
405.377	1002.06
405.755	1047.49
406.133	1011.1
406.511	1049.97
406.889	1030.09
407.267	1078.22
407.645	1091.33
408.023	1120.03
408.401	1105.56
408.779	1136.75
409.156	1143.3
409.534	1185.56
409.912	1184.21
410.29	1206.13
410.667	1207.26
411.045	1220.82
411.422	1247.48
411.8	1261.27
412.178	1289.97
412.555	1311.66
412.933	1310.53
413.31	1328.84
413.687	1339
414.065	1382.84
414.442	1367.03
414.819	1416.74
415.197	1391.66
415.574	1445.89
415.951	1444.99
416.328	1467.36
416.705	1475.72
417.082	1471.66
417.46	1506.01
417.837	1523.86
418.214	1535.61
418.591	1546
418.967	1564.99
419.344	1596.17
419.721	1598.66
420.098	1632.56
420.475	1642.73
420.852	1646.34
421.228	1687.47
421.605	1738.09
421.982	1721.14
422.358	1733.12
422.735	1773.57
423.111	1754.36
423.488	1813.79
423.864	1805.21
424.241	1877.97
424.617	1858.09
424.994	1850.18
425.37	1885.88
425.746	1932.66
426.123	1948.03
426.499	1960.68
426.875	1978.31
427.251	2061.25
427.627	2056.73
428.003	2070.96
428.379	2099.89
428.756	2132.2
429.132	2160
429.507	2205.65
429.883	2253.78
430.259	2281.13
430.635	2270.05
431.011	2281.58
431.387	2364.74
431.763	2416.72
432.138	2398.86
432.514	2457.39
432.89	2460.78
433.265	2517.05
433.641	2546.88
434.016	2596.37
434.392	2610.16
434.767	2721.34
435.143	2683.6
435.518	2729.48
435.894	2754.79
436.269	2782.13
436.644	2811.28
437.02	2850.83
437.395	2852.64
437.77	2896.48
438.145	2929.47
438.52	3016.7
438.895	3060.32
439.271	3081.56
439.646	3107.09
440.021	3174.66
440.395	3098.73
440.77	3205.17
441.145	3205.4
441.52	3226.19
441.895	3284.26
442.27	3267.09
442.645	3328.1
443.019	3348.89
443.394	3329.01
443.769	3358.84
444.143	3345.73
444.518	3450.14
444.892	3451.94
445.267	3455.33
445.641	3515.22
446.016	3531.26
446.39	3571.26
446.764	3552.73
447.139	3584.6
447.513	3651.94
447.887	3686.97
448.262	3695.1
448.636	3728.55
449.01	3729.9
449.384	3806.74
449.758	3817.58
450.132	3879.5
450.506	3876.11
450.88	3947.52
451.254	3912.95
451.628	3987.07
452.002	4095.54
452.376	4071.59
452.75	4170.57
453.123	4141.64
453.497	4284.69
453.871	4239.27
454.244	4373.73
454.618	4404.01
454.992	4406.95
455.365	4472.03
455.739	4617.34
456.112	4655.08
456.486	4672.02
456.859	4721.29
457.232	4787.5
457.606	4838.57
457.979	4920.38
458.352	4980.49
458.725	5025.91
459.099	5082.86
459.472	5179.36
459.845	5188.62
460.218	5288.05
460.591	5340.26
460.964	5424.32
461.337	5519.23
461.71	5593.13
462.083	5711.77
462.456	5749.06
462.829	5761.03
463.201	5879.45
463.574	5890.52
463.947	5961.71
464.32	6098.2
464.692	6083.06
465.065	6204.87
465.438	6330.96
465.81	6436.95
466.183	6492.09
466.555	6631.07
466.928	6637.62
467.3	6660.22
467.672	6712.42
468.045	6937.95
468.417	6913.1
468.789	6961
469.161	7160.55
469.534	7222.47
469.906	7389.24
470.278	7417.04
470.65	7597.14
471.022	7710.14
471.394	7839.17
471.766	7944.93
472.138	8010.47
472.51	8210.24
472.882	8269.44
473.253	8425.82
473.625	8603.9
473.997	8780.62
474.369	8782.2
474.74	8905.81
475.112	9026.49
475.484	9241.62
475.855	9390.77
476.227	9513.03
476.598	9702.85
476.97	9823.75
477.341	9990.75
477.713	10139.9
478.084	10279.11
478.455	10567.46
478.827	10616.05
479.198	11033.66
479.569	11013.33
479.94	11318.63
480.311	11462.35
480.682	11764.49
481.053	12008.1
481.424	12231.83
481.795	12296.91
482.166	12491.25
482.537	12612.61
482.908	12940.51
483.279	13086.04
483.65	13354.28
484.021	13610.32
484.391	13722.63
484.762	13903.87
485.133	13999.91
485.503	14196.07
485.874	14528.26
486.244	14697.98
486.615	15027.23
486.985	15219.54
487.356	15487.56
487.726	15623.6
488.097	15943.59
488.467	15989.69
488.837	16347.42
489.207	16526.63
489.578	16812.27
489.948	16968.88
490.318	17234.18
490.688	17226.72
491.058	17553.27
491.428	17712.36
491.798	17838.01
492.168	18372.68
492.538	18388.73
492.908	18594.6
493.278	18851.31
493.648	18929.28
494.017	19270.51
494.387	19370.39
494.757	19628.69
495.126	19836.82
495.496	19951.85
495.866	19994.11
496.235	20326.53
496.605	20478.39
496.974	20562.68
497.344	20793.86
497.713	20844.93
498.082	21110.24
498.452	21319.27
498.821	21446.5
499.19	21617.79
499.559	21653.05
499.928	22023.43
500.298	22043.54
500.667	22321.28
501.036	22337.77
501.405	22627.94
501.774	22622.06
502.143	22871.32
502.512	22946.8
502.88	23165.55
503.249	23143.18
503.618	23435.37
503.987	23599.44
504.356	23722.82
504.724	23848.69
505.093	24040.78
505.462	24141.57
505.83	24308.34
506.199	24550.82
506.567	24898.38
506.936	24716.02
507.304	25183.8
507.672	25258.15
508.041	25442.55
508.409	25570.23
508.777	25867.4
509.145	25974.51
509.514	26031.24
509.882	26294.96
510.25	26352.36
510.618	26696.3
510.986	26715.29
511.354	27025.79
511.722	27246.57
512.09	27416.96
512.458	27401.37
512.826	27765.65
513.193	28003.39
513.561	28083.84
513.929	28359.76
514.297	28538.52
514.664	28741.9
515.032	28958.62
515.4	29219.63
515.767	29285.39
516.135	29496.23
516.502	29374.43
516.869	29882.43
517.237	30130.11
517.604	30103.9
517.972	30449.65
518.339	30732.13
518.706	30839.47
519.073	31013.25
519.44	31285.34
519.808	31599.68
520.175	31513.8
520.542	32161.24
520.909	32278.53
521.276	32251.41
521.643	32789.02
522.009	32818.18
522.376	33090.03
522.743	33398.27
523.11	33720.53
523.477	34030.12
523.843	34181.3
524.21	34535.19
524.577	34694.74
524.943	34938.57
525.31	35059.93
525.676	35450.65
526.043	35634.15
526.409	35879.11
526.776	36289.72
527.142	36405.65
527.508	36766.77
527.874	37010.38
528.241	37306.65
528.607	37357.04
528.973	37727.2
529.339	37774.66
529.705	38109.11
530.071	38419.61
530.437	38488.54
530.803	38679.04
531.169	39094.62
531.535	39045.13
531.901	39133.49
532.267	39246.93
532.632	39638.79
532.998	39784.32
533.364	40058.89
533.73	40285.1
534.095	40542.95
534.461	40712.21
534.826	41044.4
535.192	41092.99
535.557	41409.36
535.923	41318.29
536.288	41472.86
536.653	41807.54
537.019	41685.06
537.384	41989.01
537.749	42058.39
538.114	42184.48
538.479	42272.39
538.845	42499.5
539.21	42536.79
539.575	42698.14
539.94	42901.08
540.305	43219.94
540.67	43173.16
541.034	43229.88
541.399	43584
541.764	43699.92
542.129	43667.16
542.494	44057.2
542.858	44152.79
543.223	44223.75
543.587	44541.26
543.952	44567.7
544.316	44574.25
544.681	44786
545.045	44946.22
545.41	45141.69
545.774	45167.46
546.138	45265.98
546.503	45387.11
546.867	45399.31
547.231	45766.08
547.595	45909.58
547.959	45898.06
548.324	46030.94
548.688	46108
549.052	46352.74
549.416	46428.21
549.779	46644.25
550.143	46708.43
550.507	47024.58
550.871	47063.9
551.235	47067.29
551.599	47418.7
551.962	47498.24
552.326	47501.18
552.689	47892.58
553.053	47742.98
553.417	47993.82
553.78	48253.93
554.143	48142.52
554.507	48498.44
554.87	48554.94
555.234	48960.58
555.597	48750.64
555.96	48998.99
556.323	49197.18
556.686	49192.21
557.05	49426.33
557.413	49614.35
557.776	49685.53
558.139	49971.4
558.502	50048.01
558.865	50115.8
559.228	50285.97
559.59	50482.12
559.953	50600.53
560.316	50972.05
560.679	50856.12
561.041	51175.21
561.404	51205.72
561.767	51504.69
562.129	51329.1
562.492	51827.85
562.854	51738.13
563.217	51883.21
563.579	51986.26
563.941	52292.47
564.304	52403.65
564.666	52561.61
565.028	52649.52
565.39	52732
565.753	52964.54
566.115	53074.59
566.477	53157.53
566.839	53273.01
567.201	53372.44
567.563	53408.82
567.925	53622.6
568.287	53678.42
568.648	53669.15
569.01	53867.57
569.372	54075.7
569.734	54009.26
570.095	54273.88
570.457	54360.66
570.819	54383.71
571.18	54454.9
571.542	54593.88
571.903	54636.81
572.265	54846.07
572.626	54846.75
572.987	54897.37
573.349	54988.44
573.71	54994.32
574.071	55200.86
574.432	55284.48
574.794	55474.3
575.155	55366.06
575.516	55351.6
575.877	55550.23
576.238	55590.69
576.599	55682.89
576.96	55608.31
577.32	55682.43
577.681	55769.89
578.042	55884.01
578.403	55919.49
578.763	56028.87
579.124	56061.41
579.485	56014.63
579.845	56153.83
580.206	56085.81
580.566	56136.43
580.927	56137.79
581.287	56230.22
581.648	56134.63
582.008	56305.92
582.368	56204
582.728	56278.58
583.089	56266.6
583.449	56277.9
583.809	56312.47
584.169	56353.15
584.529	56351.8
584.889	56512.02
585.249	56310.21
585.609	56333.94
585.969	56471.57
586.329	56292.81
586.688	56406.48
587.048	56422.53
587.408	56338.01
587.768	56393.15
588.127	56349.08
588.487	56362.42
588.846	56483.09
589.206	56366.03
589.565	56375.3
589.925	56542.98
590.284	56456.2
590.643	56486.71
591.003	56490.55
591.362	56586.59
591.721	56495.52
592.08	56620.04
592.44	56601.51
592.799	56585.69
593.158	56511.79
593.517	56531.45
593.876	56604.22
594.235	56580.72
594.593	56579.36
594.952	56645.8
595.311	56621.17
595.67	56638.12
596.029	56726.7
596.387	56752.24
596.746	56810.54
597.104	56690.54
597.463	56751.56
597.822	56876.3
598.18	56764.67
598.538	56746.59
598.897	56909.97
599.255	56727.15
599.613	57051.66
599.972	56863.65
600.33	56960.14
600.688	56868.17
601.046	57004.66
601.404	57111.1
601.762	56994.49
602.12	57080.59
602.478	57123.75
602.836	57192.9
603.194	57043.98
603.552	57111.1
603.91	57002.63
604.268	57203.3
604.625	57090.08
604.983	57243.52
605.341	57131.21
605.698	57229.29
606.056	57267.03
606.413	57275.16
606.771	57372.11
607.128	57371.88
607.485	57281.04
607.843	57265.44
608.2	57448.94
608.557	57514.25
608.914	57464.99
609.272	57557.64
609.629	57572.33
609.986	57654.81
610.343	57519.22
610.7	57728.03
611.057	57756.05
611.414	57683.74
611.771	57720.8
612.127	57814.58
612.484	57834.92
612.841	57897.97
613.198	57786.56
613.554	57833.34
613.911	57949.49
614.267	57922.6
614.624	57933.22
614.98	57947.69
615.337	58088.7
615.693	58088.7
616.05	58005.31
616.406	58128.92
616.762	58051.41
617.118	58091.64
617.475	58111.52
617.831	58160.11
618.187	58056.61
618.543	58110.62
618.899	58302.93
619.255	58276.26
619.611	58238.75
619.967	58290.05
620.323	58371.86
620.678	58217.06
621.034	58222.48
621.39	58218.19
621.746	58221.58
622.101	58443.49
622.457	58315.13
622.812	58328.69
623.168	58416.6
623.523	58419.54
623.879	58425.19
624.234	58226.55
624.589	58403.04
624.945	58395.58
625.3	58419.31
625.655	58364.17
626.01	58349.71
626.365	58425.86
626.72	58417.73
627.075	58390.16
627.43	58365.08
627.785	58292.31
628.14	58311.74
628.495	58306.55
628.85	58259.32
629.205	58194.01
629.559	58353.1
629.914	58184.97
630.269	58255.7
630.623	58230.62
630.978	58125.53
631.332	58279.88
631.687	58242.59
632.041	58161.24
632.396	58149.04
632.75	58061.81
633.104	58129.6
633.459	57926.89
633.813	57925.77
634.167	57936.16
634.521	57953.33
634.875	57935.71
635.229	57930.74
635.583	57760.8
635.937	57792.44
636.291	57779.33
636.645	57767.35
636.999	57654.13
637.352	57758.76
637.706	57589.95
638.06	57679.9
638.413	57632.67
638.767	57578.66
639.121	57662.72
639.474	57445.33
639.828	57479.9
640.181	57500.92
640.534	57474.93
640.888	57418.43
641.241	57237.42
641.594	57348.83
641.947	57395.84
642.301	57338.21
642.654	57276.06
643.007	57310.87
643.36	57221.38
643.713	57201.49
644.066	57285.1
644.419	57135.73
644.771	56913.14
645.124	56716.76
645.477	56659.36
645.83	56461.17
646.182	56307.05
646.535	56306.6
646.888	56304.34
647.24	56132.82
647.593	56323.55
647.945	56174.62
648.298	56092.14
648.65	55986.61
649.002	55973.05
649.355	56098.24
649.707	56056.66
650.059	56204.45
650.411	56476.99
650.763	56429.08
651.115	56637.21
651.467	56519.02
651.819	56576.42
652.171	56436.54
652.523	56429.99
652.875	56418.01
653.227	56217.11
653.578	56484.22
653.93	56338.01
654.282	56261.18
654.633	56172.82
654.985	56307.73
655.337	56235.41
655.688	56253.27
656.039	56289.42
656.391	56019.83
656.742	56155.19
657.094	56156.77
657.445	56232.02
657.796	56179.6
658.147	56127.62
658.498	56051.24
658.849	56037.91
659.2	55994.29
659.551	56000.62
659.902	56116.32
660.253	56066.15
660.604	56049.2
660.955	55875.65
661.306	55970.34
661.656	56023.22
662.007	55947.96
662.358	55900.28
662.708	55931.02
663.059	55926.5
663.409	55640.4
663.76	55913.61
664.11	55870.9
664.461	55842.88
664.811	55799.72
665.161	55835.42
665.511	55742.09
665.862	55792.49
666.212	55916.1
666.562	55843.11
666.912	55761.98
667.262	55710.91
667.612	55717.01
667.962	55755.65
668.312	55765.37
668.662	55836.78
669.011	55671.14
669.361	55630.68
669.711	55653.06
670.06	55644.47
670.41	55559.5
670.76	55538.94
671.109	55593.85
671.459	55566.51
671.808	55545.49
672.157	55611.93
672.507	55378.26
672.856	55543.45
673.205	55495.32
673.554	55586.17
673.904	55384.81
674.253	55529.44
674.602	55404.7
674.951	54985.96
675.3	54911.38
675.649	55327.64
675.998	55316.12
676.346	55291.48
676.695	55419.84
677.044	55186.63
677.393	55258.72
677.741	55303.24
678.09	55241.54
678.438	55199.06
678.787	55194.76
679.135	55235.21
679.484	55027.76
679.832	55173.97
680.181	55001.55
680.529	55013.3
680.877	55042
681.225	54899.63
681.573	55062.79
681.922	54875
682.27	54727.66
682.618	54766.53
682.966	54691.05
683.314	54704.15
683.661	54616.47
684.009	54527.21
684.357	54433.2
684.705	54379.19
685.053	54462.81
685.4	54331.96
685.748	54282.02
686.095	54260.1
686.443	54050.39
686.79	54044.51
687.138	54025.98
687.485	54042.25
687.832	53945.98
688.18	54011.07
688.527	53825.31
688.874	53752.77
689.221	53664.63
689.568	53601.36
689.915	53584.18
690.262	53614.92
690.609	53464.19
690.956	53308.71
691.303	53354.81
691.65	53100.13
691.997	53169.28
692.344	52989.62
692.69	52966.35
693.037	52990.08
693.383	52696.75
693.73	52866.46
694.077	52664.21
694.423	52609.75
694.769	52469.86
695.116	52499.24
695.462	52395.74
695.808	52323.43
696.155	52383.09
696.501	52097.67
696.847	52130.21
697.193	51807.96
697.539	51970.89
697.885	51819.03
698.231	51733.84
698.577	51704.01
698.923	51720.28
699.269	51464.01
699.614	51227.18
699.96	51212.04
700.306	51243.23
700.651	51107.41
700.997	51033.52
701.342	50854.99
701.688	50891.6
702.033	50671.72
702.379	50679.4
702.724	50580.2
703.069	50624.26
703.415	50323.48
703.76	50354.66
704.105	50248.23
704.45	50104.95
704.795	49791.74
705.14	49878.07
705.485	49891.17
705.83	49632.88
706.175	49714.91
706.52	49635.81
706.865	49521.69
707.209	49447.57
707.554	49364.63
707.899	49445.54
708.243	49236.05
708.588	49201.7
708.932	48780.02
709.277	48956.96
709.621	48977.75
709.966	48665.44
710.31	48736.18
710.654	48196.53
710.998	48463.41
711.342	48459.57
711.687	48364.21
712.031	48208.51
712.375	47968.51
712.719	48139.13
713.063	47897.33
713.407	48026.82
713.75	47785.24
714.094	47834.96
714.438	47637.45
714.782	47693.72
715.125	47531.24
715.469	47531.46
715.812	47382.54
716.156	47146.84
716.499	47065.94
716.843	47088.54
717.186	46943.91
717.53	47185.26
717.873	47027.07
718.216	46896.9
718.559	46769.22
718.902	46616.01
719.246	46700.07
719.589	46485.84
719.932	46244.26
720.275	46356.58
720.617	46298.5
720.96	46210.59
721.303	46290.59
721.646	46178.5
721.989	45878.62
722.331	46013.31
722.674	45962.46
723.016	45979.41
723.359	45891.28
723.701	45777.84
724.044	45604.96
724.386	45248.58
724.729	45637.95
725.071	45488.8
725.413	45472.53
725.755	45403.38
726.097	45074.58
726.439	44894.7
726.782	44971.08
727.124	45120.9
727.465	44872.1
727.807	44853.79
728.149	44759.11
728.491	44686.34
728.833	44657.64
729.175	44676.85
729.516	44539.9
729.858	44516.85
730.199	44538.32
730.541	44298.78
730.882	44257.65
731.224	44359.12
731.565	43994.83
731.906	44028.96
732.248	44195.05
732.589	43981.95
732.93	43738.12
733.271	43813.82
733.612	43834.38
733.953	43932.01
734.294	43728.17
734.635	43530.21
734.976	43662.86
735.317	43339.03
735.658	43372.48
735.999	43257.9
736.339	43201.41
736.68	43357.33
737.021	43130.9
737.361	42944.01
737.702	43148.3
738.042	42872.6
738.383	42925.03
738.723	42918.25
739.063	42788.99
739.404	42763.9
739.744	42695.66
740.084	42332.5
740.424	42648.88
740.764	42524.59
741.104	42549.9
741.444	42281.66
741.784	42064.94
742.124	42138.38
742.464	42017.93
742.804	42032.62
743.143	42041.21
743.483	41921.44
743.823	41678.51
744.162	41770.71
744.502	41887.54
744.841	41705.63
745.181	41723.71
745.52	41605.29
745.86	41667.44
746.199	41377.73
746.538	41318.52
746.877	41457.95
747.216	41339.08
747.556	41182.02
747.895	41152.87
748.234	40932.77
748.573	40927.57
748.911	40889.83
749.25	40789.72
749.589	40478.99
749.928	40608.71
750.267	40719.44
750.605	40423.63
750.944	40392.21
751.283	40361.03
751.621	40480.8
751.96	39934.6
752.298	40184.54
752.636	40293.01
752.975	39994.49
