Data from plate_ceramic_FLMS001491_077.txt Node
Date: Tue Feb 07 11:17:16 GMT 2017
User: dcchb
Spectrometer: FLMS00149
Trigger mode: 0
Integration Time (sec): 2.000000E-2
Scans to average: 10
Electric dark correction enabled: true
Nonlinearity correction enabled: false
Boxcar width: 0
XAxis mode: Wavelengths
Number of Pixels in Spectrum: 2048
>>>>>Begin Spectral Data<<<<<
341.393	-7.39
341.776	-7.39
342.16	-7.39
342.543	-50.1
342.927	-69.98
343.31	-71.11
343.693	-79.7
344.077	-69.76
344.46	-66.59
344.843	-29.31
345.226	-48.06
345.61	-41.28
345.993	-1.74
346.376	-0.61
346.759	-5.13
347.142	12.05
347.525	29.45
347.908	62.22
348.291	104.02
348.674	94.08
349.057	111.48
349.44	138.6
349.823	143.34
350.206	151.93
350.588	216.56
350.971	234.64
351.354	240.06
351.737	253.62
352.119	262.66
352.502	281.19
352.884	274.64
353.267	311.02
353.65	295.43
354.032	312.6
354.414	341.98
354.797	335.66
355.179	330.68
355.562	354.86
355.944	340.85
356.326	350.12
356.709	346.28
357.091	363.68
357.473	360.97
357.855	379.72
358.238	372.72
358.62	358.48
359.002	373.85
359.384	363.68
359.766	357.35
360.148	372.72
360.53	345.15
360.912	378.14
361.294	361.64
361.676	370.46
362.057	367.97
362.439	361.87
362.821	364.81
363.203	366.84
363.584	376.33
363.966	374.3
364.348	383.34
364.729	362.77
365.111	359.16
365.493	364.81
365.874	348.31
366.256	341.98
366.637	354.19
367.019	339.5
367.4	363.22
367.781	360.06
368.163	385.15
368.544	377.01
368.925	352.38
369.306	362.32
369.688	342.66
370.069	374.98
370.45	363.9
370.831	361.19
371.212	363.45
371.593	355.77
371.974	368.2
372.355	367.29
372.736	378.37
373.117	384.47
373.498	374.75
373.879	374.52
374.26	370.91
374.641	360.06
375.021	376.56
375.402	392.38
375.783	390.79
376.163	404.81
376.544	397.57
376.925	433.05
377.305	386.28
377.686	403.22
378.066	388.08
378.447	390.79
378.827	411.81
379.208	410.68
379.588	401.42
379.968	403.9
380.349	421.3
380.729	417.69
381.109	410.68
381.489	439.16
381.87	438.48
382.25	433.51
382.63	428.76
383.01	459.72
383.39	452.04
383.77	448.87
384.15	449.55
384.53	456.1
384.91	445.71
385.29	452.49
385.67	481.19
386.049	460.62
386.429	483.22
386.809	464.47
387.189	489.78
387.568	470.79
387.948	480.96
388.328	497.68
388.707	500.85
389.087	492.94
389.466	490.23
389.846	504.92
390.225	520.51
390.605	523.45
390.984	506.05
391.363	516.44
391.743	529.55
392.122	551.02
392.501	533.84
392.881	558.93
393.26	550.79
393.639	582.65
394.018	571.36
394.397	574.29
394.776	608.19
395.155	594.63
395.534	589.43
395.913	596.67
396.292	590.34
396.671	600.28
397.05	619.26
397.429	614.74
397.808	606.61
398.186	619.94
398.565	604.12
398.944	612.03
399.323	633.27
399.701	632.14
400.08	648.64
400.458	663.1
400.837	670.79
401.215	646.16
401.594	642.77
401.972	694.52
402.351	673.05
402.729	680.5
403.107	727.28
403.486	704.23
403.864	722.76
404.242	718.7
404.62	736.32
404.999	734.29
405.377	749.66
405.755	724.8
406.133	737.45
406.511	743.55
406.889	781.97
407.267	767.73
407.645	790.11
408.023	780.84
408.401	812.93
408.779	812.48
409.156	823.1
409.534	842.08
409.912	857.22
410.29	863.32
410.667	871.46
411.045	879.6
411.422	876.88
411.8	901.52
412.178	914.4
412.555	918.69
412.933	959.82
413.31	963.66
413.687	969.08
414.065	976.32
414.442	980.16
414.819	971.34
415.197	990.78
415.574	1013.6
415.951	1023.09
416.328	1026.03
416.705	1050.21
417.082	1048.63
417.46	1049.53
417.837	1060.38
418.214	1098.12
418.591	1112.58
418.967	1093.6
419.344	1120.95
419.721	1136.54
420.098	1133.15
420.475	1174.05
420.852	1173.37
421.228	1190.32
421.605	1209.76
421.982	1195.52
422.358	1210.43
422.735	1227.61
423.111	1241.85
423.488	1288.85
423.864	1268.96
424.241	1273.26
424.617	1285.69
424.994	1311
425.37	1320.71
425.746	1319.13
426.123	1328.4
426.499	1346.93
426.875	1360.94
427.251	1400.71
427.627	1403.42
428.003	1448.39
428.379	1454.95
428.756	1416.08
429.132	1506.02
429.507	1511.44
429.883	1531.56
430.259	1559.58
430.635	1562.06
431.011	1543.53
431.387	1613.59
431.763	1629.86
432.138	1640.71
432.514	1694.49
432.89	1708.27
433.265	1713.25
433.641	1750.31
434.016	1767.48
434.392	1766.8
434.767	1799.12
435.143	1823.3
435.518	1828.05
435.894	1837.99
436.269	1888.83
436.644	1878.21
437.02	1926.57
437.395	1909.62
437.77	1950.98
438.145	2031.66
438.52	1963.41
438.895	2031.88
439.271	2025.78
439.646	2077.3
440.021	2104.65
440.395	2110.52
440.77	2121.37
441.145	2100.35
441.52	2171.76
441.895	2110.3
442.27	2170.64
442.645	2180.8
443.019	2270.07
443.394	2219.67
443.769	2211.99
444.143	2220.8
444.518	2245.21
444.892	2242.5
445.267	2304.42
445.641	2313.91
446.016	2319.33
446.39	2346.68
446.764	2346
447.139	2359.56
447.513	2418.76
447.887	2410.63
448.262	2399.78
448.636	2395.04
449.01	2479.55
449.384	2508.48
449.758	2515.26
450.132	2579.44
450.506	2518.87
450.88	2561.59
451.254	2553.22
451.628	2601.58
452.002	2631.19
452.376	2618.98
452.75	2673.45
453.123	2723.61
453.497	2728.81
453.871	2775.36
454.244	2827.34
454.618	2876.83
454.992	2917.73
455.365	2895.59
455.739	2979.43
456.112	3004.06
456.486	3013.55
456.859	3054
457.232	3120.44
457.606	3101.91
457.979	3186.2
458.352	3210.16
458.725	3255.35
459.099	3283.6
459.472	3355.24
459.845	3389.59
460.218	3423.03
460.591	3459.87
460.964	3470.04
461.337	3566.08
461.71	3621.9
462.083	3684.95
462.456	3681.78
462.829	3708
463.201	3787.32
463.574	3781.89
463.947	3815.34
464.32	3926.07
464.692	3947.31
465.065	3962.23
465.438	4023.92
465.81	4116.57
466.183	4113.41
466.555	4224.14
466.928	4262.11
467.3	4307.75
467.672	4363.12
468.045	4485.6
468.417	4470.01
468.789	4527.86
469.161	4553.4
469.534	4646.28
469.906	4781.41
470.278	4765.6
470.65	4838.14
471.022	4917.46
471.394	4988.87
471.766	4998.36
472.138	5127.62
472.51	5208.3
472.882	5303.66
473.253	5347.05
473.625	5450.77
473.997	5581.84
474.369	5587.27
474.74	5663.88
475.112	5742.97
475.484	5859.13
475.855	5990.42
476.227	6027.93
476.598	6207.14
476.97	6257.53
477.341	6350.41
477.713	6443.52
478.084	6494.14
478.455	6693.23
478.827	6770.06
479.198	6975.93
479.569	6993.11
479.94	7137.06
480.311	7266.55
480.682	7432.64
481.053	7499.53
481.424	7704.73
481.795	7797.38
482.166	7821.33
482.537	8016.13
482.908	8136.81
483.279	8293.64
483.65	8408.44
484.021	8605.49
484.391	8669.67
484.762	8847.97
485.133	8871.02
485.503	8958.48
485.874	9160.73
486.244	9179.49
486.615	9374.74
486.985	9572.7
487.356	9656.54
487.726	9767.5
488.097	10045.23
488.467	10043.42
488.837	10233.47
489.207	10356.18
489.578	10562.05
489.948	10664.87
490.318	10762.05
490.688	10880.01
491.058	10983.51
491.428	11082.04
491.798	11297.17
492.168	11497.85
492.538	11503.27
492.908	11739.42
493.278	11951.39
493.648	11839.53
494.017	12047.44
494.387	12057.15
494.757	12179.41
495.126	12392.97
495.496	12416.92
495.866	12536.46
496.235	12725.16
496.605	12832.95
496.974	12886.29
497.344	13047.19
497.713	13096.68
498.082	13313.62
498.452	13305.71
498.821	13374.18
499.19	13459.83
499.559	13598.58
499.928	13751.8
500.298	13802.87
500.667	13953.83
501.036	13844.68
501.405	14082.86
501.774	14159.02
502.143	14338.22
502.512	14333.03
502.88	14498.9
503.249	14597.2
503.618	14700.02
503.987	14704.99
504.356	14892.56
504.724	14881.94
505.093	15015.04
505.462	15076.28
505.83	15262.95
506.199	15370.97
506.567	15524.86
506.936	15508.14
507.304	15710.84
507.672	15805.08
508.041	15864.06
508.409	15956.49
508.777	16180.66
509.145	16306.53
509.514	16297.5
509.882	16370.49
510.25	16426.53
510.618	16599.41
510.986	16757.37
511.354	16874.88
511.722	16965.27
512.09	17132.05
512.458	17243.91
512.826	17402.1
513.193	17434.41
513.561	17519.61
513.929	17671.7
514.297	17909.2
514.664	18019.03
515.032	18075.53
515.4	18138.12
515.767	18351.45
516.135	18462.41
516.502	18379.25
516.869	18799.8
517.237	18862.63
517.604	18815.85
517.972	19141.94
518.339	19248.38
518.706	19227.81
519.073	19370.18
519.44	19569.05
519.808	19743.28
520.175	19741.25
520.542	20013.1
520.909	20150.5
521.276	20333.32
521.643	20507.78
522.009	20554.56
522.376	20737.6
522.743	20811.95
523.11	21059.86
523.477	21162.45
523.843	21242.45
524.21	21635.43
524.577	21675.43
524.943	21919.27
525.31	21928.08
525.676	22237
526.043	22382.53
526.409	22432.02
526.776	22691.9
527.142	22857.1
527.508	23028.62
527.874	23139.35
528.241	23325.33
528.607	23384.31
528.973	23596.51
529.339	23607.81
529.705	23926.67
530.071	24030.4
530.437	24096.61
530.803	24308.81
531.169	24490.5
531.535	24448.92
531.901	24634.45
532.267	24813.43
532.632	24975.01
532.998	25056.59
533.364	25174.1
533.73	25293.87
534.095	25536.8
534.461	25613.18
534.826	25630.13
535.192	25781.31
535.557	26002.32
535.923	26014.08
536.288	26127.52
536.653	26272.6
537.019	26232.15
537.384	26416.78
537.749	26517.57
538.114	26719.59
538.479	26724.34
538.845	26755.98
539.21	26771.57
539.575	27026.25
539.94	26973.82
540.305	27164.1
540.67	27168.4
541.034	27354.61
541.399	27587.37
541.764	27528.39
542.129	27654.03
542.494	27717.31
542.858	27885.67
543.223	27935.83
543.587	28217.86
543.952	28091.08
544.316	28192.1
544.681	28168.6
545.045	28359.1
545.41	28652.2
545.774	28598.41
546.138	28638.87
546.503	28801.12
546.867	28726.09
547.231	29005.18
547.595	29097.84
547.959	29048.57
548.324	29184.84
548.688	29422.12
549.052	29622.34
549.416	29712.28
549.779	29703.7
550.143	29893.07
550.507	30027.3
550.871	30101.43
551.235	30044.93
551.599	30302.1
551.962	30229.33
552.326	30423
552.689	30571.7
553.053	30699.6
553.417	30626.38
553.78	31076.54
554.143	31054.85
554.507	31151.79
554.87	31181.62
555.234	31569.86
555.597	31461.39
555.96	31558.56
556.323	31832
556.686	31786.35
557.05	32020.47
557.413	32154.48
557.776	32240.8
558.139	32556.28
558.502	32708.14
558.865	32648.93
559.228	32945.42
559.59	33052.53
559.953	33013.21
560.316	33394.9
560.679	33509.7
561.041	33716.25
561.404	33813.64
561.767	33915.34
562.129	33943.81
562.492	34289.34
562.854	34325.5
563.217	34376.12
563.579	34626.28
563.941	34816.1
564.304	35087.74
564.666	35180.39
565.028	35226.49
565.39	35467.61
565.753	35519.14
566.115	35714.39
566.477	35725.91
566.839	35901.73
567.201	36219.91
567.563	36197.76
567.925	36490.18
568.287	36555.04
568.648	36501.26
569.01	36686.56
569.372	36955.03
569.734	36967.69
570.095	37263.27
570.457	37365.42
570.819	37374.46
571.18	37426.88
571.542	37791.62
571.903	37660.1
572.265	37980.99
572.626	37968.56
572.987	38175.56
573.349	38178.05
573.71	38404.94
574.071	38478.61
574.432	38537.81
574.794	38815.32
575.155	38909.33
575.516	38715.66
575.877	38864.36
576.238	39005.6
576.599	39077.91
576.96	39164.24
577.32	39224.12
577.681	39437
578.042	39605.13
578.403	39463.21
578.763	39605.13
579.124	39653.04
579.485	39867.72
579.845	39916.08
580.206	39853.26
580.566	39763.09
580.927	39787.05
581.287	39880.38
581.648	39860.27
582.008	40092.12
582.368	39959.47
582.728	40017.32
583.089	40050.77
583.449	40063.2
583.809	40209.18
584.169	40189.52
584.529	40032.46
584.889	40482.62
585.249	40254.38
585.609	40121.5
585.969	40341.16
586.329	40257.77
586.688	40352.23
587.048	40313.36
587.408	40256.41
587.768	40259.58
588.127	40108.62
588.487	40192.91
588.846	40601.04
589.206	40384.32
589.565	40324.66
589.925	40522.62
590.284	40394.26
590.643	40380.48
591.003	40396.3
591.362	40563.52
591.721	40575.27
592.08	40584.09
592.44	40703.41
592.799	40693.46
593.158	40573.47
593.517	40585.44
593.876	40740.92
594.235	40669.74
594.593	40559.91
594.952	40735.72
595.311	40614.82
595.67	40801.94
596.029	41102.04
596.387	40944.53
596.746	41048.03
597.104	40812.78
597.463	40838.77
597.822	41082.38
598.18	40827.25
598.538	40907.47
598.897	41264.52
599.255	40946.79
599.613	41502.03
599.972	41117.63
600.33	41283.05
600.688	41216.16
601.046	41270.85
601.404	41370.06
601.762	41374.12
602.12	41486.21
602.478	41534.8
602.836	41473.78
603.194	41306.1
603.552	41569.6
603.91	41280.79
604.268	41579.54
604.625	41372.09
604.983	41512.43
605.341	41492.54
605.698	41651.63
606.056	41708.58
606.413	41794
606.771	41916.03
607.128	41963.71
607.485	41687.11
607.843	41918.74
608.2	42044.39
608.557	42147.66
608.914	41962.13
609.272	42084.39
609.629	42323.48
609.986	42464.49
610.343	42162.58
610.7	42455
611.057	42521.44
611.414	42392.4
611.771	42507.65
612.127	42462.91
612.484	42523.02
612.841	42741.55
613.198	42532.29
613.554	42638.95
613.911	42926.63
614.267	42736.8
614.624	42714.2
614.98	42885.72
615.337	42936.34
615.693	43096.56
616.05	42964.82
616.406	43075.32
616.762	43021.54
617.118	43085.04
617.475	43061.31
617.831	43109.9
618.187	43285.94
618.543	43169.78
618.899	43287.29
619.255	43076.9
619.611	43166.85
619.967	43371.13
620.323	43505.59
620.678	43291.14
621.034	43241.87
621.39	43176.79
621.746	43345.82
622.101	43643.22
622.457	43282.55
622.812	43447.52
623.168	43475.54
623.523	43570.22
623.879	43533.16
624.234	43309.21
624.589	43459.49
624.945	43652.93
625.3	43551.24
625.655	43442.09
626.01	43487.74
626.365	43593.27
626.72	43398.7
627.075	43532.49
627.43	43437.57
627.785	43450.23
628.14	43487.74
628.495	43428.31
628.85	43450.91
629.205	43288.88
629.559	43463.56
629.914	43250.23
630.269	43268.76
630.623	43213.17
630.978	43217.69
631.332	43299.72
631.687	43412.71
632.041	43076.68
632.396	43203.68
632.75	42975.89
633.104	43092.72
633.459	42777.25
633.813	42825.16
634.167	42706.07
634.521	42733.64
634.875	42955.55
635.229	42878.94
635.583	42579.52
635.937	42554.21
636.291	42547.2
636.645	42579.29
636.999	42456.58
637.352	42634.2
637.706	42386.98
638.06	42456.81
638.413	42389.24
638.767	42244.61
639.121	42307.66
639.474	42034.67
639.828	41998.29
640.181	42049.13
640.534	42064.95
640.888	42092.07
641.241	41833.55
641.594	41895.01
641.947	42134.1
642.301	41997.61
642.654	41810.04
643.007	41857.95
643.36	41765.07
643.713	41716.26
644.066	41823.38
644.419	41448.92
644.771	41236.73
645.124	40808.49
645.477	40817.53
645.83	40551.77
646.182	40414.6
646.535	40239.24
646.888	40568.27
647.24	40275.62
647.593	40415.05
647.945	40270.42
648.298	40119.47
648.65	40068.17
649.002	39794.96
649.355	40067.49
649.707	39948.62
650.059	39927.38
650.411	40589.06
650.763	40574.15
651.115	41038.54
651.467	40883.06
651.819	40812.56
652.171	40871.76
652.523	40579.57
652.875	40593.81
653.227	40517.65
653.578	40756.97
653.93	40689.17
654.282	40453.7
654.633	40391.78
654.985	40402.62
655.337	40544.77
655.688	40402.4
656.039	40634.48
656.391	40174.38
656.742	40260.93
657.094	40197.66
657.445	40441.49
657.796	40285.79
658.147	40249.63
658.498	40044.89
658.849	40151.33
659.2	40076.3
659.551	40063.2
659.902	40042.18
660.253	40050.99
660.604	40062.07
660.955	39844.9
661.306	40115.17
661.656	40022.3
662.007	40024.33
662.358	40082.41
662.708	40038.57
663.059	39821.85
663.409	39773.04
663.76	39964.9
664.11	39824.11
664.461	39883.99
664.811	39797.89
665.161	39805.35
665.511	39895.29
665.862	39909.76
666.212	39844.45
666.562	39871.11
666.912	39919.02
667.262	39676.32
667.612	39592.25
667.962	39667.95
668.312	39508.64
668.662	39768.06
669.011	39469.99
669.361	39511.12
669.711	39553.15
670.06	39486.94
670.41	39456.43
670.76	39364.23
671.109	39597.67
671.459	39262.09
671.808	39288.3
672.157	39396.1
672.507	39084.24
672.856	39194.07
673.205	39193.84
673.554	39232.03
673.904	39149.32
674.253	39409.2
674.602	39189.1
674.951	38816.45
675.3	38641.09
675.649	39025.94
675.998	39145.93
676.346	39155.88
676.695	39300.51
677.044	38798.6
677.393	39019.61
677.741	39063
678.09	38772.16
678.438	38735.1
678.787	38863.91
679.135	38899.61
679.484	38616.23
679.832	38804.25
680.181	38533.29
680.529	38554.99
680.877	38445.61
681.225	38401.55
681.573	38623.01
681.922	38354.77
682.27	38211.72
682.618	38267.54
682.966	38274.77
683.314	38211.72
683.661	38235.68
684.009	38049.47
684.357	37868.45
684.705	37774.44
685.053	37954.78
685.4	37737.38
685.748	37510.95
686.095	37767.21
686.443	37651.96
686.79	37486.32
687.138	37531.06
687.485	37452.87
687.832	37331.07
688.18	37322.03
688.527	37245.19
688.874	37232.99
689.221	36961.81
689.568	36967.91
689.915	36866.22
690.262	36889.5
690.609	36791.65
690.956	36622.61
691.303	36574.93
691.65	36461.03
691.997	36450.19
692.344	36353.92
692.69	36421.26
693.037	36383.07
693.383	35985.34
693.73	36156.18
694.077	35792.35
694.423	35910.99
694.769	35837.32
695.116	35758.68
695.462	35649.3
695.808	35408.41
696.155	35521.85
696.501	35207.51
696.847	35238.24
697.193	34995.76
697.539	35122.76
697.885	34839.15
698.231	34738.37
698.577	34770.91
698.923	34810.68
699.269	34528.88
699.614	34420.41
699.96	34326.63
700.306	34388.54
700.651	34267.19
700.997	34070.59
701.342	34126.18
701.688	33974.09
702.033	33761.89
702.379	33964.83
702.724	33670.15
703.069	33809.13
703.415	33409.59
703.76	33517.61
704.105	33297.73
704.45	33373.2
704.795	33099.54
705.14	32945.19
705.485	32921.01
705.83	32851.18
706.175	32909.49
706.52	32835.59
706.865	32674.47
707.209	32736.84
707.554	32493
707.899	32726.44
708.243	32527.35
708.588	32405.09
708.932	32215.72
709.277	32217.98
709.621	32146.8
709.966	32008.95
710.31	32134.37
710.654	31788.61
710.998	31888.05
711.342	31747.94
711.687	31653.93
712.031	31554.5
712.375	31458
712.719	31569.64
713.063	31455.97
713.407	31444.67
713.75	31298
714.094	31303.43
714.438	31256.88
714.782	31264.56
715.125	31094.62
715.469	31225.69
715.812	30932.59
716.156	30836.77
716.499	30865.93
716.843	30902.31
717.186	30618.02
717.53	30877.45
717.873	30799.49
718.216	30696.21
718.559	30453.06
718.902	30483.11
719.246	30522.88
719.589	30318.14
719.932	30236.56
720.275	30024.14
720.617	30051.48
720.96	30053.07
721.303	29963.8
721.646	30052.61
721.989	29788.21
722.331	29872.51
722.674	29852.62
723.016	29737.37
723.359	29738.95
723.701	29743.02
724.044	29466.19
724.386	29457.15
724.729	29565.17
725.071	29437.49
725.413	29331.28
725.755	29370.37
726.097	29296.25
726.439	29078.85
726.782	29221
727.124	29214.67
727.465	29097.61
727.807	29025.75
728.149	28946.43
728.491	28964.05
728.833	28979.65
729.175	28916.37
729.516	28739.88
729.858	28794.57
730.199	28799.77
730.541	28695.36
730.882	28669.15
731.224	28701.69
731.565	28488.14
731.906	28516.38
732.248	28493.33
732.589	28340.12
732.93	28324.75
733.271	28356.61
733.612	28381.7
733.953	28162.95
734.294	28193.68
734.635	28169.73
734.976	28240.68
735.317	28044.76
735.658	28143.96
735.999	27962.73
736.339	27971.54
736.68	28083.4
737.021	27954.82
737.361	27858.77
737.702	27983.29
738.042	27771.09
738.383	27641.83
738.723	27803.86
739.063	27560.93
739.404	27761.37
739.744	27496.07
740.084	27439.8
740.424	27502.4
740.764	27447.48
741.104	27514.15
741.444	27312.12
741.784	27323.19
742.124	27372.23
742.464	27178.79
742.804	27087.27
743.143	27016.99
743.483	27125.46
743.823	26980.83
744.162	27048.17
744.502	27053.82
744.841	26869.42
745.181	27025.8
745.52	26750.1
745.86	26852.02
746.199	26753.04
746.538	26685.24
746.877	26767.73
747.216	26731.35
747.556	26497.68
747.895	26560.5
748.234	26465.36
748.573	26345.14
748.911	26357.57
749.25	26518.02
749.589	26295.2
749.928	26257.23
750.267	26175.88
750.605	26007.3
750.944	26071.02
751.283	26045.94
751.621	25981.99
751.96	25835.32
752.298	25916.68
752.636	25798.71
752.975	25818.37
753.313	25520.3
753.651	25791.93
753.989	25521.66
754.327	25539.74
