Data from plate_porcelain_FLMS001491_050.txt Node
Date: Tue Feb 07 11:19:23 GMT 2017
User: dcchb
Spectrometer: FLMS00149
Trigger mode: 0
Integration Time (sec): 2.000000E-2
Scans to average: 10
Electric dark correction enabled: true
Nonlinearity correction enabled: false
Boxcar width: 0
XAxis mode: Wavelengths
Number of Pixels in Spectrum: 2048
>>>>>Begin Spectral Data<<<<<
341.393	-14.05
341.776	-14.05
342.16	-14.05
342.543	-34.62
342.927	-68.97
343.31	-76.42
343.693	-73.71
344.077	-52.47
344.46	-45.92
344.843	-60.38
345.226	-43.43
345.61	-34.17
345.993	-28.52
346.376	-7.27
346.759	16
347.142	36.11
347.525	49.9
347.908	57.36
348.291	68.43
348.674	67.98
349.057	126.51
349.44	120.41
349.823	115.66
350.206	165.15
350.588	239.05
350.971	252.83
351.354	260.06
351.737	263.45
352.119	292.15
352.502	316.11
352.884	308.42
353.267	336.45
353.65	339.84
354.032	346.16
354.414	349.1
354.797	341.64
355.179	356.56
355.562	388.65
355.944	365.37
356.326	356.33
356.709	377.12
357.091	396.33
357.473	412.15
357.855	395.88
358.238	373.51
358.62	394.3
359.002	395.65
359.384	403.34
359.766	401.3
360.148	410.34
360.53	395.43
360.912	393.17
361.294	405.6
361.676	389.1
362.057	393.39
362.439	392.04
362.821	387.29
363.203	380.51
363.584	391.36
363.966	403.79
364.348	414.18
364.729	379.83
365.111	401.08
365.493	379.83
365.874	387.97
366.256	373.51
366.637	404.24
367.019	410.12
367.4	402.88
367.781	392.26
368.163	382.55
368.544	404.69
368.925	411.92
369.306	424.35
369.688	415.09
370.069	412.15
370.45	417.35
370.831	425.71
371.212	428.87
371.593	403.34
371.974	421.87
372.355	431.81
372.736	408.31
373.117	435.43
373.498	421.64
373.879	442.88
374.26	425.71
374.641	408.53
375.021	444.69
375.402	408.08
375.783	424.81
376.163	471.58
376.544	457.35
376.925	475.88
377.305	455.31
377.686	470.68
378.066	466.84
378.447	462.54
378.827	468.87
379.208	493.73
379.588	489.89
379.968	486.72
380.349	509.55
380.729	499.15
381.109	490.34
381.489	509.77
381.87	521.3
382.25	515.42
382.63	517.68
383.01	532.37
383.39	519.72
383.77	529.21
384.15	505.71
384.53	542.99
384.91	556.78
385.29	554.52
385.67	555.42
386.049	560.17
386.429	582.09
386.809	587.06
387.189	577.57
387.568	595.87
387.948	569.66
388.328	622.54
388.707	607.85
389.087	603.11
389.466	610.11
389.846	645.14
390.225	624.12
390.605	626.16
390.984	656.44
391.363	655.53
391.743	654.18
392.122	678.58
392.501	694.63
392.881	684.91
393.26	695.08
393.639	701.41
394.018	700.28
394.397	713.39
394.776	705.48
395.155	721.29
395.534	724.23
395.913	748.19
396.292	746.38
396.671	733.27
397.05	742.31
397.429	791.8
397.808	796.09
398.186	793.38
398.565	794.74
398.944	807.39
399.323	823.89
399.701	834.06
400.08	841.97
400.458	851.46
400.837	847.62
401.215	853.72
401.594	874.74
401.972	855.98
402.351	874.96
402.729	908.18
403.107	892.59
403.486	916.77
403.864	915.64
404.242	924.45
404.62	934.85
404.999	973.49
405.377	954.96
405.755	969.65
406.133	992.02
406.511	1001.97
406.889	1049.65
407.267	1024.56
407.645	1046.94
408.023	1081.51
408.401	1055.52
408.779	1087.39
409.156	1103.21
409.534	1114.96
409.912	1112.47
410.29	1157.22
410.667	1161.06
411.045	1170.1
411.422	1196.31
411.8	1217.33
412.178	1231.79
412.555	1251.22
412.933	1243.31
413.31	1282.18
413.687	1308.62
414.065	1293.93
414.442	1328.28
414.819	1340.94
415.197	1352.69
415.574	1383.42
415.951	1399.92
416.328	1389.98
416.705	1413.48
417.082	1439.69
417.46	1457.09
417.837	1460.94
418.214	1476.75
418.591	1503.87
418.967	1523.99
419.344	1516.98
419.721	1578
420.098	1565.79
420.475	1556.3
420.852	1599.24
421.228	1634.49
421.605	1624.1
421.982	1653.25
422.358	1688.95
422.735	1706.13
423.111	1688.27
423.488	1735.96
423.864	1752.68
424.241	1791.77
424.617	1784.54
424.994	1802.62
425.37	1807.82
425.746	1839.68
426.123	1867.03
426.499	1906.35
426.875	1916.52
427.251	1924.65
427.627	1982.28
428.003	2027.93
428.379	2043.52
428.756	2035.61
429.132	2095.27
429.507	2113.8
429.883	2128.72
430.259	2182.73
430.635	2167.81
431.011	2226.57
431.387	2278.54
431.763	2297.3
432.138	2337.98
432.514	2368.26
432.89	2388.82
433.265	2445.32
433.641	2481.93
434.016	2448.71
434.392	2524.86
434.767	2577.07
435.143	2563.05
435.518	2584.07
435.894	2658.42
436.269	2699.32
436.644	2702.26
437.02	2720.79
437.395	2749.72
437.77	2790.62
438.145	2819.77
438.52	2870.62
438.895	2875.59
439.271	2925.3
439.646	2958.52
440.021	2981.8
440.395	3015.7
440.77	3026.09
441.145	3036.04
441.52	3087.56
441.895	3104.73
442.27	3121.46
442.645	3143.38
443.019	3193.77
443.394	3200.78
443.769	3222.02
444.143	3193.09
444.518	3321.23
444.892	3281.45
445.267	3294.79
445.641	3311.28
446.016	3395.35
446.39	3362.13
446.764	3433.31
447.139	3445.74
447.513	3459.53
447.887	3500.2
448.262	3547.89
448.636	3509.47
449.01	3568.45
449.384	3592.18
449.758	3669.01
450.132	3685.28
450.506	3706.07
450.88	3736.58
451.254	3767.99
451.628	3797.15
452.002	3872.85
452.376	3913.75
452.75	3914.66
453.123	3991.49
453.497	4024.71
453.871	4092.96
454.244	4137.7
454.618	4183.8
454.992	4276.46
455.365	4239.17
455.739	4343.57
456.112	4422.44
456.486	4474.42
456.859	4451.14
457.232	4563
457.606	4630.34
457.979	4633.96
458.352	4706.95
458.725	4851.36
459.099	4815.88
459.472	4953.5
459.845	4983.56
460.218	5046.83
460.591	5125.02
460.964	5120.27
461.337	5246.15
461.71	5348.74
462.083	5387.61
462.456	5412.47
462.829	5434.39
463.201	5555.97
463.574	5520.49
463.947	5648.85
464.32	5798.68
464.692	5839.58
465.065	5893.59
465.438	5994.83
465.81	6047.26
466.183	6143.3
466.555	6240.47
466.928	6309.4
467.3	6279.34
467.672	6426.23
468.045	6616.05
468.417	6610.86
468.789	6691.99
469.161	6757.97
469.534	6866.22
469.906	6984.63
470.278	7097.4
470.65	7157.28
471.022	7294
471.394	7409.25
471.766	7473.66
472.138	7597.27
472.51	7766.99
472.882	7896.25
473.253	8036.13
473.625	8120.42
473.997	8300.53
474.369	8338.5
474.74	8381.43
475.112	8623.91
475.484	8783
475.855	8905.94
476.227	8975.77
476.598	9297.57
476.97	9337.57
477.341	9553.15
477.713	9694.62
478.084	9758.57
478.455	10065.68
478.827	10076.08
479.198	10386.35
479.569	10425.45
479.94	10732.78
480.311	10852.55
480.682	11104.98
481.053	11337.96
481.424	11500.67
481.795	11654.79
482.166	11792.87
482.537	12004.61
482.908	12260.65
483.279	12356.02
483.65	12602.34
484.021	12806.17
484.391	12999.16
484.762	13114.87
485.133	13248.42
485.503	13413.62
485.874	13743.1
486.244	13883.66
486.615	14216.98
486.985	14287.04
487.356	14616.07
487.726	14707.37
488.097	15052.67
488.467	15072.33
488.837	15389.61
489.207	15676.83
489.578	15780.79
489.948	15947.33
490.318	16396.59
490.688	16333.99
491.058	16519.98
491.428	16776.01
491.798	16998.61
492.168	17430.91
492.538	17418.71
492.908	17613.51
493.278	17827.51
493.648	17930.33
494.017	18248.07
494.387	18289.42
494.757	18505.46
495.126	18713.82
495.496	18779.8
495.866	18923.75
496.235	19128.95
496.605	19330.3
496.974	19454.59
497.344	19704.3
497.713	19802.15
498.082	19907.68
498.452	20119.88
498.821	20243.04
499.19	20360.1
499.559	20508.57
499.928	20677.15
500.298	20851.61
500.667	21092.28
501.036	21052.29
501.405	21210.47
501.774	21246.86
502.143	21545.61
502.512	21686.62
502.88	21883
503.249	21978.36
503.618	22155.76
503.987	22258.58
504.356	22400.95
504.724	22539.03
505.093	22602.98
505.462	22763.65
505.83	23006.81
506.199	23194.6
506.567	23435.05
506.936	23463.07
507.304	23839.78
507.672	23950.97
508.041	24037.52
508.409	24173.11
508.777	24439.77
509.145	24670.04
509.514	24617.62
509.882	24747.78
510.25	24946.42
510.618	25082.91
510.986	25145.29
511.354	25623.46
511.722	25777.81
512.09	25921.99
512.458	25956.34
512.826	26217.57
513.193	26403.33
513.561	26502.99
513.929	26753.15
514.297	27008.51
514.664	27119.47
515.032	27376.64
515.4	27532.12
515.767	27705.67
516.135	27846.01
516.502	27795.16
516.869	28281.02
517.237	28406.22
517.604	28402.6
517.972	28778.64
518.339	28937.28
518.706	29071.06
519.073	29263.14
519.44	29514.66
519.808	29810.47
520.175	29855.22
520.542	30333.85
520.909	30438.03
521.276	30621.98
521.643	30742.88
522.009	31045.02
522.376	31295.86
522.743	31431.9
523.11	31830.31
523.477	32172.45
523.843	32241.82
524.21	32553.45
524.577	32869.6
524.943	33033.67
525.31	33234.11
525.676	33437.27
526.043	33616.25
526.409	33902.34
526.776	34293.29
527.142	34418.94
527.508	34669.55
527.874	34989.32
528.241	35081.97
528.607	35133.72
528.973	35464.11
529.339	35647.16
529.705	35906.36
530.071	36314.48
530.437	36502.95
530.803	36654.14
531.169	36918.08
531.535	36803.28
531.901	37126.21
532.267	37288.47
532.632	37475.81
532.998	37749.93
533.364	37914.89
533.73	38092.52
534.095	38360.08
534.461	38536.57
534.826	38756.45
535.192	38930.01
535.557	39160.74
535.923	39111.25
536.288	39334.97
536.653	39507.17
537.019	39361.86
537.384	39677.33
537.749	39763.66
538.114	40095.85
538.479	40060.6
538.845	40306.02
539.21	40133.37
539.575	40526.12
539.94	40726.8
540.305	40869.17
540.67	41009.05
541.034	41130.63
541.399	41282.49
541.764	41358.64
542.129	41483.61
542.494	41588.24
542.858	41810.38
543.223	41819.42
543.587	42053.09
543.952	42062.13
544.316	42370.82
544.681	42400.88
545.045	42648.55
545.41	42728.1
545.774	42827.53
546.138	42957.02
546.503	43109.33
546.867	43161.76
547.231	43399.95
547.595	43652.6
547.959	43675.65
548.324	43869.54
548.688	43774.4
549.052	44098.01
549.416	44091.23
549.779	44258.45
550.143	44369.86
550.507	44742.51
550.871	44831.55
551.235	44839.46
551.599	45191.76
551.962	45054.59
552.326	45355.6
552.689	45603.96
553.053	45433.57
553.417	45637.4
553.78	46096.82
554.143	45967.34
554.507	46200.55
554.87	46359.19
555.234	46753.53
555.597	46471.5
555.96	46770.25
556.323	47031.04
556.686	47189.9
557.05	47358.03
557.413	47389.67
557.776	47467.18
558.139	47806.84
558.502	48023.1
558.865	48021.75
559.228	48300.61
559.59	48368.4
559.953	48489.76
560.316	48936.07
560.679	48866.47
561.041	49111.21
561.404	49258.1
561.767	49461.03
562.129	49498.77
562.492	49817.86
562.854	49849.27
563.217	49887.23
563.579	50110.96
563.941	50299.43
564.304	50513.88
564.666	50694.44
565.028	50765.85
565.39	50808.34
565.753	51034.32
566.115	51101.89
566.477	51354.31
566.839	51449.9
567.201	51626.4
567.563	51719.28
567.925	51883.57
568.287	51840.4
568.648	51945.71
569.01	52136.89
569.372	52315.19
569.734	52224.8
570.095	52553.38
570.457	52643.32
570.819	52686.48
571.18	52739.14
571.542	52981.39
571.903	52912.92
572.265	53092.57
572.626	53063.42
572.987	53189.97
573.349	53354.71
573.71	53484.65
574.071	53497.53
574.432	53566.46
574.794	53840.12
575.155	53775.94
575.516	53736.17
575.877	53836.96
576.238	53886.68
576.599	54083.96
576.96	54035.37
577.32	54066.11
577.681	54142.94
578.042	54334.57
578.403	54230.4
578.763	54303.39
579.124	54401.69
579.485	54446.89
579.845	54525.08
580.206	54522.37
580.566	54504.51
580.927	54589.71
581.287	54715.81
581.648	54518.3
582.008	54667.67
582.368	54675.36
582.728	54712.42
583.089	54711.29
583.449	54687.56
583.809	54767.78
584.169	54845.52
584.529	54785.18
584.889	54973.88
585.249	54776.82
585.609	54648.69
585.969	54828.35
586.329	54808.23
586.688	54849.14
587.048	54817.27
587.408	54758.74
587.768	54782.02
588.127	54823.83
588.487	54753.09
588.846	54921.45
589.206	54826.09
589.565	54828.12
589.925	55005.29
590.284	54892.3
590.643	54955.12
591.003	54952.86
591.362	55062.01
591.721	54924.39
592.08	54957.61
592.44	55038.51
592.799	55133.42
593.158	54978.85
593.517	55026.31
593.876	55064.72
594.235	55066.31
594.593	55068.11
594.952	55151.28
595.311	55107.44
595.67	55113.31
596.029	55276.47
596.387	55214.1
596.746	55324.83
597.104	55156.47
597.463	55141.56
597.822	55271.05
598.18	55191.05
598.538	55169.58
598.897	55289.8
599.255	55203.25
599.613	55487.31
599.972	55330.71
600.33	55473.3
600.688	55325.73
601.046	55477.37
601.404	55622.9
601.762	55478.27
602.12	55587.87
602.478	55625.39
602.836	55669.68
603.194	55499.52
603.552	55522.57
603.91	55475.11
604.268	55635.1
604.625	55588.1
604.983	55836
605.341	55530.02
605.698	55694.31
606.056	55782.67
606.413	55690.7
606.771	55870.35
607.128	55871.03
607.485	55744.93
607.843	55896.12
608.2	55964.36
608.557	56106.28
608.914	55878.49
609.272	56078.48
609.629	56104.92
609.986	56094.98
610.343	56095.43
610.7	56241.87
611.057	56220.63
611.414	56251.36
611.771	56227.41
612.127	56309.44
612.484	56317.12
612.841	56373.84
613.198	56376.55
613.554	56355.09
613.911	56488.87
614.267	56462.88
614.624	56395.99
614.98	56519.83
615.337	56677.34
615.693	56546.72
616.05	56586.72
616.406	56693.38
616.762	56604.57
617.118	56599.37
617.475	56652.48
617.831	56648.86
618.187	56686.15
618.543	56722.53
618.899	56890.67
619.255	56808.86
619.611	56780.39
619.967	56916.65
620.323	56946.03
620.678	56835.07
621.034	56798.69
621.39	56786.26
621.746	56765.24
622.101	57022.64
622.457	56798.24
622.812	56841.63
623.168	56986.71
623.523	56910.78
623.879	56980.61
624.234	56825.36
624.589	56893.83
624.945	56920.04
625.3	56972.24
625.655	56880.27
626.01	56953.04
626.365	56925.47
626.72	56916.88
627.075	56844.79
627.43	56888.41
627.785	56795.53
628.14	56796.88
628.495	56896.09
628.85	56817.9
629.205	56747.17
629.559	56864.68
629.914	56711.46
630.269	56822.19
630.623	56705.36
630.978	56593.05
631.332	56738.8
631.687	56781.06
632.041	56629.43
632.396	56671.24
632.75	56600.5
633.104	56643.44
633.459	56480.28
633.813	56446.38
634.167	56528.87
634.521	56474.86
634.875	56515.31
635.229	56414.75
635.583	56354.86
635.937	56328.87
636.291	56247.97
636.645	56324.13
636.999	56224.47
637.352	56311.02
637.706	56078.71
638.06	56223.11
638.413	56137.92
638.767	56160.29
639.121	56097.69
639.474	55945.38
639.828	56045.72
640.181	55920.97
640.534	56013.63
640.888	55881.43
641.241	55762.33
641.594	55835.33
641.947	55913.29
642.301	55787.87
642.654	55845.95
643.007	55740.19
643.36	55744.25
643.713	55734.76
644.066	55785.16
644.419	55591.72
644.771	55388.33
645.124	55206.42
645.477	55045.74
645.83	54899.31
646.182	54695.92
646.535	54701.12
646.888	54782.47
647.24	54482.14
647.593	54631.97
647.945	54690.95
648.298	54500.67
648.65	54432.2
649.002	54351.52
649.355	54476.04
649.707	54348.59
650.059	54573.21
650.411	54869.25
650.763	54889.81
651.115	55144.04
651.467	55022.69
651.819	54978.63
652.171	54954.67
652.523	54909.02
652.875	54858.4
653.227	54710.38
653.578	54900.21
653.93	54851.62
654.282	54643.72
654.633	54589.03
654.985	54689.14
655.337	54732.53
655.688	54745.41
656.039	54780.89
656.391	54459.99
656.742	54560.78
657.094	54564.62
657.445	54748.35
657.796	54669.93
658.147	54516.49
658.498	54459.32
658.849	54614.11
659.2	54512.65
659.551	54366.66
659.902	54530.5
660.253	54412.31
660.604	54430.16
660.955	54265.88
661.306	54400.56
661.656	54410.73
662.007	54300.22
662.358	54320.11
662.708	54327.79
663.059	54172.77
663.409	54073.56
663.76	54269.27
664.11	54265.65
664.461	54189.49
664.811	54206.67
665.161	54276.95
665.511	54169.61
665.862	54211.64
666.212	54297.51
666.562	54267.23
666.912	54235.14
667.262	54282.82
667.612	54210.51
667.962	54201.47
668.312	54148.82
668.662	54221.58
669.011	54071.3
669.361	54069.95
669.711	54140.45
670.06	54009.38
670.41	53961.25
670.76	53961.48
671.109	54045.77
671.459	53960.35
671.808	53891.65
672.157	54047.12
672.507	53834.7
672.856	53886.9
673.205	53945.66
673.554	53909.5
673.904	53715.38
674.253	53949.73
674.602	53824.98
674.951	53392.68
675.3	53364.2
675.649	53753.8
675.998	53710.41
676.346	53586.57
676.695	53702.5
677.044	53544.99
677.393	53632.22
677.741	53712.44
678.09	53620.92
678.438	53509.51
678.787	53607.36
679.135	53569.62
679.484	53323.98
679.832	53439.91
680.181	53292.12
680.529	53371.89
680.877	53239.91
681.225	53292.79
681.573	53400.36
681.922	53188.16
682.27	53135.74
682.618	53128.96
682.966	52994.95
683.314	53053.7
683.661	52907.04
684.009	52803.99
684.357	52761.28
684.705	52709.08
685.053	52692.36
685.4	52753.37
685.748	52577.11
686.095	52477.9
686.443	52298.47
686.79	52336.43
687.138	52390.22
687.485	52362.65
687.832	52289.66
688.18	52256.21
688.527	52185.03
688.874	52043.11
689.221	51952.94
689.568	51865.03
689.915	51716.34
690.262	51799.5
690.609	51706.85
690.956	51621.43
691.303	51575.55
691.65	51422.56
691.997	51243.81
692.344	51143.92
692.69	51146.18
693.037	51234.54
693.383	50943.7
693.73	51009.46
694.077	50866.64
694.423	50792.52
694.769	50663.48
695.116	50658.06
695.462	50615.8
695.808	50458.07
696.155	50541.45
696.501	50204.97
696.847	50236.83
697.193	49877.52
697.539	50159.09
697.885	49883.17
698.231	49873.9
698.577	49764.07
698.923	49569.05
699.269	49485.21
699.614	49268.94
699.96	49211.32
700.306	49159.12
700.651	49296.06
700.997	49016.97
701.342	48972.91
701.688	48777.43
702.033	48722.97
702.379	48670.99
702.724	48495.18
703.069	48709.64
703.415	48226.71
703.76	48269.87
704.105	48270.78
704.45	48066.72
704.795	47869.89
705.14	47739.95
705.485	47697.01
705.83	47627.18
706.175	47633.51
706.52	47609.1
706.865	47416.56
707.209	47199.85
707.554	47253.63
707.899	47359.84
708.243	47077.59
708.588	46873.3
708.932	46806.41
709.277	46790.82
709.621	46720.76
709.966	46486.87
710.31	46541.33
710.654	46224.05
710.998	46259.08
711.342	46387.21
711.687	46305.63
712.031	45908.36
712.375	45860.45
712.719	45953.33
713.063	45662.94
713.407	45815.7
713.75	45628.36
714.094	45678.53
714.438	45431.53
714.782	45465.65
715.125	45208.94
715.469	45376.62
715.812	45063.41
716.156	44985.22
716.499	44658.44
716.843	44898.44
717.186	44563.08
717.53	44791.1
717.873	44930.75
718.216	44743.64
718.559	44594.49
718.902	44275.4
719.246	44488.96
719.589	44229.76
719.932	44252.13
720.275	44150.89
720.617	44029.53
720.96	43933.72
721.303	43891.23
721.646	43853.95
721.989	43650.34
722.331	43659.37
722.674	43668.87
723.016	43725.59
723.359	43571.24
723.701	43558.13
724.044	43345.26
724.386	43173.06
724.729	43188.88
725.071	43032.27
725.413	42953.63
725.755	43018.71
726.097	42890.58
726.439	42726.52
726.782	42625.5
727.124	42757.7
727.465	42637.71
727.807	42500.08
728.149	42393.87
728.491	42406.75
728.833	42376.92
729.175	42449.69
729.516	42219.86
729.858	42065.29
730.199	42249.02
730.541	41988.68
730.882	42045.86
731.224	42261.9
731.565	41762.25
731.906	41676.6
732.248	41887.22
732.589	41527.23
732.93	41613.55
733.271	41444.97
733.612	41662.36
733.953	41523.16
734.294	41253.56
734.635	41260.34
734.976	41373.11
735.317	41217.18
735.658	41092.66
735.999	41004.08
736.339	41011.08
736.68	41141.25
737.021	40899
737.361	40614.71
737.702	40940.8
738.042	40699.68
738.383	40731.09
738.723	40756.63
739.063	40496.97
739.404	40689.06
739.744	40442.28
740.084	40265.11
740.424	40332.23
740.764	40336.75
741.104	40430.98
741.444	40047.72
741.784	40008.62
742.124	40002.3
742.464	39839.36
742.804	39983.77
743.143	39858.34
743.483	39906.93
743.823	39651.34
744.162	39640.27
744.502	39708.52
744.841	39442.08
745.181	39624.9
745.52	39419.03
745.86	39381.3
746.199	39378.13
746.538	39194.18
746.877	39350.79
747.216	39209.55
747.556	38979.72
747.895	39054.98
748.234	38776.57
748.573	38626.74
748.911	38564.59
749.25	38681.43
749.589	38496.35
749.928	38521.43
750.267	38473.07
750.605	38341.32
750.944	38371.15
751.283	38248.67
751.621	38337.25
751.96	38041.9
752.298	38041.9
