Data from plate_porcelain_FLMS001491_072.txt Node
Date: Tue Feb 07 11:19:51 GMT 2017
User: dcchb
Spectrometer: FLMS00149
Trigger mode: 0
Integration Time (sec): 2.000000E-2
Scans to average: 10
Electric dark correction enabled: true
Nonlinearity correction enabled: false
Boxcar width: 0
XAxis mode: Wavelengths
Number of Pixels in Spectrum: 2048
>>>>>Begin Spectral Data<<<<<
341.393	-3.12
341.776	-3.12
342.16	-3.12
342.543	-51.03
342.927	-83.57
343.31	-67.98
343.693	-63.91
344.077	-75.89
344.46	-60.97
344.843	-40.18
345.226	-41.76
345.61	-27.08
345.993	-27.53
346.376	-1.31
346.759	4.11
347.142	18.12
347.525	67.84
347.908	62.87
348.291	68.06
348.674	83.2
349.057	102.41
349.44	129.76
349.823	155.07
350.206	165.91
350.588	241.84
350.971	238.23
351.354	259.24
351.737	281.84
352.119	304.44
352.502	300.15
352.884	303.09
353.267	338.79
353.65	354.61
354.032	343.08
354.414	342.63
354.797	370.43
355.179	380.15
355.562	383.31
355.944	380.6
356.326	405.46
356.709	392.12
357.091	402.29
357.473	418.79
357.855	394.83
358.238	413.14
358.62	407.94
359.002	411.78
359.384	409.52
359.766	420.14
360.148	403.42
360.53	412.01
360.912	408.85
361.294	418.56
361.676	392.8
362.057	407.49
362.439	404.33
362.821	383.08
363.203	423.53
363.584	406.36
363.966	403.2
364.348	397.09
364.729	413.59
365.111	421.05
365.493	395.96
365.874	396.19
366.256	410.88
366.637	385.12
367.019	407.26
367.4	447.26
367.781	413.14
368.163	418.11
368.544	414.27
368.925	429.18
369.306	409.52
369.688	418.34
370.069	425.57
370.45	421.73
370.831	435.51
371.212	447.71
371.593	439.13
371.974	451.78
372.355	463.08
372.736	440.93
373.117	456.08
373.498	455.4
373.879	445.91
374.26	444.1
374.641	441.84
375.021	454.72
375.402	448.62
375.783	468.05
376.163	501.27
376.544	506.7
376.925	479.58
377.305	489.3
377.686	504.89
378.066	482.74
378.447	491.33
378.827	491.33
379.208	515.74
379.588	517.09
379.968	508.73
380.349	512.12
380.729	531.1
381.109	540.14
381.489	549.86
381.87	547.37
382.25	555.06
382.63	567.49
383.01	560.48
383.39	576.52
383.77	565.45
384.15	565
384.53	573.13
384.91	582.85
385.29	574.26
385.67	622.17
386.049	589.86
386.429	597.99
386.809	636.18
387.189	602.51
387.568	637.77
387.948	646.35
388.328	635.28
388.707	667.14
389.087	647.26
389.466	661.49
389.846	679.57
390.225	683.87
390.605	687.93
390.984	680.25
391.363	699.23
391.743	735.16
392.122	706.69
392.501	739.01
392.881	757.31
393.26	765.9
393.639	760.93
394.018	770.87
394.397	779.91
394.776	791.66
395.155	821.26
395.534	827.59
395.913	799.57
396.292	828.72
396.671	826.91
397.05	817.65
397.429	864.65
397.808	850.64
398.186	840.02
398.565	857.87
398.944	877.08
399.323	897.87
399.701	888.61
400.08	897.87
400.458	929.51
400.837	928.83
401.215	964.99
401.594	960.02
401.972	986.01
402.351	967.7
402.729	987.59
403.107	971.32
403.486	1018.09
403.864	1004.08
404.242	1034.82
404.62	1042.05
404.999	1051.54
405.377	1076.17
405.755	1092.67
406.133	1110.75
406.511	1091.77
406.889	1141.26
407.267	1137.87
407.645	1183.74
408.023	1175.15
408.401	1189.16
408.779	1223.96
409.156	1227.13
409.534	1228.71
409.912	1249.5
410.29	1290.18
410.667	1313.45
411.045	1301.7
411.422	1349.84
411.8	1347.58
412.178	1350.74
412.555	1391.87
412.933	1414.24
413.31	1442.26
413.687	1453.34
414.065	1459.44
414.442	1488.36
414.819	1492.21
415.197	1527.91
415.574	1557.52
415.951	1555.03
416.328	1546.22
416.705	1608.36
417.082	1618.98
417.46	1630.73
417.837	1646.78
418.214	1653.56
418.591	1672.99
418.967	1724.52
419.344	1722.26
419.721	1743.73
420.098	1745.76
420.475	1798.64
420.852	1811.52
421.228	1831.63
421.605	1838.41
421.982	1854.91
422.358	1871.63
422.735	1890.61
423.111	1914.12
423.488	1968.58
423.864	1954.34
424.241	1962.02
424.617	2008.35
424.994	2043.15
425.37	2053.55
425.746	2083.15
426.123	2075.02
426.499	2087.9
426.875	2139.87
427.251	2183.04
427.627	2237.72
428.003	2273.65
428.379	2299.64
428.756	2305.52
429.132	2345.29
429.507	2376.03
429.883	2417.61
430.259	2501.67
430.635	2459.41
431.011	2478.85
431.387	2560.88
431.763	2608.11
432.138	2602.91
432.514	2646.3
432.89	2671.61
433.265	2754.55
433.641	2807.88
434.016	2784.38
434.392	2830.93
434.767	2898.5
435.143	2879.29
435.518	2949.12
435.894	3005.84
436.269	3016.91
436.644	3072.96
437.02	3093.29
437.395	3144.59
437.77	3163.35
438.145	3200.41
438.52	3197.25
438.895	3290.13
439.271	3275.66
439.646	3349.56
440.021	3370.8
440.395	3395.89
440.77	3401.53
441.145	3440.63
441.52	3499.84
441.895	3479.95
442.27	3521.98
442.645	3548.88
443.019	3610.12
443.394	3634.3
443.769	3676.56
444.143	3649.89
444.518	3706.39
444.892	3753.16
445.267	3753.84
445.641	3760.17
446.016	3845.36
446.39	3859.38
446.764	3893.05
447.139	3862.31
447.513	3950.45
447.887	3960.16
448.262	3966.72
448.636	4027.96
449.01	4107.05
449.384	4108.18
449.758	4137.33
450.132	4215.3
450.506	4251.68
450.88	4277.67
451.254	4262.53
451.628	4327.84
452.002	4418.23
452.376	4419.36
452.75	4496.42
453.123	4519.92
453.497	4569.41
453.871	4637.21
454.244	4747.04
454.618	4729.18
454.992	4857.77
455.365	4867.49
455.739	4983.64
456.112	5011.21
456.486	5071.55
456.859	5121.94
457.232	5231.09
457.606	5144.31
457.979	5296.17
458.352	5433.8
458.725	5476.28
459.099	5515.6
459.472	5691.42
459.845	5655.26
460.218	5776.61
460.591	5835.82
460.964	5895.93
461.337	5940.68
461.71	6064.52
462.083	6184.06
462.456	6199.43
462.829	6240.1
463.201	6351.51
463.574	6376.6
463.947	6508.8
464.32	6677.15
464.692	6640.09
465.065	6691.39
465.438	6782.01
465.81	6946.75
466.183	6968.67
466.555	7140.87
466.928	7248.89
467.3	7191.49
467.672	7278.95
468.045	7519.84
468.417	7543.12
468.789	7628.54
469.161	7713.06
469.534	7915.31
469.906	8054.07
470.278	8131.58
470.65	8239.15
471.022	8352.14
471.394	8598.46
471.766	8653.83
472.138	8718.68
472.51	8890.88
472.882	9008.17
473.253	9147.37
473.625	9303.3
473.997	9517.31
474.369	9585.55
474.74	9700.13
475.112	9907.35
475.484	10022.38
475.855	10223.28
476.227	10309.6
476.598	10631.18
476.97	10689.7
477.341	10932.41
477.713	11066.19
478.084	11132.63
478.455	11474.09
478.827	11484.71
479.198	11973.29
479.569	11948.65
479.94	12361.07
480.311	12490.56
480.682	12741.85
481.053	12977.33
481.424	13225.68
481.795	13386.58
482.166	13554.26
482.537	13731.43
482.908	14016.85
483.279	14171.87
483.65	14442.83
484.021	14799.43
484.391	14916.71
484.762	15037.84
485.133	15223.14
485.503	15450.03
485.874	15791.94
486.244	15926.4
486.615	16291.37
486.985	16442.1
487.356	16818.13
487.726	16937
488.097	17257.44
488.467	17284.33
488.837	17774.94
489.207	17916.63
489.578	18263.29
489.948	18344.19
490.318	18694.92
490.688	18852.43
491.058	18975.14
491.428	19250.84
491.798	19483.37
492.168	19891.72
492.538	19922.23
492.908	20303.46
493.278	20473.85
493.648	20563.57
494.017	20671.82
494.387	20937.34
494.757	21229.99
495.126	21457.33
495.496	21423.21
495.866	21686.48
496.235	21988.62
496.605	22164.66
496.974	22306.35
497.344	22479.68
497.713	22696.39
498.082	22757.64
498.452	23124.41
498.821	23307.68
499.19	23345.87
499.559	23541.12
499.928	23780.66
500.298	23858.4
500.667	24091.39
501.036	24211.16
501.405	24457.7
501.774	24485.27
502.143	24812.95
502.512	24915.32
502.88	24973.62
503.249	25215.2
503.618	25437.57
503.987	25535.64
504.356	25713.49
504.724	25813.83
505.093	26018.12
505.462	26066.02
505.83	26346.24
506.199	26534.71
506.567	26853.35
506.936	26847.02
507.304	27266.9
507.672	27441.13
508.041	27420.11
508.409	27654
508.777	27900.1
509.145	28198.4
509.514	28221.67
509.882	28427.54
510.25	28472.74
510.618	28807.19
510.986	28902.56
511.354	29220.07
511.722	29477.91
512.09	29720.62
512.458	29695.31
512.826	30013.94
513.193	30208.74
513.561	30246.03
513.929	30667.71
514.297	30855.73
514.664	31027.02
515.032	31179.34
515.4	31524.64
515.767	31530.29
516.135	31814.35
516.502	31882.82
516.869	32489.36
517.237	32582.69
517.604	32503.59
517.972	32919.85
518.339	33289.11
518.706	33269.9
519.073	33406.62
519.44	33483.68
519.808	34178.13
520.175	34035.76
520.542	34605.46
520.909	34855.17
521.276	34770.2
521.643	35223.75
522.009	35511.2
522.376	35649.5
522.743	36000.9
523.11	36310.95
523.477	36519.76
523.843	36832.29
524.21	37322
524.577	37392.28
524.943	37651.48
525.31	37941.19
525.676	38098.7
526.043	38449.43
526.409	38600.16
526.776	39005.8
527.142	39340.48
527.508	39615.95
527.874	39874.93
528.241	40070.85
528.607	40069.05
528.973	40473.55
529.339	40620.44
529.705	40947.21
530.071	41347.43
530.437	41511.49
530.803	41705.39
531.169	41977.47
531.535	41868.55
531.901	42118.93
532.267	42375.88
532.632	42621.07
532.998	42785.58
533.364	43085.46
533.73	43249.53
534.095	43567.94
534.461	43788.72
534.826	43861.49
535.192	43976.51
535.557	44413.56
535.923	44308.03
536.288	44494.24
536.653	44762.03
537.019	44695.59
537.384	44939.43
537.749	45151.4
538.114	45358.62
538.479	45306.65
538.845	45564.72
539.21	45536.47
539.575	45826.63
539.94	45933.75
540.305	46417.13
540.67	46176
541.034	46415.55
541.399	46606.73
541.764	46625.48
542.129	46783.45
542.494	46858.02
542.858	47129.2
543.223	47160.38
543.587	47548.85
543.952	47382.3
544.316	47640.6
544.681	47655.29
545.045	47813.25
545.41	48110.87
545.774	48114.71
546.138	48140.7
546.503	48316.74
546.867	48435.15
547.231	48788.14
547.595	48735.71
547.959	48961.69
548.324	48866.78
548.688	49083.05
549.052	49220.9
549.416	49236.49
549.779	49297.5
550.143	49504.73
550.507	49796.7
550.871	49871.95
551.235	49897.49
551.599	50191.49
551.962	50275.33
552.326	50337.93
552.689	50543.12
553.053	50524.59
553.417	50623.12
553.78	51070.11
554.143	50910.12
554.507	51061.98
554.87	51226.72
555.234	51523.89
555.597	51402.53
555.96	51572.47
556.323	51848.17
556.686	51921.16
557.05	52076.64
557.413	52169.52
557.776	52252
558.139	52534.25
558.502	52496.52
558.865	52575.84
559.228	52831.2
559.59	52844.53
559.953	53009.5
560.316	53291.52
560.679	53260.11
561.041	53499.43
561.404	53676.37
561.767	53862.58
562.129	53752.3
562.492	54132.4
562.854	54102.8
563.217	54144.61
563.579	54325.17
563.941	54512.96
564.304	54651.49
564.666	54811.03
565.028	54848.09
565.39	54931.03
565.753	55173.73
566.115	55177.12
566.477	55320.4
566.839	55404.91
567.201	55542.54
567.563	55653.27
567.925	55726.71
568.287	55776.43
568.648	55907.95
569.01	56047.38
569.372	56269.98
569.734	56137.78
570.095	56361.72
570.457	56483.53
570.819	56474.72
571.18	56516.52
571.542	56673.13
571.903	56764.43
572.265	56809.17
572.626	56822.5
572.987	56920.35
573.349	57064.53
573.71	57152.66
574.071	57161.93
574.432	57245.32
574.794	57467.23
575.155	57436.05
575.516	57401.7
575.877	57509.94
576.238	57551.3
576.599	57650.28
576.96	57684.18
577.32	57675.81
577.681	57717.62
578.042	57883.49
578.403	57822.48
578.763	57952.19
579.124	57935.02
579.485	58033.09
579.845	58073.54
580.206	58011.85
580.566	58051.62
580.927	58116.03
581.287	58231.73
581.648	58122.13
582.008	58260.43
582.368	58172.98
582.728	58271.05
583.089	58254.1
583.449	58213.65
583.809	58258.17
584.169	58285.52
584.529	58172.98
584.889	58470.6
585.249	58314.67
585.609	58259.75
585.969	58352.86
586.329	58345.4
586.688	58412.52
587.048	58390.82
587.408	58351.95
587.768	58344.95
588.127	58331.62
588.487	58293.2
588.846	58469.01
589.206	58344.05
589.565	58393.54
589.925	58449.35
590.284	58447.32
590.643	58461.1
591.003	58492.97
591.362	58539.07
591.721	58458.84
592.08	58429.92
592.44	58580.2
592.799	58542.68
593.158	58495
593.517	58500.65
593.876	58567.77
594.235	58492.06
594.593	58531.84
594.952	58577.49
595.311	58521.22
595.67	58585.39
596.029	58698.16
596.387	58694.09
596.746	58723.7
597.104	58590.37
597.463	58662.91
597.822	58758.05
598.18	58618.84
598.538	58608.44
598.897	58773.86
599.255	58565.73
599.613	58983.8
599.972	58797.37
600.33	58898.83
600.688	58815.9
601.046	58868.55
601.404	58980.19
601.762	58862.45
602.12	59034.65
602.478	59027.19
602.836	59038.26
603.194	58921.66
603.552	58990.81
603.91	58958.04
604.268	59063.57
604.625	58997.81
604.983	59121.43
605.341	58981.54
605.698	59119.84
606.056	59134.31
606.413	59137.7
606.771	59259.5
607.128	59276.9
607.485	59134.98
607.843	59198.49
608.2	59340.85
608.557	59427.86
608.914	59307.18
609.272	59440.29
609.629	59443.9
609.986	59503.79
610.343	59382.44
610.7	59579.04
611.057	59538.36
611.414	59576.1
611.771	59549.89
612.127	59650
612.484	59634.41
612.841	59712.6
613.198	59667.85
613.554	59678.02
613.911	59813.38
614.267	59781.75
614.624	59768.41
614.98	59880.28
615.337	59948.75
615.693	59947.84
616.05	59878.02
616.406	60040.5
616.762	59875.3
617.118	59909.43
617.475	59944.91
617.831	59967.73
618.187	60026.49
618.543	59977.22
618.899	60140.61
619.255	60068.29
619.611	60099.48
619.967	60162.08
620.323	60224
620.678	60105.13
621.034	60029.88
621.39	60077.33
621.746	60035.98
622.101	60317.1
622.457	60110.55
622.812	60136.31
623.168	60189.42
623.523	60185.13
623.879	60262.86
624.234	60063.55
624.589	60193.94
624.945	60237.33
625.3	60230.55
625.655	60199.82
626.01	60230.78
626.365	60361.17
626.72	60257.67
627.075	60198.91
627.43	60225.13
627.785	60094.06
628.14	60148.29
628.495	60124.79
628.85	60058.35
629.205	60035.75
629.559	60165.69
629.914	60043.44
630.269	60016.77
630.623	59999.37
630.978	59911.46
631.332	60085.69
631.687	60097.45
632.041	59972.02
632.396	59986.49
632.75	59856.77
633.104	59901.97
633.459	59829.43
633.813	59809.77
634.167	59849.32
634.521	59788.3
634.875	59801.63
635.229	59739.49
635.583	59630.56
635.937	59642.32
636.291	59597.12
636.645	59590.79
636.999	59569.55
637.352	59605.93
637.706	59490.46
638.06	59549.66
638.413	59493.17
638.767	59485.48
639.121	59456.33
639.474	59283.46
639.828	59344.02
640.181	59339.27
640.534	59314.87
640.888	59212.04
641.241	59149
641.594	59143.8
641.947	59256.11
642.301	59133.4
642.654	59172.72
643.007	59149.67
643.36	59101.31
643.713	59040.52
644.066	59147.41
644.419	58956.68
644.771	58812.06
645.124	58548.79
645.477	58583.81
645.83	58365.06
646.182	58269.47
646.535	58147.21
646.888	58149.7
647.24	58026.99
647.593	58170.26
647.945	58180.21
648.298	58062.92
648.65	57928.91
649.002	57862.02
649.355	57954.9
649.707	57956.26
650.059	58072.41
650.411	58355.57
650.763	58281.67
651.115	58539.52
651.467	58401.44
651.819	58420.2
652.171	58349.69
652.523	58365.29
652.875	58324.61
653.227	58142.69
653.578	58355.57
653.93	58237.61
654.282	58142.24
654.633	58093.2
654.985	58174.56
655.337	58171.62
655.688	58162.35
656.039	58227.89
656.391	57983.15
656.742	57999.87
657.094	58017.05
657.445	58171.85
657.796	58084.16
658.147	58088.23
658.498	57970.5
658.849	58059.31
659.2	57982.47
659.551	57916.03
659.902	57973.66
660.253	57923.49
660.604	57980.21
660.955	57842.14
661.306	58010.49
661.656	57930.04
662.007	57825.41
662.358	57865.87
662.708	57815.25
663.059	57782.48
663.409	57638.75
663.76	57771.18
664.11	57725.53
664.461	57695.47
664.811	57815.7
665.161	57707.23
665.511	57698.19
665.862	57743.83
666.212	57831.97
666.562	57800.56
666.912	57753.1
667.262	57725.76
667.612	57688.24
667.962	57765.08
668.312	57694.34
668.662	57716.49
669.011	57640.33
669.361	57608.47
669.711	57589.04
670.06	57590.39
670.41	57557.4
670.76	57517.17
671.109	57598.75
671.459	57446.44
671.808	57457.51
672.157	57570.28
672.507	57415.71
672.856	57404.86
673.205	57451.19
673.554	57443.5
673.904	57420.45
674.253	57442.83
674.602	57389.04
674.951	57050.29
675.3	56912.22
675.649	57369.61
675.998	57305.88
676.346	57278.31
676.695	57379.32
677.044	57141.59
677.393	57316.05
677.741	57284.64
678.09	57166.9
678.438	57142.04
678.787	57111.99
679.135	57148.6
679.484	57058.88
679.832	57180.01
680.181	56990.18
680.529	57065.43
680.877	56910.86
681.225	56806.91
681.573	57049.62
681.922	56837.64
682.27	56755.39
682.618	56787.7
682.966	56660.25
683.314	56771.88
683.661	56622.96
684.009	56481.27
684.357	56480.14
684.705	56413.25
685.053	56416.41
685.4	56336.41
685.748	56305.91
686.095	56224.1
686.443	56074.05
686.79	56048.06
687.138	56144.1
687.485	56122.63
687.832	56000.6
688.18	56076.08
688.527	55846.03
688.874	55892.58
689.221	55771.23
689.568	55638.35
689.915	55587.28
690.262	55626.38
690.609	55546.38
690.956	55499.83
691.303	55430.68
691.65	55238.36
691.997	55282.43
692.344	55137.58
692.69	55002.21
693.037	55127.18
693.383	54875.66
693.73	55019.39
694.077	54754.53
694.423	54807.87
694.769	54669.79
695.116	54652.84
695.462	54590.7
695.808	54518.61
696.155	54520.64
696.501	54362.91
696.847	54338.73
697.193	54059.86
697.539	54270.93
697.885	54092.41
698.231	53965.86
698.577	53968.57
698.923	53885.63
699.269	53719.99
699.614	53597.73
699.96	53473.66
700.306	53537.39
700.651	53374.23
700.997	53325.87
701.342	53299.88
701.688	53234.12
702.033	53085.65
702.379	53095.82
702.724	52942.83
703.069	53116.61
703.415	52680.92
703.76	52689.5
704.105	52649.05
704.45	52534.71
704.795	52352.34
705.14	52223.08
705.485	52281.15
705.83	52126.58
706.175	52255.84
706.52	52108.73
706.865	51963.87
707.209	51926.59
707.554	51870.54
707.899	51869.41
708.243	51642.3
708.588	51580.16
708.932	51475.98
709.277	51388.97
709.621	51482.76
709.966	51281.18
710.31	51333.16
710.654	51055.65
710.998	51058.59
711.342	51193.05
711.687	50988.76
712.031	50846.84
712.375	50630.12
712.719	50746.05
713.063	50566.85
713.407	50734.3
713.75	50542.22
714.094	50471.71
714.438	50344.93
714.782	50391.26
715.125	50160.53
715.469	50268.55
715.812	50062
716.156	49825.4
716.499	49826.75
716.843	49826.75
717.186	49583.15
717.53	49951.27
717.873	49829.92
718.216	49697.72
718.559	49584.95
718.902	49507.44
719.246	49443.26
719.589	49220.22
719.932	49141.58
720.275	49158.52
720.617	49095.47
720.96	48998.75
721.303	49004.86
721.646	48852.77
721.989	48893.45
722.331	48932.54
722.674	48784.52
723.016	48710.63
723.359	48543.62
723.701	48574.36
724.044	48339.79
724.386	48131.88
724.729	48343.63
725.071	48187.02
725.413	48148.38
725.755	48082.62
726.097	47959.69
726.439	47814.15
726.782	47862.29
727.124	47955.39
727.465	47696.19
727.807	47599.24
728.149	47563.54
728.491	47445.57
728.833	47560.37
729.175	47392.24
729.516	47300.04
729.858	47245.35
730.199	47240.83
730.541	47232.02
730.882	47042.2
731.224	47145.02
731.565	46852.37
731.906	47004
732.248	46997.9
732.589	46785.7
732.93	46537.35
733.271	46684.24
733.612	46647.86
733.953	46614.64
734.294	46287.86
734.635	46410.8
734.976	46373.06
735.317	46232.05
735.658	46187.3
735.999	46150.02
736.339	46086.06
736.68	46187.3
737.021	46118.6
737.361	45845.62
737.702	46010.13
738.042	45856.69
738.383	45717.03
738.723	45885.39
739.063	45636.36
739.404	45635.68
739.744	45647.43
740.084	45433.65
740.424	45374.44
740.764	45381
741.104	45408.11
741.444	45237.72
741.784	45060.1
742.124	45072.53
742.464	44988.92
742.804	44941.91
743.143	44766.55
743.483	44926.09
743.823	44676.83
744.162	44738.3
744.502	44604.75
744.841	44550.74
745.181	44620.34
745.52	44445.65
745.86	44398.2
746.199	44359.55
746.538	44298.76
746.877	44410.17
747.216	44162.27
747.556	43810.19
747.895	43963.18
748.234	43905.1
748.573	43808.83
748.911	43691.32
749.25	43697.42
749.589	43424.66
749.928	43463.08
750.267	43424.66
750.605	43400.94
750.944	43276.19
751.283	43106.48
751.621	43196.87
751.96	42882.53
752.298	43017.22
752.636	43008.63
