Data from plate_porcelain_FLMS001491_049.txt Node
Date: Tue Feb 07 11:19:23 GMT 2017
User: dcchb
Spectrometer: FLMS00149
Trigger mode: 0
Integration Time (sec): 2.000000E-2
Scans to average: 10
Electric dark correction enabled: true
Nonlinearity correction enabled: false
Boxcar width: 0
XAxis mode: Wavelengths
Number of Pixels in Spectrum: 2048
>>>>>Begin Spectral Data<<<<<
341.393	-21.1
341.776	-21.1
342.16	-21.1
342.543	-61.33
342.927	-62
343.31	-75.11
343.693	-64.72
344.077	-59.97
344.46	-59.52
344.843	-80.08
345.226	-36.02
345.61	-11.16
345.993	-22.46
346.376	-18.84
346.759	-12.74
347.142	36.98
347.525	53.25
347.908	63.64
348.291	79.01
348.674	96.41
349.057	111.32
349.44	126.24
349.823	136.18
350.206	177.31
350.588	236.75
350.971	227.71
351.354	272.22
351.737	285.11
352.119	289.85
352.502	293.92
352.884	311.55
353.267	316.74
353.65	345.67
354.032	337.99
354.414	357.19
354.797	358.78
355.179	359.45
355.562	376.63
355.944	389.74
356.326	356.06
356.709	378.66
357.091	399.68
357.473	400.13
357.855	388.38
358.238	392.22
358.62	403.52
359.002	415.05
359.384	388.83
359.766	378.21
360.148	391.32
360.53	401.49
360.912	390.87
361.294	394.71
361.676	404.65
362.057	400.58
362.439	387.93
362.821	398.32
363.203	393.58
363.584	398.77
363.966	392.22
364.348	406.91
364.729	398.77
365.111	395.16
365.493	384.09
365.874	390.19
366.256	412.79
366.637	391.54
367.019	373.92
367.4	377.76
367.781	406.91
368.163	416.63
368.544	365.78
368.925	407.59
369.306	418.89
369.688	418.21
370.069	409.4
370.45	406.46
370.831	396.29
371.212	415.27
371.593	423.63
371.974	427.47
372.355	421.37
372.736	427.7
373.117	441.03
373.498	439
373.879	432.67
374.26	404.88
374.641	429.73
375.021	415.05
375.402	447.81
375.783	463.41
376.163	461.82
376.544	497.76
376.925	456.17
377.305	452.11
377.686	483.07
378.066	468.6
378.447	479.45
378.827	477.42
379.208	468.38
379.588	467.25
379.968	479.45
380.349	488.49
380.729	497.3
381.109	523.29
381.489	493.46
381.87	511.09
382.25	502.05
382.63	494.37
383.01	524.87
383.39	539.56
383.77	531.88
384.15	537.98
384.53	566.91
384.91	537.53
385.29	562.16
385.67	561.48
386.049	578.66
386.429	566.45
386.809	573.69
387.189	575.04
387.568	582.27
387.948	590.63
388.328	600.35
388.707	600.8
389.087	636.96
389.466	596.06
389.846	637.19
390.225	650.97
390.605	647.13
390.984	652.55
391.363	645.55
391.743	666.11
392.122	674.25
392.501	659.78
392.881	693
393.26	668.6
393.639	700.69
394.018	711.31
394.397	722.16
394.776	716.05
395.155	733.91
395.534	728.94
395.913	747.01
396.292	728.71
396.671	766.45
397.05	773.68
397.429	753.57
397.808	769.84
398.186	793.34
398.565	828.37
398.944	804.41
399.323	808.93
399.701	797.18
400.08	827.01
400.458	855.03
400.837	841.7
401.215	867.01
401.594	849.84
401.972	866.11
402.351	918.08
402.729	883.28
403.107	903.85
403.486	902.04
403.864	902.49
404.242	927.12
404.62	943.85
404.999	974.8
405.377	947.69
405.755	990.62
406.133	1007.57
406.511	1003.5
406.889	1001.7
407.267	1039.21
407.645	1048.7
408.023	1057.06
408.401	1094.58
408.779	1083.73
409.156	1113.78
409.534	1107.91
409.912	1122.82
410.29	1158.3
410.667	1189.94
411.045	1178.19
411.422	1225.42
411.8	1200.11
412.178	1231.3
412.555	1274.23
412.933	1237.62
413.31	1303.38
413.687	1306.77
414.065	1303.16
414.442	1337.06
414.819	1336.6
415.197	1344.29
415.574	1372.99
415.951	1391.07
416.328	1401.69
416.705	1435.58
417.082	1462.7
417.46	1473.55
417.837	1464.96
418.214	1477.16
418.591	1498.41
418.967	1506.09
419.344	1528.69
419.721	1548.58
420.098	1563.04
420.475	1568.91
420.852	1596.71
421.228	1618.4
421.605	1634.9
421.982	1660.44
422.358	1655.92
422.735	1704.96
423.111	1687.1
423.488	1726.42
423.864	1737.5
424.241	1782.24
424.617	1794.22
424.994	1811.17
425.37	1820.66
425.746	1831.73
426.123	1862.47
426.499	1885.52
426.875	1901.79
427.251	1922.58
427.627	1990.37
428.003	2009.35
428.379	2030.14
428.756	2007.55
429.132	2091.39
429.507	2112.63
429.883	2128.67
430.259	2179.74
430.635	2185.62
431.011	2207.77
431.387	2256.58
431.763	2306.3
432.138	2311.27
432.514	2365.28
432.89	2351.04
433.265	2418.38
433.641	2445.05
434.016	2484.37
434.392	2513.52
434.767	2568.66
435.143	2570.24
435.518	2578.83
435.894	2636.23
436.269	2689.11
436.644	2698.15
437.02	2746.96
437.395	2703.8
437.77	2803.23
438.145	2840.52
438.52	2880.97
438.895	2900.4
439.271	2897.92
439.646	3022.66
440.021	3001.87
440.395	2991.93
440.77	2965.04
441.145	3017.69
441.52	3069.67
441.895	3099.72
442.27	3118.03
442.645	3081.19
443.019	3190.57
443.394	3179.04
443.769	3233.5
444.143	3205.03
444.518	3297.91
444.892	3280.73
445.267	3290.22
445.641	3326.16
446.016	3376.78
446.39	3393.27
446.764	3435.76
447.139	3405.93
447.513	3436.66
447.887	3515.08
448.262	3507.39
448.636	3529.31
449.01	3594.62
449.384	3639.14
449.758	3649.54
450.132	3760.27
450.506	3737.67
450.88	3741.96
451.254	3753.49
451.628	3833.49
452.002	3864.67
452.376	3877.33
452.75	3965.91
453.123	3972.01
453.497	4026.25
453.871	4062.86
454.244	4158.68
454.618	4153.03
454.992	4233.7
455.365	4207.49
455.739	4390.76
456.112	4416.75
456.486	4477.76
456.859	4486.58
457.232	4576.07
457.606	4589.4
457.979	4648.38
458.352	4785.55
458.725	4817.42
459.099	4843.4
459.472	4960.69
459.845	4979.67
460.218	5045.88
460.591	5127.01
460.964	5134.24
461.337	5278.65
461.71	5337.4
462.083	5383.95
462.456	5407.23
462.829	5433.22
463.201	5549.15
463.574	5524.29
463.947	5661.24
464.32	5768.35
464.692	5800.89
465.065	5881.79
465.438	6043.82
465.81	6050.38
466.183	6099.19
466.555	6242.69
466.928	6311.84
467.3	6256.7
467.672	6392.29
468.045	6590.02
468.417	6572.85
468.789	6633.87
469.161	6735.56
469.534	6873.86
469.906	7042.67
470.278	7072.95
470.65	7134.42
471.022	7273.85
471.394	7406.95
471.766	7500.73
472.138	7595.42
472.51	7796.77
472.882	7931.01
473.253	7963.55
473.625	8151.34
473.997	8253.26
474.369	8351.79
474.74	8461.16
475.112	8624.55
475.484	8772.34
475.855	8902.28
476.227	8988.83
476.598	9246.45
476.97	9276.28
477.341	9521.47
477.713	9708.13
478.084	9768.47
478.455	10061.8
478.827	10097.95
479.198	10418.85
479.569	10401
479.94	10740.2
480.311	10782.68
480.682	11119.4
481.053	11297.7
481.424	11530.69
481.795	11637.35
482.166	11829.21
482.537	11998.24
482.908	12221.74
483.279	12449.08
483.65	12529.08
484.021	12837.09
484.391	13038.22
484.762	13121.83
485.133	13290.19
485.503	13438.88
485.874	13797.74
486.244	13916.84
486.615	14231.18
486.985	14321.12
487.356	14486.31
487.726	14747.32
488.097	15041.33
488.467	15053.53
488.837	15402.22
489.207	15660.75
489.578	15790.69
489.948	16028.42
490.318	16263.44
490.688	16270.9
491.058	16574.39
491.428	16753.6
491.798	16977.32
492.168	17300.93
492.538	17394.03
492.908	17593.8
493.278	17893.46
493.648	17966.67
494.017	18147.46
494.387	18344.97
494.757	18451.41
495.126	18661.12
495.496	18751.96
495.866	18899.31
496.235	19191.05
496.605	19269.92
496.974	19454.77
497.344	19684.6
497.713	19642.34
498.082	19994.64
498.452	20089.1
498.821	20231.93
499.19	20365.93
499.559	20569.54
499.928	20735.19
500.298	20850.67
500.667	20991.91
501.036	21074.16
501.405	21288.4
501.774	21383.76
502.143	21531.55
502.512	21708.72
502.88	21946.23
503.249	21979.68
503.618	22101.71
503.987	22281.82
504.356	22350.74
504.724	22541.24
505.093	22725.19
505.462	22722.48
505.83	22948.01
506.199	23119.99
506.567	23460.09
506.936	23421.45
507.304	23852.17
507.672	23832.96
508.041	23898.27
508.409	24308.2
508.777	24404.92
509.145	24515.43
509.514	24543.22
509.882	24856.21
510.25	24867.06
510.618	25154.51
510.986	25168.74
511.354	25552.46
511.722	25775.28
512.09	25857.09
512.458	25897.09
512.826	26299.56
513.193	26376.17
513.561	26514.25
513.929	26684.41
514.297	27001.01
514.664	27155.36
515.032	27351.29
515.4	27553.09
515.767	27691.39
516.135	27822.91
516.502	27798.05
516.869	28259.29
517.237	28466.74
517.604	28448.43
517.972	28770.01
518.339	29047.74
518.706	29102.65
519.073	29226.94
519.44	29552.36
519.808	29861.95
520.175	29847.72
520.542	30286.35
520.909	30430.3
521.276	30453.13
521.643	30835.94
522.009	31057.4
522.376	31247.68
522.743	31476.38
523.11	31754.79
523.477	32122.23
523.843	32306.41
524.21	32666.4
524.577	32819.84
524.943	32917.24
525.31	33070.01
525.676	33524.46
526.043	33786.6
526.409	33960.83
526.776	34255.96
527.142	34356.53
527.508	34718.32
527.874	34892.11
528.241	35200.57
528.607	35309.27
528.973	35601.92
529.339	35667
529.705	36063.15
530.071	36297.49
530.437	36440.54
530.803	36615.9
531.169	36899.28
531.535	36859.06
531.901	37056.79
532.267	37290.69
532.632	37381.76
532.998	37628.08
533.364	37893.61
533.73	38158.01
534.095	38453.37
534.461	38410.2
534.826	38705.56
535.192	38811.55
535.557	39117.08
535.923	38985.33
536.288	39365.43
536.653	39390.29
537.019	39524.98
537.384	39635.94
537.749	39854.23
538.114	39859.66
538.479	40028.47
538.845	40238.86
539.21	40262.13
539.575	40554.78
539.94	40706.42
540.305	40874.32
540.67	40879.52
541.034	41061.43
541.399	41232.28
541.764	41271.82
542.129	41514.76
542.494	41622.78
542.858	41966.04
543.223	41883.33
543.587	42100.5
543.952	42043.1
544.316	42321.74
544.681	42361.97
545.045	42547.05
545.41	42876.75
545.774	42861.84
546.138	42803.54
546.503	42969.86
546.867	43074.94
547.231	43566
547.595	43513.12
547.959	43731.87
548.324	43611.65
548.688	43842.6
549.052	44058.19
549.416	44169.15
549.779	44255.93
550.143	44326.89
550.507	44774.78
550.871	44828.12
551.235	44801.22
551.599	45180.2
551.962	45304.26
552.326	45297.71
552.689	45445.73
553.053	45414.31
553.417	45524.59
553.78	46092.71
554.143	46009.33
554.507	46232.37
554.87	46372.26
555.234	46699.7
555.597	46522.53
555.96	46742.87
556.323	47073.03
556.686	46900.83
557.05	47367.26
557.413	47569.06
557.776	47608.38
558.139	47888.6
558.502	47893.35
558.865	48006.79
559.228	48347.8
559.59	48401.35
559.953	48470.73
560.316	48839.54
560.679	48725.64
561.041	49073.2
561.404	49270.94
561.767	49517.48
562.129	49423.93
562.492	49809.68
562.854	49855.55
563.217	49998.83
563.579	50067.3
563.941	50292.83
564.304	50563.56
564.666	50653.5
565.028	50710.22
565.39	50924
565.753	51033.38
566.115	51132.36
566.477	51304.55
566.839	51439.69
567.201	51529.86
567.563	51576.86
567.925	51846.91
568.287	51872
568.648	52074.7
569.01	52135.95
569.372	52358.09
569.734	52286
570.095	52473.11
570.457	52656.61
570.819	52697.29
571.18	52720.34
571.542	52890.28
571.903	52982.25
572.265	53086.65
572.626	53185.86
572.987	53214.11
573.349	53341.56
573.71	53461.33
574.071	53535.23
574.432	53528
574.794	53868.33
575.155	53704.04
575.516	53677.37
575.877	53829.91
576.238	53993.07
576.599	54051.6
576.96	54038.04
577.32	54065.61
577.681	54205.27
578.042	54195.55
578.403	54278.94
578.763	54374.53
579.124	54344.25
579.485	54464.02
579.845	54575.43
580.206	54430.8
580.566	54516
580.927	54564.81
581.287	54691.36
581.648	54516.22
582.008	54678.93
582.368	54649.1
582.728	54786.95
583.089	54711.47
583.449	54741.3
583.809	54802.99
584.169	54808.19
584.529	54770.45
584.889	54941.52
585.249	54715.54
585.609	54679.16
585.969	54904.01
586.329	54756.89
586.688	54883.67
587.048	54843.22
587.408	54811.81
587.768	54802.32
588.127	54828.98
588.487	54778.59
588.846	54972.26
589.206	54762.09
589.565	54844.8
589.925	54950.56
590.284	54889.09
590.643	54933.61
591.003	55032.14
591.362	54973.84
591.721	54961.41
592.08	55036.66
592.44	55139.03
592.799	55096.55
593.158	55071.91
593.517	55004.57
593.876	55089.09
594.235	55043.21
594.593	55091.12
594.952	55167.05
595.311	55083.89
595.67	55121.63
596.029	55235.3
596.387	55253.83
596.746	55286.6
597.104	55139.26
597.463	55144
597.822	55268.97
598.18	55155.98
598.538	55188.29
598.897	55343.77
599.255	55212.7
599.613	55572.92
599.972	55324.11
600.33	55445.01
600.688	55333.15
601.046	55430.77
601.404	55602.3
601.762	55497.89
602.12	55585.12
602.478	55675.06
602.836	55659.69
603.194	55438.91
603.552	55538.57
603.91	55492.24
604.268	55619.24
604.625	55599.81
604.983	55714.83
605.341	55597.1
605.698	55803.65
606.056	55777.43
606.413	55801.84
606.771	55812.46
607.128	55903.76
607.485	55793.7
607.843	55849.07
608.2	55984.43
608.557	56082.73
608.914	55921.16
609.272	56065.33
609.629	56100.36
609.986	56190.3
610.343	56062.17
610.7	56242.96
611.057	56227.36
611.414	56176.52
611.771	56197.53
612.127	56259.68
612.484	56210.64
612.841	56402.73
613.198	56343.74
613.554	56327.93
613.911	56458.77
614.267	56450.86
614.624	56391.88
614.98	56484.53
615.337	56612.21
615.693	56589.61
616.05	56524.3
616.406	56658.99
616.762	56608.82
617.118	56607.69
617.475	56646.11
617.831	56649.5
618.187	56716.62
618.543	56711.87
618.899	56906.44
619.255	56840
619.611	56811.3
619.967	56886.78
620.323	56923.39
620.678	56792.55
621.034	56726.11
621.39	56763.39
621.746	56797.52
622.101	57068.7
622.457	56784.64
622.812	56871.19
623.168	56873.45
623.523	56870.06
623.879	56963.39
624.234	56865.99
624.589	56998.42
624.945	56902.15
625.3	56917.51
625.655	56920
626.01	56949.38
626.365	56979.43
626.72	56933.79
627.075	56860.34
627.43	56873.45
627.785	56856.5
628.14	56762.49
628.495	56854.69
628.85	56886.78
629.205	56704.86
629.559	56901.02
629.914	56772.66
630.269	56779.44
630.623	56714.81
630.978	56726.11
631.332	56679.55
631.687	56775.37
632.041	56684.75
632.396	56738.76
632.75	56597.52
633.104	56573.79
633.459	56492.22
633.813	56533.8
634.167	56543.06
634.521	56464.19
634.875	56485.21
635.229	56409.51
635.583	56278.21
635.937	56249.96
636.291	56273.01
636.645	56324.31
636.999	56331.77
637.352	56312.78
637.706	56170.87
638.06	56164.77
638.413	56173.81
638.767	56117.76
639.121	56209.51
639.474	56019.69
639.828	55959.35
640.181	55965.9
640.534	55972.45
640.888	55937.2
641.241	55814.72
641.594	55769.75
641.947	55934.72
642.301	55812.23
642.654	55806.13
643.007	55793.02
643.36	55753.25
643.713	55654.72
644.066	55677.1
644.419	55571.79
644.771	55461.06
645.124	55128.86
645.477	55102.87
645.83	54826.72
646.182	54720.06
646.535	54693.39
646.888	54708.99
647.24	54607.29
647.593	54862.88
647.945	54647.52
648.298	54510.35
648.65	54432.83
649.002	54350.35
649.355	54486.84
649.707	54455.21
650.059	54558.71
650.411	54807.29
650.763	54807.74
651.115	55181.97
651.467	54999.6
651.819	54977.68
652.171	54848.87
652.523	54927.51
652.875	54831.02
653.227	54719.61
653.578	54904.91
653.93	54739.49
654.282	54678.25
654.633	54623.34
654.985	54697.01
655.337	54685.93
655.688	54680.06
656.039	54755.31
656.391	54462.89
656.742	54572.72
657.094	54556.67
657.445	54696.1
657.796	54574.75
658.147	54562.55
658.498	54510.57
658.849	54533.62
659.2	54455.66
659.551	54403.46
659.902	54536.33
660.253	54491.36
660.604	54478.71
660.955	54358.26
661.306	54461.76
661.656	54342.22
662.007	54406.85
662.358	54280.52
662.708	54311.26
663.059	54270.58
663.409	54027.2
663.76	54294.53
664.11	54229.68
664.461	54291.6
664.811	54302.44
665.161	54285.95
665.511	54149.23
665.862	54253.86
666.212	54255.44
666.562	54309.45
666.912	54198.04
667.262	54181.09
667.612	54206.85
667.962	54220.41
668.312	54112.16
668.662	54236.68
669.011	54080.53
669.361	54177.93
669.711	54113.52
670.06	54116.46
670.41	53984.26
670.76	53941.77
671.109	54036.23
671.459	53964.6
671.808	53932.28
672.157	54062.67
672.507	53791.27
672.856	53863.58
673.205	53869.23
673.554	53881.66
673.904	53726.64
674.253	53945.39
674.602	53746.98
674.951	53447.78
675.3	53297.04
675.649	53721.67
675.998	53628.11
676.346	53669.01
676.695	53806.64
677.044	53553.99
677.393	53690.03
677.741	53597.83
678.09	53566.64
678.438	53526.64
678.787	53596.92
679.135	53587.88
679.484	53368.91
679.832	53537.72
680.181	53222.7
680.529	53368.46
680.877	53175.01
681.225	53173.21
681.573	53366.65
681.922	53224.05
682.27	53107.22
682.618	53052.98
682.966	52966.43
683.314	52992.87
683.661	52877.62
684.009	52769.6
684.357	52716.27
684.705	52676.5
685.053	52772.54
685.4	52638.98
685.748	52513.34
686.095	52489.16
686.443	52352.89
686.79	52300.46
687.138	52295.04
687.485	52397.18
687.832	52268.82
688.18	52376.84
688.527	52116.29
688.874	52023.18
689.221	52007.14
689.568	51835.61
689.915	51822.28
690.262	51781.15
690.609	51663.64
690.956	51520.82
691.303	51546.13
691.65	51238.57
691.997	51270.88
692.344	51104.56
692.69	51141.85
693.037	51199.47
693.383	50847.84
693.73	51053.49
694.077	50905.7
694.423	50756.09
694.769	50764
695.116	50531.92
695.462	50635.87
695.808	50541.41
696.155	50512.71
696.501	50175.09
696.847	50232.27
697.193	49983.23
697.539	50142.1
697.885	49857.14
698.231	49898.04
698.577	49844.93
698.923	49656.91
699.269	49399.97
699.614	49343.7
699.96	49226.64
700.306	49299.41
700.651	49191.39
700.997	49043.6
701.342	48974.67
701.688	48866.43
702.033	48758.41
702.379	48666.88
702.724	48552.31
703.069	48649.94
703.415	48195.03
703.76	48216.73
704.105	48204.98
704.45	48073.23
704.795	47956.39
705.14	47733.8
705.485	47779.45
705.83	47663.52
706.175	47612
706.52	47559.79
706.865	47393.47
707.209	47253.36
707.554	47233.93
707.899	47354.38
708.243	46883.2
708.588	46897.21
708.932	46735.18
709.277	46757.1
709.621	46750.32
709.966	46466.49
710.31	46632.81
710.654	46163.22
710.998	46292.94
711.342	46250.22
711.687	46217.68
712.031	45995.32
712.375	45726.17
712.719	45854.3
713.063	45746.96
713.407	45839.61
713.75	45607.53
714.094	45572.05
714.438	45387.87
714.782	45488.66
715.125	45231.27
715.469	45306.97
715.812	45068.11
716.156	44859.75
716.499	44808.23
716.843	44978.17
717.186	44706.99
717.53	44732.07
717.873	44703.82
718.216	44734.11
718.559	44476.49
718.902	44302.71
719.246	44558.07
719.589	44336.15
719.932	44111.52
720.275	44028.59
720.617	44066.78
720.96	43955.37
721.303	43836.5
721.646	44013.22
721.989	43662.72
722.331	43823.85
722.674	43719.9
723.016	43723.51
723.359	43488.72
723.701	43516.96
724.044	43282.62
724.386	43162.62
724.729	43201.49
725.071	43262.28
725.413	43109.74
725.755	43113.36
726.097	42954.94
726.439	42671.56
726.782	42828.39
727.124	42878.56
727.465	42601.28
727.807	42474.5
728.149	42453.94
728.491	42348.41
728.833	42509.98
729.175	42312.7
729.516	42168.98
729.858	42207.17
730.199	42137.11
730.541	42108.41
730.882	42024.8
731.224	42016.89
731.565	41777.12
731.906	41899.6
732.248	41769.21
732.589	41740.74
732.93	41531.93
733.271	41578.48
733.612	41677.92
733.953	41586.39
734.294	41301.2
734.635	41364.25
734.976	41269.11
735.317	41286.06
735.658	41161.09
735.999	41082.45
736.339	41052.62
736.68	41069.34
737.021	40795.23
737.361	40706.19
737.702	40932.85
738.042	40799.75
738.383	40692.86
738.723	40764.04
739.063	40568.34
739.404	40480.21
739.744	40460.77
740.084	40357.05
740.424	40392.75
740.764	40281.34
741.104	40415.12
741.444	40031.18
741.784	40089.93
742.124	40011.52
742.464	39994.8
742.804	39848.13
743.143	39793.9
743.483	39784.63
743.823	39711.64
744.162	39626.9
744.502	39759.55
744.841	39334.25
745.181	39595.71
745.52	39563.62
745.86	39413.34
746.199	39380.8
746.538	39214.7
746.877	39157.98
747.216	39154.14
747.556	39007.93
747.895	39018.78
748.234	38799.8
748.573	38673.47
748.911	38649.75
749.25	38662.18
749.589	38445.91
749.928	38527.94
750.267	38550.77
750.605	38432.13
750.944	38372.24
751.283	38209.53
751.621	38336.31
751.96	37995.53
752.298	38121.85
752.636	38138.57
752.975	37849.54
