Data from plate_porcelain_FLMS001491_010.txt Node
Date: Tue Feb 07 11:18:39 GMT 2017
User: dcchb
Spectrometer: FLMS00149
Trigger mode: 0
Integration Time (sec): 2.000000E-2
Scans to average: 10
Electric dark correction enabled: true
Nonlinearity correction enabled: false
Boxcar width: 0
XAxis mode: Wavelengths
Number of Pixels in Spectrum: 2048
>>>>>Begin Spectral Data<<<<<
341.393	-21.68
341.776	-21.68
342.16	-21.68
342.543	-54.67
342.927	-77.05
343.31	-56.71
343.693	-68.46
344.077	-62.81
344.46	-70.72
344.843	-55.35
345.226	-52.64
345.61	-19.87
345.993	-32.98
346.376	-3.38
346.759	1.37
347.142	47.02
347.525	46.11
347.908	68.94
348.291	68.03
348.674	82.27
349.057	109.16
349.44	131.76
349.823	137.41
350.206	165.66
350.588	224.87
350.971	261.7
351.354	241.82
351.737	270.52
352.119	294.02
352.502	308.48
352.884	328.59
353.267	328.59
353.65	329.27
354.032	334.69
354.414	328.82
354.797	359.33
355.179	361.13
355.562	347.58
355.944	373.56
356.326	386.67
356.709	377.63
357.091	382.38
357.473	387.35
357.855	400.46
358.238	377.86
358.62	391.42
359.002	387.8
359.384	398.65
359.766	402.04
360.148	390.06
360.53	407.46
360.912	348.71
361.294	378.54
361.676	385.31
362.057	387.35
362.439	376.28
362.821	361.81
363.203	398.42
363.584	397.52
363.966	384.86
364.348	410.62
364.729	388.93
365.111	382.6
365.493	384.41
365.874	397.07
366.256	405.65
366.637	392.32
367.019	395.48
367.4	387.35
367.781	391.42
368.163	407.91
368.544	390.51
368.925	425.99
369.306	396.39
369.688	408.82
370.069	397.74
370.45	391.64
370.831	403.62
371.212	405.43
371.593	421.92
371.974	428.48
372.355	415.82
372.736	417.63
373.117	416.73
373.498	438.42
373.879	418.99
374.26	410.85
374.641	406.78
375.021	436.39
375.402	433.68
375.783	457.63
376.163	467.8
376.544	458.99
376.925	470.96
377.305	468.02
377.686	470.74
378.066	468.02
378.447	475.26
378.827	481.58
379.208	488.36
379.588	480.91
379.968	489.94
380.349	482.71
380.729	501.24
381.109	494.69
381.489	502.6
381.87	518.87
382.25	518.87
382.63	535.59
383.01	506.67
383.39	534.92
383.77	523.62
384.15	551.19
384.53	529.04
384.91	537.4
385.29	552.54
385.67	551.19
386.049	571.3
386.429	571.07
386.809	562.71
387.189	556.84
387.568	599.77
387.948	624.4
388.328	590.96
388.707	608.13
389.087	602.03
389.466	614.01
389.846	634.57
390.225	623.27
390.605	634.8
390.984	648.58
391.363	653.1
391.743	651.97
392.122	665.99
392.501	669.15
392.881	698.3
393.26	684.97
393.639	701.92
394.018	692.43
394.397	703.27
394.776	717.74
395.155	722.93
395.534	723.61
395.913	741.01
396.292	752.76
396.671	774.91
397.05	743.27
397.429	787.11
397.808	789.15
398.186	783.5
398.565	788.69
398.944	825.3
399.323	811.74
399.701	805.42
400.08	815.36
400.458	821.01
400.837	858.97
401.215	882.48
401.594	868.24
401.972	857.17
402.351	884.06
402.729	889.71
403.107	903.49
403.486	937.62
403.864	925.19
404.242	951.18
404.62	943.72
404.999	970.61
405.377	998.41
405.755	979.42
406.133	1002.25
406.511	998.41
406.889	1033.43
407.267	1034.56
407.645	1036.6
408.023	1052.64
408.401	1053.55
408.779	1094.9
409.156	1099.87
409.534	1125.18
409.912	1145.97
410.29	1152.07
410.667	1170.38
411.045	1190.72
411.422	1217.38
411.8	1225.07
412.178	1229.59
412.555	1249.92
412.933	1260.32
413.31	1291.96
413.687	1291.05
414.065	1317.49
414.442	1345.52
414.819	1348.23
415.197	1382.35
415.574	1384.16
415.951	1387.77
416.328	1412.63
416.705	1441.78
417.082	1433.2
417.46	1468.22
417.837	1462.8
418.214	1487.88
418.591	1498.51
418.967	1528.56
419.344	1525.4
419.721	1561.78
420.098	1550.71
420.475	1591.84
420.852	1581.89
421.228	1637.03
421.605	1636.13
421.982	1658.73
422.358	1653.08
422.735	1681.55
423.111	1686.52
423.488	1736.24
423.864	1736.24
424.241	1752.51
424.617	1811.04
424.994	1819.85
425.37	1827.08
425.746	1825.95
426.123	1889.91
426.499	1866.18
426.875	1898.27
427.251	1932.84
427.627	2001.77
428.003	1995.44
428.379	1995.89
428.756	2013.52
429.132	2098.26
429.507	2132.39
429.883	2128.32
430.259	2142.78
430.635	2196.79
431.011	2173.74
431.387	2279.05
431.763	2339.84
432.138	2328.09
432.514	2333.51
432.89	2375.32
433.265	2414.41
433.641	2475.43
434.016	2477.24
434.392	2534.18
434.767	2581.42
435.143	2578.48
435.518	2579.38
435.894	2635.88
436.269	2675.2
436.644	2699.38
437.02	2705.03
437.395	2737.8
437.77	2793.16
438.145	2851.01
438.52	2858.47
438.895	2899.15
439.271	2943.89
439.646	2971.01
440.021	2976.89
440.395	2998.13
440.77	3005.36
441.145	3047.84
441.52	3088.29
441.895	3072.02
442.27	3128.75
442.645	3137.11
443.019	3180.27
443.394	3166.94
443.769	3201.29
444.143	3218.23
444.518	3277.22
444.892	3255.3
445.267	3306.59
445.641	3341.17
446.016	3411.68
446.39	3412.35
446.764	3383.88
447.139	3425.69
447.513	3479.47
447.887	3509.53
448.262	3524.44
448.636	3558.79
449.01	3599.92
449.384	3622.97
449.758	3602.86
450.132	3697.32
450.506	3698.9
450.88	3745
451.254	3810.76
451.628	3816.18
452.002	3890.99
452.376	3915.84
452.75	3957.88
453.123	3941.38
453.497	4067.48
453.871	4048.95
454.244	4130.53
454.618	4216.85
454.992	4258.21
455.365	4238.09
455.739	4369.84
456.112	4390.41
456.486	4453.91
456.859	4432.21
457.232	4611.87
457.606	4566.67
457.979	4678.99
458.352	4751.3
458.725	4827.01
459.099	4819.55
459.472	4962.6
459.845	4979.09
460.218	5037.62
460.591	5151.74
460.964	5141.35
461.337	5261.12
461.71	5337.05
462.083	5385.86
462.456	5436.93
462.829	5431.06
463.201	5524.39
463.574	5528.46
463.947	5703.14
464.32	5814.32
464.692	5844.61
465.065	5893.19
465.438	5982.68
465.81	6073.75
466.183	6120.98
466.555	6289.79
466.928	6333.41
467.3	6293.63
467.672	6439.39
468.045	6617.92
468.417	6578.15
468.789	6687.07
469.161	6740.18
469.534	6855.65
469.906	7053.39
470.278	7144.69
470.65	7179.49
471.022	7358.01
471.394	7435.52
471.766	7510.1
472.138	7600.72
472.51	7779.47
472.882	7914.61
473.253	8024.44
473.625	8114.83
473.997	8360.02
474.369	8386.69
474.74	8452.45
475.112	8669.84
475.484	8786.68
475.855	8910.97
476.227	8982.15
476.598	9272.31
476.97	9359.32
477.341	9600.44
477.713	9738.97
478.084	9698.52
478.455	10049.92
478.827	10173.53
479.198	10481.55
479.569	10460.98
479.94	10734.87
480.311	10812.84
480.682	11117.46
481.053	11350.22
481.424	11473.84
481.795	11599.26
482.166	11893.26
482.537	12061.84
482.908	12245.12
483.279	12431.55
483.65	12582.73
484.021	12880.81
484.391	13035.15
484.762	13142.95
485.133	13265.2
485.503	13519.66
485.874	13746.32
486.244	13908.57
486.615	14144.05
486.985	14401.67
487.356	14568.44
487.726	14766.41
488.097	15109.22
488.467	15132.27
488.837	15466.95
489.207	15711.92
489.578	15896.77
489.948	16021.74
490.318	16241.62
490.688	16336.76
491.058	16550.99
491.428	16907.59
491.798	17019.45
492.168	17367.47
492.538	17400.46
492.908	17601.59
493.278	17848.81
493.648	17940.79
494.017	18146.43
494.387	18371.28
494.757	18453.54
495.126	18740.76
495.496	18823.93
495.866	19013.75
496.235	19179.4
496.605	19298.26
496.974	19460.75
497.344	19648.54
497.713	19856.89
498.082	20002.88
498.452	20216.88
498.821	20297.56
499.19	20359.7
499.559	20556.99
499.928	20720.6
500.298	20867.04
500.667	21165.79
501.036	21106.8
501.405	21447.13
501.774	21328.49
502.143	21550.86
502.512	21740.01
502.88	21848.71
503.249	21990.4
503.618	22101.35
503.987	22230.16
504.356	22415.92
504.724	22599.42
505.093	22645.75
505.462	22876.25
505.83	23015.45
506.199	23315.79
506.567	23442.79
506.936	23522.11
507.304	23878.48
507.672	23958.03
508.041	24009.33
508.409	24312.82
508.777	24412.48
509.145	24662.64
509.514	24621.97
509.882	24906.03
510.25	24896.31
510.618	25105.34
510.986	25360.25
511.354	25588.27
511.722	25807.02
512.09	25941.93
512.458	26002.72
512.826	26251.53
513.193	26399.55
513.561	26608.81
513.929	26792.76
514.297	27030.49
514.664	27307.09
515.032	27347.09
515.4	27686.52
515.767	27778.27
516.135	27886.74
516.502	27942.33
516.869	28413.96
517.237	28462.77
517.604	28500.96
517.972	28858.46
518.339	29073.15
518.706	29138.91
519.073	29351.56
519.44	29577.09
519.808	29875.16
520.175	29870.87
520.542	30444.86
520.909	30381.81
521.276	30589.72
521.643	30814.12
522.009	31073.32
522.376	31464.95
522.743	31525.96
523.11	31836.24
523.477	32174.31
523.843	32306.28
524.21	32673.05
524.577	32957.79
524.943	32920.5
525.31	33206.6
525.676	33557.1
526.043	33797.32
526.409	33924.32
526.776	34488.37
527.142	34545.55
527.508	34738.54
527.874	35038.64
528.241	35268.24
528.607	35359.54
528.973	35688.12
529.339	35730.83
529.705	36021.67
530.071	36322.22
530.437	36447.19
530.803	36679.28
531.169	36939.16
531.535	36954.3
531.901	37140.96
532.267	37233.61
532.632	37585.24
532.998	37783.88
533.364	37992.46
533.73	38282.85
534.095	38644.42
534.461	38602.84
534.826	38860.69
535.192	38912.21
535.557	39238.98
535.923	39163.05
536.288	39344.97
536.653	39622.93
537.019	39570.5
537.384	39801.68
537.749	39858.4
538.114	40036.93
538.479	40105.63
538.845	40457.71
539.21	40429.69
539.575	40712.62
539.94	40843.01
540.305	41012.5
540.67	41033.06
541.034	41077.13
541.399	41269.44
541.764	41356.89
542.129	41583.55
542.494	41718.01
542.858	41899.25
543.223	41981.96
543.587	42395.96
543.952	42301.27
544.316	42408.62
544.681	42459.69
545.045	42649.51
545.41	42966.34
545.774	42862.62
546.138	43094.93
546.503	43195.94
546.867	43155.04
547.231	43545.08
547.595	43618.3
547.959	43838.18
548.324	43815.13
548.688	43835.7
549.052	44210.38
549.416	44240.88
549.779	44357.49
550.143	44497.15
550.507	44858.27
550.871	44943.01
551.235	44867.31
551.599	45234.53
551.962	45398.82
552.326	45375.09
552.689	45696.44
553.053	45488.76
553.417	45764.23
553.78	46218.69
554.143	46095.3
554.507	46269.98
554.87	46425.91
555.234	46815.96
555.597	46689.18
555.96	46817.09
556.323	47052.56
556.686	47290.97
557.05	47405.1
557.413	47653
557.776	47591.31
558.139	47840.79
558.502	48044.4
558.865	48083.04
559.228	48352.19
559.59	48437.38
559.953	48512.86
560.316	48935
560.679	48985.39
561.041	49283.69
561.404	49459.5
561.767	49620.18
562.129	49450.47
562.492	49848.19
562.854	49890.45
563.217	49974.07
563.579	50072.14
563.941	50428.29
564.304	50552.58
564.666	50755.97
565.028	50740.37
565.39	50934.04
565.753	51108.05
566.115	51241.15
566.477	51345.1
566.839	51382.17
567.201	51766.11
567.563	51639.11
567.925	51984.64
568.287	51984.41
568.648	52090.62
569.01	52207.68
569.372	52496.49
569.734	52392.08
570.095	52633.66
570.457	52667.1
570.819	52822.58
571.18	52778.97
571.542	52984.61
571.903	52931.05
572.265	53111.84
572.626	53270.93
572.987	53338.05
573.349	53362.23
573.71	53551.15
574.071	53635.67
574.432	53630.02
574.794	53897.13
575.155	53776.91
575.516	53716.34
575.877	53985.04
576.238	53990.91
576.599	54029.33
576.96	54095.99
577.32	54161.3
577.681	54243.11
578.042	54344.12
578.403	54340.51
578.763	54420.96
579.124	54497.79
579.485	54488.3
579.845	54613.27
580.206	54495.98
580.566	54570.1
580.927	54606.26
581.287	54761.96
581.648	54665.24
582.008	54789.76
582.368	54748.63
582.728	54823.21
583.089	54721.97
583.449	54677.9
583.809	54801.51
584.169	54891
584.529	54734.62
584.889	54986.36
585.249	54745.69
585.609	54731.68
585.969	54970.32
586.329	54867.5
586.688	54944.78
587.048	54866.82
587.408	54852.81
587.768	54827.73
588.127	54837.44
588.487	54730.78
588.846	54923.54
589.206	54904.11
589.565	54861.62
589.925	55047.61
590.284	54845.8
590.643	55047.83
591.003	55029.53
591.362	55132.35
591.721	55030.43
592.08	55081.05
592.44	55175.74
592.799	55132.58
593.158	55028.85
593.517	55091.67
593.876	55151.78
594.235	55122.86
594.593	55125.12
594.952	55214.38
595.311	55015.74
595.67	55130.32
596.029	55254.61
596.387	55243.76
596.746	55336.41
597.104	55211.44
597.463	55192.01
597.822	55380.48
598.18	55301.16
598.538	55255.51
598.897	55434.49
599.255	55247.83
599.613	55574.82
599.972	55333.7
600.33	55484.2
600.688	55399.24
601.046	55522.4
601.404	55684.88
601.762	55543.64
602.12	55650.08
602.478	55590.87
602.836	55684.2
603.194	55508.61
603.552	55620.47
603.91	55588.61
604.268	55709.96
604.625	55662.28
604.983	55838.77
605.341	55670.19
605.698	55812.11
606.056	55791.77
606.413	55860.01
606.771	55935.49
607.128	55981.37
607.485	55837.42
607.843	55901.82
608.2	55947.92
608.557	56073.79
608.914	55939.56
609.272	56050.97
609.629	56143.85
609.986	56283.51
610.343	56091.19
610.7	56269.27
611.057	56307.69
611.414	56259.55
611.771	56305.2
612.127	56364.86
612.484	56370.74
612.841	56427.23
613.198	56314.47
613.554	56376.16
613.911	56474.91
614.267	56512.43
614.624	56469.94
614.98	56539.77
615.337	56688.69
615.693	56632.42
616.05	56582.48
616.406	56773.21
616.762	56635.59
617.118	56618.19
617.475	56643.04
617.831	56745.19
618.187	56772.76
618.543	56759.88
618.899	56885.98
619.255	56854.79
619.611	56823.15
619.967	56965.07
620.323	56890.72
620.678	56871.74
621.034	56817.73
621.39	56755.58
621.746	56829.93
622.101	57065.63
622.457	56891.85
622.812	56910.83
623.168	57066.99
623.523	57007.1
623.879	57036.03
624.234	56848.24
624.589	57018.63
624.945	56951.74
625.3	56946.31
625.655	56985.41
626.01	56998.74
626.365	56967.33
626.72	56975.01
627.075	56998.06
627.43	56917.39
627.785	56859.99
628.14	56929.82
628.495	56876.48
628.85	56822.02
629.205	56782.7
629.559	56952.87
629.914	56735.02
630.269	56823.15
630.623	56763.27
630.978	56688.24
631.332	56792.19
631.687	56821.57
632.041	56644.85
632.396	56786.54
632.75	56646.43
633.104	56642.14
633.459	56545.19
633.813	56551.75
634.167	56554.23
634.521	56459.09
634.875	56605.76
635.229	56546.1
635.583	56369.83
635.937	56382.26
636.291	56280.79
636.645	56374.13
636.999	56245.54
637.352	56350.62
637.706	56190.85
638.06	56256.39
638.413	56191.76
638.767	56100.46
639.121	56147.01
639.474	55986.79
639.828	55954.25
640.181	55981.14
640.534	56053
640.888	55930.29
641.241	55895.49
641.594	55930.97
641.947	55953.12
642.301	55853.69
642.654	55823.41
643.007	55860.24
643.36	55815.72
643.713	55712.22
644.066	55796.97
644.419	55589.29
644.771	55415.73
645.124	55194.72
645.477	55116.08
645.83	54918.8
646.182	54723.32
646.535	54732.59
646.888	54723.1
647.24	54680.84
647.593	54786.14
647.945	54700.95
648.298	54524.91
648.65	54385.02
649.002	54363.56
649.355	54479.03
649.707	54402.88
650.059	54621.18
650.411	54903.43
650.763	54933.03
651.115	55186.81
651.467	55118.56
651.819	55090.54
652.171	54974.84
652.523	54966.7
652.875	54947.5
653.227	54717.67
653.578	54958.8
653.93	54841.06
654.282	54652.36
654.633	54587.96
654.985	54653.94
655.337	54727.39
655.688	54787.73
656.039	54707.28
656.391	54554.74
656.742	54547.96
657.094	54600.84
657.445	54754.51
657.796	54650.78
658.147	54610.56
658.498	54552.25
658.849	54576.43
659.2	54496.21
659.551	54453.95
659.902	54578.47
660.253	54553.61
660.604	54661.85
660.955	54389.09
661.306	54409.2
661.656	54367.17
662.007	54373.5
662.358	54331.47
662.708	54369.21
663.059	54318.59
663.409	54118.37
663.76	54291.92
664.11	54225.93
664.461	54202.66
664.811	54252.37
665.161	54211.92
665.511	54276.78
665.862	54210.79
666.212	54387.06
666.562	54296.21
666.912	54252.15
667.262	54147.97
667.612	54308.42
667.962	54220.06
668.312	54217.35
668.662	54266.16
669.011	54114.52
669.361	54055.09
669.711	54069.33
670.06	54034.75
670.41	53988.43
670.76	53995.2
671.109	54042.21
671.459	53987.3
671.808	53994.07
672.157	54015.54
672.507	53789.11
672.856	53901.87
673.205	53924.47
673.554	53943.45
673.904	53813.97
674.253	54016.22
674.602	53845.15
674.951	53472.05
675.3	53261.44
675.649	53798.37
675.998	53777.36
676.346	53685.16
676.695	53875.89
677.044	53556.57
677.393	53674.76
677.741	53781.42
678.09	53579.85
678.438	53534.88
678.787	53569.91
679.135	53661.2
679.484	53409.46
679.832	53519.51
680.181	53361.1
680.529	53493.75
680.877	53325.39
681.225	53209.24
681.573	53451.49
681.922	53258.73
682.27	53114.32
682.618	53155
682.966	53053.08
683.314	53079.52
683.661	52974.67
684.009	52816.48
684.357	52778.51
684.705	52751.4
685.053	52806.76
685.4	52730.83
685.748	52562.47
686.095	52433.66
686.443	52385.53
686.79	52274.8
687.138	52398.86
687.485	52419.65
687.832	52231.41
688.18	52310.73
688.527	52063.96
688.874	52039.78
689.221	52038.65
689.568	51908.03
689.915	51861.7
690.262	51889.27
690.609	51736.05
690.956	51601.82
691.303	51443.63
691.65	51315.5
691.997	51435.5
692.344	51219.91
692.69	51154.6
693.037	51297.87
693.383	50927.04
693.73	51128.39
694.077	50837.1
694.423	50687.27
694.769	50615.63
695.116	50503.32
695.462	50519.36
695.808	50486.37
696.155	50523.43
696.501	50226.04
696.847	50302.87
697.193	50003.22
697.539	50189.43
697.885	49850.68
698.231	49840.29
698.577	49792.6
698.923	49690.01
699.269	49441.2
699.614	49285.05
699.96	49224.93
700.306	49260.19
700.651	49185.84
700.997	49094.77
701.342	48923.47
701.688	48805.28
702.033	48718.96
702.379	48624.5
702.724	48580.21
703.069	48608.68
703.415	48168.69
703.76	48192.42
704.105	48231.06
704.45	48008.7
704.795	47709.95
705.14	47685.54
705.485	47773
705.83	47633.79
706.175	47662.49
706.52	47475.15
706.865	47416.17
707.209	47328.94
707.554	47243.52
707.899	47356.28
708.243	46935.96
708.588	47046.46
708.932	46726.47
709.277	46780.7
709.621	46770.08
709.966	46609.18
710.31	46611.22
710.654	46134.39
710.998	46295.97
711.342	46331.9
711.687	46159.48
712.031	46003.32
712.375	45830
712.719	45935.08
713.063	45849.43
713.407	45845.36
713.75	45672.49
714.094	45658.47
714.438	45443.57
714.782	45557.23
715.125	45269.11
715.469	45360.4
715.812	45032.73
716.156	44905.05
716.499	44913.41
716.843	44978.94
717.186	44615.56
717.53	44920.19
717.873	44908.66
718.216	44758.39
718.559	44608.56
718.902	44430.48
719.246	44499.41
719.589	44253.09
719.932	44212.86
720.275	44155.46
720.617	44001.8
720.96	44004.28
721.303	43904.4
721.646	43925.41
721.989	43689.26
722.331	43863.72
722.674	43629.38
723.016	43724.51
723.359	43565.2
723.701	43635.7
724.044	43371.08
724.386	43142.83
724.729	43413.79
725.071	43131.08
725.413	43134.93
725.755	42999.56
726.097	42867.36
726.439	42782.62
726.782	42736.07
727.124	42879.56
727.465	42648.16
727.807	42608.16
728.149	42526.81
728.491	42461.04
728.833	42476.86
729.175	42303.08
729.516	42186.48
729.858	42140.83
730.199	42222.18
730.541	42205.46
730.882	42023.54
731.224	42143.09
731.565	41777.9
731.906	41755.53
732.248	41916.2
732.589	41622.42
732.93	41517.79
733.271	41543.55
733.612	41554.4
733.953	41518.7
734.294	41350.79
734.635	41401.41
734.976	41348.31
735.317	41322.32
735.658	41017.92
735.999	41162.77
736.339	41074.41
736.68	41155.09
737.021	40879.17
737.361	40791.03
737.702	41067.41
738.042	40753.74
738.383	40727.76
738.723	40641.21
739.063	40445.96
739.404	40585.61
739.744	40459.52
740.084	40356.02
740.424	40433.3
740.764	40206.19
741.104	40330.03
741.444	40085.74
741.784	39887.55
742.124	39889.36
742.464	39827.67
742.804	39881.45
743.143	39724.85
743.483	39889.81
743.823	39566.66
744.162	39568.92
744.502	39688.24
744.841	39529.82
745.181	39588.13
745.52	39404.85
745.86	39294.35
746.199	39434.46
746.538	39106.33
746.877	39227.23
747.216	39150.62
747.556	39018.65
747.895	38984.3
748.234	38864.75
748.573	38791.99
748.911	38669.28
749.25	38707.24
749.589	38470.42
749.928	38636.74
750.267	38379.34
750.605	38320.81
750.944	38204.89
751.283	38244.66
751.621	38333.02
751.96	37952.91
752.298	37976.64
752.636	38058
