Data from plate_ceramic_FLMS001491_083.txt Node
Date: Tue Feb 07 11:17:24 GMT 2017
User: dcchb
Spectrometer: FLMS00149
Trigger mode: 0
Integration Time (sec): 2.000000E-2
Scans to average: 10
Electric dark correction enabled: true
Nonlinearity correction enabled: false
Boxcar width: 0
XAxis mode: Wavelengths
Number of Pixels in Spectrum: 2048
>>>>>Begin Spectral Data<<<<<
341.393	8.49
341.776	8.49
342.16	8.49
342.543	-57.72
342.927	-58.18
343.31	-64.05
343.693	-67.44
344.077	-63.37
344.46	-53.88
344.843	-42.81
345.226	-47.33
345.61	-35.35
345.993	-17.05
346.376	-8.69
346.759	0.81
347.142	13.69
347.525	35.61
347.908	55.27
348.291	85.77
348.674	96.4
349.057	112.44
349.44	114.25
349.823	165.09
350.206	176.62
350.588	226.79
350.971	227.69
351.354	244.41
351.737	250.29
352.119	266.56
352.502	281.02
352.884	276.05
353.267	309.5
353.65	334.81
354.032	318.31
354.414	337.75
354.797	331.64
355.179	354.47
355.562	359.89
355.944	353.56
356.326	335.26
356.709	361.93
357.091	384.52
357.473	346.11
357.855	382.94
358.238	375.26
358.62	378.42
359.002	360.8
359.384	357.86
359.766	366.67
360.148	349.04
360.53	360.8
360.912	365.77
361.294	374.35
361.676	355.82
362.057	366.67
362.439	348.37
362.821	354.24
363.203	354.47
363.584	358.99
363.966	350.4
364.348	351.53
364.729	362.83
365.111	362.83
365.493	359.67
365.874	360.34
366.256	359.21
366.637	356.05
367.019	354.24
367.4	350.85
367.781	342.94
368.163	366.67
368.544	366.22
368.925	353.34
369.306	359.44
369.688	359.44
370.069	352.21
370.45	351.76
370.831	355.15
371.212	355.15
371.593	355.37
371.974	362.38
372.355	357.86
372.736	366.9
373.117	374.58
373.498	360.57
373.879	374.81
374.26	375.48
374.641	372.55
375.021	351.76
375.402	359.21
375.783	370.06
376.163	393.34
376.544	424.75
376.925	396.95
377.305	390.17
377.686	387.91
378.066	401.47
378.447	376.39
378.827	420.46
379.208	404.86
379.588	384.98
379.968	425.43
380.349	393.79
380.729	431.3
381.109	418.42
381.489	413.68
381.87	430.4
382.25	425.65
382.63	427.23
383.01	425.2
383.39	427.69
383.77	432.21
384.15	434.24
384.53	442.6
384.91	446.67
385.29	450.96
385.67	442.6
386.049	438.76
386.429	438.08
386.809	474.46
387.189	461.58
387.568	464.07
387.948	469.27
388.328	484.18
388.707	464.97
389.087	477.18
389.466	482.15
389.846	489.15
390.225	508.59
390.605	511.3
390.984	512.2
391.363	513.79
391.743	509.27
392.122	531.64
392.501	519.44
392.881	527.57
393.26	537.51
393.639	542.49
394.018	543.39
394.397	536.38
394.776	546.78
395.155	560.79
395.534	550.85
395.913	527.34
396.292	581.13
396.671	564.63
397.05	578.19
397.429	577.51
397.808	564.41
398.186	597.4
398.565	570.73
398.944	597.4
399.323	585.42
399.701	606.89
400.08	605.08
400.458	628.81
400.837	596.5
401.215	631.3
401.594	629.72
401.972	629.26
402.351	651.41
402.729	630.39
403.107	662.93
403.486	642.14
403.864	673.56
404.242	657.28
404.62	680.34
404.999	697.74
405.377	696.38
405.755	689.83
406.133	698.64
406.511	714.01
406.889	732.31
407.267	727.34
407.645	754.23
408.023	765.3
408.401	747.23
408.779	766.21
409.156	790.16
409.534	782.03
409.912	800.11
410.29	800.33
410.667	813.44
411.045	811.63
411.422	855.47
411.8	831.97
412.178	861.35
412.555	855.02
412.933	873.1
413.31	873.1
413.687	870.84
414.065	917.17
414.442	928.46
414.819	916.71
415.197	946.99
415.574	942.7
415.951	933.44
416.328	943.83
416.705	955.58
417.082	997.84
417.46	974.56
417.837	1008.46
418.214	1024.73
418.591	1038.52
418.967	1027.67
419.344	1041.23
419.721	1035.13
420.098	1057.27
420.475	1041.91
420.852	1045.07
421.228	1105.18
421.605	1097.95
421.982	1090.27
422.358	1132.07
422.735	1130.27
423.111	1119.42
423.488	1127.78
423.864	1147.44
424.241	1180.21
424.617	1161.68
424.994	1187.21
425.37	1194.9
425.746	1231.73
426.123	1203.26
426.499	1248.68
426.875	1256.82
427.251	1288
427.627	1305.63
428.003	1316.93
428.379	1331.39
428.756	1346.76
429.132	1351.5
429.507	1372.75
429.883	1409.81
430.259	1417.49
430.635	1383.82
431.011	1429.92
431.387	1454.78
431.763	1454.78
432.138	1510.6
432.514	1535.23
432.89	1539.07
433.265	1565.28
433.641	1594.89
434.016	1583.81
434.392	1619.75
434.767	1623.59
435.143	1655.9
435.518	1675.34
435.894	1677.82
436.269	1737.93
436.644	1725.73
437.02	1761.89
437.395	1724.15
437.77	1769.35
438.145	1791.49
438.52	1797.59
438.895	1808.22
439.271	1847.99
439.646	1881.43
440.021	1869
440.395	1895.44
440.77	1865.39
441.145	1898.61
441.52	1953.97
441.895	1942.67
442.27	1952.17
442.645	1970.02
443.019	1993.97
443.394	2008.89
443.769	2009.11
444.143	1993.3
444.518	2052.28
444.892	2039.17
445.267	2057.02
445.641	2096.12
446.016	2066.74
446.39	2111.48
446.764	2134.53
447.139	2133.4
447.513	2140.64
447.887	2182.44
448.262	2173.86
448.636	2166.85
449.01	2204.59
449.384	2215.44
449.758	2256.11
450.132	2264.93
450.506	2280.07
450.88	2290.91
451.254	2287.75
451.628	2353.74
452.002	2367.75
452.376	2374.53
452.75	2410.01
453.123	2404.81
453.497	2468.31
453.871	2487.29
454.244	2541.53
454.618	2566.61
454.992	2573.62
455.365	2606.84
455.739	2635.76
456.112	2654.97
456.486	2728.42
456.859	2720.51
457.232	2804.57
457.606	2794.63
457.979	2811.13
458.352	2848.19
458.725	2944.68
459.099	2912.59
459.472	2944.46
459.845	3014.74
460.218	3036.88
460.591	3104.23
460.964	3080.5
461.337	3174.73
461.71	3206.14
462.083	3219.03
462.456	3292.02
462.829	3247.73
463.201	3365.01
463.574	3366.59
463.947	3393.03
464.32	3483.43
464.692	3499.24
465.065	3517.55
465.438	3540.82
465.81	3605.68
466.183	3639.58
466.555	3760.25
466.928	3748.73
467.3	3804.09
467.672	3834.6
468.045	3953.02
468.417	3913.24
468.789	3983.98
469.161	4049.06
469.534	4111.21
469.906	4184.65
470.278	4224.87
470.65	4218.1
471.022	4337.64
471.394	4427.13
471.766	4477.3
472.138	4525.88
472.51	4603.4
472.882	4673.68
473.253	4704.41
473.625	4766.56
473.997	4914.12
474.369	4923.39
474.74	4944.4
475.112	5053.78
475.484	5144.4
475.855	5280.21
476.227	5288.12
476.598	5445.18
476.97	5503.49
477.341	5632.75
477.713	5701.22
478.084	5718.39
478.455	5877.94
478.827	5997.48
479.198	6131.72
479.569	6133.53
479.94	6290.81
480.311	6335.55
480.682	6525.15
481.053	6642.44
481.424	6750.68
481.795	6814.41
482.166	6932.37
482.537	6973.28
482.908	7154.06
483.279	7192.25
483.65	7443.1
484.021	7532.13
484.391	7629.98
484.762	7710.43
485.133	7716.08
485.503	7879.92
485.874	8047.6
486.244	8054.83
486.615	8213.47
486.985	8341.83
487.356	8562.84
487.726	8555.61
488.097	8793.57
488.467	8844.64
488.837	8999.89
489.207	9124.86
489.578	9253.44
489.948	9347.68
490.318	9471.29
490.688	9508.35
491.058	9628.57
491.428	9778.4
491.798	9831.96
492.168	10052.07
492.538	10112.63
492.908	10258.16
493.278	10297.26
493.648	10332.06
494.017	10556.69
494.387	10652.28
494.757	10747.87
495.126	10770.47
495.496	10912.38
495.866	10999.16
496.235	11144.47
496.605	11183.34
496.974	11254.97
497.344	11438.47
497.713	11398.02
498.082	11532.71
498.452	11722.53
498.821	11753.04
499.19	11818.35
499.559	11869.42
499.928	11961.85
500.298	12079.81
500.667	12202.52
501.036	12101.96
501.405	12375.62
501.774	12357.54
502.143	12500.36
502.512	12513.92
502.88	12726.12
503.249	12761.37
503.618	12802.28
503.987	12881.6
504.356	12917.53
504.724	13051.76
505.093	13128.37
505.462	13196.84
505.83	13230.97
506.199	13433.67
506.567	13646.1
506.936	13535.82
507.304	13764.28
507.672	13854.23
508.041	13943.26
508.409	13973.32
508.777	14155.69
509.145	14250.6
509.514	14296.02
509.882	14369.01
510.25	14437.94
510.618	14592.29
510.986	14660.76
511.354	14758.84
511.722	14911.83
512.09	15006.29
512.458	14992.95
512.826	15222.33
513.193	15354.75
513.561	15365.6
513.929	15437.69
514.297	15642.43
514.664	15695.08
515.032	15811.46
515.4	15920.84
515.767	16038.8
516.135	16182.98
516.502	16079.93
516.869	16444.89
517.237	16456.19
517.604	16472.46
517.972	16674.04
518.339	16827.48
518.706	16859.57
519.073	17072.9
519.44	17050.98
519.808	17376.85
520.175	17348.6
520.542	17604.64
520.909	17691.87
521.276	17716.27
521.643	18006.66
522.009	18029.71
522.376	18294.11
522.743	18246.88
523.11	18464.73
523.477	18577.27
523.843	18746.98
524.21	18961.44
524.577	19036.01
524.943	19175.44
525.31	19326.85
525.676	19438.49
526.043	19601.87
526.409	19683.45
526.776	19898.59
527.142	20059.49
527.508	20135.42
527.874	20222.65
528.241	20411.79
528.607	20474.62
528.973	20756.64
529.339	20747.83
529.705	20968.39
530.071	21128.84
530.437	21231.43
530.803	21331.32
531.169	21475.95
531.535	21566.79
531.901	21710.97
532.267	21684.53
532.632	21856.28
532.998	21868.93
533.364	22016.05
533.73	22232.54
534.095	22355.92
534.461	22426.66
534.826	22478.63
535.192	22717.5
535.557	22889.47
535.923	22940.99
536.288	23012.18
536.653	23153.64
537.019	23109.35
537.384	23176.24
537.749	23335.78
538.114	23390.02
538.479	23363.13
538.845	23534.42
539.21	23604.93
539.575	23699.84
539.94	23833.17
540.305	24045.82
540.67	23927.86
541.034	24077.46
541.399	24253.73
541.764	24251.47
542.129	24409.65
542.494	24474.29
542.858	24566.03
543.223	24608.75
543.587	24818.01
543.952	24699.14
544.316	24860.49
544.681	24861.62
545.045	25051.45
545.41	25168.28
545.774	25223.87
546.138	25219.8
546.503	25251.21
546.867	25310.87
547.231	25683.29
547.595	25754.03
547.959	25734.14
548.324	25866.79
548.688	25956.28
549.052	26058.42
549.416	26209.16
549.779	26194.24
550.143	26394.46
550.507	26495.25
550.871	26575.25
551.235	26448.92
551.599	26778.41
551.962	26796.03
552.326	26871.74
552.689	27047.78
553.053	26944.28
553.417	27105.86
553.78	27569.35
554.143	27357.83
554.507	27484.38
554.87	27566.63
555.234	27895.21
555.597	27810.24
555.96	27920.97
556.323	28112.38
556.686	28155.09
557.05	28527.06
557.413	28452.94
557.776	28561.86
558.139	28701.52
558.502	28896.09
558.865	28994.17
559.228	29247.49
559.59	29256.08
559.953	29258.34
560.316	29606.35
560.679	29597.54
561.041	29794.6
561.404	29961.37
561.767	30151.65
562.129	30202.72
562.492	30486.33
562.854	30534.92
563.217	30521.81
563.579	30712.99
563.941	30841.8
564.304	30947.79
564.666	31179.42
565.028	31276.14
565.39	31525.85
565.753	31532.86
566.115	31672.97
566.477	31729.24
566.839	31853.53
567.201	32039.96
567.563	32230.01
567.925	32430.69
568.287	32578.25
568.648	32511.14
569.01	32650.34
569.372	32999.71
569.734	32778.02
570.095	33196.99
570.457	33245.13
570.819	33309.53
571.18	33257.11
571.542	33591.79
571.903	33611.9
572.265	33715.17
572.626	33865
572.987	34002.4
573.349	34161.94
573.71	34248.72
574.071	34311.54
574.432	34393.8
574.794	34652.1
575.155	34517.64
575.516	34557.86
575.877	34707.46
576.238	34730.51
576.599	34990.85
576.96	34973.22
577.32	35045.76
577.681	35166.89
578.042	35218.86
578.403	35228.58
578.763	35299.99
579.124	35405.3
579.485	35687.78
579.845	35611.39
580.206	35488.69
580.566	35493.66
580.927	35509.7
581.287	35742.24
581.648	35569.36
582.008	35645.29
582.368	35693.2
582.728	35722.35
583.089	35811.16
583.449	35801.67
583.809	35867.43
584.169	35941.78
584.529	35859.52
584.889	36110.36
585.249	35847.55
585.609	35946.98
585.969	36248.44
586.329	35935.68
586.688	35990.37
587.048	36022
587.408	35965.74
587.768	35901.1
588.127	36003.93
588.487	35959.63
588.846	36186.29
589.206	36000.08
589.565	36013.87
589.925	36206.63
590.284	36044.6
590.643	36101.55
591.003	36234.65
591.362	36423.12
591.721	36073.75
592.08	36263.58
592.44	36427.19
592.799	36338.83
593.158	36348.32
593.517	36264.71
593.876	36401.66
594.235	36340.87
594.593	36453.41
594.952	36503.12
595.311	36398.49
595.67	36506.96
596.029	36777.47
596.387	36682.78
596.746	36852.94
597.104	36583.8
597.463	36595.32
597.822	36709.67
598.18	36502.9
598.538	36640.97
598.897	36960.06
599.255	36594.19
599.613	37059.72
599.972	36707.86
600.33	36857.46
600.688	36793.06
601.046	37001.87
601.404	36984.69
601.762	36866.5
602.12	37217.91
602.478	37113.5
602.836	37171.35
603.194	37123.44
603.552	37083.22
603.91	37012.49
604.268	37292.25
604.625	37113.5
604.983	37235.98
605.341	37074.18
605.698	37260.62
606.056	37485.7
606.413	37428.3
606.771	37525.02
607.128	37581.06
607.485	37470.1
607.843	37536.77
608.2	37555.98
608.557	37717.55
608.914	37497.67
609.272	37785.12
609.629	37825.35
609.986	37958
610.343	37763.65
610.7	38000.26
611.057	38018.56
611.414	38034.38
611.771	37944.21
612.127	38133.14
612.484	38031.67
612.841	38341.94
613.198	38140.82
613.554	38117.32
613.911	38449.96
614.267	38355.05
614.624	38379.23
614.98	38428.04
615.337	38657.42
615.693	38552.33
616.05	38418.78
616.406	38727.92
616.762	38725.66
617.118	38547.36
617.475	38549.4
617.831	38715.27
618.187	38786.68
618.543	38589.85
618.899	38851.53
619.255	38767.02
619.611	38811.31
619.967	38905.09
620.323	39030.97
620.678	38870.52
621.034	38898.54
621.39	38890.18
621.746	38781.93
622.101	39367.68
622.457	38883.4
622.812	39033
623.168	39079.78
623.523	39050.85
623.879	39205.65
624.234	38738.54
624.589	39065.09
624.945	39164.52
625.3	39064.86
625.655	38956.84
626.01	39051.53
626.365	39080.91
626.72	39033
627.075	38981.48
627.43	39000.68
627.785	38795.27
628.14	39010.17
628.495	39058.54
628.85	38891.53
629.205	38856.28
629.559	39125.88
629.914	38864.64
630.269	38974.92
630.623	38803.4
630.978	38734.02
631.332	38907.8
631.687	38941.02
632.041	38616.51
632.396	38716.62
632.75	38596.63
633.104	38665.33
633.459	38578.32
633.813	38439.79
634.167	38440.92
634.521	38416.07
634.875	38527.02
635.229	38383.52
635.583	38219.24
635.937	38257.43
636.291	38278.44
636.645	38367.48
636.999	38086.13
637.352	38306.46
637.706	37960.03
638.06	38036.42
638.413	37959.13
638.767	37868.96
639.121	37926.14
639.474	37659.93
639.828	37760.94
640.181	37645.69
640.534	37792.58
640.888	37619.93
641.241	37477.56
641.594	37616.77
641.947	37720.94
642.301	37543.09
642.654	37624.45
643.007	37595.07
643.36	37434.85
643.713	37407.73
644.066	37519.82
644.419	37125.03
644.771	36864.69
645.124	36457.02
645.477	36436.46
645.83	36335.89
646.182	36258.83
646.535	36096.13
646.888	36296.57
647.24	36006.41
647.593	36225.16
647.945	36157.59
648.298	36055.45
648.65	35930.93
649.002	35695.46
649.355	35802.58
649.707	35810.94
650.059	35914.66
650.411	36381.54
650.763	36304.94
651.115	36582.44
651.467	36690.91
651.819	36649.78
652.171	36497.47
652.523	36535.89
652.875	36402.11
653.227	36349.23
653.578	36410.02
653.93	36297.7
654.282	36425.38
654.633	36211.6
654.985	36128.67
655.337	36245.28
655.688	36185.62
656.039	36384.03
656.391	35983.36
656.742	36032.4
657.094	35962.35
657.445	36036.92
657.796	36137.03
658.147	36029.01
658.498	36079.18
658.849	36026.07
659.2	36001.21
659.551	35955.79
659.902	35858.17
660.253	35975.23
660.604	36029.01
660.955	35792.18
661.306	35876.02
661.656	35868.11
662.007	35736.81
662.358	35801.67
662.708	35779.98
663.059	35778.4
663.409	35517.61
663.76	35692.3
664.11	35829.47
664.461	35757.83
664.811	35853.65
665.161	35635.12
665.511	35624.73
665.862	35577.27
666.212	35672.64
666.562	35769.36
666.912	35676.7
667.262	35535.46
667.612	35520.78
667.962	35531.62
668.312	35476.71
668.662	35605.97
669.011	35455.24
669.361	35410.27
669.711	35358.97
670.06	35396.94
670.41	35311.29
670.76	35182.03
671.109	35400.1
671.459	35229.94
671.808	35287.79
672.157	35340.44
672.507	34944.29
672.856	35046.89
673.205	35107.23
673.554	35316.03
673.904	35127.79
674.253	35402.13
674.602	35189.26
674.951	34631.76
675.3	34569.61
675.649	35105.64
675.998	35039.21
676.346	34921.47
676.695	35160.78
677.044	34687.58
677.393	34921.47
677.741	34920.34
678.09	34900
678.438	34587.47
678.787	34797.86
679.135	34859.78
679.484	34566.45
679.832	34810.96
680.181	34494.14
680.529	34625.21
680.877	34450.75
681.225	34521.93
681.573	34640.57
681.922	34251.66
682.27	34288.27
682.618	34359.68
682.966	34255.05
683.314	34308.83
683.661	34168.95
684.009	34098.89
684.357	33957.2
684.705	33858.22
685.053	33897.54
685.4	33865.9
685.748	33879.46
686.095	33684.21
686.443	33517.89
686.79	33547.72
687.138	33551.11
687.485	33622.75
687.832	33307.27
688.18	33536.42
688.527	33328.97
688.874	33207.16
689.221	33196.99
689.568	33073.83
689.915	33029.77
690.262	32942.76
690.609	32832.03
690.956	32806.27
691.303	32845.82
691.65	32666.61
691.997	32646.95
692.344	32330.8
692.69	32483.57
693.037	32480.63
693.383	32194.08
693.73	32279.96
694.077	32154.31
694.423	32174.65
694.769	32098.04
695.116	32003.81
695.462	31916.12
695.808	31799.29
696.155	31856.46
696.501	31595
696.847	31579.86
697.193	31324.28
697.539	31411.5
697.885	31204.5
698.231	31122.02
698.577	31182.81
698.923	31081.57
699.269	30882.03
699.614	30841.58
699.96	30721.35
700.306	30765.87
700.651	30581.92
700.997	30435.26
701.342	30504.86
701.688	30421.93
702.033	30261.93
702.379	30282.04
702.724	30158.43
703.069	30219.9
703.415	29947.36
703.76	29801.83
704.105	29913.24
704.45	29717.54
704.795	29597.31
705.14	29550.54
705.485	29523.64
705.83	29282.75
706.175	29555.06
706.52	29525.23
706.865	29375.63
707.209	29302.41
707.554	29094.5
707.899	29198.46
708.243	29029.65
708.588	29115.75
708.932	28785.13
709.277	28800.27
709.621	28847.05
709.966	28608.19
710.31	28689.09
710.654	28488.87
710.998	28483.22
711.342	28454.07
711.687	28330.46
712.031	28228.76
712.375	28268.54
712.719	28281.19
713.063	28162.55
713.407	28196
713.75	28004.36
714.094	27976.57
714.438	27902.44
714.782	27908.09
715.125	27783.35
715.469	27869.22
715.812	27753.75
716.156	27539.29
716.499	27490.7
716.843	27555.79
717.186	27382.68
717.53	27398.5
717.873	27473.76
718.216	27232.63
718.559	27271.95
718.902	27084.16
719.246	27278.73
719.589	27097.27
719.932	26932.53
720.275	26938.63
720.617	26966.88
720.96	26777.05
721.303	26953.32
721.646	26885.07
721.989	26626.09
722.331	26733.44
722.674	26648.24
723.016	26584.06
723.359	26500
723.701	26592.87
724.044	26313.79
724.386	26203.73
724.729	26485.08
725.071	26451.86
725.413	26334.58
725.755	26238.08
726.097	26111.08
726.439	26104.75
726.782	26064.53
727.124	26171.87
727.465	26074.24
727.807	25936.85
728.149	25868.6
728.491	25755.83
728.833	25929.61
729.175	25754.03
729.516	25670.86
729.858	25815.27
730.199	25747.7
730.541	25674.48
730.882	25581.6
731.224	25695.5
731.565	25452.11
731.906	25506.58
732.248	25544.54
732.589	25345.22
732.93	25306.81
733.271	25296.41
733.612	25306.58
733.953	25289.18
734.294	25187.26
734.635	25191.1
734.976	25241.72
735.317	25138.68
735.658	25138.45
735.999	25181.16
736.339	25071.11
736.68	25036.53
737.021	24962.63
737.361	24871.34
737.702	24994.27
738.042	24795.41
738.383	24789.98
738.723	24817.33
739.063	24695.97
739.404	24748.85
739.744	24631.34
740.084	24548.86
740.424	24625.47
740.764	24593.38
741.104	24571.01
741.444	24596.54
741.784	24446.26
742.124	24434.96
742.464	24404.46
742.804	24270.9
743.143	24334.63
743.483	24364.68
743.823	24141.19
744.162	24161.53
744.502	24191.81
744.841	23987.74
745.181	24155.65
745.52	23965.6
745.86	24040.62
746.199	23829.78
746.538	23960.18
746.877	23932.15
747.216	23858.26
747.556	23802.67
747.895	23773.97
748.234	23580.07
748.573	23685.38
748.911	23657.36
749.25	23625.49
749.589	23410.59
749.928	23421.88
750.267	23408.78
750.605	23273.19
750.944	23255.11
751.283	23220.31
751.621	23356.35
751.96	23092.63
752.298	23118.39
752.636	23179.18
752.975	22980.54
753.313	22951.84
753.651	23063.93
753.989	22883.14
