Data from plate_ceramic_FLMS001491_042.txt Node
Date: Tue Feb 07 11:16:49 GMT 2017
User: dcchb
Spectrometer: FLMS00149
Trigger mode: 0
Integration Time (sec): 2.000000E-2
Scans to average: 10
Electric dark correction enabled: true
Nonlinearity correction enabled: false
Boxcar width: 0
XAxis mode: Wavelengths
Number of Pixels in Spectrum: 2048
>>>>>Begin Spectral Data<<<<<
341.393	-23.19
341.776	-23.19
342.16	-23.19
342.543	-38.78
342.927	-74.94
343.31	-80.59
343.693	-62.74
344.077	-58.67
344.46	-73.81
344.843	-53.02
345.226	-55.96
345.61	-18.67
345.993	4.6
346.376	-6.02
346.759	-3.76
347.142	27.65
347.525	47.09
347.908	66.75
348.291	82.34
348.674	91.61
349.057	93.19
349.44	126.41
349.823	143.13
350.206	167.99
350.588	199.4
350.971	221.32
351.354	235.78
351.737	231.49
352.119	269.46
352.502	248.67
352.884	280.76
353.267	272.85
353.65	300.64
354.032	302.45
354.414	341.54
354.797	324.82
355.179	325.95
355.562	330.02
355.944	357.82
356.326	328.66
356.709	344.48
357.091	335.22
357.473	352.84
357.855	366.4
358.238	367.08
358.62	369.57
359.002	356.91
359.384	346.74
359.766	372.05
360.148	357.59
360.53	359.17
360.912	345.16
361.294	343.58
361.676	362.34
362.057	343.13
362.439	358.49
362.821	346.74
363.203	334.31
363.584	330.92
363.966	330.7
364.348	346.74
364.729	360.75
365.111	324.14
365.493	328.21
365.874	354.2
366.256	346.06
366.637	329.79
367.019	321.88
367.4	346.74
367.781	349
368.163	358.72
368.544	337.48
368.925	341.54
369.306	359.17
369.688	335.44
370.069	352.62
370.45	341.54
370.831	344.93
371.212	361.88
371.593	351.94
371.974	341.32
372.355	342.9
372.736	365.05
373.117	344.93
373.498	365.05
373.879	376.12
374.26	339.74
374.641	360.98
375.021	347.42
375.402	354.2
375.783	374.09
376.163	384.48
376.544	385.39
376.925	397.14
377.305	370.02
377.686	391.49
378.066	394.88
378.447	391.71
378.827	399.17
379.208	368.44
379.588	393.97
379.968	374.31
380.349	382
380.729	386.97
381.109	369.34
381.489	405.95
381.87	400.07
382.25	424.71
382.63	411.15
383.01	416.34
383.39	414.31
383.77	421.77
384.15	416.8
384.53	429
384.91	433.52
385.29	435.33
385.67	433.52
386.049	441.43
386.429	432.62
386.809	438.94
387.189	443.91
387.568	438.72
387.948	425.84
388.328	471.94
388.707	445.27
389.087	473.07
389.466	454.31
389.846	473.74
390.225	482.78
390.605	466.74
390.984	474.42
391.363	474.2
391.743	485.04
392.122	499.73
392.501	510.81
392.881	501.09
393.26	511.71
393.639	510.81
394.018	490.02
394.397	530.47
394.776	511.26
395.155	518.49
395.534	519.17
395.913	548.09
396.292	546.51
396.671	549.22
397.05	546.29
397.429	564.36
397.808	552.84
398.186	568.66
398.565	551.26
398.944	577.02
399.323	557.58
399.701	579.05
400.08	586.06
400.458	584.48
400.837	579.05
401.215	624.02
401.594	605.94
401.972	607.07
402.351	619.5
402.729	606.4
403.107	632.84
403.486	630.58
403.864	651.82
404.242	649.79
404.62	635.55
404.999	658.82
405.377	655.43
405.755	669.22
406.133	691.14
406.511	699.5
406.889	704.7
407.267	699.05
407.645	692.27
408.023	716.22
408.401	720.52
408.779	751.03
409.156	749.9
409.534	738.6
409.912	742.89
410.29	782.89
410.667	822.21
411.045	780.18
411.422	820.4
411.8	807.97
412.178	800.29
412.555	830.57
412.933	819.95
413.31	829.67
413.687	873.96
414.065	866.73
414.442	892.94
414.819	879.84
415.197	894.75
415.574	901.08
415.951	915.31
416.328	917.35
416.705	943.11
417.082	947.86
417.46	935.88
417.837	988.08
418.214	953.73
418.591	968.65
418.967	946.95
419.344	987.86
419.721	999.38
420.098	1007.74
420.475	1025.82
420.852	1016.33
421.228	1025.82
421.605	1037.8
421.982	1082.99
422.358	1076.89
422.735	1040.96
423.111	1088.87
423.488	1091.13
423.864	1096.55
424.241	1094.07
424.617	1135.87
424.994	1161.18
425.37	1136.33
425.746	1170.68
426.123	1174.52
426.499	1218.13
426.875	1213.84
427.251	1205.48
427.627	1245.02
428.003	1269.66
428.379	1264.01
428.756	1242.54
429.132	1301.97
429.507	1309.88
429.883	1307.85
430.259	1336.32
430.635	1333.38
431.011	1369.09
431.387	1391.23
431.763	1424.91
432.138	1451.8
432.514	1470.1
432.89	1462.65
433.265	1470.78
433.641	1521.17
434.016	1538.58
434.392	1529.31
434.767	1570.21
435.143	1572.25
435.518	1600.72
435.894	1602.08
436.269	1617.9
436.644	1645.92
437.02	1628.74
437.395	1654.5
437.77	1682.53
438.145	1699.25
438.52	1724.79
438.895	1754.16
439.271	1724.56
439.646	1821.73
440.021	1774.73
440.395	1815.63
440.77	1808.17
441.145	1815.4
441.52	1832.35
441.895	1857.21
442.27	1856.76
442.645	1856.08
443.019	1919.36
443.394	1927.04
443.769	1881.17
444.143	1943.76
444.518	1920.49
444.892	1949.86
445.267	1972.01
445.641	1962.52
446.016	1981.05
446.39	2027.15
446.764	2008.85
447.139	2016.53
447.513	2037.55
447.887	2054.49
448.262	2067.15
448.636	2086.13
449.01	2115.28
449.384	2104.44
449.758	2131.55
450.132	2167.94
450.506	2188.73
450.88	2181.04
451.254	2209.52
451.628	2228.05
452.002	2255.17
452.376	2282.96
452.75	2288.61
453.123	2311.44
453.497	2333.81
453.871	2363.86
454.244	2460.13
454.618	2415.39
454.992	2467.59
455.365	2494.26
455.739	2533.35
456.112	2532.45
456.486	2595.27
456.859	2607.7
457.232	2646.57
457.606	2637.98
457.979	2682.73
458.352	2736.06
458.725	2739.22
459.099	2772.67
459.472	2853.8
459.845	2892.21
460.218	2886.79
460.591	2941.7
460.964	2944.19
461.337	3021.25
461.71	3042.94
462.083	3112.55
462.456	3102.83
462.829	3141.92
463.201	3179.89
463.574	3207.46
463.947	3238.42
464.32	3304.18
464.692	3312.77
465.065	3388.7
465.438	3403.16
465.81	3465.53
466.183	3508.24
466.555	3586.88
466.928	3584.62
467.3	3614.45
467.672	3638.63
468.045	3746.2
468.417	3773.32
468.789	3842.92
469.161	3901
469.534	3921.11
469.906	3997.72
470.278	4044.95
470.65	4053.99
471.022	4107.1
471.394	4227.32
471.766	4261.89
472.138	4274.1
472.51	4379.18
472.882	4489.91
473.253	4549.8
473.625	4614.2
473.997	4666.63
474.369	4751.82
474.74	4795.21
475.112	4874.31
475.484	4936.45
475.855	5040.18
476.227	5108.43
476.598	5190.68
476.97	5266.39
477.341	5347.06
477.713	5470.22
478.084	5464.57
478.455	5600.16
478.827	5677.68
479.198	5867.05
479.569	5826.6
479.94	5980.94
480.311	6068.4
480.682	6179.36
481.053	6311.11
481.424	6427.49
481.795	6478.56
482.166	6608.27
482.537	6658.44
482.908	6865.21
483.279	6902.73
483.65	7054.14
484.021	7165.55
484.391	7287.58
484.762	7263.85
485.133	7405.31
485.503	7507.68
485.874	7691.41
486.244	7784.96
486.615	7923.94
486.985	8069.48
487.356	8137.5
487.726	8243.03
488.097	8369.58
488.467	8440.77
488.837	8570.03
489.207	8704.26
489.578	8904.48
489.948	8886.63
490.318	9078.49
490.688	9107.19
491.058	9271.48
491.428	9304.92
491.798	9455.88
492.168	9683.67
492.538	9653.84
492.908	9833.95
493.278	9901.97
493.648	9915.3
494.017	10093.38
494.387	10170.21
494.757	10203.66
495.126	10326.37
495.496	10441.84
495.866	10478.45
496.235	10668.73
496.605	10757.32
496.974	10833.92
497.344	10963.19
497.713	11020.81
498.082	11044.09
498.452	11228.72
498.821	11316.17
499.19	11259.22
499.559	11400.01
499.928	11565.2
500.298	11482.27
500.667	11679.78
501.036	11678.65
501.405	11821.69
501.774	11876.16
502.143	12003.84
502.512	12069.6
502.88	12210.39
503.249	12173.1
503.618	12289.93
503.987	12355.47
504.356	12418.52
504.724	12517.27
505.093	12559.98
505.462	12636.36
505.83	12759.07
506.199	12866.19
506.567	13008.78
506.936	13046.75
507.304	13178.04
507.672	13306.85
508.041	13306.4
508.409	13457.58
508.777	13554.08
509.145	13708.65
509.514	13696.45
509.882	13729.22
510.25	13826.84
510.618	13911.81
510.986	14078.13
511.354	14205.13
511.722	14261.18
512.09	14415.98
512.458	14415.98
512.826	14557.89
513.193	14695.07
513.561	14776.19
513.929	14951.56
514.297	14989.3
514.664	15137.31
515.032	15197.2
515.4	15354.71
515.767	15439
516.135	15494.59
516.502	15432.22
516.869	15795.83
517.237	15816.62
517.604	15895.94
517.972	16000.34
518.339	16126.89
518.706	16154.46
519.073	16349.03
519.44	16372.99
519.808	16654.11
520.175	16607.33
520.542	16895.69
520.909	16907.44
521.276	16994.67
521.643	17163.02
522.009	17321.21
522.376	17393.07
522.743	17524.6
523.11	17763.91
523.477	17889.11
523.843	18051.81
524.21	18258.14
524.577	18426.49
524.943	18513.72
525.31	18601.4
525.676	18725.92
526.043	18855.86
526.409	18979.7
526.776	19197.32
527.142	19343.08
527.508	19370.65
527.874	19627.37
528.241	19578.55
528.607	19666.69
528.973	20078.88
529.339	19896.06
529.705	20122.27
530.071	20325.2
530.437	20346.89
530.803	20514.35
531.169	20704.85
531.535	20654.68
531.901	20719.31
532.267	20858.97
532.632	21029.14
532.998	21114.56
533.364	21228.23
533.73	21361.11
534.095	21579.63
534.461	21611.27
534.826	21830.02
535.192	21787.08
535.557	21965.16
535.923	21940.52
536.288	22150.91
536.653	22224.13
537.019	22142.78
537.384	22293.51
537.749	22306.84
538.114	22498.48
538.479	22551.13
538.845	22655.08
539.21	22617.34
539.575	22760.62
539.94	22872.93
540.305	23019.59
540.67	23083.09
541.034	23145.01
541.399	23262.75
541.764	23379.58
542.129	23478.34
542.494	23520.14
542.858	23617.77
543.223	23617.99
543.587	23825.9
543.952	23752.45
544.316	23829.51
544.681	23887.37
545.045	24028.15
545.41	24184.08
545.774	24277.86
546.138	24341.59
546.503	24332.1
546.867	24382.95
547.231	24582.49
547.595	24631.08
547.959	24781.35
548.324	24855.02
548.688	24864.74
549.052	25000.11
549.416	25065.19
549.779	25124.85
550.143	25268.8
550.507	25398.06
550.871	25454.33
551.235	25523.03
551.599	25722.57
551.962	25774.77
552.326	25803.7
552.689	26130.92
553.053	25942
553.417	26111.71
553.78	26500.18
554.143	26354.87
554.507	26569.1
554.87	26552.83
555.234	26799.83
555.597	26775.2
555.96	26800.51
556.323	27006.83
556.686	26949.43
557.05	27136.09
557.413	27280.72
557.776	27345.58
558.139	27493.37
558.502	27671
558.865	27663.54
559.228	27896.53
559.59	28089.74
559.953	28105.11
560.316	28370.86
560.679	28432.11
561.041	28626.22
561.404	28610.18
561.767	28943.05
562.129	28794.58
562.492	29131.52
562.854	29054.46
563.217	29241.58
563.579	29341.69
563.941	29677.04
564.304	29728.57
564.666	29879.75
565.028	29948
565.39	30102.34
565.753	30288.33
566.115	30241.78
566.477	30395.9
566.839	30510.24
567.201	30709.79
567.563	30760.63
567.925	30966.95
568.287	31048.53
568.648	31188.64
569.01	31294.18
569.372	31465.7
569.734	31480.61
570.095	31724.67
570.457	31839.93
570.819	31800.15
571.18	31928.74
571.542	32158.34
571.903	32219.12
572.265	32284.21
572.626	32393.58
572.987	32433.81
573.349	32498.67
573.71	32584.54
574.071	32691.2
574.432	32832.44
574.794	33065.43
575.155	33193.56
575.516	33044.64
575.877	33198.99
576.238	33177.74
576.599	33309.49
576.96	33285.54
577.32	33507.45
577.681	33606.88
578.042	33657.73
578.403	33668.35
578.763	33615.02
579.124	33961.45
579.485	33844.39
579.845	34119.41
580.206	33946.08
580.566	34040.09
580.927	33934.11
581.287	34014.78
581.648	33979.53
582.008	34180.2
582.368	34011.62
582.728	34214.78
583.089	34099.3
583.449	34115.57
583.809	34187.43
584.169	34223.37
584.529	34200.32
584.889	34535.45
585.249	34217.72
585.609	34268.11
585.969	34502.45
586.329	34352.63
586.688	34360.31
587.048	34368.45
587.408	34338.39
587.768	34535.67
588.127	34374.32
588.487	34361.22
588.846	34583.13
589.206	34307.43
589.565	34386.53
589.925	34680.08
590.284	34476.47
590.643	34471.72
591.003	34524.37
591.362	34756.23
591.721	34555.79
592.08	34643.47
592.44	34701.77
592.799	34731.83
593.158	34590.14
593.517	34633.3
593.876	34716.01
594.235	34657.48
594.593	34777.93
594.952	34771.83
595.311	34647.99
595.67	34771.15
596.029	34846.17
596.387	35017.7
596.746	35028.32
597.104	34903.57
597.463	34834.42
597.822	35023.57
598.18	34935.21
598.538	34777.25
598.897	35212.94
599.255	35017.47
599.613	35431.02
599.972	35181.31
600.33	35288.87
600.688	35106.73
601.046	35195.09
601.404	35388.76
601.762	35197.35
602.12	35410.68
602.478	35328.42
602.836	35472.37
603.194	35331.59
603.552	35190.12
603.91	35301.53
604.268	35368.19
604.625	35479.38
604.983	35462.66
605.341	35426.72
605.698	35554.18
606.056	35644.35
606.413	35713.27
606.771	35784.45
607.128	35792.14
607.485	35691.12
607.843	35684.12
608.2	35842.98
608.557	35994.39
608.914	35807.28
609.272	35977.44
609.629	36081.62
609.986	36162.3
610.343	35979.03
610.7	36379.47
611.057	36440.71
611.414	36194.39
611.771	36265.35
612.127	36375.63
612.484	36383.76
612.841	36495.17
613.198	36284.1
613.554	36451.78
613.911	36524.77
614.267	36500.82
614.624	36448.62
614.98	36554.15
615.337	36722.28
615.693	36645
616.05	36604.09
616.406	36832.11
616.762	36777.2
617.118	36672.79
617.475	36878.21
617.831	36953.46
618.187	36971.99
618.543	37008.38
618.899	37152.55
619.255	37085.89
619.611	36920.92
619.967	37129.5
620.323	37167.02
620.678	36979.23
621.034	37061.48
621.39	37042.95
621.746	36979.23
622.101	37365.66
622.457	37031.43
622.812	37053.12
623.168	37223.51
623.523	37262.16
623.879	37245.43
624.234	36928.38
624.589	37188.03
624.945	37182.84
625.3	37332.89
625.655	37168.37
626.01	37191.42
626.365	37327.46
626.72	37240.01
627.075	37164.31
627.43	36993.69
627.785	37052.67
628.14	37073.69
628.495	37142.16
628.85	36967.93
629.205	37070.97
629.559	37133.57
629.914	36819
630.269	36917.31
630.623	36797.99
630.978	36797.08
631.332	37020.35
631.687	36996.4
632.041	36828.04
632.396	36907.59
632.75	36677.31
633.104	36702.85
633.459	36510.09
633.813	36545.56
634.167	36504.89
634.521	36397.09
634.875	36558.67
635.229	36515.06
635.583	36331.56
635.937	36338.79
636.291	36420.6
636.645	36236.19
636.999	36188.06
637.352	36358
637.706	36012.02
638.06	36226.02
638.413	36075.75
638.767	36112.36
639.121	36103.54
639.474	35880.27
639.828	35932.02
640.181	35901.74
640.534	35907.39
640.888	35788.97
641.241	35660.84
641.594	35664.46
641.947	35818.8
642.301	35688.64
642.654	35616.78
643.007	35753.04
643.36	35566.61
643.713	35512.6
644.066	35530.45
644.419	35253.4
644.771	35115.32
645.124	34704.03
645.477	34714.2
645.83	34492.29
646.182	34308.56
646.535	34225.17
646.888	34372.97
647.24	34193.31
647.593	34237.38
647.945	34387.2
648.298	34127.55
648.65	33898.63
649.002	33931.85
649.355	34033.31
649.707	34085.52
650.059	34045.97
650.411	34528.67
650.763	34398.05
651.115	34820.86
651.467	34702.68
651.819	34619.97
652.171	34674.43
652.523	34495.9
652.875	34586.52
653.227	34426.75
653.578	34673.3
653.93	34452.51
654.282	34443.02
654.633	34170.03
654.985	34383.81
655.337	34492.74
655.688	34337.04
656.039	34317.6
656.391	34171.62
656.742	34132.75
657.094	34229.02
657.445	34260.65
657.796	34200.09
658.147	34100.43
658.498	34015.24
658.849	34133.2
659.2	34193.99
659.551	33890.72
659.902	34064.73
660.253	33980.89
660.604	34053.88
660.955	33809.37
661.306	34106.08
661.656	33938.85
662.007	33918.29
662.358	33923.03
662.708	33838.29
663.059	33806.2
663.409	33640.1
663.76	33946.99
664.11	33777.5
664.461	33872.64
664.811	33888.01
665.161	33756.49
665.511	33627.22
665.862	33716.03
666.212	33779.54
666.562	33814.34
666.912	33666.54
667.262	33469.71
667.612	33570.95
667.962	33535.7
668.312	33603.27
668.662	33709.48
669.011	33640.78
669.361	33505.87
669.711	33544.06
670.06	33485.76
670.41	33429.94
670.76	33378.19
671.109	33470.84
671.459	33420
671.808	33379.77
672.157	33407.79
672.507	33247.35
672.856	33235.14
673.205	33141.36
673.554	33310.17
673.904	33102.49
674.253	33370.51
674.602	33169.61
674.951	32681.49
675.3	32603.75
675.649	33111.76
675.998	33019.1
676.346	33104.07
676.695	33367.12
677.044	33031.76
677.393	33149.95
677.741	33060.46
678.09	32874.7
678.438	32900.46
678.787	32948.37
679.135	32953.34
679.484	32681.94
679.832	32810.75
680.181	32690.75
680.529	32749.05
680.877	32634.48
681.225	32562.84
681.573	32737.53
681.922	32457.99
682.27	32448.05
682.618	32434.26
682.966	32397.65
683.314	32439.01
683.661	32302.06
684.009	32204.89
684.357	32175.51
684.705	31944.56
685.053	31978.68
685.4	32036.08
685.748	31913.6
686.095	31853.71
686.443	31749.31
686.79	31652.59
687.138	31761.28
687.485	31690.78
687.832	31475.87
688.18	31638.35
688.527	31507.5
688.874	31428.41
689.221	31349.54
689.568	31297.11
689.915	31229.09
690.262	31173.95
690.609	31026.39
690.956	30937.58
691.303	31095.54
691.65	30822.1
691.997	30849.44
692.344	30765.83
692.69	30641.76
693.037	30725.38
693.383	30502.11
693.73	30682.89
694.077	30348.44
694.423	30465.5
694.769	30372.39
695.116	30269.8
695.462	30226.18
695.808	30039.97
696.155	29987.32
696.501	29814.89
696.847	29844.27
697.193	29402.02
697.539	29545.97
697.885	29427.33
698.231	29311.4
698.577	29348.92
698.923	29344.62
699.269	29029.38
699.614	28949.83
699.96	28982.6
700.306	28975.59
700.651	28823.96
700.997	28732.21
701.342	28732.89
701.688	28556.62
702.033	28530.86
702.379	28637.98
702.724	28405.67
703.069	28550.52
703.415	28169.06
703.76	28219.91
704.105	28157.99
704.45	28125.9
704.795	27870.99
705.14	27848.39
705.485	27739.24
705.83	27783.54
706.175	27808.17
706.52	27645.01
706.865	27524.33
707.209	27536.08
707.554	27404.56
707.899	27453.83
708.243	27334.73
708.588	27420.38
708.932	27167.73
709.277	26983.56
709.621	27119.6
709.966	26990.56
710.31	27015.42
710.654	26810.91
710.998	26934.74
711.342	26771.81
711.687	26780.17
712.031	26690.23
712.375	26585.15
712.719	26579.27
713.063	26496.34
713.407	26467.86
713.75	26374.08
714.094	26409.56
714.438	26261.32
714.782	26280.98
715.125	26168.44
715.469	26229.9
715.812	26089.57
716.156	25956.01
716.499	25954.66
716.843	26023.36
717.186	25759.63
717.53	26013.86
717.873	25893.42
718.216	25776.13
718.559	25649.81
718.902	25535.68
719.246	25586.76
719.589	25506.31
719.932	25337.72
720.275	25364.16
720.617	25341.34
720.96	25271.96
721.303	25351.28
721.646	25328.68
721.989	25141.57
722.331	25104.51
722.674	25064.51
723.016	25030.16
723.359	24971.86
723.701	25033.55
724.044	24854.57
724.386	24841.69
724.729	24848.92
725.071	24729.83
725.413	24808.7
725.755	24687.57
726.097	24672.66
726.439	24531.64
726.782	24485.77
727.124	24702.03
727.465	24518.76
727.807	24490.51
728.149	24440.12
728.491	24446.22
728.833	24328.71
729.175	24349.28
729.516	24167.81
729.858	24198.32
730.199	24297.98
730.541	24259.11
730.882	24023.63
731.224	24107.7
731.565	23931.88
731.906	23962.39
732.248	23960.36
732.589	23767.6
732.93	23664.1
733.271	23822.74
733.612	23879.46
733.953	23859.34
734.294	23705
734.635	23582.74
734.976	23742.06
735.317	23600.59
735.658	23557.21
735.999	23577.54
736.339	23556.98
736.68	23539.8
737.021	23427.72
737.361	23299.59
737.702	23352.47
738.042	23279.92
738.383	23254.84
738.723	23333.71
739.063	23105.01
739.404	23176.65
739.744	23220.27
740.084	23058.69
740.424	22990.67
740.764	22884.68
741.104	23100.72
741.444	22916.54
741.784	22870.22
742.124	22976.43
742.464	22900.05
742.804	22783.67
743.143	22665.48
743.483	22813.95
743.823	22625.7
744.162	22696.21
744.502	22712.48
744.841	22532.6
745.181	22578.25
745.52	22455.09
745.86	22581.64
746.199	22401.08
746.538	22397.69
746.877	22397.24
747.216	22386.84
747.556	22246.05
747.895	22267.3
748.234	22217.13
748.573	22143.23
748.911	22070.46
749.25	22131.48
749.589	22091.71
749.928	22029.56
750.267	22045.38
750.605	21958.38
750.944	21860.53
751.283	21728.55
751.621	21846.74
751.96	21797.7
752.298	21651.04
752.636	21759.96
752.975	21513.42
753.313	21460.09
753.651	21646.07
753.989	21477.49
754.327	21423.25
