Data from plate_porcelain_FLMS001491_007.txt Node
Date: Tue Feb 07 11:18:39 GMT 2017
User: dcchb
Spectrometer: FLMS00149
Trigger mode: 0
Integration Time (sec): 2.000000E-2
Scans to average: 10
Electric dark correction enabled: true
Nonlinearity correction enabled: false
Boxcar width: 0
XAxis mode: Wavelengths
Number of Pixels in Spectrum: 2048
>>>>>Begin Spectral Data<<<<<
341.393	-7.06
341.776	-7.06
342.16	-7.06
342.543	-47.96
342.927	-50.45
343.31	-80.28
343.693	-76.21
344.077	-61.07
344.46	-68.3
344.843	-44.58
345.226	-47.96
345.61	-24.69
345.993	-16.33
346.376	1.53
346.759	22.77
347.142	33.16
347.525	43.33
347.908	68.19
348.291	72.26
348.674	86.49
349.057	91.69
349.44	131.69
349.823	132.82
350.206	167.62
350.588	217.11
350.971	249.43
351.354	264.57
351.737	269.99
352.119	278.81
352.502	311.8
352.884	300.05
353.267	319.71
353.65	330.1
354.032	358.8
354.414	332.14
354.797	353.83
355.179	364.45
355.562	362.87
355.944	367.84
356.326	369.65
356.709	384.11
357.091	371.46
357.473	392.02
357.855	398.58
358.238	406.71
358.62	382.98
359.002	405.58
359.384	384.79
359.766	397.67
360.148	401.06
360.53	412.81
360.912	398.13
361.294	395.41
361.676	407.62
362.057	384.11
362.439	398.8
362.821	387.28
363.203	385.47
363.584	388.18
363.966	349.54
364.348	400.16
364.729	395.87
365.111	389.76
365.493	405.58
365.874	407.62
366.256	380.27
366.637	395.19
367.019	387.96
367.4	375.98
367.781	383.66
368.163	402.64
368.544	387.96
368.925	380.72
369.306	420.5
369.688	402.19
370.069	393.61
370.45	414.62
370.831	411.23
371.212	428.63
371.593	399.26
371.974	417.11
372.355	418.92
372.736	445.13
373.117	440.84
373.498	410.55
373.879	426.37
374.26	426.82
374.641	425.47
375.021	427.73
375.402	436.09
375.783	438.8
376.163	499.37
376.544	481.29
376.925	465.47
377.305	460.04
377.686	435.64
378.066	481.74
378.447	469.99
378.827	472.47
379.208	506.37
379.588	489.42
379.968	482.87
380.349	506.82
380.729	504.79
381.109	490.33
381.489	502.08
381.87	492.13
382.25	505.24
382.63	526.71
383.01	525.35
383.39	534.39
383.77	538.23
384.15	542.3
384.53	538.23
384.91	534.39
385.29	561.06
385.67	548.86
386.049	588.18
386.429	586.82
386.809	599.48
387.189	613.71
387.568	578.46
387.948	593.6
388.328	601.28
388.707	594.05
389.087	606.71
389.466	641.73
389.846	639.93
390.225	637.44
390.605	646.93
390.984	625.92
391.363	647.61
391.743	658.01
392.122	682.41
392.501	696.42
392.881	706.82
393.26	671.56
393.639	701.85
394.018	703.65
394.397	708.85
394.776	729.19
395.155	730.09
395.534	727.16
395.913	728.51
396.292	780.71
396.671	744.33
397.05	773.26
397.429	791.11
397.808	790.43
398.186	792.69
398.565	806.93
398.944	824.33
399.323	829.53
399.701	852.8
400.08	815.29
400.458	834.5
400.837	853.03
401.215	867.04
401.594	856.19
401.972	872.91
402.351	887.38
402.729	930.09
403.107	923.76
403.486	916.53
403.864	916.98
404.242	950.88
404.62	994.95
404.999	955.62
405.377	943.42
405.755	985.45
406.133	1004.44
406.511	1011.67
406.889	1029.29
407.267	1050.09
407.645	1067.94
408.023	1058.45
408.401	1083.98
408.779	1084.43
409.156	1117.65
409.534	1109.07
409.912	1131.89
410.29	1149.97
410.667	1149.97
411.045	1198.1
411.422	1218.89
411.8	1181.83
412.178	1239.91
412.555	1243.98
412.933	1295.28
413.31	1282.62
413.687	1291.66
414.065	1312.23
414.442	1334.37
414.819	1352.9
415.197	1355.16
415.574	1402.62
415.951	1400.58
416.328	1429.51
416.705	1440.13
417.082	1451.66
417.46	1469.06
417.837	1491.88
418.214	1479.9
418.591	1526.23
418.967	1524.42
419.344	1515.84
419.721	1567.81
420.098	1590.41
420.475	1580.92
420.852	1610.3
421.228	1601.48
421.605	1622.5
421.982	1680.8
422.358	1658.2
422.735	1699.33
423.111	1683.97
423.488	1732.55
423.864	1753.34
424.241	1772.55
424.617	1775.26
424.994	1811.2
425.37	1852.32
425.746	1852.55
426.123	1863.4
426.499	1854.36
426.875	1911.31
427.251	1926.9
427.627	1993.56
428.003	2010.06
428.379	2008.7
428.756	2050.29
429.132	2108.59
429.507	2104.29
429.883	2109.04
430.259	2147.01
430.635	2196.5
431.011	2222.03
431.387	2241.92
431.763	2325.31
432.138	2316.27
432.514	2381.58
432.89	2361.46
433.265	2450.27
433.641	2467.22
434.016	2486.88
434.392	2502.93
434.767	2579.31
435.143	2597.62
435.518	2602.81
435.894	2604.39
436.269	2689.14
436.644	2724.62
437.02	2716.71
437.395	2739.08
437.77	2835.12
438.145	2841.22
438.52	2854.33
438.895	2878.29
439.271	2904.05
439.646	2988.57
440.021	2987.21
440.395	2999.64
440.77	2989.47
441.145	2989.02
441.52	3133.87
441.895	3119.86
442.27	3125.29
442.645	3132.97
443.019	3178.84
443.394	3205.51
443.769	3243.02
444.143	3199.86
444.518	3291.61
444.892	3304.26
445.267	3280.76
445.641	3335.9
446.016	3349.91
446.39	3443.47
446.764	3418.38
447.139	3413.64
447.513	3510.13
447.887	3513.75
448.262	3548.1
448.636	3546.52
449.01	3591.04
449.384	3612.73
449.758	3643.46
450.132	3709.68
450.506	3735.44
450.88	3751.94
451.254	3794.19
451.628	3828.09
452.002	3874.19
452.376	3906.28
452.75	3936.56
453.123	3999.84
453.497	4066.5
453.871	4064.7
454.244	4170.91
454.618	4179.49
454.992	4308.98
455.365	4252.26
455.739	4372.26
456.112	4391.47
456.486	4452.71
456.859	4501.97
457.232	4635.98
457.606	4579.48
457.979	4703.1
458.352	4780.83
458.725	4761.4
459.099	4844.79
459.472	4936.99
459.845	5029.19
460.218	5069.64
460.591	5064.44
460.964	5157.1
461.337	5269.18
461.71	5339.01
462.083	5396.41
462.456	5467.37
462.829	5460.82
463.201	5557.76
463.574	5635.28
463.947	5686.57
464.32	5821.71
464.692	5807.7
465.065	5910.52
465.438	6000.92
465.81	6063.51
466.183	6164.08
466.555	6276.39
466.928	6334.24
467.3	6369.49
467.672	6442.71
468.045	6582.82
468.417	6604.97
468.789	6687.9
469.161	6789.6
469.534	6919.54
469.906	7027.1
470.278	7056.48
470.65	7197.04
471.022	7292.41
471.394	7436.36
471.766	7536.92
472.138	7639.97
472.51	7751.38
472.882	7949.56
473.253	8020.98
473.625	8122.22
473.997	8362.89
474.369	8371.93
474.74	8447.63
475.112	8638.13
475.484	8730.56
475.855	8883.55
476.227	9039.93
476.598	9231.11
476.97	9328.06
477.341	9538.22
477.713	9648.73
478.084	9761.49
478.455	10024.54
478.827	10109.73
479.198	10446
479.569	10457.52
479.94	10768.7
480.311	10885.31
480.682	11054.79
481.053	11326.88
481.424	11517.61
481.795	11636.7
482.166	11845.06
482.537	12014.99
482.908	12271.49
483.279	12376.79
483.65	12647.75
484.021	12836.67
484.391	13093.16
484.762	13099.71
485.133	13308.07
485.503	13520.49
485.874	13791.45
486.244	13914.83
486.615	14200.47
486.985	14388.04
487.356	14614.25
487.726	14755.04
488.097	15097.17
488.467	15112.54
488.837	15543.49
489.207	15632.3
489.578	15875.91
489.948	16018.51
490.318	16344.82
490.688	16292.85
491.058	16666.62
491.428	16735.32
491.798	17077.69
492.168	17367.62
492.538	17385.02
492.908	17659.37
493.278	17849.19
493.648	17881.06
494.017	18243.98
494.387	18363.3
494.757	18543.18
495.126	18704.76
495.496	18834.25
495.866	18954.7
496.235	19242.15
496.605	19353.11
496.974	19543.38
497.344	19697.28
497.713	19858.63
498.082	20012.3
498.452	20205.51
498.821	20297.26
499.19	20363.93
499.559	20646.41
499.928	20751.49
500.298	20888.66
500.667	21063.34
501.036	21173.4
501.405	21388.31
501.774	21367.07
502.143	21612.03
502.512	21633.27
502.88	21892.93
503.249	21943.32
503.618	22145.58
503.987	22252.47
504.356	22466.92
504.724	22553.25
505.093	22686.8
505.462	22773.81
505.83	23042.5
506.199	23235.49
506.567	23503.51
506.936	23517.97
507.304	23797.96
507.672	23962.25
508.041	23984.62
508.409	24234.11
508.777	24466.19
509.145	24675
509.514	24590.94
509.882	24943.24
510.25	25032.96
510.618	25251.03
510.986	25306.4
511.354	25477.47
511.722	25777.8
512.09	26008.75
512.458	25919.71
512.826	26324
513.193	26466.82
513.561	26476.31
513.929	26874.27
514.297	26983.41
514.664	27327.59
515.032	27390.18
515.4	27613.68
515.767	27655.94
516.135	27967.12
516.502	27988.59
516.869	28350.61
517.237	28504.5
517.604	28476.93
517.972	28771.62
518.339	29023.59
518.706	29107.88
519.073	29168.89
519.44	29556.68
519.808	29949.89
520.175	29965.03
520.542	30362.08
520.909	30590.78
521.276	30528.41
521.643	30890.88
522.009	31122.74
522.376	31444.77
522.743	31503.75
523.11	31891.99
523.477	32068.7
523.843	32347.57
524.21	32668.46
524.577	32906.65
524.943	33172.18
525.31	33356.58
525.676	33648.32
526.043	33788.89
526.409	33914.98
526.776	34330.11
527.142	34555.65
527.508	34825.24
527.874	34897.78
528.241	35168.28
528.607	35330.31
528.973	35763.3
529.339	35756.29
529.705	36029.5
530.071	36391.98
530.437	36553.11
530.803	36856.15
531.169	36884.17
531.535	37001
531.901	37140.89
532.267	37224.5
532.632	37529.13
532.998	37693.42
533.364	38117.36
533.73	38173.63
534.095	38467.63
534.461	38469.89
534.826	38788.98
535.192	39026.71
535.557	39395.74
535.923	39235.75
536.288	39373.37
536.653	39753.02
537.019	39513.71
537.384	39699.92
537.749	39995.5
538.114	40028.5
538.479	40181.26
538.845	40332.67
539.21	40380.12
539.575	40809.49
539.94	40697.86
540.305	41030.05
540.67	41055.59
541.034	41107.11
541.399	41355.24
541.764	41444.05
542.129	41588.68
542.494	41746.42
542.858	41862.35
543.223	41932.63
543.587	42159.29
543.952	42221.21
544.316	42384.14
544.681	42455.32
545.045	42703.23
545.41	42885.14
545.774	42891.02
546.138	43030
546.503	43174.18
546.867	43151.13
547.231	43697.55
547.595	43599.93
547.959	43793.37
548.324	43949.3
548.688	43886.25
549.052	43996.98
549.416	44194.94
549.779	44263.19
550.143	44441.26
550.507	44711.54
550.871	44899.1
551.235	44830.63
551.599	45182.03
551.962	45231.97
552.326	45344.06
552.689	45698.4
553.053	45512.42
553.417	45709.93
553.78	46275.56
554.143	46068.56
554.507	46286.64
554.87	46494.54
555.234	46820.63
555.597	46741.09
555.96	46830.12
556.323	47062.43
556.686	47210
557.05	47576.09
557.413	47491.12
557.776	47667.62
558.139	47832.13
558.502	47977.21
558.865	48070.77
559.228	48360.25
559.59	48460.82
559.953	48535.16
560.316	49045.21
560.679	48935.61
561.041	49298.53
561.404	49439.1
561.767	49561.35
562.129	49496.95
562.492	49895.81
562.854	49872.98
563.217	49954.56
563.579	50168.12
563.941	50299.64
564.304	50512.29
564.666	50800.87
565.028	50860.53
565.39	50912.96
565.753	51184.59
566.115	51279.05
566.477	51433.17
566.839	51469.1
567.201	51719.71
567.563	51618.25
567.925	52010.33
568.287	52071.34
568.648	51943.89
569.01	52233.82
569.372	52493.03
569.734	52347.95
570.095	52593.14
570.457	52771.44
570.819	52743.42
571.18	52773.25
571.542	52992.9
571.903	53067.7
572.265	53159.9
572.626	53146.79
572.987	53246.23
573.349	53410.97
573.71	53507.01
574.071	53552.21
574.432	53585.2
574.794	53801.92
575.155	53794.46
575.516	53819.09
575.877	53935.7
576.238	54036.26
576.599	54121.91
576.96	54096.6
577.32	54136.6
577.681	54214.79
578.042	54302.92
578.403	54393.32
578.763	54459.75
579.124	54399.42
579.485	54523.03
579.845	54609.13
580.206	54522.8
580.566	54564.84
580.927	54730.48
581.287	54704.95
581.648	54667.21
582.008	54744.49
582.368	54689.13
582.728	54822.91
583.089	54727.77
583.449	54757.37
583.809	54856.58
584.169	54866.98
584.529	54798.28
584.889	55032.85
585.249	54821.33
585.609	54755.57
585.969	54959.4
586.329	54796.47
586.688	54917.14
587.048	54984.26
587.408	54833.53
587.768	54798.95
588.127	54821.33
588.487	54798.5
588.846	55096.35
589.206	54888.22
589.565	54858.61
589.925	54984.94
590.284	54907.2
590.643	54985.16
591.003	55050.93
591.362	55103.81
591.721	54984.71
592.08	55085.27
592.44	55154.65
592.799	55052.28
593.158	55105.16
593.517	55073.75
593.876	55164.59
594.235	55091.6
594.593	55101.77
594.952	55190.58
595.311	55068.55
595.67	55180.41
596.029	55254.54
596.387	55285.72
596.746	55326.17
597.104	55181.09
597.463	55246.63
597.822	55413.18
598.18	55227.64
598.538	55316.68
598.897	55476.68
599.255	55191.49
599.613	55623.11
599.972	55409.33
600.33	55482.33
600.688	55403.68
601.046	55511.48
601.404	55621.31
601.762	55599.84
602.12	55627.18
602.478	55667.41
602.836	55712.38
603.194	55609.55
603.552	55641.64
603.91	55513.96
604.268	55689.33
604.625	55611.14
604.983	55771.13
605.341	55682.55
605.698	55843.9
606.056	55849.55
606.413	55782.21
606.771	55898.59
607.128	55934.97
607.485	55842.77
607.843	55845.48
608.2	56020.17
608.557	56150.78
608.914	55966.16
609.272	56160.27
609.629	56152.82
609.986	56254.51
610.343	56026.72
610.7	56255.41
611.057	56306.94
611.414	56246.37
611.771	56337.67
612.127	56378.57
612.484	56345.58
612.841	56415.41
613.198	56355.3
613.554	56371.12
613.911	56536.31
614.267	56510.55
614.624	56452.02
614.98	56607.04
615.337	56666.25
615.693	56657.44
616.05	56573.82
616.406	56703.09
616.762	56664.89
617.118	56616.53
617.475	56634.39
617.831	56781.5
618.187	56732.01
618.543	56744.89
618.899	56890.88
619.255	56908.5
619.611	56862.4
619.967	56967.49
620.323	56937.66
620.678	56914.38
621.034	56845
621.39	56842.29
621.746	56783.99
622.101	57079.57
622.457	56819.01
622.812	56967.49
623.168	56960.25
623.523	56967.49
623.879	57011.33
624.234	56914.15
624.589	57068.27
624.945	57000.48
625.3	56951.89
625.655	56904.89
626.01	56925.9
626.365	56969.29
626.72	56916.19
627.075	56939.92
627.43	56955.51
627.785	56869.86
628.14	56890.65
628.495	56885.45
628.85	56869.18
629.205	56750.32
629.559	56847.71
629.914	56757.1
630.269	56878.45
630.623	56790.54
630.978	56656.76
631.332	56783.08
631.687	56841.16
632.041	56733.59
632.396	56706.02
632.75	56645.91
633.104	56653.82
633.459	56522.75
633.813	56583.09
634.167	56623.54
634.521	56579.47
634.875	56591.68
635.229	56487.5
635.583	56337.45
635.937	56353.94
636.291	56346.26
636.645	56341.96
636.999	56276.88
637.352	56421.51
637.706	56034.85
638.06	56262.42
638.413	56247.96
638.767	56108.07
639.121	56144.68
639.474	56004.12
639.828	55967.06
640.181	55982.65
640.534	56026.72
640.888	55966.38
641.241	55799.61
641.594	55855.88
641.947	55890.23
642.301	55825.37
642.654	55848.64
643.007	55854.07
643.36	55789.66
643.713	55653.4
644.066	55879.15
644.419	55675.09
644.771	55489.56
645.124	55251.82
645.477	55163.69
645.83	54992.17
646.182	54734.1
646.535	54762.57
646.888	54806.19
647.24	54614.55
647.593	54806.86
647.945	54676.47
648.298	54590.82
648.65	54482.13
649.002	54397.84
649.355	54517.61
649.707	54455.91
650.059	54595.34
650.411	54942.45
650.763	54932.06
651.115	55123.69
651.467	55035.56
651.819	55118.95
652.171	54967.99
652.523	54911.95
652.875	54933.87
653.227	54786.3
653.578	54913.75
653.93	54899.29
654.282	54666.98
654.633	54613.65
654.985	54692.29
655.337	54711.95
655.688	54743.14
656.039	54792.18
656.391	54529.13
656.742	54591.95
657.094	54595.8
657.445	54755.79
657.796	54713.31
658.147	54564.61
658.498	54586.08
658.849	54620.65
659.2	54542.01
659.551	54441.45
659.902	54618.17
660.253	54526.42
660.604	54510.15
660.955	54322.36
661.306	54471.05
661.656	54342.47
662.007	54368.91
662.358	54406.87
662.708	54322.36
663.059	54288.69
663.409	54205.98
663.76	54300.21
664.11	54298.63
664.461	54271.51
664.811	54260.21
665.161	54320.32
665.511	54244.39
665.862	54148.35
666.212	54388.57
666.562	54296.59
666.912	54260.89
667.262	54238.29
667.612	54167.56
667.962	54282.36
668.312	54134.79
668.662	54240.78
669.011	54205.07
669.361	54036.26
669.711	54142.02
670.06	54036.71
670.41	53981.35
670.76	53881.92
671.109	54015.25
671.459	54013.21
671.808	53887.11
672.157	54063.83
672.507	53853.44
672.856	53834.69
673.205	53953.55
673.554	54004.85
673.904	53856.38
674.253	53882.82
674.602	53818.42
674.951	53410.97
675.3	53306.56
675.649	53858.41
675.998	53813.44
676.346	53746.55
676.695	53802.14
677.044	53546.78
677.393	53747.68
677.741	53787.46
678.09	53660
678.438	53569.16
678.787	53623.39
679.135	53609.83
679.484	53412.78
679.832	53555.15
680.181	53289.84
680.529	53429.27
680.877	53296.85
681.225	53232.22
681.573	53422.04
681.922	53300.24
682.27	53104.99
682.618	53141.15
682.966	52968.72
683.314	53078.32
683.661	52904.32
684.009	52772.79
684.357	52755.17
684.705	52755.84
685.053	52766.47
685.4	52703.64
685.748	52602.85
686.095	52536.64
686.443	52366.7
686.79	52382.52
687.138	52332.8
687.485	52362.63
687.832	52202.64
688.18	52306.36
688.527	52148.18
688.874	52024.34
689.221	52011.46
689.568	51819.15
689.915	51782.54
690.262	51873.83
690.609	51850.33
690.956	51541.41
691.303	51599.26
691.65	51429.55
691.997	51355.66
692.344	51130.8
692.69	51270.23
693.037	51345.26
693.383	50942.78
693.73	50975.78
694.077	50826.63
694.423	50776.91
694.769	50751.38
695.116	50717.48
695.462	50585.96
695.808	50433.42
696.155	50473.19
696.501	50152.3
696.847	50310.03
697.193	50075.24
697.539	50115.46
697.885	49806.54
698.231	49838.86
698.577	49751.4
698.923	49706.66
699.269	49460.11
699.614	49271.64
699.96	49162.49
700.306	49334.69
700.651	49183.51
700.997	49076.85
701.342	49060.8
701.688	48888.6
702.033	48777.19
702.379	48637.76
702.724	48536.07
703.069	48615.61
703.415	48275.74
703.76	48166.36
704.105	48285.68
704.45	48087.49
704.795	47830.55
705.14	47603.21
705.485	47705.58
705.83	47624.68
706.175	47774.51
706.52	47580.39
706.865	47383.33
707.209	47388.53
707.554	47261.3
707.899	47178.36
708.243	47031.7
708.588	46956.9
708.932	46806.62
709.277	46690.69
709.621	46664.71
709.966	46560.3
710.31	46585.61
710.654	46211.16
710.998	46342
711.342	46422.9
711.687	46275.56
712.031	46057.49
712.375	45716.48
712.719	45937.94
713.063	45685.3
713.407	45858.62
713.75	45769.81
714.094	45543.38
714.438	45394.23
714.782	45539.76
715.125	45174.12
715.469	45263.39
715.812	45206.89
716.156	44887.8
716.499	44844.41
716.843	44817.75
717.186	44679.9
717.53	44891.64
717.873	44885.54
718.216	44797.86
718.559	44625.89
718.902	44460.02
719.246	44504.99
719.589	44333.69
719.932	44167.6
720.275	44192.91
720.617	44043.98
720.96	43937.32
721.303	43947.04
721.646	43954.72
721.989	43695.52
722.331	43822.75
722.674	43737.78
723.016	43696.42
723.359	43531.45
723.701	43589.76
724.044	43312.48
724.386	43124.91
724.729	43333.72
725.071	43221.41
725.413	43177.79
725.755	43015.08
726.097	42877.23
726.439	42717.01
726.782	42700.06
727.124	42906.84
727.465	42589.78
727.807	42628.88
728.149	42467.3
728.491	42445.83
728.833	42545.49
729.175	42356.34
729.516	42375.55
729.858	42137.82
730.199	42173.52
730.541	42090.36
730.882	42121.32
731.224	42194.09
731.565	41854.21
731.906	41999.74
732.248	41939.63
732.589	41756.59
732.93	41531.73
733.271	41584.61
733.612	41560.43
733.953	41731.28
734.294	41361.34
734.635	41352.53
734.976	41392.3
735.317	41147.34
735.658	41094.91
735.999	41051.97
736.339	41132.87
736.68	41144.17
737.021	40897.4
737.361	40738.53
737.702	40973.33
738.042	40674.35
738.383	40826.89
738.723	40760.45
739.063	40679.1
739.404	40561.36
739.744	40546
740.084	40317.75
740.424	40534.92
740.764	40345.1
741.104	40464.64
741.444	40125.89
741.784	40132
742.124	39943.98
742.464	39887.93
742.804	39798.67
743.143	39719.35
743.483	39835.96
743.823	39533.14
744.162	39664.66
744.502	39583.76
744.841	39557.77
745.181	39647.49
745.52	39407.27
745.86	39420.83
746.199	39252.47
746.538	39246.37
746.877	39236.88
747.216	39129.31
747.556	38858.13
747.895	38938.58
748.234	38868.98
748.573	38731.81
748.911	38805.48
749.25	38659.72
749.589	38507.63
749.928	38549.89
750.267	38547.63
750.605	38407.3
750.944	38335.43
751.283	38240.75
751.621	38167.75
751.96	38031.26
752.298	37878.72
752.636	38024.03
