Data from plate_ceramic_FLMS001491_037.txt Node
Date: Tue Feb 07 11:16:40 GMT 2017
User: dcchb
Spectrometer: FLMS00149
Trigger mode: 0
Integration Time (sec): 2.000000E-2
Scans to average: 10
Electric dark correction enabled: true
Nonlinearity correction enabled: false
Boxcar width: 0
XAxis mode: Wavelengths
Number of Pixels in Spectrum: 2048
>>>>>Begin Spectral Data<<<<<
341.393	-9.36
341.776	-9.36
342.16	-9.36
342.543	-79.42
342.927	-64.5
343.31	-60.66
343.693	-83.26
344.077	-55.92
344.46	-54.33
344.843	-51.85
345.226	-39.42
345.61	-28.8
345.993	6.45
346.376	-23.15
346.759	17.98
347.142	19.34
347.525	43.06
347.908	58.88
348.291	71.99
348.674	72.89
349.057	106.79
349.44	100.46
349.823	149.28
350.206	166
350.588	198.09
350.971	210.29
351.354	220.69
351.737	251.19
352.119	261.14
352.502	276.28
352.884	293.45
353.267	290.97
353.65	301.36
354.032	314.92
354.414	342.72
354.797	311.08
355.179	333
355.562	346.11
355.944	351.08
356.326	336.62
356.709	359.67
357.091	347.24
357.473	377.97
357.855	369.38
358.238	382.49
358.62	375.71
359.002	377.52
359.384	368.93
359.766	365.32
360.148	357.41
360.53	361.02
360.912	374.35
361.294	355.6
361.676	354.92
362.057	359.67
362.439	354.24
362.821	359.67
363.203	346.11
363.584	373.9
363.966	356.95
364.348	365.99
364.729	371.64
365.111	342.72
365.493	355.15
365.874	355.6
366.256	336.16
366.637	354.47
367.019	354.92
367.4	356.28
367.781	342.27
368.163	345.43
368.544	342.04
368.925	333
369.306	351.3
369.688	340.01
370.069	355.6
370.45	369.16
370.831	368.03
371.212	359.21
371.593	371.19
371.974	384.52
372.355	386.56
372.736	356.73
373.117	372.09
373.498	391.76
373.879	366.22
374.26	352.89
374.641	375.03
375.021	356.5
375.402	383.62
375.783	391.76
376.163	405.54
376.544	393.34
376.925	390.85
377.305	407.57
377.686	376.61
378.066	399.89
378.447	408.7
378.827	399.44
379.208	404.64
379.588	401.92
379.968	420.23
380.349	402.6
380.729	425.2
381.109	424.07
381.489	415.71
381.87	431.98
382.25	434.92
382.63	449.15
383.01	435.82
383.39	436.95
383.77	448.02
384.15	454.35
384.53	425.2
384.91	452.77
385.29	469.72
385.67	452.77
386.049	457.97
386.429	473.79
386.809	470.4
387.189	471.3
387.568	471.75
387.948	481.47
388.328	486.44
388.707	492.54
389.087	497.97
389.466	525.09
389.846	524.41
390.225	523.5
390.605	528.47
390.984	534.8
391.363	537.29
391.743	531.41
392.122	540
392.501	551.07
392.881	558.3
393.26	529.15
393.639	575.93
394.018	561.92
394.397	587
394.776	589.94
395.155	576.38
395.534	587
395.913	586.1
396.292	617.74
396.671	627.23
397.05	629.72
397.429	609.15
397.808	622.26
398.186	620.9
398.565	637.17
398.944	638.98
399.323	617.06
399.701	663.39
400.08	652.99
400.458	656.61
400.837	649.83
401.215	672.43
401.594	682.14
401.972	683.5
402.351	692.54
402.729	715.59
403.107	727.79
403.486	707
403.864	712.88
404.242	733.44
404.62	735.25
404.999	743.61
405.377	749.26
405.755	775.25
406.133	777.96
406.511	786.77
406.889	797.39
407.267	812.76
407.645	814.79
408.023	837.62
408.401	816.83
408.779	848.69
409.156	852.53
409.534	870.61
409.912	898.41
410.29	875.36
410.667	886.66
411.045	936.15
411.422	917.62
411.8	914.45
412.178	963.72
412.555	949.03
412.933	961.23
413.31	965.98
413.687	971.4
414.065	990.61
414.442	1026.54
414.819	998.97
415.197	1047.33
415.574	1043.72
415.951	1067.22
416.328	1050.95
416.705	1088.91
417.082	1080.32
417.46	1095.69
417.837	1114.22
418.214	1115.58
418.591	1121.23
418.967	1133.43
419.344	1174.11
419.721	1171.85
420.098	1160.55
420.475	1205.52
420.852	1192.19
421.228	1209.81
421.605	1243.94
421.982	1256.82
422.358	1239.42
422.735	1280.09
423.111	1267.44
423.488	1301.11
423.864	1287.78
424.241	1318.96
424.617	1335.69
424.994	1349.24
425.37	1384.95
425.746	1359.64
426.123	1398.51
426.499	1422.01
426.875	1399.64
427.251	1438.06
427.627	1476.02
428.003	1472.18
428.379	1514.66
428.756	1509.47
429.132	1552.18
429.507	1592.85
429.883	1582.46
430.259	1615
430.635	1618.39
431.011	1641.67
431.387	1659.07
431.763	1699.29
432.138	1671.95
432.514	1751.49
432.89	1713.75
433.265	1778.16
433.641	1807.99
434.016	1766.86
434.392	1835.56
434.767	1888.44
435.143	1859.74
435.518	1903.58
435.894	1946.52
436.269	1950.58
436.644	1965.5
437.02	1997.81
437.395	1981.09
437.77	2051.6
438.145	2070.36
438.52	2069.68
438.895	2069.45
439.271	2094.99
439.646	2157.13
440.021	2151.93
440.395	2157.36
440.77	2177.47
441.145	2204.36
441.52	2224.7
441.895	2229.67
442.27	2228.54
442.645	2290.69
443.019	2323.23
443.394	2284.59
443.769	2327.07
444.143	2308.54
444.518	2388.31
444.892	2377.92
445.267	2379.5
445.641	2384.92
446.016	2404.81
446.39	2440.97
446.764	2455.66
447.139	2465.37
447.513	2522.32
447.887	2509.21
448.262	2502.43
448.636	2504.02
449.01	2561.42
449.384	2578.59
449.758	2607.06
450.132	2647.97
450.506	2653.39
450.88	2687.97
451.254	2683.9
451.628	2752.6
452.002	2764.12
452.376	2803.44
452.75	2791.24
453.123	2836.44
453.497	2888.19
453.871	2929.09
454.244	2995.53
454.618	2956.89
454.992	3008.18
455.365	3004.34
455.739	3132.25
456.112	3135.64
456.486	3178.8
456.859	3166.82
457.232	3254.05
457.606	3306.03
457.979	3275.97
458.352	3355.75
458.725	3426.7
459.099	3432.81
459.472	3508.96
459.845	3524.78
460.218	3632.35
460.591	3610.2
460.964	3628.28
461.337	3760.93
461.71	3759.8
462.083	3831.44
462.456	3823.76
462.829	3880.25
463.201	3895.62
463.574	3931.1
463.947	4003.19
464.32	4084.99
464.692	4132.45
465.065	4165.22
465.438	4224.2
465.81	4284.99
466.183	4326.57
466.555	4430.29
466.928	4462.38
467.3	4439.33
467.672	4578.54
468.045	4646.33
468.417	4657.41
468.789	4696.05
469.161	4767.91
469.534	4858.08
469.906	5008.36
470.278	4950.73
470.65	5037.73
471.022	5159.09
471.394	5251.97
471.766	5254
472.138	5391.17
472.51	5446.76
472.882	5542.35
473.253	5611.05
473.625	5691.28
473.997	5793.65
474.369	5871.16
474.74	5943.02
475.112	6036.35
475.484	6109.12
475.855	6240.42
476.227	6291.49
476.598	6525.83
476.97	6495.32
477.341	6661.19
477.713	6745.71
478.084	6884.92
478.455	7007.63
478.827	7116.1
479.198	7285.13
479.569	7274.74
479.94	7526.48
480.311	7567.61
480.682	7755.4
481.053	7965.12
481.424	7985.68
481.795	8162.62
482.166	8264.32
482.537	8387.93
482.908	8586.12
483.279	8665.66
483.65	8846.22
484.021	8988.82
484.391	9095.71
484.762	9195.82
485.133	9261.8
485.503	9449.82
485.874	9629.48
486.244	9728.23
486.615	9919.19
486.985	10059.3
487.356	10181.78
487.726	10352.4
488.097	10459.06
488.467	10468.55
488.837	10809.56
489.207	10976.34
489.578	11118.93
489.948	11149.21
490.318	11367.06
490.688	11415.87
491.058	11513.5
491.428	11763.43
491.798	11795.98
492.168	12063.99
492.538	12130.66
492.908	12276.19
493.278	12453.13
493.648	12547.37
494.017	12707.82
494.387	12743.75
494.757	12817.64
495.126	13034.81
495.496	13104.64
495.866	13247.01
496.235	13400.68
496.605	13517.74
496.974	13533.56
497.344	13665.53
497.713	13738.52
498.082	13845.41
498.452	14067.33
498.821	14099.19
499.19	14159.3
499.559	14317.49
499.928	14372.18
500.298	14523.59
500.667	14628.22
501.036	14705.5
501.405	14886.52
501.774	14902.79
502.143	15074.08
502.512	15126.51
502.88	15221.87
503.249	15419.61
503.618	15444.92
503.987	15486.73
504.356	15608.53
504.724	15723.56
505.093	15869.54
505.462	15874.96
505.83	16024.34
506.199	16121.74
506.567	16305.69
506.936	16419.58
507.304	16555.85
507.672	16623.64
508.041	16741.83
508.409	16940.7
508.777	17063.86
509.145	17241.48
509.514	17198.32
509.882	17337.3
510.25	17467.46
510.618	17636.27
510.986	17599.66
511.354	17846.21
511.722	18012.99
512.09	18115.81
512.458	18238.74
512.826	18373.66
513.193	18411.39
513.561	18655.68
513.929	18654.33
514.297	18854.32
514.664	19020.19
515.032	19060.19
515.4	19250.02
515.767	19313.74
516.135	19575.21
516.502	19428.99
516.869	19867.63
517.237	19922.54
517.604	19893.39
517.972	20182.2
518.339	20331.34
518.706	20357.56
519.073	20572.47
519.44	20712.8
519.808	20892.91
520.175	20941.05
520.542	21294.71
520.909	21316.63
521.276	21389.4
521.643	21617.41
522.009	21780.8
522.376	21930.4
522.743	22087
523.11	22235.02
523.477	22526.77
523.843	22668.23
524.21	22905.06
524.577	23085.17
524.943	23203.36
525.31	23285.16
525.676	23574.42
526.043	23625.27
526.409	23791.82
526.776	24093.05
527.142	24241.52
527.508	24348.41
527.874	24617.56
528.241	24753.6
528.607	24765.35
528.973	24983.65
529.339	25082.41
529.705	25223.42
530.071	25473.81
530.437	25628.38
530.803	25832.22
531.169	25976.85
531.535	25942.72
531.901	26226.78
532.267	26314.69
532.632	26502.26
532.998	26493.89
533.364	26822.92
533.73	26868.8
534.095	27162.58
534.461	27198.06
534.826	27289.58
535.192	27392.63
535.557	27614.54
535.923	27654.32
536.288	27794.2
536.653	27845.04
537.019	27861.54
537.384	28063.8
537.749	28188.09
538.114	28242.77
538.479	28279.16
538.845	28501.52
539.21	28557.57
539.575	28682.08
539.94	28847.28
540.305	29007.5
540.67	28833.72
541.034	29216.53
541.399	29315.29
541.764	29381.5
542.129	29494.27
542.494	29519.8
542.858	29757.08
543.223	29726.35
543.587	29929.06
543.952	29963.18
544.316	30123.4
544.681	30023.74
545.045	30154.14
545.41	30388.71
545.774	30482.49
546.138	30633.67
546.503	30715.03
546.867	30843.84
547.231	31040.44
547.595	31145.3
547.959	31253.99
548.324	31275.01
548.688	31408.34
549.052	31546.42
549.416	31742.12
549.779	31730.82
550.143	31850.82
550.507	32035.22
550.871	32123.58
551.235	32060.53
551.599	32434.3
551.962	32423.68
552.326	32484.47
552.689	32684.24
553.053	32732.6
553.417	32741.41
553.78	33318.12
554.143	33054.17
554.507	33309.99
554.87	33415.97
555.234	33728.96
555.597	33577.1
555.96	33835.4
556.323	34028.61
556.686	34017.76
557.05	34325.1
557.413	34402.61
557.776	34587.47
558.139	34829.72
558.502	34780
558.865	34932.09
559.228	35204.17
559.59	35348.35
559.953	35302.25
560.316	35694.1
560.679	35732.97
561.041	36053.64
561.404	36232.62
561.767	36431.94
562.129	36447.76
562.492	36735.43
562.854	36704.92
563.217	36923.45
563.579	37046.38
563.941	37269.66
564.304	37484.34
564.666	37736.08
565.028	37740.38
565.39	37903.99
565.753	38073.48
566.115	38193.7
566.477	38249.52
566.839	38521.37
567.201	38700.8
567.563	38837.3
567.925	39076.61
568.287	38997.52
568.648	39007.01
569.01	39317.74
569.372	39636.37
569.734	39496.26
570.095	39815.58
570.457	39947.78
570.819	40135.57
571.18	40358.61
571.542	40372.85
571.903	40467.54
572.265	40595.67
572.626	40760.64
572.987	40865.72
573.349	40980.07
573.71	41088.09
574.071	40954.53
574.432	41080.4
574.794	41650.56
575.155	41454.4
575.516	41493.05
575.877	41658.47
576.238	41795.41
576.599	41895.75
576.96	41766.03
577.32	41952.7
577.681	42124.44
578.042	42246.47
578.403	42213.25
578.763	42512.23
579.124	42459.8
579.485	42689.85
579.845	42749.96
580.206	42641.94
580.566	42653.47
580.927	42636.29
581.287	42751.32
581.648	42710.19
582.008	42887.36
582.368	42752
582.728	42831.77
583.089	42822.96
583.449	42819.34
583.809	42916.74
584.169	43048.71
584.529	43069.28
584.889	43330.51
585.249	43077.41
585.609	42957.64
585.969	43288.03
586.329	43244.87
586.688	43118.09
587.048	43223.85
587.408	43070.41
587.768	43065.66
588.127	43100.01
588.487	43087.58
588.846	43433.34
589.206	43215.26
589.565	43180.69
589.925	43398.99
590.284	43273.34
590.643	43474.69
591.003	43557.17
591.362	43623.84
591.721	43423.62
592.08	43553.56
592.44	43545.2
592.799	43549.49
593.158	43572.54
593.517	43511.75
593.876	43505.42
594.235	43505.2
594.593	43612.54
594.952	43655.93
595.311	43487.35
595.67	43659.09
596.029	43908.13
596.387	43885.53
596.746	43885.3
597.104	43794.23
597.463	43648.24
597.822	44008.46
598.18	43761.91
598.538	43820.22
598.897	44122.81
599.255	43671.97
599.613	44482.12
599.972	44212.75
600.33	44264.73
600.688	44037.61
601.046	44178.4
601.404	44440.54
601.762	44208.46
602.12	44401.22
602.478	44402.58
602.836	44402.58
603.194	44210.26
603.552	44463.59
603.91	44268.79
604.268	44547.2
604.625	44490.93
604.983	44710.36
605.341	44543.59
605.698	44681.66
606.056	44821.77
606.413	44784.26
606.771	44938.15
607.128	44929.12
607.485	44808.21
607.843	44876.24
608.2	45137.7
608.557	45054.08
608.914	45001.88
609.272	45139.28
609.629	45246.85
609.986	45214.76
610.343	45217.47
610.7	45431.02
611.057	45344.7
611.414	45261.76
611.771	45473.28
612.127	45565.71
612.484	45666.95
612.841	45732.71
613.198	45506.73
613.554	45550.57
613.911	45826.04
614.267	45790.79
614.624	45756.89
614.98	45874.85
615.337	46196.43
615.693	45958.24
616.05	45864.01
616.406	46165.24
616.762	46122.3
617.118	45906.04
617.475	45959.82
617.831	45957.79
618.187	46186.94
618.543	46262.19
618.899	46391
619.255	46267.84
619.611	46288.85
619.967	46459.47
620.323	46556.87
620.678	46372.24
621.034	46315.52
621.39	46296.08
621.746	46279.81
622.101	46693.36
622.457	46507.6
622.812	46488.85
623.168	46544.67
623.523	46553.25
623.879	46700.37
624.234	46463.54
624.589	46583.76
624.945	46480.71
625.3	46535.63
625.655	46429.19
626.01	46561.39
626.365	46685.91
626.72	46514.38
627.075	46426.93
627.43	46595.51
627.785	46414.5
628.14	46606.59
628.495	46501.73
628.85	46485.46
629.205	46250.66
629.559	46658.11
629.914	46280.49
630.269	46453.59
630.623	46325.46
630.978	46310.32
631.332	46397.55
631.687	46408.4
632.041	46305.58
632.396	46380.6
632.75	46070.78
633.104	46207.95
633.459	45978.13
633.813	46034.4
634.167	45895.64
634.521	45827.4
634.875	45931.35
635.229	45905.36
635.583	45758.47
635.937	45774.06
636.291	45748.75
636.645	45802.76
636.999	45525.94
637.352	45664.92
637.706	45395.77
638.06	45537.46
638.413	45520.74
638.767	45254.98
639.121	45292.5
639.474	45153.06
639.828	45281.42
640.181	45187.87
640.534	45273.96
640.888	45192.16
641.241	44985.84
641.594	45146.74
641.947	45162.33
642.301	44931.6
642.654	44928.66
643.007	45049.11
643.36	44962.33
643.713	44836.91
644.066	44996.23
644.419	44425.63
644.771	44248.46
645.124	43924.62
645.477	43717.62
645.83	43596.04
646.182	43530.73
646.535	43406.22
646.888	43400.57
647.24	43341.13
647.593	43673.78
647.945	43524.18
648.298	43322.15
648.65	43143.17
649.002	43064.76
649.355	43237.63
649.707	43147.02
650.059	43308.82
650.411	43682.82
650.763	43713.1
651.115	44088.91
651.467	43885.07
651.819	43916.71
652.171	43770.05
652.523	43649.6
652.875	43704.74
653.227	43591.52
653.578	43993.32
653.93	43776.38
654.282	43560.11
654.633	43543.61
654.985	43531.41
655.337	43694.35
655.688	43594.69
656.039	43634.23
656.391	43206.22
656.742	43266.11
657.094	43324.64
657.445	43534.12
657.796	43343.17
658.147	43163.74
658.498	43094.81
658.849	43195.38
659.2	43243.51
659.551	43067.7
659.902	43199.67
660.253	43130.74
660.604	43181.36
660.955	42958.55
661.306	43178.43
661.656	43028.83
662.007	42984.08
662.358	43070.18
662.708	43097.3
663.059	42943.63
663.409	42751.55
663.76	42956.96
664.11	42896.17
664.461	42922.39
664.811	43015.95
665.161	43039.67
665.511	42835.84
665.862	42801.71
666.212	42792.22
666.562	42949.96
666.912	42860.7
667.262	42803.52
667.612	42759.91
667.962	42751.32
668.312	42641.04
668.662	42895.04
669.011	42787.93
669.361	42772.11
669.711	42815.95
670.06	42588.16
670.41	42511.78
670.76	42550.65
671.109	42593.36
671.459	42495.51
671.808	42486.24
672.157	42430.2
672.507	42211.22
672.856	42321.5
673.205	42259.13
673.554	42522.4
673.904	42232.91
674.253	42503.64
674.602	42163.31
674.951	41744.57
675.3	41608.3
675.649	42229.53
675.998	42137.55
676.346	42167.61
676.695	42158.11
677.044	42073.15
677.393	42104.33
677.741	42166.25
678.09	41988.63
678.438	41813.72
678.787	41926.93
679.135	42125.12
679.484	41954.05
679.832	42036.99
680.181	41657.34
680.529	41675.19
680.877	41520.62
681.225	41610.11
681.573	41773.94
681.922	41411.02
682.27	41352.94
682.618	41465.03
682.966	41303.9
683.314	41391.81
683.661	41206.5
684.009	41023
684.357	40940.52
684.705	40919.96
685.053	41053.51
685.4	40927.86
685.748	40798.15
686.095	40885.83
686.443	40646.52
686.79	40453.3
687.138	40513.64
687.485	40493.75
687.832	40361.55
688.18	40355.68
688.527	40159.3
688.874	40133.99
689.221	40070.71
689.568	39899.87
689.915	39846.76
690.262	39873.65
690.609	39721.57
690.956	39730.16
691.303	39594.57
691.65	39457.39
691.997	39354.8
692.344	39221.69
692.69	39369.26
693.037	39292.65
693.383	38872.1
693.73	39092.43
694.077	38761.82
694.423	38932.44
694.769	38826.9
695.116	38763.85
695.462	38720.46
695.808	38680.01
696.155	38562.28
696.501	38169.29
696.847	38237.54
697.193	38115.74
697.539	38162.06
697.885	37797.55
698.231	37772.47
698.577	37760.49
698.923	37581.74
699.269	37326.38
699.614	37228.3
699.96	37028.76
700.306	37248.87
700.651	37121.18
700.997	37010.45
701.342	36955.77
701.688	36751.48
702.033	36769.56
702.379	36681.87
702.724	36605.94
703.069	36788.31
703.415	36363.46
703.76	36332.73
704.105	36264.71
704.45	36083.25
704.795	35733.88
705.14	35814.78
705.485	35747.21
705.83	35631.96
706.175	35752.18
706.52	35721.9
706.865	35574.33
707.209	35372.98
707.554	35420.89
707.899	35383.83
708.243	35323.04
708.588	35109.94
708.932	34898.42
709.277	34903.16
709.621	34867.46
709.966	34738.65
710.31	34720.12
710.654	34501.59
710.998	34598.31
711.342	34579.33
711.687	34477.19
712.031	34383.4
712.375	34357.64
712.719	34396.28
713.063	34209.62
713.407	34327.13
713.75	34083.98
714.094	34149.29
714.438	33849.41
714.782	33978.89
715.125	33743.42
715.469	33963.3
715.812	33658.23
716.156	33426.59
716.499	33528.74
716.843	33519.25
717.186	33303.43
717.53	33429.08
717.873	33343.43
718.216	33353.15
718.559	33120.39
718.902	32968.07
719.246	32989.09
719.589	32921.97
719.932	32792.26
720.275	32845.37
720.617	32695.54
720.96	32677.46
721.303	32579.61
721.646	32738.93
721.989	32443.12
722.331	32514.3
722.674	32365.83
723.016	32462.55
723.359	32229.11
723.701	32239.73
724.044	32122.9
724.386	31930.36
724.729	32211.48
725.071	32024.82
725.413	32018.27
725.755	32051.71
726.097	31767.43
726.439	31623.02
726.782	31722.46
727.124	31759.29
727.465	31696.47
727.807	31595.68
728.149	31534.21
728.491	31393.2
728.833	31563.14
729.175	31455.57
729.516	31340.09
729.858	31270.49
730.199	31290.38
730.541	31143.72
730.882	31122.92
731.224	31192.53
731.565	31039.08
731.906	31075.92
732.248	31005.19
732.589	30853.55
732.93	30828.47
733.271	30717.29
733.612	30819.88
733.953	30913.89
734.294	30670.73
734.635	30636.61
734.976	30752.09
735.317	30615.14
735.658	30550.28
735.999	30538.08
736.339	30494.24
736.68	30562.04
737.021	30371.98
737.361	30162.72
737.702	30418.54
738.042	30133.8
738.383	30251.31
738.723	30148.71
739.063	29936.29
739.404	29950.07
739.744	30072.33
740.084	29962.05
740.424	29986.46
740.764	29834.82
741.104	29949.4
741.444	29701.04
741.784	29776.97
742.124	29799.34
742.464	29643.64
742.804	29596.64
743.143	29446.58
743.483	29516.87
743.823	29389.41
744.162	29377.43
744.502	29318
744.841	29247.49
745.181	29274.61
745.52	29327.27
745.86	29303.31
746.199	29049.76
746.538	29084.56
746.877	29078.01
747.216	29044.79
747.556	28925.47
747.895	28922.08
748.234	28700.16
748.573	28677.79
748.911	28699.26
749.25	28708.52
749.589	28557.12
749.928	28530
750.267	28610
750.605	28388.76
750.944	28430.79
751.283	28256.79
751.621	28447.74
751.96	28220.4
752.298	28204.58
752.636	28188.09
752.975	28051.14
753.313	27890.69
753.651	27949
753.989	27854.76
754.327	27776.35
