Data from plate_ceramic_FLMS001491_067.txt Node
Date: Tue Feb 07 11:17:08 GMT 2017
User: dcchb
Spectrometer: FLMS00149
Trigger mode: 0
Integration Time (sec): 2.000000E-2
Scans to average: 10
Electric dark correction enabled: true
Nonlinearity correction enabled: false
Boxcar width: 0
XAxis mode: Wavelengths
Number of Pixels in Spectrum: 2048
>>>>>Begin Spectral Data<<<<<
341.393	-9.86
341.776	-9.86
342.16	-9.86
342.543	-46.47
342.927	-77.65
343.31	-56.64
343.693	-64.55
344.077	-55.28
344.46	-60.48
344.843	-44.66
345.226	-50.31
345.61	-43.76
345.993	-22.29
346.376	-15.28
346.759	23.13
347.142	8.9
347.525	41.21
347.908	48.45
348.291	75.79
348.674	94.55
349.057	121.21
349.44	118.05
349.823	130.93
350.206	180.19
350.588	207.54
350.971	229.23
351.354	246.63
351.737	267.87
352.119	275.78
352.502	266.97
352.884	277.37
353.267	302
353.65	316.01
354.032	325.05
354.414	332.05
354.797	338.38
355.179	334.09
355.562	352.17
355.944	349.91
356.326	346.29
356.709	355.78
357.091	372.5
357.473	368.89
357.855	355.1
358.238	367.31
358.62	372.73
359.002	381.54
359.384	354.2
359.766	383.8
360.148	365.5
360.53	359.85
360.912	361.66
361.294	349.45
361.676	365.72
362.057	361.88
362.439	347.42
362.821	356.01
363.203	367.76
363.584	359.85
363.966	363.69
364.348	365.5
364.729	353.97
365.111	367.08
365.493	354.88
365.874	361.66
366.256	357.82
366.637	354.2
367.019	359.62
367.4	359.62
367.781	380.19
368.163	369.11
368.544	365.95
368.925	347.42
369.306	358.04
369.688	367.76
370.069	360.75
370.45	378.15
370.831	362.34
371.212	383.58
371.593	377.93
371.974	356.01
372.355	364.37
372.736	380.64
373.117	383.35
373.498	370.47
373.879	371.83
374.26	381.09
374.641	375.89
375.021	379.96
375.402	389.45
375.783	396.91
376.163	408.44
376.544	396.46
376.925	413.63
377.305	403.92
377.686	394.42
378.066	424.03
378.447	412.96
378.827	411.6
379.208	423.58
379.588	429.68
379.968	430.58
380.349	423.12
380.729	433.75
381.109	434.88
381.489	442.78
381.87	437.81
382.25	437.81
382.63	447.98
383.01	448.43
383.39	447.98
383.77	469
384.15	450.02
384.53	459.28
384.91	440.98
385.29	490.47
385.67	455.21
386.049	481.2
386.429	466.51
386.809	481.88
387.189	494.54
387.568	480.52
387.948	520.75
388.328	504.48
388.707	532.5
389.087	507.19
389.466	512.39
389.846	514.2
390.225	520.75
390.605	517.81
390.984	535.44
391.363	522.78
391.743	530.92
392.122	556.68
392.501	550.35
392.881	555.1
393.26	558.71
393.639	565.27
394.018	572.73
394.397	571.37
394.776	580.86
395.155	580.41
395.534	588.32
395.913	587.19
396.292	589.45
396.671	598.94
397.05	596.23
397.429	648.2
397.808	605.04
398.186	635.77
398.565	642.33
398.944	627.86
399.323	634.19
399.701	634.42
400.08	660.41
400.458	651.37
400.837	645.94
401.215	670.58
401.594	676.9
401.972	703.8
402.351	704.25
402.729	711.48
403.107	727.52
403.486	734.08
403.864	713.06
404.242	733.17
404.62	733.62
404.999	733.85
405.377	742.66
405.755	755.32
406.133	770.91
406.511	806.62
406.889	810.46
407.267	786.28
407.645	809.78
408.023	817.46
408.401	814.53
408.779	827.18
409.156	842.77
409.534	850.91
409.912	869.44
410.29	866.95
410.667	908.31
411.045	906.05
411.422	919.61
411.8	907.63
412.178	941.75
412.555	947.18
412.933	955.99
413.31	957.35
413.687	974.97
414.065	976.33
414.442	995.31
414.819	1023.11
415.197	1028.76
415.574	1039.61
415.951	1040.06
416.328	1054.29
416.705	1061.07
417.082	1089.1
417.46	1123.22
417.837	1087.29
418.214	1096.78
418.591	1127.06
418.967	1141.3
419.344	1153.05
419.721	1152.37
420.098	1139.72
420.475	1172.03
420.852	1167.96
421.228	1211.8
421.605	1220.62
421.982	1248.19
422.358	1238.92
422.735	1267.4
423.111	1257.68
423.488	1261.52
423.864	1292.25
424.241	1287.96
424.617	1334.96
424.994	1303.78
425.37	1351.24
425.746	1361.18
426.123	1381.29
426.499	1376.32
426.875	1395.08
427.251	1416.32
427.627	1432.59
428.003	1486.15
428.379	1507.16
428.756	1484.79
429.132	1522.98
429.507	1541.06
429.883	1545.13
430.259	1602.08
430.635	1598.69
431.011	1605.69
431.387	1621.29
431.763	1661.51
432.138	1666.48
432.514	1671.45
432.89	1689.31
433.265	1746.25
433.641	1761.39
434.016	1789.87
434.392	1806.36
434.767	1821.73
435.143	1869.87
435.518	1922.52
435.894	1899.92
436.269	1913.93
436.644	1958.9
437.02	1962.29
437.395	1970.43
437.77	2003.2
438.145	2035.96
438.52	2030.77
438.895	2082.52
439.271	2074.15
439.646	2121.84
440.021	2141.95
440.395	2139.92
440.77	2146.92
441.145	2146.24
441.52	2196.41
441.895	2216.52
442.27	2187.82
442.645	2245
443.019	2261.95
443.394	2239.12
443.769	2272.12
444.143	2289.29
444.518	2314.37
444.892	2305.33
445.267	2311.89
445.641	2376.07
446.016	2388.72
446.39	2405.9
446.764	2388.04
447.139	2414.26
447.513	2454.48
447.887	2455.84
448.262	2466.69
448.636	2471.21
449.01	2500.13
449.384	2573.8
449.758	2597.98
450.132	2611.54
450.506	2643.18
450.88	2638.43
451.254	2648.38
451.628	2707.58
452.002	2703.74
452.376	2750.07
452.75	2728.83
453.123	2778.99
453.497	2817.64
453.871	2830.97
454.244	2934.47
454.618	2947.8
454.992	2958.43
455.365	2945.32
455.739	3063.73
456.112	3075.71
456.486	3110.96
456.859	3138.99
457.232	3245.2
457.606	3188.7
457.979	3252.2
458.352	3316.83
458.725	3348.02
459.099	3378.75
459.472	3432.99
459.845	3449.26
460.218	3503.04
460.591	3536.26
460.964	3549.37
461.337	3630.95
461.71	3686.09
462.083	3777.61
462.456	3768.12
462.829	3748.69
463.201	3849.02
463.574	3879.3
463.947	3941.9
464.32	4031.84
464.692	4065.29
465.065	4095.12
465.438	4138.73
465.81	4197.49
466.183	4246.53
466.555	4334.21
466.928	4342.8
467.3	4375.11
467.672	4421.66
468.045	4573.98
468.417	4564.94
468.789	4587.76
469.161	4642.9
469.534	4754.31
469.906	4807.42
470.278	4831.14
470.65	4941.65
471.022	5035.21
471.394	5091.48
471.766	5169.21
472.138	5208.31
472.51	5338.93
472.882	5424.35
473.253	5531.69
473.625	5526.95
473.997	5692.82
474.369	5670.44
474.74	5780.05
475.112	5915.64
475.484	5991.57
475.855	6093.71
476.227	6186.36
476.598	6363.76
476.97	6360.37
477.341	6516.3
477.713	6621.83
478.084	6647.59
478.455	6843.07
478.827	6869.73
479.198	7119.45
479.569	7155.15
479.94	7268.82
480.311	7444.41
480.682	7589.72
481.053	7694.12
481.424	7877.17
481.795	7945.64
482.166	8024.73
482.537	8124.62
482.908	8371.84
483.279	8475.34
483.65	8610.71
484.021	8777.26
484.391	8823.81
484.762	8987.19
485.133	9055.67
485.503	9182.67
485.874	9379.73
486.244	9491.59
486.615	9669.89
486.985	9775.87
487.356	9982.2
487.726	10055.64
488.097	10231.68
488.467	10330.21
488.837	10502.18
489.207	10652.91
489.578	10764.77
489.948	10885.9
490.318	10967.25
490.688	11043.64
491.058	11290.64
491.428	11403.63
491.798	11548.93
492.168	11752.54
492.538	11933.33
492.908	11953.22
493.278	12135.36
493.648	12135.36
494.017	12387.33
494.387	12478.63
494.757	12545.29
495.126	12686.08
495.496	12741.67
495.866	12804.49
496.235	13069.8
496.605	13130.59
496.974	13197.93
497.344	13329.45
497.713	13432.73
498.082	13492.61
498.452	13652.38
498.821	13827.52
499.19	13773.51
499.559	13916.78
499.928	14080.17
500.298	14166.94
500.667	14349.09
501.036	14282.87
501.405	14365.81
501.774	14484.22
502.143	14665.69
502.512	14646.71
502.88	14868.39
503.249	14934.83
503.618	14973.7
503.987	15117.65
504.356	15186.58
504.724	15274.49
505.093	15436.29
505.462	15477.87
505.83	15542.05
506.199	15687.36
506.567	15899.55
506.936	15935.71
507.304	16089.38
507.672	16132.09
508.041	16242.37
508.409	16415.7
508.777	16555.36
509.145	16642.13
509.514	16711.06
509.882	16927.1
510.25	16799.64
510.618	17105.4
510.986	17153.98
511.354	17352.17
511.722	17497.7
512.09	17631.03
512.458	17579.74
512.826	17852.04
513.193	17978.82
513.561	18053.62
513.929	18246.38
514.297	18420.17
514.664	18586.71
515.032	18467.4
515.4	18800.72
515.767	18936.76
516.135	18998.23
516.502	18944.22
516.869	19301.95
517.237	19454.26
517.604	19325.9
517.972	19645.44
518.339	19804.08
518.706	19736.29
519.073	19949.84
519.44	20140.35
519.808	20381.47
520.175	20374.46
520.542	20661.46
520.909	20875.92
521.276	20883.38
521.643	20997.72
522.009	21167.66
522.376	21258.51
522.743	21380.99
523.11	21659.63
523.477	21837.7
523.843	21987.53
524.21	22170.12
524.577	22434.52
524.943	22539.15
525.31	22642.65
525.676	22956.54
526.043	22972.14
526.409	23175.97
526.776	23456.64
527.142	23518.34
527.508	23652.8
527.874	23949.51
528.241	24062.95
528.607	24045.55
528.973	24463.17
529.339	24318.54
529.705	24557.63
530.071	24831.75
530.437	25105.41
530.803	25151.51
531.169	25252.98
531.535	25325.29
531.901	25333.2
532.267	25357.84
532.632	25730.26
532.998	25779.52
533.364	25996.46
533.73	26134.54
534.095	26433.29
534.461	26519.16
534.826	26570.91
535.192	26706.95
535.557	26922.31
535.923	26899.94
536.288	26972.93
536.653	27245.02
537.019	27184.68
537.384	27336.99
537.749	27438.91
538.114	27529.08
538.479	27623.31
538.845	27742.18
539.21	27801.84
539.575	27965.23
539.94	28106.46
540.305	28109.63
540.67	28129.51
541.034	28423.97
541.399	28572.89
541.764	28680.23
542.129	28821.7
542.494	28825.77
542.858	28888.59
543.223	28823.96
543.587	29108.02
543.952	29154.57
544.316	29282.7
544.681	29227.34
545.045	29550.95
545.41	29668.68
545.774	29643.15
546.138	29726.76
546.503	29950.71
546.867	30022.35
547.231	30234.54
547.595	30142.8
547.959	30472.05
548.324	30327.87
548.688	30458.27
549.052	30645.83
549.416	30748.65
549.779	30855.09
550.143	30989.55
550.507	31218.92
550.871	31194.74
551.235	31303.22
551.599	31481.06
551.962	31671.34
552.326	31714.96
552.689	31885.35
553.053	31764.67
553.417	31943.2
553.78	32330.08
554.143	32241.04
554.507	32385.22
554.87	32565.56
555.234	32977.97
555.597	32751.77
555.96	32934.81
556.323	33102.72
556.686	33165.31
557.05	33377.96
557.413	33370.05
557.776	33606.43
558.139	33708.35
558.502	33879.65
558.865	33984.05
559.228	34324.15
559.59	34363.02
559.953	34538.61
560.316	34941.99
560.679	34716.23
561.041	35169.1
561.404	35267.86
561.767	35453.16
562.129	35432.83
562.492	35800.27
562.854	35799.37
563.217	35878.24
563.579	36054.28
563.941	36321.84
564.304	36517.09
564.666	36707.37
565.028	36758.21
565.39	36878.89
565.753	37133.57
566.115	37274.58
566.477	37223.29
566.839	37495.82
567.201	37672.54
567.563	37790.96
567.925	38138.29
568.287	37995.92
568.648	38215.35
569.01	38305.97
569.372	38551.84
569.734	38510.48
570.095	38807.43
570.457	38914.77
570.819	39185.95
571.18	38987.76
571.542	39434.53
571.903	39495.09
572.265	39585.71
572.626	39811.02
572.987	39762.43
573.349	39900.73
573.71	40024.34
574.071	40066.15
574.432	40230.89
574.794	40489.64
575.155	40473.82
575.516	40451
575.877	40643.31
576.238	40709.3
576.599	40803.53
576.96	40885.34
577.32	40835.62
577.681	41125.78
578.042	41079.46
578.403	41324.2
578.763	41231.77
579.124	41364.42
579.485	41462.5
579.845	41562.38
580.206	41552.89
580.566	41624.3
580.927	41453.68
581.287	41736.39
581.648	41610.74
582.008	41721.47
582.368	41748.37
582.728	41881.24
583.089	41797.4
583.449	41768.48
583.809	41795.14
584.169	41906.33
584.529	41769.83
584.889	42007.34
585.249	41836.5
585.609	41773.9
585.969	42157.85
586.329	41885.54
586.688	42036.72
587.048	42044.4
587.408	42111.07
587.768	42134.8
588.127	42064.52
588.487	42009.38
588.846	42239.65
589.206	41977.29
589.565	42012.54
589.925	42147.9
590.284	42137.51
590.643	42249.6
591.003	42488.01
591.362	42444.39
591.721	42272.19
592.08	42394
592.44	42403.49
592.799	42424.96
593.158	42295.7
593.517	42427.9
593.876	42386.31
594.235	42279.43
594.593	42427.22
594.952	42571.17
595.311	42392.19
595.67	42638.06
596.029	42776.59
596.387	42688.23
596.746	42797.15
597.104	42517.38
597.463	42666.08
597.822	42828.34
598.18	42749.47
598.538	42699.75
598.897	42923.02
599.255	42674.22
599.613	43233.75
599.972	42832.4
600.33	43031.5
600.688	42915.57
601.046	43128.22
601.404	43185.84
601.762	43077.6
602.12	43339.51
602.478	43210.47
602.836	43179.97
603.194	43191.49
603.552	43144.94
603.91	43050.93
604.268	43278.49
604.625	43254.54
604.983	43457.7
605.341	43221.55
605.698	43407.76
606.056	43563.91
606.413	43488.88
606.771	43798.48
607.128	43753.74
607.485	43627.19
607.843	43683.23
608.2	43765.94
608.557	43961.41
608.914	43747.41
609.272	43898.37
609.629	43983.34
609.986	44130.22
610.343	43904.24
610.7	44306.49
611.057	44215.19
611.414	44335.64
611.771	44339.94
612.127	44353.95
612.484	44432.59
612.841	44568.86
613.198	44366.38
613.554	44487.5
613.911	44718
614.267	44515.75
614.624	44537.9
614.98	44696.31
615.337	44933.59
615.693	44781.73
616.05	44751.9
616.406	45018.34
616.762	44821.96
617.118	44810.21
617.475	44876.42
617.831	45072.35
618.187	44955.74
618.543	44958.45
618.899	45352.11
619.255	45200.03
619.611	45115.73
619.967	45227.37
620.323	45342.4
620.678	45282.74
621.034	45124.1
621.39	45224.88
621.746	45171.78
622.101	45495.16
622.457	45195.96
622.812	45377.42
623.168	45447.7
623.523	45440.47
623.879	45616.51
624.234	45285.45
624.589	45446.12
624.945	45433.47
625.3	45479.57
625.655	45334.94
626.01	45336.75
626.365	45485.67
626.72	45436.18
627.075	45455.39
627.43	45409.96
627.785	45240.48
628.14	45337.65
628.495	45436.4
628.85	45409.29
629.205	45198.9
629.559	45373.13
629.914	45193.02
630.269	45252.23
630.623	45017.21
630.978	44992.8
631.332	45084.55
631.687	45156.86
632.041	44997.32
632.396	45048.17
632.75	44853.59
633.104	44890.88
633.459	44741.06
633.813	44646.14
634.167	44605.24
634.521	44696.31
634.875	44843.43
635.229	44645.92
635.583	44451.35
635.937	44471.01
636.291	44434.85
636.645	44501.29
636.999	44366.38
637.352	44502.87
637.706	44060.62
638.06	44337
638.413	44217
638.767	44040.06
639.121	44183.33
639.474	43870.57
639.828	43942.88
640.181	43948.08
640.534	44021.07
640.888	43906.95
641.241	43624.47
641.594	43733.17
641.947	43776.56
642.301	43800.97
642.654	43756.9
643.007	43706.51
643.36	43683
643.713	43429
644.066	43773.85
644.419	43304.93
644.771	43091.61
645.124	42628.34
645.477	42592.86
645.83	42386.31
646.182	42208.92
646.535	42102.71
646.888	42346.99
647.24	42084.63
647.593	42290.5
647.945	42245.98
648.298	42155.81
648.65	42039.43
649.002	41876.95
649.355	42027
649.707	41862.26
650.059	41991.97
650.411	42448.46
650.763	42565.75
651.115	42840.09
651.467	42662.24
651.819	42615.46
652.171	42676.25
652.523	42525.75
652.875	42570.94
653.227	42273.1
653.578	42589.47
653.93	42530.04
654.282	42458.86
654.633	42235.36
654.985	42415.69
655.337	42421.34
655.688	42373.43
656.039	42214.34
656.391	41985.65
656.742	42149.26
657.094	41976.38
657.445	42226.77
657.796	42105.87
658.147	42071.07
658.498	42056.15
658.849	42005.53
659.2	41961.47
659.551	41995.82
659.902	42038.08
660.253	41908.14
660.604	41966.21
660.955	41866.55
661.306	41961.47
661.656	41740.23
662.007	41896.84
662.358	41856.39
662.708	41672.66
663.059	41759.89
663.409	41590.18
663.76	41713.11
664.11	41679.44
664.461	41643.74
664.811	41587.92
665.161	41586.11
665.511	41502.27
665.862	41590.63
666.212	41806.67
666.562	41740
666.912	41694.58
667.262	41462.72
667.612	41532.1
667.962	41395.61
668.312	41433.8
668.662	41789.95
669.011	41554.25
669.361	41497.3
669.711	41468.82
670.06	41307.25
670.41	41266.12
670.76	41070.19
671.109	41328.72
671.459	41147.7
671.808	41143.86
672.157	41399.45
672.507	40917.88
672.856	41026.12
673.205	41165.1
673.554	41089.63
673.904	41035.84
674.253	41189.96
674.602	41078.78
674.951	40648.06
675.3	40459.59
675.649	41051.43
675.998	41006.92
676.346	40941.16
676.695	41061.15
677.044	40666.81
677.393	40804.21
677.741	40840.37
678.09	40751.78
678.438	40688.28
678.787	40606.7
679.135	40701.84
679.484	40499.36
679.832	40692.12
680.181	40524.89
680.529	40633.82
680.877	40376.2
681.225	40294.17
681.573	40573.71
681.922	40205.13
682.27	40139.59
682.618	40207.84
682.966	40046.49
683.314	40108.63
683.661	40038.35
684.009	39723.11
684.357	39781.86
684.705	39738.93
685.053	39787.06
685.4	39827.51
685.748	39551.14
686.095	39547.29
686.443	39344.13
686.79	39351.59
687.138	39264.59
687.485	39259.62
687.832	39163.12
688.18	39140.07
688.527	38951.38
688.874	38990.92
689.221	38809.01
689.568	38707.09
689.915	38650.82
690.262	38560.65
690.609	38642.23
690.956	38450.37
691.303	38408.57
691.65	38304.39
691.997	38285.63
692.344	37979.43
692.69	38169.7
693.037	38220.1
693.383	37852.87
693.73	37976.26
694.077	37672.54
694.423	37719.09
694.769	37563.16
695.116	37541.24
695.462	37509.15
695.808	37161.82
696.155	37355.03
696.501	37017.87
696.847	37084.99
697.193	36877.99
697.539	36924.09
697.885	36671.44
698.231	36567.03
698.577	36631.66
698.923	36600.48
699.269	36296.31
699.614	36069.87
699.96	36059.48
700.306	36110.32
700.651	35998.69
700.997	35728.41
701.342	35831.91
701.688	35634.63
702.033	35564.8
702.379	35727.05
702.724	35452.49
703.069	35551.92
703.415	35033.29
703.76	35164.36
704.105	35102.89
704.45	34922.56
704.795	34812.5
705.14	34693.64
705.485	34627.87
705.83	34570.93
706.175	34682.56
706.52	34425.39
706.865	34399.63
707.209	34230.15
707.554	34163.25
707.899	34369.12
708.243	34135.46
708.588	34043.26
708.932	33808.91
709.277	33757.16
709.621	33793.09
709.966	33513.33
710.31	33676.49
710.654	33467.91
710.998	33599.2
711.342	33424.52
711.687	33425.42
712.031	33237.63
712.375	33252.32
712.719	33137.52
713.063	33053.23
713.407	33128.48
713.75	32885.32
714.094	33049.16
714.438	32791.09
714.782	32888.71
715.125	32728.26
715.469	32790.41
715.812	32505.67
716.156	32436.52
716.499	32447.82
716.843	32458.89
717.186	32114.27
717.53	32359.01
717.873	32212.35
718.216	32145.91
718.559	32114.95
718.902	31951.56
719.246	31943.65
719.589	31893.94
719.932	31942.75
720.275	31773.26
720.617	31722.64
720.96	31607.84
721.303	31671.57
721.646	31719.02
721.989	31359.03
722.331	31484.23
722.674	31390.45
723.016	31466.15
723.359	31340.05
723.701	31382.99
724.044	31126.95
724.386	30867.3
724.729	31176.21
725.071	30978.03
725.413	30904.36
725.755	30939.84
726.097	30826.84
726.439	30665.04
726.782	30645.83
727.124	30739.62
727.465	30595.66
727.807	30553.86
728.149	30489.68
728.491	30405.61
728.833	30557.93
729.175	30252.4
729.516	30241.32
729.858	30190.25
730.199	30275.9
730.541	30196.8
730.882	30190.48
731.224	30257.14
731.565	30070.48
731.906	30082.01
732.248	30010.37
732.589	29846.76
732.93	29773.31
733.271	29837.94
733.612	29742.81
733.953	29784.84
734.294	29692.64
734.635	29618.74
734.976	29675.91
735.317	29542.13
735.658	29502.59
735.999	29571.06
736.339	29274.34
736.68	29417.16
737.021	29402.93
737.361	29298.98
737.702	29473.21
738.042	29348.69
738.383	29154.35
738.723	29269.15
739.063	29118.19
739.404	29105.76
739.744	29044.29
740.084	28952.54
740.424	29003.16
740.764	28817.63
741.104	29055.59
741.444	28863.28
741.784	28658.09
742.124	28873.68
742.464	28642.04
742.804	28644.3
743.143	28596.39
743.483	28533.57
743.823	28413.57
744.162	28379.45
744.502	28455.38
744.841	28341.26
745.181	28287.7
745.52	28191.43
745.86	28265.1
746.199	28239.57
746.538	28002.51
746.877	28075.5
747.216	28030.31
747.556	27988.73
747.895	27903.08
748.234	27873.02
748.573	27831.22
748.911	27818.34
749.25	27716.42
749.589	27652.01
749.928	27814.27
750.267	27666.48
750.605	27634.39
750.944	27478.23
751.283	27482.07
751.621	27508.97
751.96	27135.19
752.298	27323.21
752.636	27236.88
752.975	27135.64
753.313	26987.17
753.651	27185.13
