Data from plate_ceramic_FLMS001491_036.txt Node
Date: Tue Feb 07 11:16:40 GMT 2017
User: dcchb
Spectrometer: FLMS00149
Trigger mode: 0
Integration Time (sec): 2.000000E-2
Scans to average: 10
Electric dark correction enabled: true
Nonlinearity correction enabled: false
Boxcar width: 0
XAxis mode: Wavelengths
Number of Pixels in Spectrum: 2048
>>>>>Begin Spectral Data<<<<<
341.393	-11.68
341.776	-11.68
342.16	-11.68
342.543	-61.85
342.927	-66.82
343.31	-76.54
343.693	-58.68
344.077	-61.62
344.46	-53.26
344.843	-48.74
345.226	-42.19
345.61	-48.29
345.993	-5.35
346.376	4.14
346.759	15.21
347.142	27.41
347.525	44.14
347.908	63.8
348.291	63.35
348.674	85.72
349.057	90.92
349.44	105.15
349.823	132.27
350.206	190.57
350.588	214.98
350.971	219.05
351.354	251.36
351.737	268.76
352.119	288.65
352.502	288.42
352.884	276.22
353.267	297.24
353.65	304.02
354.032	354.64
354.414	338.37
354.797	330.46
355.179	350.34
355.562	355.77
355.944	372.04
356.326	379.27
356.709	347.63
357.091	356.9
357.473	351.47
357.855	373.85
358.238	355.54
358.62	366.16
359.002	383.11
359.384	344.24
359.766	367.52
360.148	360.51
360.53	374.07
360.912	370.91
361.294	359.38
361.676	378.14
362.057	382.89
362.439	363.45
362.821	359.61
363.203	348.54
363.584	353.06
363.966	359.38
364.348	377.69
364.729	368.2
365.111	365.03
365.493	343.56
365.874	358.93
366.256	359.16
366.637	356.45
367.019	367.52
367.4	360.29
367.781	352.38
368.163	383.56
368.544	379.04
368.925	388.53
369.306	362.55
369.688	386.05
370.069	379.04
370.45	382.43
370.831	345.6
371.212	373.17
371.593	352.38
371.974	378.59
372.355	391.47
372.736	372.04
373.117	370.68
373.498	383.34
373.879	389.66
374.26	382.43
374.641	373.62
375.021	367.97
375.402	397.12
375.783	409.1
376.163	412.94
376.544	411.36
376.925	413.17
377.305	393.51
377.686	397.8
378.066	425.37
378.447	418.82
378.827	421.53
379.208	418.14
379.588	428.76
379.968	430.79
380.349	440.06
380.729	453.84
381.109	445.26
381.489	429.89
381.87	427.4
382.25	441.87
382.63	453.17
383.01	439.83
383.39	443.22
383.77	463.34
384.15	465.6
384.53	468.31
384.91	454.3
385.29	483.9
385.67	464.47
386.049	479.83
386.429	474.41
386.809	501.53
387.189	497.23
387.568	498.81
387.948	498.36
388.328	512.15
388.707	535.65
389.087	514.86
389.466	505.59
389.846	543.79
390.225	516.22
390.605	532.03
390.984	538.81
391.363	532.03
391.743	548.98
392.122	564.58
392.501	560.28
392.881	574.97
393.26	572.94
393.639	571.81
394.018	574.97
394.397	580.85
394.776	595.08
395.155	569.77
395.534	598.92
395.913	602.77
396.292	618.59
396.671	614.52
397.05	623.33
397.429	637.79
397.808	602.99
398.186	617.68
398.565	660.17
398.944	638.7
399.323	649.77
399.701	638.92
400.08	649.09
400.458	691.35
400.837	680.28
401.215	683.44
401.594	699.71
401.972	705.14
402.351	675.08
402.729	676.21
403.107	700.17
403.486	740.84
403.864	740.62
404.242	713.95
404.62	743.78
404.999	755.3
405.377	746.72
405.755	795.53
406.133	768.41
406.511	788.75
406.889	771.58
407.267	821.97
407.645	810.67
408.023	833.27
408.401	851.8
408.779	838.24
409.156	871.01
409.534	864.91
409.912	893.61
410.29	901.97
410.667	919.82
411.045	904.23
411.422	912.81
411.8	927.96
412.178	952.36
412.555	951.46
412.933	961.4
413.31	998.91
413.687	1025.13
414.065	983.55
414.442	1028.97
414.819	1028.52
415.197	1044.34
415.574	1071.23
415.951	1083.43
416.328	1088.86
416.705	1086.37
417.082	1093.15
417.46	1102.41
417.837	1092.7
418.214	1132.7
418.591	1136.76
418.967	1144.45
419.344	1184.67
419.721	1184.9
420.098	1183.09
420.475	1218.12
420.852	1217.67
421.228	1246.82
421.605	1231.45
421.982	1244.56
422.358	1251.34
422.735	1273.26
423.111	1296.76
423.488	1321.62
423.864	1290.43
424.241	1334.27
424.617	1353.26
424.994	1353.26
425.37	1398.9
425.746	1381.5
426.123	1373.82
426.499	1407.49
426.875	1433.48
427.251	1429.19
427.627	1463.31
428.003	1446.36
428.379	1494.27
428.756	1519.8
429.132	1543.53
429.507	1574.94
429.883	1593.25
430.259	1627.6
430.635	1625.56
431.011	1635.28
431.387	1692.23
431.763	1691.78
432.138	1724.55
432.514	1757.09
432.89	1751.66
433.265	1790.08
433.641	1812.23
434.016	1800.25
434.392	1842.73
434.767	1891.77
435.143	1862.39
435.518	1894.71
435.894	1957.08
436.269	1981.04
436.644	1993.92
437.02	2000.24
437.395	1980.36
437.77	2041.6
438.145	2070.07
438.52	2096.51
438.895	2110.07
439.271	2134.48
439.646	2169.28
440.021	2196.62
440.395	2179.9
440.77	2164.99
441.145	2207.47
441.52	2251.99
441.895	2235.72
442.27	2307.81
442.645	2277.98
443.019	2350.07
443.394	2351.65
443.769	2346.9
444.143	2342.16
444.518	2371.08
444.892	2351.2
445.267	2396.39
445.641	2401.36
446.016	2442.04
446.39	2433.9
446.764	2478.88
447.139	2491.3
447.513	2489.5
447.887	2486.11
448.262	2530.63
448.636	2538.76
449.01	2576.73
449.384	2643.39
449.758	2647.68
450.132	2697.85
450.506	2657.85
450.88	2721.81
451.254	2667.8
451.628	2729.26
452.002	2780.56
452.376	2820.79
452.75	2820.11
453.123	2867.79
453.497	2927.23
453.871	2908.69
454.244	2963.38
454.618	3009.93
454.992	3009.26
455.365	3043.83
455.739	3144.17
456.112	3164.96
456.486	3188.01
456.859	3235.92
457.232	3263.26
457.606	3274.11
457.979	3335.35
458.352	3413.09
458.725	3460.09
459.099	3443.37
459.472	3552.07
459.845	3538.73
460.218	3592.07
460.591	3646.53
460.964	3677.94
461.337	3719.52
461.71	3773.53
462.083	3839.74
462.456	3858.5
462.829	3874.55
463.201	3924.94
463.574	3949.57
463.947	4019.63
464.32	4107.53
464.692	4119.51
465.065	4182.79
465.438	4210.58
465.81	4285.16
466.183	4337.81
466.555	4435.21
466.928	4457.81
467.3	4482.44
467.672	4549.1
468.045	4695.77
468.417	4671.81
468.789	4697.12
469.161	4799.72
469.534	4883.78
469.906	4945.25
470.278	5008.07
470.65	5001.97
471.022	5171.91
471.394	5320.16
471.766	5293.49
472.138	5365.13
472.51	5474.95
472.882	5550.43
473.253	5634.95
473.625	5725.34
473.997	5875.62
474.369	5900.25
474.74	5945.45
475.112	6031.32
475.484	6156.97
475.855	6232
476.227	6341.15
476.598	6493.23
476.97	6538.2
477.341	6641.93
477.713	6790.17
478.084	6853.45
478.455	7026.1
478.827	7057.51
479.198	7334.57
479.569	7296.15
479.94	7521
480.311	7585.86
480.682	7737.72
481.053	7919.86
481.424	8056.13
481.795	8077.37
482.166	8287.76
482.537	8385.61
482.908	8575.89
483.279	8658.37
483.65	8814.53
484.021	9034.18
484.391	9086.39
484.762	9217.23
485.133	9238.25
485.503	9441.63
485.874	9619.03
486.244	9734.05
486.615	9893.37
486.985	9995.74
487.356	10239.8
487.726	10360.48
488.097	10533.13
488.467	10588.94
488.837	10813.57
489.207	10943.96
489.578	11072.77
489.948	11219.66
490.318	11323.84
490.688	11399.77
491.058	11546.66
491.428	11733.77
491.798	11873.88
492.168	12046.53
492.538	12072.3
492.908	12279.75
493.278	12438.61
493.648	12476.8
494.017	12714.54
494.387	12787.31
494.757	12929.45
495.126	13063.68
495.496	13043.57
495.866	13194.3
496.235	13377.57
496.605	13526.95
496.974	13502.99
497.344	13672.25
497.713	13848.29
498.082	13861.4
498.452	14002.87
498.821	14162.41
499.19	14133.48
499.559	14353.37
499.928	14413.02
500.298	14540.93
500.667	14659.35
501.036	14652.11
501.405	14873.35
501.774	14912.9
502.143	15088.26
502.512	15063.63
502.88	15292.32
503.249	15254.36
503.618	15432.21
503.987	15484.64
504.356	15614.58
504.724	15747.45
505.093	15859.77
505.462	15939.76
505.83	16027.9
506.199	16204.62
506.567	16436.25
506.936	16346.53
507.304	16595.11
507.672	16623.36
508.041	16831.72
508.409	16864.71
508.777	17116.23
509.145	17127.53
509.514	17235.32
509.882	17344.93
510.25	17350.35
510.618	17597.57
510.986	17686.39
511.354	17892.48
511.722	18079.14
512.09	18215.64
512.458	18148.97
512.826	18443.43
513.193	18468.51
513.561	18548.74
513.929	18701.5
514.297	18920.03
514.664	19049.51
515.032	19103.52
515.4	19298.77
515.767	19440.69
516.135	19491.08
516.502	19435.94
516.869	19795.71
517.237	19883.39
517.604	19892.2
517.972	20145.3
518.339	20369.93
518.706	20377.84
519.073	20456.93
519.44	20628.68
519.808	21026.41
520.175	20975.11
520.542	21236.12
520.909	21317.25
521.276	21411.94
521.643	21682.66
522.009	21804.02
522.376	21945.48
522.743	22047.63
523.11	22274.74
523.477	22538.46
523.843	22658.46
524.21	22948.17
524.577	23054.38
524.943	23202.17
525.31	23326.69
525.676	23574.59
526.043	23702.5
526.409	23828.14
526.776	24212.77
527.142	24248.02
527.508	24441.01
527.874	24457.51
528.241	24777.72
528.607	24836.25
528.973	24995.57
529.339	25064.72
529.705	25318.05
530.071	25638.04
530.437	25721.43
530.803	25859.73
531.169	25971.82
531.535	25930.01
531.901	26267.85
532.267	26268.98
532.632	26520.5
532.998	26486.38
533.364	26756.43
533.73	26846.6
534.095	27153.93
534.461	27091.79
534.826	27361.84
535.192	27440.93
535.557	27693.13
535.923	27842.5
536.288	27733.35
536.653	27945.55
537.019	27764.31
537.384	27996.85
537.749	28221.48
538.114	28219.89
538.479	28266.67
538.845	28493.33
539.21	28562.48
539.575	28693.55
539.94	28878.63
540.305	29068.23
540.67	29017.16
541.034	29185.74
541.399	29218.29
541.764	29372.41
542.129	29596.35
542.494	29628.9
542.858	29717.48
543.223	29701.21
543.587	29997.93
543.952	29912.5
544.316	30157.24
544.681	30102.33
545.045	30234.08
545.41	30419.84
545.774	30469.33
546.138	30546.84
546.503	30716.78
546.867	30853.95
547.231	31079.25
547.595	31230.89
547.959	31393.6
548.324	31303.88
548.688	31382.52
549.052	31470.43
549.416	31664.55
549.779	31668.62
550.143	31819.8
550.507	31974.37
550.871	32228.83
551.235	32068.15
551.599	32385.21
551.962	32494.58
552.326	32621.81
552.689	32749.27
553.053	32567.8
553.417	32826.55
553.78	33153.32
554.143	33163.72
554.507	33269.93
554.87	33609.81
555.234	33782.91
555.597	33645.29
555.96	33829.01
556.323	34088.89
556.686	34064.26
557.05	34224.93
557.413	34490.24
557.776	34594.64
558.139	34841.41
558.502	34930.68
558.865	34888.64
559.228	35311.23
559.59	35590.32
559.953	35464.67
560.316	35787.83
560.679	35878.9
561.041	36056.75
561.404	36242.96
561.767	36314.82
562.129	36449.28
562.492	36854.47
562.854	36823.28
563.217	36695.38
563.579	37167
563.941	37231.41
564.304	37456.94
564.666	37722.24
565.028	37663.94
565.39	37871.39
565.753	38104.83
566.115	38234.32
566.477	38383.24
566.839	38367.88
567.201	38849.67
567.563	38730.35
567.925	39060.74
568.287	39067.07
568.648	39155.65
569.01	39337.57
569.372	39571.69
569.734	39442.65
570.095	39902.75
570.457	40046.25
570.819	40073.37
571.18	40106.13
571.542	40382.74
571.903	40606.69
572.265	40636.06
572.626	40756.51
572.987	40830.41
573.349	41043.74
573.71	41109.5
574.071	41158.99
574.432	41259.1
574.794	41572.54
575.155	41490.05
575.516	41486.21
575.877	41741.12
576.238	41651.18
576.599	41803.49
576.96	41882.36
577.32	42016.59
577.681	42210.26
578.042	42355.12
578.403	42427.2
578.763	42363.7
579.124	42400.99
579.485	42739.74
579.845	42712.85
580.206	42764.14
580.566	42646.41
580.927	42647.31
581.287	42787.87
581.648	42652.73
582.008	42815.44
582.368	42734.31
582.728	43016.34
583.089	42990.58
583.449	42867.64
583.809	42978.6
584.169	43082.33
584.529	42885.5
584.889	43176.79
585.249	43039.39
585.609	42971.37
585.969	43239.39
586.329	42974.31
586.688	43234.64
587.048	43131.59
587.408	43071.03
587.768	43159.16
588.127	43186.28
588.487	43183.57
588.846	43513.73
589.206	43127.98
589.565	43299.05
589.925	43492.94
590.284	43331.36
590.643	43492.71
591.003	43480.51
591.362	43408.42
591.721	43500.4
592.08	43609.09
592.44	43522.09
592.799	43716.44
593.158	43578.81
593.517	43539.04
593.876	43607.06
594.235	43585.14
594.593	43538.81
594.952	43751.24
595.311	43571.58
595.67	43616.32
596.029	43916.43
596.387	43921.85
596.746	43842.99
597.104	43768.64
597.463	43869.2
597.822	44072.36
598.18	43881.18
598.538	43859.26
598.897	44142.19
599.255	43745.36
599.613	44408.62
599.972	44076.2
600.33	44166.59
600.688	43909.2
601.046	44297.89
601.404	44307.61
601.762	44160.94
602.12	44407.26
602.478	44477.55
602.836	44530.65
603.194	44378.79
603.552	44398.45
603.91	44275.52
604.268	44489.07
604.625	44482.52
604.983	44602.51
605.341	44567.03
605.698	44712.57
606.056	44855.16
606.413	44717.76
606.771	44910.98
607.128	44933.13
607.485	44760.48
607.843	44872.34
608.2	44958.21
608.557	45152.1
608.914	45059.68
609.272	45138.09
609.629	45226.23
609.986	45352.32
610.343	45240.24
610.7	45501.02
611.057	45356.84
611.414	45267.81
611.771	45393.23
612.127	45532.66
612.484	45562.04
612.841	45752.99
613.198	45554.58
613.554	45638.87
613.911	46009.93
614.267	45936.94
614.624	45811.97
614.98	46051.74
615.337	46178.29
615.693	46086.99
616.05	46002.93
616.406	46162.02
616.762	46032.31
617.118	45971.52
617.475	46006.77
617.831	46135.35
618.187	46035.24
618.543	46160.44
618.899	46434.78
619.255	46303.71
619.611	46200.89
619.967	46503.48
620.323	46609.69
620.678	46465.97
621.034	46317.04
621.39	46364.73
621.746	46269.59
622.101	46701.44
622.457	46472.3
622.812	46456.25
623.168	46555
623.523	46481.56
623.879	46603.82
624.234	46351.17
624.589	46595.68
624.945	46589.13
625.3	46534.89
625.655	46491.73
626.01	46589.81
626.365	46639.52
626.72	46516.81
627.075	46694.66
627.43	46536.25
627.785	46353.88
628.14	46482.69
628.495	46607.21
628.85	46446.76
629.205	46318.63
629.559	46614.44
629.914	46350.49
630.269	46507.55
630.623	46367.44
630.978	46247.22
631.332	46371.73
631.687	46463.93
632.041	46246.31
632.396	46404.27
632.75	45994.34
633.104	46101.01
633.459	45910.5
633.813	45942.37
634.167	46090.61
634.521	45904.85
634.875	45941.69
635.229	45809.04
635.583	45682.49
635.937	45809.26
636.291	45716.16
636.645	45599.78
636.999	45510.51
637.352	45650.17
637.706	45565.2
638.06	45475.71
638.413	45499.89
638.767	45329.05
639.121	45426.67
639.474	45137.87
639.828	45180.13
640.181	45203.63
640.534	45292.21
640.888	45098.55
641.241	45011.77
641.594	45092.9
641.947	45206.79
642.301	44989.17
642.654	45028.49
643.007	44921.15
643.36	44960.92
643.713	44855.61
644.066	45006.34
644.419	44460.6
644.771	44225.12
645.124	43877.11
645.477	43822.65
645.83	43537.68
646.182	43421.75
646.535	43460.17
646.888	43558.7
647.24	43412.49
647.593	43556.89
647.945	43498.59
648.298	43387.86
648.65	43039.84
649.002	43047.98
649.355	43181.53
649.707	43185.83
650.059	43365.48
650.411	43729.54
650.763	43610.9
651.115	44157.1
651.467	43889.99
651.819	44050.89
652.171	43842.76
652.523	43904.68
652.875	43776.55
653.227	43584.91
653.578	43755.08
653.93	43710.11
654.282	43555.31
654.633	43583.56
654.985	43565.03
655.337	43645.25
655.688	43488.87
656.039	43621.52
656.391	43289.1
656.742	43343.34
657.094	43409.55
657.445	43496.55
657.796	43242.32
658.147	43264.47
658.498	43220.63
658.849	43250.01
659.2	43144.47
659.551	43064.25
659.902	43246.39
660.253	43069.22
660.604	43159.84
660.955	43048.43
661.306	43307.63
661.656	43121.87
662.007	43114.42
662.358	43134.76
662.708	42991.26
663.059	43081.2
663.409	42745.61
663.76	43008.43
664.11	42833.07
664.461	43036
664.811	42971.82
665.161	43004.82
665.511	42757.36
665.862	42949.68
666.212	42987.41
666.562	42931.15
666.912	42874.88
667.262	42852.05
667.612	42762.56
667.962	42747.87
668.312	42680.53
668.662	42859.28
669.011	42870.36
669.361	42793.75
669.711	42624.71
670.06	42573.41
670.41	42620.64
670.76	42445.51
671.109	42582.68
671.459	42614.32
671.808	42519.4
672.157	42518.73
672.507	42246.87
672.856	42396.02
673.205	42332.06
673.554	42459.75
673.904	42285.96
674.253	42600.53
674.602	42325.29
674.951	41790.61
675.3	41681.01
675.649	42263.59
675.998	42136.82
676.346	42255.91
676.695	42410.93
677.044	41977.72
677.393	42253.65
677.741	42235.57
678.09	41996.03
678.438	41865.18
678.787	42033.77
679.135	42019.53
679.484	41970.04
679.832	42034.22
680.181	41639.88
680.529	41845.07
680.877	41621.35
681.225	41601.46
681.573	41810.95
681.922	41445.99
682.27	41318.76
682.618	41492.99
682.966	41430.85
683.314	41399.21
683.661	41224.07
684.009	41116.96
684.357	40894.59
684.705	40933.46
685.053	40992.21
685.4	40930.29
685.748	40874.02
686.095	40793.12
686.443	40569.4
686.79	40604.43
687.138	40493.7
687.485	40534.37
687.832	40494.6
688.18	40395.84
688.527	40236.75
688.874	40271.33
689.221	40007.61
689.568	39849.19
689.915	39806.03
690.262	39821.85
690.609	39778.46
690.956	39719.48
691.303	39681.51
691.65	39327.85
691.997	39447.17
692.344	39392.71
692.69	39380.96
693.037	39371.92
693.383	39055.77
693.73	39068.42
694.077	38850.57
694.423	38954.98
694.769	38769.67
695.116	38849.22
695.462	38715.21
695.808	38554.99
696.155	38402.68
696.501	38244.71
696.847	38260.99
697.193	37876.59
697.539	38056.47
697.885	37976.7
698.231	37822.8
698.577	37866.19
698.923	37622.13
699.269	37437.96
699.614	37226.66
699.96	37152.77
700.306	37230.73
700.651	37167.45
700.997	37072.99
701.342	37079.77
701.688	36927.46
702.033	36688.6
702.379	36655.6
702.724	36507.81
703.069	36624.19
703.415	36276.4
703.76	36360.02
704.105	36296.74
704.45	36056.52
704.795	35838.9
705.14	35914.61
705.485	35901.27
705.83	35652.24
706.175	35727.72
706.52	35641.17
706.865	35547.16
707.209	35499.48
707.554	35259.71
707.899	35469.87
708.243	35365.24
708.588	35092.48
708.932	34808.87
709.277	34826.95
709.621	34783.34
709.966	34808.19
710.31	34806.84
710.654	34610.69
710.998	34647.52
711.342	34527.75
711.687	34434.42
712.031	34396.91
712.375	34223.13
712.719	34405.49
713.063	34193.07
713.407	34289.11
713.75	34146.07
714.094	34120.76
714.438	33944.04
714.782	34080.76
715.125	33823.14
715.469	33945.62
715.812	33706.98
716.156	33515.35
716.499	33581.56
716.843	33532.07
717.186	33385.63
717.53	33442.81
717.873	33401.23
718.216	33239.2
718.559	33232.64
718.902	33131.85
719.246	33102.25
719.589	33005.3
719.932	32831.07
720.275	32838.76
720.617	32723.96
720.96	32573.9
721.303	32713.56
721.646	32622.72
721.989	32538.42
722.331	32462.04
722.674	32393.8
723.016	32368.49
723.359	32374.13
723.701	32302.27
724.044	32109.51
724.386	32003.52
724.729	32176.63
725.071	32008.95
725.413	31929.17
725.755	32022.05
726.097	31722.85
726.439	31693.93
726.782	31708.39
727.124	31796.07
727.465	31567.15
727.807	31584.55
728.149	31502.97
728.491	31419.13
728.833	31439.47
729.175	31266.37
729.516	31418.45
729.858	31352.47
730.199	31361.05
730.541	31089.2
730.882	31155.41
731.224	31211.45
731.565	31048.52
731.906	30887.17
732.248	31069.31
732.589	30881.52
732.93	30863.44
733.271	30840.16
733.612	30863.67
733.953	30778.92
734.294	30653.95
734.635	30461.87
734.976	30688.53
735.317	30535.99
735.658	30592.26
735.999	30367.63
736.339	30327.63
736.68	30503.22
737.021	30355.43
737.361	30224.36
737.702	30440.85
738.042	30163.8
738.383	30069.11
738.723	30187.98
739.063	30139.62
739.404	30104.14
739.744	30032.73
740.084	29968.55
740.424	29959.06
740.764	29931.26
741.104	29913.86
741.444	29873.86
741.784	29747.31
742.124	29789.8
742.464	29639.29
742.804	29580.08
743.143	29465.06
743.483	29462.57
743.823	29363.14
744.162	29318.4
744.502	29331.5
744.841	29319.53
745.181	29293.99
745.52	29233.88
745.86	29156.82
746.199	29090.38
746.538	29118.85
746.877	29096.71
747.216	29013.09
747.556	28836.37
747.895	28904.85
748.234	28726.09
748.573	28875.92
748.911	28781.23
749.25	28812.19
749.589	28619.43
749.928	28650.39
750.267	28560.45
750.605	28394.35
750.944	28326.78
751.283	28319.1
751.621	28464.86
751.96	28119.33
752.298	28049.05
752.636	28136.96
752.975	28004.53
