Data from plate_porcelain_FLMS001491_055.txt Node
Date: Tue Feb 07 11:19:32 GMT 2017
User: dcchb
Spectrometer: FLMS00149
Trigger mode: 0
Integration Time (sec): 2.000000E-2
Scans to average: 10
Electric dark correction enabled: true
Nonlinearity correction enabled: false
Boxcar width: 0
XAxis mode: Wavelengths
Number of Pixels in Spectrum: 2048
>>>>>Begin Spectral Data<<<<<
341.393	11.26
341.776	11.26
342.16	11.26
342.543	-46.14
342.927	-79.14
343.31	-67.39
343.693	-55.63
344.077	-64
344.46	-58.35
344.843	-58.12
345.226	-38.23
345.61	-9.76
345.993	-45.01
346.376	-13.38
346.759	18.26
347.142	36.57
347.525	21.65
347.908	65.49
348.291	65.94
348.674	97.58
349.057	104.36
349.44	112.95
349.823	135.77
350.206	168.09
350.588	231.82
350.971	226.62
351.354	266.62
351.737	269.56
352.119	298.03
352.502	313.62
352.884	304.36
353.267	321.76
353.65	331.93
354.032	321.31
354.414	357.24
354.797	353.62
355.179	366.28
355.562	358.37
355.944	372.38
356.326	372.83
356.709	362.21
357.091	386.16
357.473	378.93
357.855	394.75
358.238	393.62
358.62	386.16
359.002	390.23
359.384	395.65
359.766	381.19
360.148	367.41
360.53	397.91
360.912	388.42
361.294	370.34
361.676	386.39
362.057	401.3
362.439	378.25
362.821	398.59
363.203	406.05
363.584	385.94
363.966	387.74
364.348	362.89
364.729	418.93
365.111	407.18
365.493	384.58
365.874	403.56
366.256	385.26
366.637	405.82
367.019	401.98
367.4	401.98
367.781	415.31
368.163	425.94
368.544	390.91
368.925	399.72
369.306	413.73
369.688	399.95
370.069	407.63
370.45	403.56
370.831	400.4
371.212	416.44
371.593	426.16
371.974	420.51
372.355	423.22
372.736	445.14
373.117	439.95
373.498	442.66
373.879	404.24
374.26	442.66
374.641	404.92
375.021	442.66
375.402	451.92
375.783	454.86
376.163	497.8
376.544	489.21
376.925	467.74
377.305	443.79
377.686	438.14
378.066	463
378.447	493.96
378.827	451.92
379.208	472.04
379.588	496.22
379.968	496.89
380.349	477.69
380.729	482.88
381.109	528.53
381.489	494.63
381.87	505.48
382.25	501.19
382.63	521.75
383.01	531.92
383.39	541.64
383.77	527.4
384.15	537.8
384.53	537.12
384.91	550
385.29	562.2
385.67	567.63
386.049	562.43
386.429	572.15
386.809	584.58
387.189	585.7
387.568	583.22
387.948	585.03
388.328	614.18
388.707	606.04
389.087	598.81
389.466	617.57
389.846	623.22
390.225	627.06
390.605	639.49
390.984	642.88
391.363	681.07
391.743	656.66
392.122	695.08
392.501	673.16
392.881	684.91
393.26	698.92
393.639	710.67
394.018	719.03
394.397	702.31
394.776	721.97
395.155	733.05
395.534	732.14
395.913	745.7
396.292	740.05
396.671	766.72
397.05	750.22
397.429	772.82
397.808	779.6
398.186	786.6
398.565	762.42
398.944	795.87
399.323	809.43
399.701	812.14
400.08	814.63
400.458	831.12
400.837	829.31
401.215	846.94
401.594	864.12
401.972	852.14
402.351	885.36
402.729	910.22
403.107	918.58
403.486	909.09
403.864	906.37
404.242	906.15
404.62	933.72
404.999	968.52
405.377	967.84
405.755	981.17
406.133	964
406.511	1010.1
406.889	1000.84
407.267	1032.02
407.645	1033.6
408.023	1054.62
408.401	1076.99
408.779	1078.57
409.156	1121.51
409.534	1106.37
409.912	1112.47
410.29	1141.62
410.667	1189.76
411.045	1190.21
411.422	1187.05
411.8	1208.97
412.178	1232.02
412.555	1245.57
412.933	1275.86
413.31	1258.68
413.687	1310.66
414.065	1304.1
414.442	1339.36
414.819	1349.98
415.197	1367.61
415.574	1392.92
415.951	1398.56
416.328	1415.74
416.705	1423.2
417.082	1451.22
417.46	1469.07
417.837	1477.66
418.214	1469.52
418.591	1491.44
418.967	1502.74
419.344	1518.79
419.721	1528.96
420.098	1592.68
420.475	1563.76
420.852	1586.36
421.228	1610.99
421.605	1642.17
421.982	1663.42
422.358	1657.77
422.735	1674.04
423.111	1662.96
423.488	1724.21
423.864	1732.34
424.241	1745.45
424.617	1761.72
424.994	1780.93
425.37	1829.51
425.746	1816.63
426.123	1860.25
426.499	1841.72
426.875	1882.85
427.251	1981.37
427.627	1983.86
428.003	1988.38
428.379	2016.4
428.756	2022.5
429.132	2067.02
429.507	2078.1
429.883	2157.64
430.259	2176.17
430.635	2184.31
431.011	2199.67
431.387	2239.67
431.763	2306.56
432.138	2278.54
432.514	2338.88
432.89	2340.46
433.265	2408.93
433.641	2416.39
434.016	2473.11
434.392	2515.15
434.767	2548.82
435.143	2562.15
435.518	2583.17
435.894	2628.59
436.269	2629.94
436.644	2706.78
437.02	2690.51
437.395	2705.65
437.77	2798.53
438.145	2846.66
438.52	2843.27
438.895	2835.82
439.271	2903.61
439.646	2962.59
440.021	2981.12
440.395	2990.61
440.77	2990.61
441.145	2995.36
441.52	3051.63
441.895	3063.83
442.27	3134.79
442.645	3116.94
443.019	3168.01
443.394	3201.91
443.769	3253.21
444.143	3202.13
444.518	3267.89
444.892	3269.93
445.267	3272.87
445.641	3311.51
446.016	3319.42
446.39	3368
446.764	3417.72
447.139	3377.95
447.513	3427.44
447.887	3478.51
448.262	3483.71
448.636	3485.06
449.01	3534.1
449.384	3620.65
449.758	3616.36
450.132	3657.94
450.506	3706.98
450.88	3766.19
451.254	3701.1
451.628	3833.98
452.002	3842.12
452.376	3853.87
452.75	3897.03
453.123	3939.97
453.497	4021.09
453.871	4077.14
454.244	4106.97
454.618	4156.23
454.992	4208.43
455.365	4210.47
455.739	4382.22
456.112	4383.12
456.486	4424.93
456.859	4482.1
457.232	4580.4
457.606	4556.9
457.979	4643.45
458.352	4733.62
458.725	4776.56
459.099	4815.65
459.472	4950.79
459.845	4968.19
460.218	4991.24
460.591	5079.37
460.964	5112.59
461.337	5217.45
461.71	5243.89
462.083	5393.71
462.456	5392.81
462.829	5391.23
463.201	5497.67
463.574	5524.56
463.947	5619.02
464.32	5688.85
464.692	5785.12
465.065	5836.41
465.438	5929.29
465.81	6036.64
466.183	6059.69
466.555	6254.03
466.928	6269.4
467.3	6329.96
467.672	6407.47
468.045	6504.87
468.417	6558.88
468.789	6616.73
469.161	6729.27
469.534	6854.92
469.906	6979.44
470.278	7057.63
470.65	7055.37
471.022	7302.59
471.394	7418.29
471.766	7428.91
472.138	7569.7
472.51	7735.57
472.882	7885.85
473.253	7957.04
473.625	8077.71
473.997	8229.8
474.369	8296.91
474.74	8381.66
475.112	8557.7
475.484	8737.13
475.855	8831.36
476.227	8907.07
476.598	9157.23
476.97	9257.34
477.341	9478.58
477.713	9620.72
478.084	9662.08
478.455	9960.83
478.827	10039.02
479.198	10363.3
479.569	10328.5
479.94	10669.51
480.311	10787.7
480.682	10941.36
481.053	11236.95
481.424	11404.63
481.795	11591.74
482.166	11699.31
482.537	11903.6
482.908	12141.11
483.279	12281.22
483.65	12460.87
484.021	12760.53
484.391	12930.01
484.762	12987.19
485.133	13195.99
485.503	13349.21
485.874	13685.47
486.244	13809.76
486.615	14026.03
486.985	14216.53
487.356	14544.66
487.726	14652.23
488.097	14952.56
488.467	15001.37
488.837	15329.95
489.207	15505.99
489.578	15628.25
489.948	15890.39
490.318	16155.24
490.688	16139.87
491.058	16498.51
491.428	16625.06
491.798	16775.34
492.168	17100.98
492.538	17253.29
492.908	17475.66
493.278	17732.37
493.648	17794.29
494.017	18079.71
494.387	18249.2
494.757	18336.65
495.126	18516.76
495.496	18648.73
495.866	18801.72
496.235	19054.37
496.605	19144.76
496.974	19259.56
497.344	19441.71
497.713	19671.98
498.082	19796.27
498.452	19966.89
498.821	20070.62
499.19	20322.14
499.559	20459.53
499.928	20609.36
500.298	20598.06
500.667	20853.42
501.036	20967.09
501.405	21127.76
501.774	21145.39
502.143	21445.27
502.512	21510.35
502.88	21688.2
503.249	21804.36
503.618	21999.61
503.987	22103.11
504.356	22318.47
504.724	22339.71
505.093	22504
505.462	22679.81
505.83	22803.43
506.199	22949.86
506.567	23266.46
506.936	23300.36
507.304	23612.9
507.672	23690.41
508.041	23783.97
508.409	24026.9
508.777	24229.83
509.145	24377.17
509.514	24540.56
509.882	24636.82
510.25	24631.85
510.618	24941.67
510.986	25086.53
511.354	25308.67
511.722	25614.2
512.09	25746.4
512.458	25774.2
512.826	25965.83
513.193	26180.74
513.561	26283.56
513.929	26526.04
514.297	26834.51
514.664	27047.61
515.032	27126.02
515.4	27444.89
515.767	27390.2
516.135	27693.47
516.502	27573.24
516.869	28147.92
517.237	28118.54
517.604	28191.76
517.972	28663.61
518.339	28831.74
518.706	28854.34
519.073	29030.38
519.44	29349.69
519.808	29641.44
520.175	29682.12
520.542	30089.79
520.909	30176.11
521.276	30241.2
521.643	30577.01
522.009	30842.99
522.376	31021.51
522.743	31235.29
523.11	31547.6
523.477	31941.26
523.843	32011.55
524.21	32364.3
524.577	32601.81
524.943	32804.52
525.31	32994.34
525.676	33288.12
526.043	33456.93
526.409	33614.22
526.776	34012.4
527.142	34178.49
527.508	34379.84
527.874	34713.17
528.241	34971.47
528.607	34942.77
528.973	35404.9
529.339	35339.82
529.705	35739.36
530.071	36084.43
530.437	36182.06
530.803	36375.05
531.169	36692.1
531.535	36589.5
531.901	36810.74
532.267	36973.22
532.632	37184.52
532.998	37448.01
533.364	37809.81
533.73	37833.99
534.095	38126.41
534.461	38182.46
534.826	38403.47
535.192	38523.69
535.557	38900.86
535.923	38958.93
536.288	39014.53
536.653	39142.88
537.019	39157.8
537.384	39407.96
537.749	39529.77
538.114	39586.26
538.479	39985.8
538.845	39981.73
539.21	40045.46
539.575	40287.71
539.94	40386.01
540.305	40609.74
540.67	40588.72
541.034	40809.96
541.399	41060.35
541.764	41035.04
542.129	41166.56
542.494	41282.49
542.858	41472.09
543.223	41538.98
543.587	41837.5
543.952	41840.89
544.316	41962.02
544.681	42072.98
545.045	42227.32
545.41	42585.96
545.774	42556.8
546.138	42590.7
546.503	42842.67
546.867	42800.87
547.231	43192.72
547.595	43186.84
547.959	43420.74
548.324	43500.73
548.688	43536.21
549.052	43758.13
549.416	43846.26
549.779	43916.54
550.143	44039.7
550.507	44388.85
550.871	44525.11
551.235	44619.12
551.599	44873.13
551.962	44959.45
552.326	45043.07
552.689	45207.13
553.053	45166
553.417	45344.3
553.78	45883.5
554.143	45664.97
554.507	45787.45
554.87	45979.09
555.234	46476.7
555.597	46261.34
555.96	46504.5
556.323	46795.56
556.686	46785.39
557.05	47150.36
557.413	47137.7
557.776	47243.91
558.139	47568.65
558.502	47624.02
558.865	47685.48
559.228	48009.77
559.59	48064.68
559.953	48237.56
560.316	48564.33
560.679	48557.55
561.041	48913.25
561.404	49029.18
561.767	49303.52
562.129	49159.12
562.492	49609.5
562.854	49515.04
563.217	49581.7
563.579	49844.07
563.941	50075.93
564.304	50172.2
564.666	50466.43
565.028	50473.43
565.39	50593.66
565.753	50751.62
566.115	50917.94
566.477	51053.3
566.839	51181.66
567.201	51420.75
567.563	51473.63
567.925	51492.84
568.287	51689.67
568.648	51762.21
569.01	51864.13
569.372	52084.01
569.734	51947.07
570.095	52275.42
570.457	52406.49
570.819	52500.95
571.18	52509.99
571.542	52747.72
571.903	52769.42
572.265	52901.62
572.626	52899.13
572.987	52947.72
573.349	53162.4
573.71	53225
574.071	53318.33
574.432	53333.02
574.794	53547.93
575.155	53516.74
575.516	53504.77
575.877	53631.09
576.238	53707.25
576.599	53815.04
576.96	53884.19
577.32	53853.46
577.681	53976.17
578.042	54103.62
578.403	54082.15
578.763	54130.96
579.124	54152.88
579.485	54240.57
579.845	54330.51
580.206	54265.2
580.566	54323.73
580.927	54406.21
581.287	54459.32
581.648	54314.24
582.008	54518.52
582.368	54499.77
582.728	54497.51
583.089	54494.57
583.449	54434.46
583.809	54570.5
584.169	54598.3
584.529	54532.76
584.889	54769.82
585.249	54492.08
585.609	54466.77
585.969	54648.01
586.329	54551.52
586.688	54628.58
587.048	54728.24
587.408	54558.98
587.768	54589.71
588.127	54596.04
588.487	54513.55
588.846	54793.09
589.206	54559.88
589.565	54596.26
589.925	54708.58
590.284	54666.54
590.643	54784.05
591.003	54803.71
591.362	54832.87
591.721	54706.32
592.08	54798.52
592.44	54905.63
592.799	54949.7
593.158	54883.26
593.517	54829.48
593.876	54796.71
594.235	54758.74
594.593	54843.49
594.952	54965.74
595.311	54848.23
595.67	54861.11
596.029	55056.59
596.387	55080.54
596.746	55059.98
597.104	55001.22
597.463	55032.41
597.822	55095.23
598.18	55060.88
598.538	55022.24
598.897	55128.45
599.255	54984.05
599.613	55260.2
599.972	55122.12
600.33	55134.55
600.688	55140.2
601.046	55320.99
601.404	55324.15
601.762	55288.9
602.12	55428.56
602.478	55307.66
602.836	55398.05
603.194	55237.6
603.552	55298.16
603.91	55254.32
604.268	55423.81
604.625	55412.06
604.983	55494.09
605.341	55373.87
605.698	55502.45
606.056	55564.82
606.413	55525.28
606.771	55647.31
607.128	55680.53
607.485	55574.54
607.843	55599.63
608.2	55757.81
608.557	55894.99
608.914	55670.58
609.272	55870.58
609.629	55858.15
609.986	55976.11
610.343	55832.16
610.7	56093.4
611.057	56040.07
611.414	55930.01
611.771	56012.72
612.127	56092.72
612.484	56063.34
612.841	56258.82
613.198	56112.38
613.554	56173.17
613.911	56344.69
614.267	56216.11
614.624	56247.52
614.98	56395.99
615.337	56418.59
615.693	56392.15
616.05	56372.03
616.406	56455.65
616.762	56419.04
617.118	56387.63
617.475	56422.88
617.831	56468.76
618.187	56488.64
618.543	56496.55
618.899	56690.44
619.255	56604.12
619.611	56587.85
619.967	56668.3
620.323	56692.03
620.678	56634.4
621.034	56605.93
621.39	56602.54
621.746	56605.7
622.101	56803.44
622.457	56642.08
622.812	56653.38
623.168	56722.31
623.523	56723.21
623.879	56873.72
624.234	56649.54
624.589	56701.29
624.945	56784.45
625.3	56753.27
625.655	56701.07
626.01	56743.32
626.365	56772.93
626.72	56715.75
627.075	56753.27
627.43	56617
627.785	56608.41
628.14	56686.38
628.495	56607.96
628.85	56649.09
629.205	56478.7
629.559	56645.7
629.914	56548.3
630.269	56578.36
630.623	56506.95
630.978	56522.77
631.332	56546.27
631.687	56554.4
632.041	56467.85
632.396	56542.65
632.75	56390.34
633.104	56420.17
633.459	56233.96
633.813	56240.51
634.167	56360.06
634.521	56281.87
634.875	56268.53
635.229	56265.37
635.583	56038.71
635.937	56134.75
636.291	56102.21
636.645	56161.42
636.999	56056.79
637.352	56078.48
637.706	55860.86
638.06	55997.13
638.413	55958.03
638.767	55859.73
639.121	55917.81
639.474	55713.97
639.828	55735.44
640.181	55779.51
640.534	55760.98
640.888	55666.29
641.241	55602.79
641.594	55576.8
641.947	55687.76
642.301	55594.65
642.654	55607.31
643.007	55638.27
643.36	55511.94
643.713	55443.25
644.066	55524.6
644.419	55441.66
644.771	55179.98
645.124	54874.45
645.477	54985.4
645.83	54730.5
646.182	54554.91
646.535	54436.49
646.888	54490.73
647.24	54411.41
647.593	54600.33
647.945	54434.46
648.298	54318.76
648.65	54222.03
649.002	54204.86
649.355	54246.67
649.707	54176.61
650.059	54341.81
650.411	54634.91
650.763	54664.28
651.115	54891.85
651.467	54843.94
651.819	54752.87
652.171	54648.01
652.523	54786.77
652.875	54635.81
653.227	54536.38
653.578	54730.27
653.93	54613.89
654.282	54378.19
654.633	54403.95
654.985	54426.1
655.337	54451.86
655.688	54460.9
656.039	54490.95
656.391	54258.64
656.742	54344.97
657.094	54381.35
657.445	54461.8
657.796	54429.94
658.147	54353.56
658.498	54195.82
658.849	54254.58
659.2	54269.72
659.551	54146.1
659.902	54304.52
660.253	54187.01
660.604	54278.98
660.955	54069.27
661.306	54190.4
661.656	54101.13
662.007	54115.37
662.358	54046.67
662.708	53969.16
663.059	53919.22
663.409	53871.76
663.76	53971.87
664.11	54027.46
664.461	54060.01
664.811	53986.33
665.161	54021.14
665.511	53906.11
665.862	53942.04
666.212	54006.22
666.562	53973
666.912	54009.84
667.262	53855.94
667.612	53971.87
667.962	53900.24
668.312	53933.68
668.662	53982.72
669.011	53872.44
669.361	53841.71
669.711	53800.35
670.06	53784.98
670.41	53697.3
670.76	53665.21
671.109	53814.81
671.459	53765.55
671.808	53656.4
672.157	53699.34
672.507	53559.91
672.856	53588.83
673.205	53613.01
673.554	53724.42
673.904	53502.51
674.253	53631.32
674.602	53551.32
674.951	53175.96
675.3	53024.1
675.649	53523.07
675.998	53420.7
676.346	53466.8
676.695	53577.31
677.044	53264.09
677.393	53496.4
677.741	53534.82
678.09	53379.8
678.438	53229.07
678.787	53316.75
679.135	53354.26
679.484	53158.79
679.832	53205.34
680.181	53073.14
680.529	53177.77
680.877	52964.21
681.225	52968.73
681.573	53168.5
681.922	52920.6
682.27	52853.03
682.618	52969.41
682.966	52685.58
683.314	52811.68
683.661	52597.44
684.009	52491.23
684.357	52539.37
684.705	52444.68
685.053	52430.22
685.4	52444
685.748	52276.78
686.095	52268.41
686.443	52029.78
686.79	52013.05
687.138	52171.69
687.485	52088.98
687.832	52019.15
688.18	52012.83
688.527	51859.84
688.874	51816.22
689.221	51694.42
689.568	51629.33
689.915	51413.52
690.262	51463.01
690.609	51306.41
690.956	51293.07
691.303	51183.47
691.65	50974.66
691.997	51020.09
692.344	50766.76
692.69	50835.46
693.037	50872.97
693.383	50677.04
693.73	50715.69
694.077	50499.42
694.423	50460.1
694.769	50392.53
695.116	50263.72
695.462	50263.49
695.808	50216.04
696.155	50227.56
696.501	49887.23
696.847	49979.66
697.193	49567.69
697.539	49800
697.885	49563.17
698.231	49472.1
698.577	49475.72
698.923	49425.55
699.269	49101.72
699.614	49033.47
699.96	48912.8
700.306	48921.38
700.651	48838
700.997	48776.53
701.342	48673.71
701.688	48570.88
702.033	48390.32
702.379	48189.65
702.724	48235.53
703.069	48314.85
703.415	47863.56
703.76	47936.55
704.105	47845.93
704.45	47665.82
704.795	47519.39
705.14	47467.86
705.485	47455.88
705.83	47238.49
706.175	47270.58
706.52	47108.78
706.865	46981.77
707.209	47040.08
707.554	46795.56
707.899	46829.69
708.243	46701.1
708.588	46609.35
708.932	46336.59
709.277	46251.17
709.621	46458.85
709.966	46161.23
710.31	46341.11
710.654	45938.41
710.998	45993.32
711.342	45986.09
711.687	45833.33
712.031	45650.28
712.375	45550.17
712.719	45534.58
713.063	45477.18
713.407	45507.46
713.75	45262.5
714.094	45351.76
714.438	45063.41
714.782	45155.61
715.125	44947.25
715.469	44857.08
715.812	44696.86
716.156	44598.33
716.499	44620.93
716.843	44603.98
717.186	44261.62
717.53	44643.08
717.873	44534.61
718.216	44437.21
718.559	44227.95
718.902	44006.48
719.246	44101.85
719.589	44061.4
719.932	43843.32
720.275	43789.31
720.617	43698.47
720.96	43631.8
721.303	43640.17
721.646	43579.38
721.989	43254.41
722.331	43430.23
722.674	43401.98
723.016	43299.61
723.359	43229.78
723.701	43223.45
724.044	43000.41
724.386	42877.47
724.729	42884.48
725.071	42785.95
725.413	42764.93
725.755	42744.6
726.097	42438.16
726.439	42340.99
726.782	42423.47
727.124	42613.07
727.465	42343.93
727.807	42279.98
728.149	42141.9
728.491	42059.64
728.833	42117.95
729.175	41969.48
729.516	41837.28
729.858	41818.52
730.199	41830.27
730.541	41808.8
730.882	41612.87
731.224	41788.46
731.565	41634.8
731.906	41446.55
732.248	41519.09
732.589	41300.57
732.93	41237.07
733.271	41313.22
733.612	41263.05
733.953	41235.26
734.294	40954.36
734.635	40928.82
734.976	41040.69
735.317	40810.64
735.658	40740.58
735.999	40820.35
736.339	40713.01
736.68	40663.3
737.021	40499.01
737.361	40374.94
737.702	40554.6
738.042	40455.62
738.383	40307.82
738.723	40397.09
739.063	40183.99
739.404	40179.47
739.744	40019.02
740.084	40010.21
740.424	39932.47
740.764	39912.13
741.104	40133.82
741.444	39724.79
741.784	39572.48
742.124	39647.73
742.464	39551.91
742.804	39564.34
743.143	39439.82
743.483	39434.85
743.823	39219.94
744.162	39292.71
744.502	39201.41
744.841	38996.22
745.181	39209.77
745.52	39008.88
745.86	39085.03
746.199	38901.99
746.538	38866.96
746.877	38986.28
747.216	38778.15
747.556	38733.85
747.895	38701.31
748.234	38477.59
748.573	38403.02
748.911	38241.66
749.25	38414.31
749.589	38079.41
749.928	38335.22
750.267	38167.77
750.605	38100.88
750.944	37992.86
751.283	37726.2
751.621	37945.17
751.96	37622.92
752.298	37721.68
752.636	37747.67
752.975	37290.5
