Data from plate_ceramic_FLMS001491_053.txt Node
Date: Tue Feb 07 11:16:58 GMT 2017
User: dcchb
Spectrometer: FLMS00149
Trigger mode: 0
Integration Time (sec): 2.000000E-2
Scans to average: 10
Electric dark correction enabled: true
Nonlinearity correction enabled: false
Boxcar width: 0
XAxis mode: Wavelengths
Number of Pixels in Spectrum: 2048
>>>>>Begin Spectral Data<<<<<
341.393	-13.04
341.776	-13.04
342.16	-13.04
342.543	-55.3
342.927	-42.87
343.31	-70.89
343.693	-73.6
344.077	-44.45
344.46	-60.04
344.843	-54.17
345.226	-25.01
345.61	-50.78
345.993	-29.08
346.376	-12.36
346.759	12.73
347.142	38.49
347.525	52.05
347.908	65.83
348.291	70.58
348.674	73.29
349.057	107.41
349.44	108.77
349.823	152.83
350.206	160.07
350.588	204.81
350.971	247.52
351.354	254.3
351.737	258.59
352.119	262.44
352.502	285.94
352.884	301.08
353.267	308.31
353.65	314.64
354.032	317.12
354.414	330.68
354.797	299.72
355.179	330.68
355.562	334.3
355.944	357.8
356.326	376.33
356.709	370.23
357.091	363.45
357.473	352.15
357.855	364.58
358.238	367.07
358.62	356.45
359.002	361.42
359.384	369.55
359.766	367.29
360.148	366.16
360.53	362.55
360.912	371.13
361.294	377.01
361.676	332.94
362.057	357.8
362.439	364.13
362.821	354.64
363.203	387.86
363.584	374.3
363.966	377.91
364.348	361.87
364.729	343.56
365.111	344.69
365.493	361.42
365.874	350.12
366.256	351.93
366.637	371.59
367.019	351.93
367.4	370.23
367.781	376.33
368.163	345.37
368.544	361.42
368.925	345.15
369.306	370.46
369.688	352.6
370.069	364.58
370.45	366.39
370.831	379.5
371.212	391.47
371.593	351.93
371.974	372.26
372.355	376.33
372.736	398.93
373.117	368.42
373.498	378.14
373.879	375.2
374.26	374.52
374.641	393.28
375.021	372.72
375.402	390.12
375.783	393.96
376.163	426.5
376.544	411.59
376.925	384.92
377.305	422.66
377.686	394.86
378.066	412.94
378.447	405.48
378.827	410.46
379.208	409.33
379.588	404.81
379.968	419.04
380.349	421.3
380.729	450
381.109	422.21
381.489	414.3
381.87	440.29
382.25	433.28
382.63	414.75
383.01	412.49
383.39	461.75
383.77	447.74
384.15	439.61
384.53	459.27
384.91	478.02
385.29	446.16
385.67	466.73
386.049	456.1
386.429	466.5
386.809	452.49
387.189	468.98
387.568	473.73
387.948	479.38
388.328	488.65
388.707	488.42
389.087	494.97
389.466	522.54
389.846	484.8
390.225	487.52
390.605	515.09
390.984	526.61
391.363	525.93
391.743	528.87
392.122	541.53
392.501	535.2
392.881	561.64
393.26	548.3
393.639	547.63
394.018	544.46
394.397	571.58
394.776	551.92
395.155	547.17
395.534	579.72
395.913	589.43
396.292	583.33
396.671	601.86
397.05	601.86
397.429	619.04
397.808	617.46
398.186	626.49
398.565	624.91
398.944	626.72
399.323	636.21
399.701	637.79
400.08	656.1
400.458	627.85
400.837	650.22
401.215	649.32
401.594	664.91
401.972	650.22
402.351	658.58
402.729	676.89
403.107	682.31
403.486	700.62
403.864	696.55
404.242	687.96
404.62	724.12
404.999	702.88
405.377	730.67
405.755	734.97
406.133	739.26
406.511	767.28
406.889	769.77
407.267	775.87
407.645	775.42
408.023	801.63
408.401	788.3
408.779	831.91
409.156	836.88
409.534	854.74
409.912	833.04
410.29	864.23
410.667	860.39
411.045	879.82
411.422	875.53
411.8	888.63
412.178	894.28
412.555	919.59
412.933	923.44
413.31	949.65
413.687	953.49
414.065	969.08
414.442	961.63
414.819	973.6
415.197	998.91
415.574	1014.73
415.951	1011.12
416.328	1040.72
416.705	1029.42
417.082	1026.48
417.46	1050.44
417.837	1065.35
418.214	1069.2
418.591	1087.73
418.967	1108.52
419.344	1094.51
419.721	1110.55
420.098	1131.11
420.475	1151.23
420.852	1131.57
421.228	1172.92
421.605	1151.9
421.982	1212.69
422.358	1194.16
422.735	1206.59
423.111	1235.07
423.488	1239.81
423.864	1253.15
424.241	1269.19
424.617	1295.18
424.994	1268.96
425.37	1301.28
425.746	1318.23
426.123	1331.34
426.499	1319.58
426.875	1360.71
427.251	1385.57
427.627	1393.48
428.003	1417.66
428.379	1426.02
428.756	1448.85
429.132	1475.96
429.507	1485.46
429.883	1497.21
430.259	1524.78
430.635	1547.15
431.011	1547.15
431.387	1583.08
431.763	1596.86
432.138	1620.82
432.514	1633.25
432.89	1664.43
433.265	1696.75
433.641	1741.04
434.016	1725.22
434.392	1736.07
434.767	1797.31
435.143	1790.76
435.518	1791.66
435.894	1863.3
436.269	1860.36
436.644	1868.72
437.02	1894.94
437.395	1901.04
437.77	1944.65
438.145	1953.47
438.52	1957.08
438.895	1997.98
439.271	1991.66
439.646	2073.69
440.021	2070.98
440.395	2048.83
440.77	2062.39
441.145	2110.07
441.52	2138.32
441.895	2114.14
442.27	2167.47
442.645	2133.8
443.019	2193.69
443.394	2172.67
443.769	2177.64
444.143	2195.27
444.518	2220.13
444.892	2263.29
445.267	2268.49
445.641	2303.74
446.016	2294.25
446.39	2327.92
446.764	2304.19
447.139	2334.47
447.513	2376.28
447.887	2416.73
448.262	2395.71
448.636	2425.54
449.01	2422.61
449.384	2447.24
449.758	2513.9
450.132	2511.87
450.506	2493.11
450.88	2579.89
451.254	2584.86
451.628	2595.93
452.002	2623.73
452.376	2627.57
452.75	2681.13
453.123	2681.81
453.497	2736.27
453.871	2727.23
454.244	2812.88
454.618	2830.05
454.992	2865.53
455.365	2871.86
455.739	2926.55
456.112	2963.16
456.486	3005.42
456.859	3050.84
457.232	3104.17
457.606	3113.66
457.979	3134.68
458.352	3200.21
458.725	3254.45
459.099	3241.12
459.472	3301.45
459.845	3331.73
460.218	3388.46
460.591	3384.61
460.964	3438.85
461.337	3499.87
461.71	3537.38
462.083	3590.48
462.456	3610.82
462.829	3632.74
463.201	3679.97
463.574	3715.91
463.947	3799.97
464.32	3874.77
464.692	3920.19
465.065	3963.36
465.438	3964.71
465.81	4058.95
466.183	4101.88
466.555	4197.25
466.928	4186.4
467.3	4226.63
467.672	4254.42
468.045	4364.25
468.417	4405.38
468.789	4407.64
469.161	4510.69
469.534	4587.29
469.906	4669.78
470.278	4736.44
470.65	4749.55
471.022	4803.56
471.394	4931.92
471.766	4999.49
472.138	5053.95
472.51	5147.05
472.882	5247.39
473.253	5254.4
473.625	5353.15
473.997	5512.24
474.369	5523.77
474.74	5580.71
475.112	5692.58
475.484	5779.35
475.855	5917.43
476.227	5945.9
476.598	6114.49
476.97	6110.19
477.341	6329.85
477.713	6383.86
478.084	6430.18
478.455	6600.8
478.827	6699.1
479.198	6867.23
479.569	6895.03
479.94	7052.54
480.311	7135.7
480.682	7305.19
481.053	7417.5
481.424	7574.79
481.795	7612.07
482.166	7805.06
482.537	7813.65
482.908	8103.59
483.279	8138.16
483.65	8269.46
484.021	8466.29
484.391	8607.53
484.762	8622.44
485.133	8684.81
485.503	8898.14
485.874	9068.31
486.244	9203.44
486.615	9308.07
486.985	9457.68
487.356	9609.76
487.726	9703.32
488.097	9828.06
488.467	9878.23
488.837	10115.74
489.207	10230.99
489.578	10362.51
489.948	10455.39
490.318	10673.01
490.688	10758.88
491.058	10853.8
491.428	11019.89
491.798	11131.76
492.168	11335.59
492.538	11376.72
492.908	11428.92
493.278	11681.35
493.648	11720.89
494.017	11896.03
494.387	11996.37
494.757	12092.41
495.126	12277.04
495.496	12237.04
495.866	12389.58
496.235	12542.34
496.605	12608.55
496.974	12756.57
497.344	12869.11
497.713	12961.31
498.082	13012.84
498.452	13147.75
498.821	13239.95
499.19	13366.27
499.559	13447.63
499.928	13505.25
500.298	13631.35
500.667	13824.11
501.036	13807.39
501.405	13959.93
501.774	14018.01
502.143	14118.34
502.512	14134.84
502.88	14408.28
503.249	14349.98
503.618	14512.91
503.987	14535.51
504.356	14730.53
504.724	14815.05
505.093	14754.94
505.462	14959.68
505.83	15132.1
506.199	15264.75
506.567	15431.76
506.936	15396.05
507.304	15571.64
507.672	15634.24
508.041	15787.23
508.409	15859.77
508.777	15956.26
509.145	16180.66
509.514	16161
509.882	16361.22
510.25	16338.62
510.618	16502.69
510.986	16641.21
511.354	16736.58
511.722	16922.79
512.09	17076.01
512.458	17073.52
512.826	17216.12
513.193	17309.22
513.561	17501.08
513.929	17647.29
514.297	17699.04
514.664	17890.9
515.032	18072.82
515.4	18152.81
515.767	18160.95
516.135	18427.83
516.502	18325.24
516.869	18718.9
517.237	18727.49
517.604	18795.28
517.972	19047.25
518.339	19187.59
518.706	19124.09
519.073	19309.62
519.44	19417.64
519.808	19731.76
520.175	19667.8
520.542	20016.49
520.909	20070.5
521.276	20095.36
521.643	20218.75
522.009	20477.27
522.376	20677.72
522.743	20813.31
523.11	21047.43
523.477	21097.37
523.843	21352.96
524.21	21572.61
524.577	21742.55
524.943	21882.21
525.31	21962.88
525.676	22242.65
526.043	22358.13
526.409	22399.48
526.776	22782.07
527.142	22789.3
527.508	22951.78
527.874	23074.94
528.241	23245.79
528.607	23220.7
528.973	23570.3
529.339	23742.27
529.705	23871.31
530.071	24042.38
530.437	24196.72
530.803	24348.13
531.169	24607.56
531.535	24452.54
531.901	24615.92
532.267	24731.17
532.632	24877.83
532.998	25140.2
533.364	25246.19
533.73	25378.61
534.095	25564.6
534.461	25625.61
534.826	25804.36
535.192	25875.1
535.557	26104.69
535.923	26118.71
536.288	26248.87
536.653	26426.04
537.019	26394.4
537.384	26491.8
537.749	26573.61
538.114	26830.33
538.479	26725.92
538.845	26879.82
539.21	26958.23
539.575	27091.34
539.94	27196.42
540.305	27392.57
540.67	27380.59
541.034	27428.05
541.399	27643.86
541.764	27681.15
542.129	27909.39
542.494	27916.85
542.858	27959.56
543.223	28100.12
543.587	28288.59
543.952	28235.94
544.316	28379.89
544.681	28456.27
545.045	28538.08
545.41	28632.76
545.774	28788.24
546.138	28871.4
546.503	28997.73
546.867	29079.31
547.231	29256.25
547.595	29299.41
547.959	29439.97
548.324	29460.54
548.688	29512.51
549.052	29655.56
549.416	29883.58
549.779	29823.02
550.143	29956.35
550.507	30293.06
550.871	30311.14
551.235	30321.08
551.599	30554.07
551.962	30586.16
552.326	30639.26
552.689	30790.22
553.053	30664.35
553.417	30981.18
553.78	31342.3
554.143	31251.45
554.507	31280.38
554.87	31371.9
555.234	31957.42
555.597	31590.88
555.96	31949.06
556.323	32126.68
556.686	32236.29
557.05	32400.12
557.413	32431.31
557.776	32425.43
558.139	32801.24
558.502	32822.71
558.865	32976.38
559.228	33203.27
559.59	33297.95
559.953	33272.64
560.316	33717.15
560.679	33594.89
561.041	33981.55
561.404	34123.24
561.767	34222.67
562.129	34289.34
562.492	34479.16
562.854	34678.25
563.217	34684.36
563.579	34929.32
563.941	35152.59
564.304	35311.01
564.666	35461.29
565.028	35634.39
565.39	35669.64
565.753	35896.3
566.115	36054.04
566.477	36151.44
566.839	36239.12
567.201	36460.81
567.563	36537.64
567.925	36684.53
568.287	36755.26
568.648	36876.39
569.01	37056.5
569.372	37310.5
569.734	37241.13
570.095	37505.98
570.457	37616.03
570.819	37759.08
571.18	37866.65
571.542	38013.99
571.903	38140.76
572.265	38313.87
572.626	38286.52
572.987	38407.65
573.349	38645.61
573.71	38733.29
574.071	38687.19
574.432	38884.92
574.794	39081.75
575.155	39116.33
575.516	38986.84
575.877	39212.37
576.238	39410.33
576.599	39413.5
576.96	39558.8
577.32	39484.91
577.681	39669.54
578.042	39922.41
578.403	39910.43
578.763	39876.08
579.124	39910.89
579.485	40185.45
579.845	40233.36
580.206	40128.06
580.566	40042.41
580.927	40177.32
581.287	40361.04
581.648	40254.61
582.008	40467.03
582.368	40241.5
582.728	40571.21
583.089	40324.21
583.449	40533.92
583.809	40526.46
584.169	40573.69
584.529	40501.6
584.889	40742.73
585.249	40540.47
585.609	40452.57
585.969	40646.91
586.329	40525.33
586.688	40664.31
587.048	40744.08
587.408	40610.3
587.768	40740.47
588.127	40648.72
588.487	40527.59
588.846	40842.84
589.206	40569.63
589.565	40653.24
589.925	40883.06
590.284	40744.54
590.643	41013
591.003	40910.18
591.362	40929.62
591.721	40793.12
592.08	40839.22
592.44	41039.22
592.799	41121.93
593.158	40999.44
593.517	41033.34
593.876	40990.63
594.235	40974.59
594.593	41089.84
594.952	41141.59
595.311	41078.31
595.67	41088.93
596.029	41308.81
596.387	41307.01
596.746	41488.02
597.104	41206.67
597.463	41289.38
597.822	41405.08
598.18	41283.5
598.538	41231.08
598.897	41508.58
599.255	41165.77
599.613	41796.26
599.972	41509.49
600.33	41645.76
600.688	41459.09
601.046	41756.49
601.404	41696.15
601.762	41659.77
602.12	41841.68
602.478	41864.73
602.836	41883.26
603.194	41680.1
603.552	41765.3
603.91	41636.49
604.268	41895.92
604.625	41913.54
604.983	41975.92
605.341	41811.4
605.698	42098.17
606.056	42141.34
606.413	42103.37
606.771	42264.72
607.128	42349.47
607.485	42192.63
607.843	42128.23
608.2	42305.85
608.557	42545.39
608.914	42327.77
609.272	42521.21
609.629	42623.13
609.986	42660.42
610.343	42472.63
610.7	42884.59
611.057	42794.65
611.414	42780.87
611.771	42728.44
612.127	43006.17
612.484	42953.52
612.841	43174.98
613.198	42849.11
613.554	43026.96
613.911	43156.45
614.267	43250.91
614.624	43135.89
614.98	43199.16
615.337	43381.3
615.693	43529.77
616.05	43251.59
616.406	43540.39
616.762	43405.26
617.118	43458.14
617.475	43494.97
617.831	43525.25
618.187	43548.98
618.543	43540.85
618.899	43839.37
619.255	43735.42
619.611	43671.01
619.967	43695.19
620.323	43919.82
620.678	43804.57
621.034	43590.56
621.39	43830.1
621.746	43720.95
622.101	44150.77
622.457	43614.74
622.812	43858.13
623.168	43976.99
623.523	43905.58
623.879	44229.87
624.234	43813.61
624.589	43958.01
624.945	43981.74
625.3	43936.32
625.655	44009.53
626.01	43987.16
626.365	44108.97
626.72	43926.15
627.075	43892.93
627.43	43876.88
627.785	43780.61
628.14	43729.54
628.495	43899.71
628.85	43756.43
629.205	43658.36
629.559	43928.41
629.914	43760.05
630.269	43677.34
630.623	43562.09
630.978	43442.32
631.332	43587.4
631.687	43690.9
632.041	43633.5
632.396	43488.19
632.75	43424.92
633.104	43440.06
633.459	43346.28
633.813	43268.99
634.167	43236.9
634.521	43140.41
634.875	43261.53
635.229	43062.67
635.583	42850.92
635.937	42915.33
636.291	42976.79
636.645	42978.15
636.999	42697.93
637.352	43035.55
637.706	42818.83
638.06	42802.56
638.413	42680.76
638.767	42622.23
639.121	42637.14
639.474	42351.5
639.828	42522.79
640.181	42576.8
640.534	42523.02
640.888	42430.14
641.241	42143.14
641.594	42177.49
641.947	42343.14
642.301	42179.53
642.654	42322.8
643.007	42161
643.36	42154.22
643.713	42025.18
644.066	42121.9
644.419	41899.76
644.771	41672.2
645.124	41367.57
645.477	41214.13
645.83	41125.99
646.182	40653.01
646.535	40558.1
646.888	40728.49
647.24	40776.17
647.593	40890.75
647.945	40824.08
648.298	40600.36
648.65	40450.08
649.002	40392.91
649.355	40563.3
649.707	40278.56
650.059	40641.94
650.411	40994.02
650.763	41065.66
651.115	41372.54
651.467	41105.66
651.819	41238.53
652.171	41177.29
652.523	41156.5
652.875	40999.22
653.227	40971.65
653.578	41319.44
653.93	41069.73
654.282	40812.78
654.633	40818.66
654.985	40886
655.337	40852.78
655.688	40822.73
656.039	40782.28
656.391	40507.48
656.742	40577.53
657.094	40512.45
657.445	40794.25
657.796	40650.3
658.147	40576.18
658.498	40479.68
658.849	40617.08
659.2	40415.28
659.551	40387.03
659.902	40582.05
660.253	40449.4
660.604	40512.68
660.955	40340.7
661.306	40483.3
661.656	40333.93
662.007	40373.92
662.358	40386.81
662.708	40245.11
663.059	40266.36
663.409	39933.03
663.76	40167.83
664.11	40113.37
664.461	40182.29
664.811	40136.42
665.161	40127.6
665.511	40133.7
665.862	40173.03
666.212	40306.81
666.562	40335.51
666.912	40146.36
667.262	40051.9
667.612	40106.81
667.962	40089.19
668.312	39918.57
668.662	40291.89
669.011	40123.76
669.361	40005.57
669.711	39986.14
670.06	39938.23
670.41	39823.88
670.76	39820.04
671.109	39933.48
671.459	39861.62
671.808	39815.75
672.157	39845.12
672.507	39615.53
672.856	39672.02
673.205	39653.49
673.554	39814.16
673.904	39520.16
674.253	39721.74
674.602	39743.66
674.951	39182.77
675.3	38863.68
675.649	39482.2
675.998	39437.23
676.346	39469.09
676.695	39595.19
677.044	39235.42
677.393	39409.88
677.741	39438.36
678.09	39222.99
678.438	39387.74
678.787	39248.08
679.135	39202.88
679.484	39126.5
679.832	39358.36
680.181	38984.13
680.529	39114.97
680.877	38874.53
681.225	38844.47
681.573	39114.52
681.922	38921.53
682.27	38765.6
682.618	38751.82
682.966	38614.42
683.314	38681.31
683.661	38497.14
684.009	38440.42
684.357	38350.25
684.705	38340.98
685.053	38328.1
685.4	38343.02
685.748	38042.23
686.095	38118.84
686.443	37908.68
686.79	37687.89
687.138	37820.55
687.485	37925.85
687.832	37722.92
688.18	37835.23
688.527	37545.52
688.874	37535.81
689.221	37357.28
689.568	37152.99
689.915	37235.93
690.262	37208.36
690.609	37192.99
690.956	37003.62
691.303	36895.15
691.65	36762.95
691.997	36719.33
692.344	36621.25
692.69	36621.25
693.037	36646.34
693.383	36437.53
693.73	36392.79
694.077	36197.99
694.423	36316.86
694.769	36233.24
695.116	36174.94
695.462	36085.68
695.808	35921.16
696.155	35865.12
696.501	35590.1
696.847	35551
697.193	35410.89
697.539	35593.49
697.885	35253.61
698.231	35166.38
698.577	35284.11
698.923	35119.6
699.269	34834.18
699.614	34615.21
699.96	34714.64
700.306	34709.89
700.651	34561.65
700.997	34536.79
701.342	34431.03
701.688	34339.96
702.033	34179.51
702.379	34189.45
702.724	34057.93
703.069	34178.83
703.415	33838.05
703.76	33745.4
704.105	33813.64
704.45	33637.15
704.795	33411.17
705.14	33321.91
705.485	33350.61
705.83	33160.78
706.175	33241.91
706.52	33061.57
706.865	33028.81
707.209	32955.14
707.554	32842.14
707.899	33002.14
708.243	32870.39
708.588	32724.41
708.932	32455.26
709.277	32535.49
709.621	32537.75
709.966	32337.98
710.31	32316.51
710.654	32238.09
710.998	32206
711.342	32163.97
711.687	32015.05
712.031	31872
712.375	31768.5
712.719	31914.71
713.063	31817.09
713.407	31864.54
713.75	31624.1
714.094	31659.13
714.438	31523.76
714.782	31605.79
715.125	31548.39
715.469	31427.94
715.812	31359.92
716.156	31021.4
716.499	31037.9
716.843	31034.73
717.186	30853.95
717.53	31016.43
717.873	31048.07
718.216	31054.62
718.559	30817.34
718.902	30747.96
719.246	30764.23
719.589	30764.46
719.932	30537.57
720.275	30483.34
720.617	30441.98
720.96	30498.93
721.303	30408.31
721.646	30461.87
721.989	30223.46
722.331	30238.6
722.674	30175.55
723.016	30207.19
723.359	30034.99
723.701	30092.39
724.044	29886.74
724.386	29922.67
724.729	29902.79
725.071	29720.65
725.413	29744.6
725.755	29738.5
726.097	29580.54
726.439	29392.29
726.782	29388.45
727.124	29544.6
727.465	29359.52
727.807	29358.17
728.149	29351.84
728.491	29340.54
728.833	29328.56
729.175	29136.03
729.516	29015.58
729.858	29064.84
730.199	29062.58
730.541	29019.42
730.882	28974
731.224	29114.79
731.565	28849.93
731.906	28856.49
732.248	28859.65
732.589	28787.34
732.93	28573.78
733.271	28591.18
733.612	28631.63
733.953	28681.12
734.294	28495.82
734.635	28493.56
734.976	28480.9
735.317	28407.01
735.658	28279.33
735.999	28409.72
736.339	28170.86
736.68	28342.6
737.021	28136.28
737.361	28000.01
737.702	28207.46
738.042	27943.06
738.383	28075.72
738.723	28066
739.063	28000.69
739.404	27937.42
739.744	27840.92
740.084	27700.36
740.424	27788.49
740.764	27746.69
741.104	27751.43
741.444	27572.9
741.784	27598.89
742.124	27658.78
742.464	27551.44
742.804	27581.94
743.143	27406.36
743.483	27390.31
743.823	27361.39
744.162	27116.65
744.502	27234.16
744.841	27122.97
745.181	27298.79
745.52	27157.1
745.86	27151.22
746.199	26991
746.538	26819.93
746.877	26969.76
747.216	26989.64
747.556	26897.67
747.895	26814.96
748.234	26677.11
748.573	26539.94
748.911	26683.21
749.25	26632.14
749.589	26454.97
749.928	26567.73
750.267	26558.24
750.605	26428.08
750.944	26425.82
751.283	26255.65
751.621	26274.18
751.96	26092.27
752.298	26061.53
752.636	26182.43
752.975	25926.85
753.313	26038.03
753.651	26118.71
