Data from plate_porcelain_FLMS001491_061.txt Node
Date: Tue Feb 07 11:19:40 GMT 2017
User: dcchb
Spectrometer: FLMS00149
Trigger mode: 0
Integration Time (sec): 2.000000E-2
Scans to average: 10
Electric dark correction enabled: true
Nonlinearity correction enabled: false
Boxcar width: 0
XAxis mode: Wavelengths
Number of Pixels in Spectrum: 2048
>>>>>Begin Spectral Data<<<<<
341.393	-17.54
341.776	-17.54
342.16	-17.54
342.543	-53.02
342.927	-66.35
343.31	-76.52
343.693	-71.33
344.077	-65.9
344.46	-75.62
344.843	-29.97
345.226	-25.68
345.61	-35.85
345.993	4.6
346.376	-10.54
346.759	-3.3
347.142	24.94
347.525	34.21
347.908	46.41
348.291	77.82
348.674	79.86
349.057	126.86
349.44	126.18
349.823	148.78
350.206	154.43
350.588	225.39
350.971	246.18
351.354	242.11
351.737	270.13
352.119	272.85
352.502	311.94
352.884	319.17
353.267	331.6
353.65	364.37
354.032	334.99
354.414	349.68
354.797	376.35
355.179	336.35
355.562	392.84
355.944	379.74
356.326	390.58
356.709	373.86
357.091	381.54
357.473	363.01
357.855	380.19
358.238	399.4
358.62	372.05
359.002	391.26
359.384	387.65
359.766	408.21
360.148	389.23
360.53	395.55
360.912	388.55
361.294	385.84
361.676	415.89
362.057	392.39
362.439	386.97
362.821	381.54
363.203	397.14
363.584	402.33
363.966	383.58
364.348	392.62
364.729	386.06
365.111	403.69
365.493	395.1
365.874	393.29
366.256	400.53
366.637	385.39
367.019	395.55
367.4	385.39
367.781	393.29
368.163	397.81
368.544	404.82
368.925	404.37
369.306	418.83
369.688	398.49
370.069	400.98
370.45	421.09
370.831	389.45
371.212	405.5
371.593	407.08
371.974	418.6
372.355	420.19
372.736	408.66
373.117	424.48
373.498	436.46
373.879	417.93
374.26	433.97
374.641	428.1
375.021	415.22
375.402	440.3
375.783	436.01
376.163	459.51
376.544	465.61
376.925	457.93
377.305	471.71
377.686	468.1
378.066	444.37
378.447	494.31
378.827	466.97
379.208	480.52
379.588	496.79
379.968	483.69
380.349	493.41
380.729	498.38
381.109	493.41
381.489	520.75
381.87	500.86
382.25	506.06
382.63	523.46
383.01	509.22
383.39	509.9
383.77	543.8
384.15	509.22
384.53	546.96
384.91	554.65
385.29	527.75
385.67	558.26
386.049	560.75
386.429	586.28
386.809	576.79
387.189	569.34
387.568	584.02
387.948	588.32
388.328	601.65
388.707	585.61
389.087	605.49
389.466	607.75
389.846	628.54
390.225	641.2
390.605	645.04
390.984	653.63
391.363	651.14
391.743	665.6
392.122	659.05
392.501	672.61
392.881	726.85
393.26	677.58
393.639	675.32
394.018	691.59
394.397	713.51
394.776	714.42
395.155	741.31
395.534	736.79
395.913	773.4
396.292	740.63
396.671	763.23
397.05	751.48
397.429	791.02
397.808	780.86
398.186	806.84
398.565	808.2
398.944	788.54
399.323	812.49
399.701	806.39
400.08	824.7
400.458	845.26
400.837	847.29
401.215	870.34
401.594	888.65
401.972	875.99
402.351	879.16
402.729	880.74
403.107	889.33
403.486	929.78
403.864	923.68
404.242	916.44
404.62	940.4
404.999	981.98
405.377	950.34
405.755	959.83
406.133	972.26
406.511	984.69
406.889	1006.16
407.267	1028.31
407.645	1029.89
408.023	1045.03
408.401	1075.31
408.779	1062.88
409.156	1086.84
409.534	1071.24
409.912	1136.33
410.29	1158.7
410.667	1158.25
411.045	1180.84
411.422	1168.64
411.8	1197.79
412.178	1240.28
412.555	1251.13
412.933	1248.64
413.31	1297.68
413.687	1285.47
414.065	1304.91
414.442	1305.59
414.819	1349.2
415.197	1320.5
415.574	1326.6
415.951	1374.06
416.328	1404.34
416.705	1406.6
417.082	1436.88
417.46	1430.78
417.837	1477.11
418.214	1461.97
418.591	1466.71
418.967	1484.11
419.344	1494.51
419.721	1520.04
420.098	1565.02
420.475	1560.95
420.852	1570.89
421.228	1615.18
421.605	1594.62
421.982	1615.41
422.358	1671.68
422.735	1652.24
423.111	1687.72
423.488	1698.35
423.864	1702.41
424.241	1759.59
424.617	1777.89
424.994	1807.04
425.37	1780.83
425.746	1817.66
426.123	1826.03
426.499	1837.1
426.875	1856.53
427.251	1906.7
427.627	1933.59
428.003	1967.49
428.379	1967.04
428.756	2049.75
429.132	2046.81
429.507	2067.38
429.883	2081.16
430.259	2142.63
430.635	2131.1
431.011	2176.52
431.387	2222.85
431.763	2239.12
432.138	2296.97
432.514	2324.09
432.89	2325.9
433.265	2385.78
433.641	2411.32
434.016	2443.86
434.392	2485.9
434.767	2507.82
435.143	2511.66
435.518	2550.3
435.894	2540.36
436.269	2618.55
436.644	2629.85
437.02	2677.53
437.395	2666
437.77	2736.28
438.145	2781.71
438.52	2797.3
438.895	2808.6
439.271	2833.91
439.646	2937.63
440.021	2946.45
440.395	2915.04
440.77	2941.93
441.145	2974.92
441.52	3070.06
441.895	3047.24
442.27	3073
442.645	3096.27
443.019	3078.2
443.394	3141.25
443.769	3176.72
444.143	3161.58
444.518	3210.17
444.892	3181.92
445.267	3247.23
445.641	3304.86
446.016	3308.25
446.39	3327.23
446.764	3367
447.139	3332.88
447.513	3381.92
447.887	3432.08
448.262	3428.7
448.636	3461.01
449.01	3495.36
449.384	3524.96
449.758	3582.82
450.132	3627.56
450.506	3645.19
450.88	3700.33
451.254	3665.75
451.628	3759.08
452.002	3784.84
452.376	3801.79
452.75	3799.53
453.123	3899.87
453.497	3936.03
453.871	3976.7
454.244	4113.65
454.618	4086.3
454.992	4218.96
455.365	4108.23
455.739	4261.67
456.112	4341.21
456.486	4346.19
456.859	4372.85
457.232	4478.16
457.606	4487.65
457.979	4538.95
458.352	4650.58
458.725	4696.91
459.099	4781.88
459.472	4856.68
459.845	4877.24
460.218	4926.06
460.591	4963.12
460.964	5031.59
461.337	5129.22
461.71	5242.88
462.083	5241.98
462.456	5308.87
462.829	5270.23
463.201	5447.63
463.574	5444.46
463.947	5541.63
464.32	5664.79
464.692	5758.35
465.065	5771.68
465.438	5806.03
465.81	5895.07
466.183	5988.4
466.555	6130.32
466.928	6163.54
467.3	6178.23
467.672	6300.94
468.045	6437.88
468.417	6438.79
468.789	6493.7
469.161	6620.25
469.534	6715.16
469.906	6884.42
470.278	6911.77
470.65	6980.92
471.022	7117.86
471.394	7264.53
471.766	7313.34
472.138	7414.81
472.51	7598.76
472.882	7700.9
473.253	7838.52
473.625	7900.67
473.997	8163.26
474.369	8178.63
474.74	8231.96
475.112	8448.68
475.484	8564.83
475.855	8723.25
476.227	8760.53
476.598	9065.84
476.97	9138.15
477.341	9286.39
477.713	9425.6
478.084	9525.48
478.455	9810.45
478.827	9866.94
479.198	10192.59
479.569	10177.22
479.94	10489.53
480.311	10595.06
480.682	10838.44
481.053	11117.31
481.424	11240.69
481.795	11362.95
482.166	11550.97
482.537	11668.7
482.908	11907.12
483.279	12056.94
483.65	12272.53
484.021	12524.95
484.391	12724.72
484.762	12807.21
485.133	12887.43
485.503	13132.62
485.874	13408.09
486.244	13639.05
486.615	13832.72
486.985	13978.7
487.356	14263.66
487.726	14417.56
488.097	14616.88
488.467	14682.86
488.837	15058.22
489.207	15209.18
489.578	15439.45
489.948	15637.87
490.318	15870.63
490.688	15873.57
491.058	16125.76
491.428	16370.5
491.798	16538.41
492.168	16940.2
492.538	17068.79
492.908	17171.16
493.278	17412.96
493.648	17449.8
494.017	17711.03
494.387	17854.53
494.757	18111.25
495.126	18144.92
495.496	18322.77
495.866	18444.8
496.235	18693.83
496.605	18861.74
496.974	19003.65
497.344	19172.69
497.713	19286.36
498.082	19378.33
498.452	19622.85
498.821	19741.26
499.19	19847.47
499.559	20152.32
499.928	20227.35
500.298	20333.11
500.667	20523.84
501.036	20518.42
501.405	20784.62
501.774	20805.41
502.143	21048.8
502.512	21151.62
502.88	21399.07
503.249	21353.2
503.618	21546.64
503.987	21716.58
504.356	21917.47
504.724	22027.75
505.093	22176
505.462	22241.08
505.83	22392.49
506.199	22724.91
506.567	22834.74
506.936	22905.47
507.304	23159.7
507.672	23362.41
508.041	23426.59
508.409	23574.38
508.777	23817.76
509.145	23937.99
509.514	24023.86
509.882	24178.43
510.25	24326.45
510.618	24444.64
510.986	24618.87
511.354	24809.6
511.722	25103.15
512.09	25237.16
512.458	25290.95
512.826	25683.25
513.193	25775
513.561	25841.67
513.929	26083.01
514.297	26344.48
514.664	26463.34
515.032	26628.99
515.4	26901.98
515.767	26979.94
516.135	27131.57
516.502	27113.27
516.869	27607.27
517.237	27718.9
517.604	27762.29
517.972	28095.17
518.339	28345.78
518.706	28421.03
519.073	28598.88
519.44	28675.49
519.808	29094.46
520.175	29181.69
520.542	29493.55
520.909	29677.27
521.276	29696.93
521.643	30106.19
522.009	30346.18
522.376	30537.59
522.743	30669.79
523.11	31065.93
523.477	31306.15
523.843	31577.56
524.21	31827.5
524.577	32102.52
524.943	32182.74
525.31	32349.74
525.676	32639.23
526.043	32935.49
526.409	33130.51
526.776	33477.85
527.142	33565.08
527.508	33924.39
527.874	34151.5
528.241	34312.63
528.607	34367.99
528.973	34770.02
529.339	34734.54
529.705	35104.47
530.071	35414.29
530.437	35528.64
530.803	35817.9
531.169	36165.69
531.535	36083.43
531.901	36124.56
532.267	36374.72
532.632	36598.9
532.998	36632.34
533.364	37054.7
533.73	37153.23
534.095	37475.03
534.461	37563.16
534.826	37692.88
535.192	37997.28
535.557	38250.15
535.923	38115.92
536.288	38445.18
536.653	38687.66
537.019	38523.14
537.384	38691.72
537.749	38871.61
538.114	39027.08
538.479	39144.37
538.845	39266.62
539.21	39439.27
539.575	39715.42
539.94	39860.51
540.305	40000.16
540.67	39948.19
541.034	40187.28
541.399	40406.48
541.764	40463.88
542.129	40542.52
542.494	40706.36
542.858	40983.87
543.223	40968.27
543.587	41147.48
543.952	41126.24
544.316	41353.12
544.681	41423.18
545.045	41730.51
545.41	41785.88
545.774	42000.34
546.138	42026.55
546.503	42226.09
546.867	42184.74
547.231	42551.73
547.595	42545.63
547.959	42579.3
548.324	42767.32
548.688	43012.29
549.052	43131.61
549.416	43209.34
549.779	43352.62
550.143	43375.67
550.507	43769.56
550.871	43866.73
551.235	43960.51
551.599	44322.08
551.962	44228.98
552.326	44370.67
552.689	44665.13
553.053	44601.85
553.417	44772.01
553.78	45233.25
554.143	45089.07
554.507	45299.68
554.87	45467.82
555.234	45907.58
555.597	45538.77
555.96	45759.79
556.323	46004.75
556.686	46079.1
557.05	46454.91
557.413	46437.73
557.776	46532.65
558.139	46974.67
558.502	47006.98
558.865	47116.36
559.228	47339.86
559.59	47507.76
559.953	47579.17
560.316	48005.38
560.679	48074.75
561.041	48245.6
561.404	48438.59
561.767	48665.92
562.129	48638.81
562.492	49006.03
562.854	48896.43
563.217	49027.04
563.579	49236.3
563.941	49446.47
564.304	49637.2
564.666	49740.02
565.028	49831.99
565.39	49970.3
565.753	50287.8
566.115	50361.25
566.477	50519.66
566.839	50612.31
567.201	50777.51
567.563	50900.89
567.925	51038.29
568.287	51137.5
568.648	51208.91
569.01	51388.34
569.372	51622.91
569.734	51491.16
570.095	51746.97
570.457	51860.64
570.819	51967.53
571.18	51943.58
571.542	52144.02
571.903	52282.55
572.265	52275.32
572.626	52459.95
572.987	52534.3
573.349	52635.54
573.71	52758.92
574.071	52768.87
574.432	52881.18
574.794	53181.06
575.155	53017.45
575.516	53036.66
575.877	53132.92
576.238	53169.08
576.599	53334.05
576.96	53428.96
577.32	53432.8
577.681	53476.42
578.042	53687.94
578.403	53733.36
578.763	53738.78
579.124	53779.01
579.485	53815.62
579.845	53870.76
580.206	53801.61
580.566	53885.22
580.927	53957.99
581.287	54055.61
581.648	53944.66
582.008	54065.1
582.368	54000.7
582.728	54034.82
583.089	54086.8
583.449	53984.2
583.809	54110.07
584.169	54153.01
584.529	54059.68
584.889	54227.36
585.249	54160.24
585.609	53943.07
585.969	54243.18
586.329	54044.77
586.688	54254.25
587.048	54096.52
587.408	54159.56
587.768	54140.58
588.127	54157.3
588.487	54125.22
588.846	54301.93
589.206	54169.51
589.565	54151.2
589.925	54291.09
590.284	54273.69
590.643	54365.89
591.003	54352.55
591.362	54408.37
591.721	54337.41
592.08	54308.04
592.44	54422.16
592.799	54463.96
593.158	54301.93
593.517	54413.12
593.876	54388.71
594.235	54360.92
594.593	54511.42
594.952	54495.15
595.311	54430.74
595.67	54538.09
596.029	54645.65
596.387	54644.07
596.746	54576.28
597.104	54527.46
597.463	54547.58
597.822	54717.29
598.18	54556.62
598.538	54552.32
598.897	54730.85
599.255	54494.02
599.613	54933.33
599.972	54782.15
600.33	54764.52
600.688	54684.75
601.046	54830.51
601.404	55038.19
601.762	54836.83
602.12	54937.17
602.478	55001.35
602.836	55061.46
603.194	54875.7
603.552	54864.63
603.91	54935.14
604.268	55077.96
604.625	54935.82
604.983	55081.35
605.341	54998.64
605.698	55216.71
606.056	55256.71
606.413	55108.92
606.771	55223.94
607.128	55254.9
607.485	55184.17
607.843	55227.33
608.2	55337.61
608.557	55490.6
608.914	55325.18
609.272	55493.99
609.629	55501.68
609.986	55563.37
610.343	55492.64
610.7	55625.29
611.057	55666.87
611.414	55633.2
611.771	55625.51
612.127	55719.52
612.484	55630.94
612.841	55815.34
613.198	55789.58
613.554	55725.4
613.911	55825.06
614.267	55863.47
614.624	55830.93
614.98	55915
615.337	56098.27
615.693	55918.39
616.05	55877.94
616.406	55990.02
616.762	56032.74
617.118	56050.59
617.475	56055.33
617.831	56122.9
618.187	56154.54
618.543	56129.91
618.899	56267.08
619.255	56184.37
619.611	56233.86
619.967	56255.1
620.323	56266.18
620.678	56183.01
621.034	56167.65
621.39	56179.85
621.746	56158.83
622.101	56473.85
622.457	56230.7
622.812	56277.93
623.168	56337.81
623.523	56262.79
623.879	56423.46
624.234	56264.59
624.589	56324.48
624.945	56320.86
625.3	56403.35
625.655	56241.09
626.01	56299.17
626.365	56316.8
626.72	56280.64
627.075	56326.29
627.43	56219.62
627.785	56197.25
628.14	56213.75
628.495	56185.95
628.85	56232.05
629.205	56073.64
629.559	56274.09
629.914	56161.09
630.269	56218.49
630.623	56100.98
630.978	56023.02
631.332	56100.3
631.687	56192.96
632.041	56039.74
632.396	56063.47
632.75	55983.7
633.104	56001.78
633.459	55909.35
633.813	55880.2
634.167	55818.05
634.521	55852.4
634.875	55950.25
635.229	55833.64
635.583	55753.87
635.937	55696.25
636.291	55709.13
636.645	55706.19
636.999	55606.76
637.352	55630.71
637.706	55544.39
638.06	55639.07
638.413	55510.94
638.767	55469.13
639.121	55530.6
639.474	55396.37
639.828	55302.59
640.181	55375.58
640.534	55438.18
640.888	55371.28
641.241	55177.84
641.594	55233.43
641.947	55245.41
642.301	55135.81
642.654	55196.83
643.007	55236.82
643.36	55124.51
643.713	55115.02
644.066	55180.33
644.419	54937.17
644.771	54727.69
645.124	54508.71
645.477	54443.4
645.83	54270.52
646.182	54051.09
646.535	53986.69
646.888	54047.03
647.24	53930.19
647.593	54082.05
647.945	54003.64
648.298	53785.11
648.65	53638.45
649.002	53560.94
649.355	53789.86
649.707	53725.9
650.059	53835.51
650.411	54243.63
650.763	54236.85
651.115	54477.75
651.467	54360.69
651.819	54387.81
652.171	54283.63
652.523	54141.49
652.875	54188.94
653.227	54004.77
653.578	54280.92
653.93	54165.21
654.282	53952.79
654.633	53955.95
654.985	53962.73
655.337	53995.95
655.688	54007.25
656.039	54075.5
656.391	53805
656.742	53913.92
657.094	53864.21
657.445	53984.43
657.796	53923.86
658.147	53865.34
658.498	53822.17
658.849	53896.07
659.2	53797.09
659.551	53759.12
659.902	53889.97
660.253	53812
660.604	53795.28
660.955	53689.52
661.306	53727.71
661.656	53684.32
662.007	53724.32
662.358	53707.15
662.708	53686.36
663.059	53586.7
663.409	53371.56
663.76	53595.29
664.11	53611.56
664.461	53555.06
664.811	53560.48
665.161	53570.65
665.511	53492.92
665.862	53562.74
666.212	53635.74
666.562	53592.12
666.912	53569.3
667.262	53430.77
667.612	53578.11
667.962	53556.19
668.312	53439.58
668.662	53492.69
669.011	53421.28
669.361	53394.61
669.711	53418.79
670.06	53302.41
670.41	53277.55
670.76	53180.38
671.109	53342.19
671.459	53353.94
671.808	53285.46
672.157	53289.53
672.507	53105.13
672.856	53188.97
673.205	53183.09
673.554	53241.62
673.904	53180.16
674.253	53253.15
674.602	53111.68
674.951	52752.82
675.3	52595.31
675.649	53025.13
675.998	52995.98
676.346	53007.96
676.695	53112.59
677.044	52821.07
677.393	53027.17
677.741	53024.23
678.09	52855.19
678.438	52819.71
678.787	52800.5
679.135	52836.21
679.484	52675.99
679.832	52790.79
680.181	52541.75
680.529	52668.3
680.877	52538.59
681.225	52460.17
681.573	52644.8
681.922	52488.2
682.27	52367.3
682.618	52338.82
682.966	52392.61
683.314	52327.52
683.661	52247.3
684.009	52067.42
684.357	52022.9
684.705	51961.66
685.053	52049.11
685.4	51979.51
685.748	51774.32
686.095	51784.03
686.443	51554.44
686.79	51453.65
687.138	51653.42
687.485	51637.37
687.832	51447.55
688.18	51549.01
688.527	51310.83
688.874	51294.33
689.221	51234.9
689.568	51021.79
689.915	51079.65
690.262	50975.92
690.609	50888.92
690.956	50724.63
691.303	50775.92
691.65	50553.56
691.997	50519.89
692.344	50442.15
692.69	50427.01
693.037	50420.91
693.383	50075.83
693.73	50256.62
694.077	50026.57
694.423	50039.22
694.769	49852.79
695.116	49802.84
695.462	49783.86
695.808	49724.43
696.155	49817.76
696.501	49420.71
696.847	49493.02
697.193	49171.9
697.539	49347.49
697.885	49090.32
698.231	48900.49
698.577	48905.69
698.923	48807.61
699.269	48632.48
699.614	48369.43
699.96	48390.45
700.306	48388.42
700.651	48233.84
700.997	48215.09
701.342	47862.78
701.688	47967.41
702.033	47848.77
702.379	47816.91
702.724	47729.9
703.069	47818.04
703.415	47370.14
703.76	47389.57
704.105	47297.6
704.45	47153.2
704.795	46944.39
705.14	46855.8
705.485	46917.72
705.83	46723.6
706.175	46649.03
706.52	46563.15
706.865	46418.75
707.209	46511.63
707.554	46311.64
707.899	46333.78
708.243	46119.1
708.588	46094.24
708.932	45876.39
709.277	45737.87
709.621	45910.06
709.966	45493.35
710.31	45598.21
710.654	45246.8
710.998	45435.05
711.342	45409.06
711.687	45172.46
712.031	45179.91
712.375	44832.35
712.719	45012.01
713.063	44898.34
713.407	45045.45
713.75	44608.86
714.094	44793.71
714.438	44527.05
714.782	44564.79
715.125	44451.12
715.469	44392.59
715.812	44076.89
716.156	43908.53
716.499	43947.86
716.843	43878.48
717.186	43718.48
717.53	43943.56
717.873	43840.29
718.216	43803
718.559	43557.81
718.902	43432.84
719.246	43653.4
719.589	43463.12
719.932	43241.89
720.275	43257.25
720.617	43150.14
720.96	43047.77
721.303	43028.56
721.646	43028.33
721.989	42730.71
722.331	42902.23
722.674	42789.47
723.016	42748.11
723.359	42678.06
723.701	42666.76
724.044	42286.43
724.386	42214.12
724.729	42308.35
725.071	42155.59
725.413	42184.06
725.755	42112.42
726.097	41940.9
726.439	41726.22
726.782	41739.55
727.124	41947.23
727.465	41599.22
727.807	41701.36
728.149	41621.82
728.491	41363.29
728.833	41545.66
729.175	41428.37
729.516	41282.84
729.858	41307.7
730.199	41259.34
730.541	41122.85
730.882	41146.57
731.224	41277.87
731.565	40890.99
731.906	40950.65
732.248	40908.39
732.589	40735.51
732.93	40548.85
733.271	40670.88
733.612	40671.56
733.953	40632.24
734.294	40458.68
734.635	40428.4
734.976	40441.96
735.317	40257.33
735.658	40189.76
735.999	40245.35
736.339	39993.38
736.68	40233.15
737.021	40042.42
737.361	39889.43
737.702	40182.53
738.042	39801.52
738.383	39745.71
738.723	39886.49
739.063	39683.56
739.404	39777.34
739.744	39570.34
740.084	39439.5
740.424	39578.71
740.764	39319.05
741.104	39460.97
741.444	39290.13
741.784	39021.21
742.124	39143.91
742.464	39019.17
742.804	38967.42
743.143	38907.99
743.483	38992.05
743.823	38705.51
744.162	38679.29
744.502	38749.8
744.841	38483.59
745.181	38729.46
745.52	38588
745.86	38479.52
746.199	38334.44
746.538	38298.29
746.877	38366.08
747.216	38311.17
747.556	38066.43
747.895	38018.75
748.234	38018.07
748.573	37827.56
748.911	37880.44
749.25	37716.16
749.589	37745.31
749.928	37677.06
750.267	37651.52
750.605	37479.33
750.944	37360.46
751.283	37343.96
751.621	37326.56
751.96	37033.24
752.298	37138.09
752.636	37096.06
752.975	36946.91
