Data from plate_ceramic_FLMS001491_090.txt Node
Date: Tue Feb 07 11:17:26 GMT 2017
User: dcchb
Spectrometer: FLMS00149
Trigger mode: 0
Integration Time (sec): 2.000000E-2
Scans to average: 10
Electric dark correction enabled: true
Nonlinearity correction enabled: false
Boxcar width: 0
XAxis mode: Wavelengths
Number of Pixels in Spectrum: 2048
>>>>>Begin Spectral Data<<<<<
341.393	-20.35
341.776	-20.35
342.16	-20.35
342.543	-42.5
342.927	-69.39
343.31	-76.4
343.693	-67.58
344.077	-59.45
344.46	-54.93
344.843	-64.42
345.226	-43.18
345.61	-21.03
345.993	-15.15
346.376	-12.9
346.759	2.25
347.142	12.41
347.525	55.35
347.908	48.57
348.291	88.57
348.674	95.12
349.057	112.75
349.44	119.3
349.823	156.82
350.206	167.44
350.588	241.11
350.971	219.64
351.354	261.45
351.737	247.66
352.119	272.75
352.502	277.04
352.884	283.59
353.267	294.67
353.65	293.31
354.032	299.64
354.414	335.8
354.797	333.08
355.179	346.87
355.562	342.58
355.944	350.71
356.326	364.5
356.709	343.25
357.091	363.37
357.473	345.29
357.855	364.27
358.238	349.13
358.62	368.34
359.002	357.72
359.384	368.79
359.766	368.79
360.148	375.34
360.53	362.24
360.912	337.83
361.294	368.56
361.676	362.24
362.057	351.62
362.439	358.62
362.821	362.91
363.203	354.33
363.584	349.13
363.966	338.51
364.348	349.81
364.729	370.6
365.111	339.19
365.493	339.41
365.874	354.1
366.256	366.3
366.637	331.95
367.019	357.49
367.4	346.42
367.781	361.33
368.163	357.04
368.544	344.84
368.925	355
369.306	341.9
369.688	353.42
370.069	359.75
370.45	350.49
370.831	344.38
371.212	359.52
371.593	355.23
371.974	385.06
372.355	351.62
372.736	344.84
373.117	369.02
373.498	373.99
373.879	351.16
374.26	366.76
374.641	371.95
375.021	363.59
375.402	401.11
375.783	392.74
376.163	381.44
376.544	394.1
376.925	381.22
377.305	381.44
377.686	381.22
378.066	375.12
378.447	400.2
378.827	396.36
379.208	399.98
379.588	386.64
379.968	395.68
380.349	386.87
380.729	402.91
381.109	432.52
381.489	407.43
381.87	414.21
382.25	399.07
382.63	410.37
383.01	414.66
383.39	444.49
383.77	408.56
384.15	423.48
384.53	420.09
384.91	462.12
385.29	440.43
385.67	452.86
386.049	458.5
386.429	460.76
386.809	472.06
387.189	480.2
387.568	481.33
387.948	457.37
388.328	458.5
388.707	484.04
389.087	474.1
389.466	497.37
389.846	493.31
390.225	499.41
390.605	496.24
390.984	505.51
391.363	504.83
391.743	488.33
392.122	516.58
392.501	508.67
392.881	535.11
393.26	530.82
393.639	527.2
394.018	531.27
394.397	499.41
394.776	538.73
395.155	555.23
395.534	533.31
395.913	524.04
396.292	582.34
396.671	550.03
397.05	554.1
397.429	596.58
397.808	551.84
398.186	578.28
398.565	585.28
398.944	580.99
399.323	590.25
399.701	610.59
400.08	610.37
400.458	620.31
400.837	619.86
401.215	627.54
401.594	627.54
401.972	625.96
402.351	664.6
402.729	635.22
403.107	643.81
403.486	650.82
403.864	649.91
404.242	701.66
404.62	703.7
404.999	696.92
405.377	689.01
405.755	687.65
406.133	710.93
406.511	712.06
406.889	706.41
407.267	722.9
407.645	730.59
408.023	738.95
408.401	736.69
408.779	770.81
409.156	769.46
409.534	790.02
409.912	776.91
410.29	812.39
410.667	803.58
411.045	817.14
411.422	825.5
411.8	831.38
412.178	842.22
412.555	866.4
412.933	871.83
413.31	893.52
413.687	887.65
414.065	888.78
414.442	900.75
414.819	950.47
415.197	956.57
415.574	928.55
415.951	945.95
416.328	931.03
416.705	962.9
417.082	975.78
417.46	1012.61
417.837	965.38
418.214	1028.43
418.591	1030.92
418.967	1014.65
419.344	1039.96
419.721	1045.83
420.098	1046.51
420.475	1039.28
420.852	1080.86
421.228	1105.72
421.605	1079.51
421.982	1092.39
422.358	1128.32
422.735	1120.41
423.111	1146.62
423.488	1138.04
423.864	1172.61
424.241	1175.1
424.617	1178.94
424.994	1178.26
425.37	1213.51
425.746	1201.08
426.123	1226.39
426.499	1244.02
426.875	1272.04
427.251	1288.99
427.627	1290.57
428.003	1314.75
428.379	1318.14
428.756	1325.37
429.132	1382.32
429.507	1374.41
429.883	1415.54
430.259	1424.36
430.635	1429.1
431.011	1438.82
431.387	1463.9
431.763	1490.34
432.138	1496.22
432.514	1549.32
432.89	1541.41
433.265	1543.67
433.641	1571.92
434.016	1588.64
434.392	1609.66
434.767	1634.97
435.143	1622.54
435.518	1638.59
435.894	1680.39
436.269	1679.72
436.644	1702.31
437.02	1716.55
437.395	1733.05
437.77	1791.35
438.145	1788.19
438.52	1788.87
438.895	1799.26
439.271	1804.01
439.646	1878.58
440.021	1860.95
440.395	1882.42
440.77	1874.74
441.145	1896.43
441.52	1929.88
441.895	1942.53
442.27	1949.54
442.645	1959.26
443.019	2005.58
443.394	1999.03
443.769	2017.11
444.143	1975.75
444.518	2034.51
444.892	2049.2
445.267	2046.03
445.641	2053.72
446.016	2052.36
446.39	2108.18
446.764	2109.53
447.139	2095.98
447.513	2159.48
447.887	2169.65
448.262	2180.04
448.636	2203.54
449.01	2222.07
449.384	2267.72
449.758	2230.44
450.132	2262.07
450.506	2283.54
450.88	2299.13
451.254	2315.18
451.628	2373.03
452.002	2395.86
452.376	2401.73
452.75	2401.96
453.123	2395.4
453.497	2475.18
453.871	2504.55
454.244	2549.07
454.618	2552.46
454.992	2584.1
455.365	2584.55
455.739	2697.09
456.112	2678.79
456.486	2674.27
456.859	2694.38
457.232	2781.83
457.606	2785.9
457.979	2811.44
458.352	2895.05
458.725	2916.52
459.099	2935.95
459.472	2986.8
459.845	3005.56
460.218	3052.56
460.591	3078.55
460.964	3094.14
461.337	3150.64
461.71	3217.75
462.083	3231.09
462.456	3247.36
462.829	3257.75
463.201	3334.59
463.574	3352.44
463.947	3396.51
464.32	3480.8
464.692	3523.28
465.065	3539.33
465.438	3570.06
465.81	3655.03
466.183	3628.82
466.555	3697.74
466.928	3763.05
467.3	3808.93
467.672	3825.87
468.045	3912.2
468.417	3973.21
468.789	3975.93
469.161	4052.31
469.534	4064.06
469.906	4196.49
470.278	4205.07
470.65	4241.68
471.022	4319.65
471.394	4411.62
471.766	4457.5
472.138	4523.71
472.51	4605.29
472.882	4699.98
473.253	4695.46
473.625	4857.94
473.997	4848.45
474.369	4928.22
474.74	4965.05
475.112	5055.22
475.484	5146.29
475.855	5284.59
476.227	5276.23
476.598	5442.33
476.97	5471.48
477.341	5607.97
477.713	5711.47
478.084	5704.24
478.455	5847.06
478.827	5921.64
479.198	6076.89
479.569	6137.68
479.94	6353.49
480.311	6385.13
480.682	6469.65
481.053	6629.19
481.424	6727.49
481.795	6879.35
482.166	6888.62
482.537	6959.8
482.908	7153.7
483.279	7270.53
483.65	7354.14
484.021	7533.35
484.391	7672.55
484.762	7654.93
485.133	7749.61
485.503	7869.16
485.874	8044.29
486.244	8123.61
486.615	8263.72
486.985	8375.81
487.356	8511.17
487.726	8572.42
488.097	8787.33
488.467	8830.49
488.837	8949.58
489.207	9098.05
489.578	9172.85
489.948	9348.21
490.318	9424.82
490.688	9516.12
491.058	9692.84
491.428	9743.91
491.798	9813.74
492.168	10061.64
492.538	10108.42
492.908	10228.64
493.278	10464.57
493.648	10349.09
494.017	10580.72
494.387	10593.83
494.757	10674.06
495.126	10843.77
495.496	10889.42
495.866	10991.79
496.235	11065.23
496.605	11156.53
496.974	11290.31
497.344	11398.33
497.713	11419.12
498.082	11554.48
498.452	11608.27
498.821	11721.94
499.19	11791.54
499.559	11954.47
499.928	11952.89
500.298	12061.14
500.667	12272.43
501.036	12236.05
501.405	12377.29
501.774	12391.75
502.143	12475.59
502.512	12533.44
502.88	12642.37
503.249	12663.16
503.618	12796.49
503.987	12897.27
504.356	12948.35
504.724	12989.47
505.093	13108.57
505.462	13166.65
505.83	13259.3
506.199	13429.46
506.567	13659.06
506.936	13595.11
507.304	13760.3
507.672	13765.05
508.041	13945.83
508.409	13903.58
508.777	14086.17
509.145	14262.44
509.514	14295.88
509.882	14317.35
510.25	14443.9
510.618	14589.21
510.986	14636.21
511.354	14740.39
511.722	14878.24
512.09	15006.14
512.458	15039.14
512.826	15150.77
513.193	15261.28
513.561	15327.04
513.929	15505.57
514.297	15628.05
514.664	15800.93
515.032	15819.68
515.4	15941.26
515.767	16030.07
516.135	16057.42
516.502	16024.88
516.869	16430.06
517.237	16443.17
517.604	16508.93
517.972	16710.73
518.339	16919.09
518.706	16808.13
519.073	16938.98
519.44	17008.35
519.808	17386.87
520.175	17347.55
520.542	17485.63
520.909	17654.66
521.276	17804.04
521.643	17933.53
522.009	18123.8
522.376	18180.98
522.743	18314.76
523.11	18510.23
523.477	18650.79
523.843	18687.86
524.21	18951.35
524.577	19060.73
524.943	19137.56
525.31	19293.72
525.676	19516.31
526.043	19693.03
526.409	19794.72
526.776	19921.27
527.142	19982.74
527.508	20247.82
527.874	20231.09
528.241	20426.57
528.607	20508.83
528.973	20680.35
529.339	20710.4
529.705	20851.87
530.071	21130.73
530.437	21161.46
530.803	21267.45
531.169	21460.21
531.535	21527.78
531.901	21690.49
532.267	21759.87
532.632	21890.48
532.998	22087.99
533.364	22146.97
533.73	22173.41
534.095	22282.79
534.461	22459.73
534.826	22588.77
535.192	22793.06
535.557	22879.61
535.923	22905.37
536.288	23010.91
536.653	23093.84
537.019	23053.84
537.384	23166.83
537.749	23300.62
538.114	23387.17
538.479	23333.61
538.845	23383.1
539.21	23560.04
539.575	23667.39
539.94	23810.43
540.305	23941.05
540.67	23837.78
541.034	24004.55
541.399	24169.07
541.764	24269.63
542.129	24308.05
542.494	24492.45
542.858	24577.42
543.223	24472.56
543.587	24791.65
543.952	24741.71
544.316	24896.51
544.681	24921.82
545.045	25016.96
545.41	25105.77
545.774	25209.94
546.138	25202.71
546.503	25360.22
546.867	25418.75
547.231	25569.71
547.595	25684.06
547.959	25818.74
548.324	25847.44
548.688	25995.23
549.052	26059.19
549.416	26213.76
549.779	26206.08
550.143	26275.68
550.507	26487.65
550.871	26550.7
551.235	26606.74
551.599	26824.14
551.962	26847.87
552.326	26814.2
552.689	27057.81
553.053	26957.92
553.417	27049.22
553.78	27486.49
554.143	27432.94
554.507	27536.44
554.87	27647.62
555.234	27869.08
555.597	27884.22
555.96	27921.96
556.323	28182.52
556.686	28234.95
557.05	28503.19
557.413	28496.19
557.776	28552.68
558.139	28735.95
558.502	28829.51
558.865	28901.6
559.228	29137.07
559.59	29291.19
559.953	29317.86
560.316	29514.69
560.679	29639.88
561.041	29782.03
561.404	29986.99
561.767	30154.9
562.129	30222.02
562.492	30451.16
562.854	30488
563.217	30650.48
563.579	30635.79
563.941	30939.74
564.304	31098.15
564.666	31232.61
565.028	31198.26
565.39	31302.21
565.753	31491.14
566.115	31647.06
566.477	31701.98
566.839	31846.83
567.201	32171.57
567.563	32207.27
567.925	32345.35
568.287	32397.55
568.648	32537.66
569.01	32743.98
569.372	32764.32
569.734	32792.57
570.095	33024.43
570.457	33180.58
570.819	33331.09
571.18	33326.57
571.542	33488.6
571.903	33629.61
572.265	33813.56
572.626	33777.85
572.987	33954.8
573.349	34107.79
573.71	34211.52
574.071	34274.79
574.432	34441.34
574.794	34657.61
575.155	34622.58
575.516	34506.65
575.877	34465.52
576.238	34805.85
576.599	34902.57
576.96	34997.94
577.32	35051.95
577.681	35092.85
578.042	35156.8
578.403	35174.65
578.763	35287.42
579.124	35327.64
579.485	35489.9
579.845	35584.36
580.206	35559.95
580.566	35522.22
580.927	35661.2
581.287	35785.71
581.648	35446.96
582.008	35708.88
582.368	35620.29
582.728	35862.55
583.089	35801.76
583.449	35773.28
583.809	35945.26
584.169	36020.96
584.529	35768.08
584.889	36174.4
585.249	35955.88
585.609	35840.85
585.969	36144.35
586.329	36016.89
586.688	36128.53
587.048	36019.83
587.408	35918.36
587.768	35948.87
588.127	35978.25
588.487	35873.17
588.846	36292.36
589.206	36042.2
589.565	36072.48
589.925	36087.4
590.284	36043.78
590.643	36204.91
591.003	36344.57
591.362	36328.75
591.721	36238.13
592.08	36258.92
592.44	36357.67
592.799	36426.15
593.158	36360.16
593.517	36261.18
593.876	36426.82
594.235	36432.02
594.593	36311.57
594.952	36413.27
595.311	36359.26
595.67	36478.8
596.029	36634.05
596.387	36658.91
596.746	36792.24
597.104	36449.87
597.463	36465.92
597.822	36668.63
598.18	36708.4
598.538	36560.38
598.897	36875.4
599.255	36553.38
599.613	37175.73
599.972	36763.09
600.33	36902.07
600.688	36812.13
601.046	36963.08
601.404	36973.7
601.762	36949.75
602.12	37139.35
602.478	37124.66
602.836	37166.01
603.194	36948.62
603.552	37174.6
603.91	37040.59
604.268	37248.27
604.625	37096.19
604.983	37317.2
605.341	37031.78
605.698	37309.06
606.056	37482.39
606.413	37504.08
606.771	37428.38
607.128	37429.51
607.485	37384.54
607.843	37526.91
608.2	37618.66
608.557	37757.41
608.914	37493.46
609.272	37709.05
609.629	37930.97
609.986	38017.52
610.343	37872.89
610.7	38160.11
611.057	38109.72
611.414	38044.41
611.771	38040.34
612.127	38302.26
612.484	38144.75
612.841	38268.81
613.198	38188.36
613.554	38181.58
613.911	38379.32
614.267	38461.35
614.624	38291.86
614.98	38371.41
615.337	38632.42
615.693	38676.03
616.05	38577.28
616.406	38717.61
616.762	38538.63
617.118	38580.21
617.475	38563.04
617.831	38650.04
618.187	38668.12
618.543	38734.79
618.899	38883.48
619.255	38805.07
619.611	38736.59
619.967	38963.48
620.323	38934.1
620.678	38885.07
621.034	38771.85
621.39	38749.93
621.746	38846.65
622.101	39268.56
622.457	38977.49
622.812	38936.14
623.168	39255.68
623.523	39052.52
623.879	39183.81
624.234	38970.03
624.589	39211.61
624.945	39050.94
625.3	39131.61
625.655	39103.36
626.01	39129.13
626.365	39036.7
626.72	39009.36
627.075	38994.67
627.43	38983.37
627.785	38940.88
628.14	39013.42
628.495	38993.08
628.85	38926.87
629.205	38824.05
629.559	39097.71
629.914	38983.37
630.269	38923.48
630.623	38756.93
630.978	38726.43
631.332	38861.34
631.687	38809.81
632.041	38565.3
632.396	38610.95
632.75	38572.08
633.104	38673.55
633.459	38447.11
633.813	38412.08
634.167	38488.47
634.521	38404.4
634.875	38501.8
635.229	38366.89
635.583	38215.7
635.937	38224.74
636.291	38253.22
636.645	38251.64
636.999	38182.48
637.352	38202.15
637.706	37930.29
638.06	38086.67
638.413	37961.02
638.767	37846
639.121	38040.34
639.474	37666.34
639.828	37654.81
640.181	37834.92
640.534	37820.91
640.888	37573.01
641.241	37521.03
641.594	37685.77
641.947	37644.87
642.301	37464.09
642.654	37473.58
643.007	37523.07
643.36	37494.37
643.713	37285.33
644.066	37569.85
644.419	37323.98
644.771	36909.07
645.124	36478.57
645.477	36576.2
645.83	36259.37
646.182	36147.51
646.535	36095.53
646.888	36223.44
647.24	35965.59
647.593	36226.38
647.945	36159.26
648.298	36060.96
648.65	35875.2
649.002	35909.78
649.355	35881.98
649.707	35866.61
650.059	35949.32
650.411	36404.68
650.763	36360.39
651.115	36708.17
651.467	36436.77
651.819	36604
652.171	36561.28
652.523	36389.76
652.875	36379.82
653.227	36284
653.578	36473.83
653.93	36309.77
654.282	36364.45
654.633	36097.34
654.985	36323.78
655.337	36309.77
655.688	36164.01
656.039	36336.21
656.391	35977.34
656.742	36092.6
657.094	35932.15
657.445	36187.96
657.796	36025.93
658.147	36067.96
658.498	35957.68
658.849	36106.61
659.2	35937.57
659.551	35703.91
659.902	36053.28
660.253	35874.3
660.604	35887.4
660.955	35771.93
661.306	35827.29
661.656	35776.67
662.007	35794.75
662.358	35834.52
662.708	35737.35
663.059	35786.16
663.409	35441.54
663.76	35763.79
664.11	35718.14
664.461	35627.07
664.811	35839.5
665.161	35729.22
665.511	35574.42
665.862	35724.02
666.212	35651.7
666.562	35740.29
666.912	35720.85
667.262	35642.21
667.612	35531.71
667.962	35468.43
668.312	35369
668.662	35472.27
669.011	35562.44
669.361	35328.32
669.711	35385.04
670.06	35434.99
670.41	35307.08
670.76	35142.11
671.109	35390.02
671.459	35407.19
671.808	35183.47
672.157	35252.62
672.507	35032.96
672.856	34968.78
673.205	35101.66
673.554	35138.27
673.904	35023.02
674.253	35267.31
674.602	35159.74
674.951	34731.28
675.3	34511.85
675.649	34968.33
675.998	35065.05
676.346	34925.85
676.695	35194.54
677.044	34807.21
677.393	34898.5
677.741	35048.1
678.09	34860.54
678.438	34688.11
678.787	34758.62
679.135	34800.2
679.484	34624.84
679.832	34873.19
680.181	34507.1
680.529	34593.43
680.877	34489.93
681.225	34510.26
681.573	34647.21
681.922	34448.12
682.27	34308.46
682.618	34271.4
682.966	34299.42
683.314	34298.07
683.661	34221.68
684.009	33991.41
684.357	33939.66
684.705	33976.27
685.053	33807.68
685.4	33935.36
685.748	33825.99
686.095	33791.87
686.443	33632.32
686.79	33473.68
687.138	33586.45
687.485	33505.77
687.832	33267.13
688.18	33362.5
688.527	33282.73
688.874	33258.77
689.221	33149.85
689.568	33101.71
689.915	33042.05
690.262	32957.09
690.609	32901.27
690.956	32860.14
691.303	32795.06
691.65	32710.31
691.997	32678
692.344	32424.9
692.69	32442.3
693.037	32447.27
693.383	32217.22
693.73	32367.95
694.077	32059.03
694.423	32037.79
694.769	32032.82
695.116	31995.98
695.462	31954.85
695.808	31722.77
696.155	31733.61
696.501	31428.99
696.847	31511.7
697.193	31344.02
697.539	31572.26
697.885	31137.92
698.231	31222.44
698.577	31127.98
698.923	31054.31
699.269	30764.6
699.614	30871.04
699.96	30624.72
700.306	30807.76
700.651	30554.89
700.997	30608.67
701.342	30472.18
701.688	30550.14
702.033	30200.77
702.379	30266.53
702.724	30167.1
703.069	30181.11
703.415	29839.65
703.76	29933.44
704.105	29909.48
704.45	29881.69
704.795	29681.47
705.14	29603.73
705.485	29508.36
705.83	29478.08
706.175	29443.28
706.52	29483.05
706.865	29329.84
707.209	29232.89
707.554	29094.59
707.899	29137.98
708.243	29008.71
708.588	29050.75
708.932	28825.22
709.277	28675.16
709.621	28804.43
709.966	28696.18
710.31	28747.93
710.654	28550.87
710.998	28572.57
711.342	28429.97
711.687	28366.7
712.031	28232.92
712.375	28212.35
712.719	28223.65
713.063	28165.57
713.407	28181.39
713.75	28034.5
714.094	28085.58
714.438	27893.49
714.782	27914.51
715.125	27834.96
715.469	27852.59
715.812	27690.56
716.156	27470.45
716.499	27578.92
716.843	27634.06
717.186	27382.32
717.53	27625.25
717.873	27493.05
718.216	27348.87
718.559	27297.12
718.902	27243.79
719.246	27169.21
719.589	27055.77
719.932	26916.57
720.275	26987.98
720.617	27024.81
720.96	26907.07
721.303	26766.06
721.646	26779.39
721.989	26726.06
722.331	26754.76
722.674	26538.27
723.016	26734.88
723.359	26667.99
723.701	26517.48
724.044	26402.68
724.386	26403.81
724.729	26366.75
725.071	26346.64
725.413	26317.49
725.755	26338.28
726.097	26148
726.439	26041.56
726.782	26089.02
727.124	26204.95
727.465	26075.23
727.807	25981.68
728.149	25859.42
728.491	25855.13
728.833	25820.78
729.175	25727.67
729.516	25779.87
729.858	25762.47
730.199	25816.03
730.541	25636.15
730.882	25512.54
731.224	25844.73
731.565	25537.39
731.906	25601.8
732.248	25511.41
732.589	25362.93
732.93	25365.19
733.271	25299.21
733.612	25265.08
733.953	25352.31
734.294	25167.01
734.635	25170.4
734.976	25240.68
735.317	25025.54
735.658	25186.89
735.999	25165.43
736.339	24940.35
736.68	25072.09
737.021	24936.96
737.361	24815.6
737.702	25024.19
738.042	24808.83
738.383	24759.11
738.723	24820.8
739.063	24771.54
739.404	24824.42
739.744	24613.8
740.084	24596.85
740.424	24627.36
740.764	24513.92
741.104	24666.23
741.444	24465.11
741.784	24377.88
742.124	24475.05
742.464	24354.6
742.804	24360.02
743.143	24241.83
743.483	24280.7
743.823	24139.69
744.162	24171.55
744.502	24130.2
744.841	24012.46
745.181	24040.48
745.52	23980.15
745.86	23875.52
746.199	23952.8
746.538	23846.36
746.877	23947.15
747.216	23791.9
747.556	23758.23
747.895	23725.01
748.234	23611.12
748.573	23519.14
748.911	23681.17
749.25	23589.42
749.589	23541.06
749.928	23453.15
750.267	23398.01
750.605	23334.06
750.944	23220.84
751.283	23178.81
751.621	23298.58
751.96	23109.43
752.298	23052.26
752.636	23155.08
752.975	22934.52
753.313	22911.02
753.651	23062.43
