Data from plate_ceramic_FLMS001491_018.txt Node
Date: Tue Feb 07 11:16:23 GMT 2017
User: dcchb
Spectrometer: FLMS00149
Trigger mode: 0
Integration Time (sec): 2.000000E-2
Scans to average: 10
Electric dark correction enabled: true
Nonlinearity correction enabled: false
Boxcar width: 0
XAxis mode: Wavelengths
Number of Pixels in Spectrum: 2048
>>>>>Begin Spectral Data<<<<<
341.393	3.29
341.776	3.29
342.16	3.29
342.543	-42.36
342.927	-64.73
343.31	-81.9
343.693	-91.62
344.077	-61.79
344.46	-52.3
344.843	-44.62
345.226	-38.52
345.61	-25.41
345.993	-42.13
346.376	2.61
346.759	-3.26
347.142	27.47
347.525	50.52
347.908	81.48
348.291	66.79
348.674	104.08
349.057	108.6
349.44	129.16
349.823	156.06
350.206	185.21
350.588	216.84
350.971	206.9
351.354	254.36
351.737	254.81
352.119	259.33
352.502	282.61
352.884	316.95
353.267	302.72
353.65	302.94
354.032	327.35
354.414	325.09
354.797	343.39
355.179	330.74
355.562	341.14
355.944	338.42
356.326	368.03
356.709	373.22
357.091	374.35
357.473	361.93
357.855	350.17
358.238	375.48
358.62	354.02
359.002	384.52
359.384	370.74
359.766	354.24
360.148	389.5
360.53	366.45
360.912	373
361.294	375.26
361.676	373.22
362.057	366.45
362.439	382.72
362.821	361.7
363.203	358.08
363.584	332.77
363.966	375.71
364.348	370.06
364.729	342.27
365.111	337.97
365.493	361.7
365.874	347.24
366.256	365.99
366.637	355.37
367.019	365.77
367.4	351.08
367.781	344.52
368.163	355.82
368.544	357.41
368.925	346.33
369.306	378.42
369.688	374.35
370.069	362.83
370.45	366.67
370.831	382.49
371.212	362.15
371.593	364.86
371.974	358.08
372.355	356.95
372.736	390.63
373.117	367.8
373.498	382.04
373.879	368.93
374.26	384.07
374.641	377.74
375.021	367.35
375.402	398.08
375.783	395.82
376.163	434.69
376.544	400.79
376.925	403.05
377.305	400.79
377.686	398.53
378.066	414.13
378.447	420
378.827	389.95
379.208	421.58
379.588	426.33
379.968	420.68
380.349	430.62
380.729	434.47
381.109	424.75
381.489	422.71
381.87	457.97
382.25	441.02
382.63	427.46
383.01	423.62
383.39	440.79
383.77	431.98
384.15	453.22
384.53	453.22
384.91	454.58
385.29	468.59
385.67	475.37
386.049	482.6
386.429	458.87
386.809	482.83
387.189	499.77
387.568	499.55
387.948	495.26
388.328	469.49
388.707	489.83
389.087	493.45
389.466	488.93
389.846	507.68
390.225	536.84
390.605	540.9
390.984	502.26
391.363	525.99
391.743	531.19
392.122	541.36
392.501	556.04
392.881	561.47
393.26	568.93
393.639	573.9
394.018	562.15
394.397	579.77
394.776	587.68
395.155	598.53
395.534	578.42
395.913	610.51
396.292	593.11
396.671	598.3
397.05	615.7
397.429	630.39
397.808	611.41
398.186	640.11
398.565	657.96
398.944	632.65
399.323	627.68
399.701	664.29
400.08	641.01
400.458	656.83
400.837	678.98
401.215	650.28
401.594	668.81
401.972	675.36
402.351	702.48
402.729	696.38
403.107	684.4
403.486	694.35
403.864	698.64
404.242	726.89
404.62	729.37
404.999	752.88
405.377	741.35
405.755	734.57
406.133	734.8
406.511	779.99
406.889	783.61
407.267	799.88
407.645	827.22
408.023	833.78
408.401	818.64
408.779	820.44
409.156	830.39
409.534	839.43
409.912	862.93
410.29	848.69
410.667	881.91
411.045	908.8
411.422	901.57
411.8	936.83
412.178	929.14
412.555	939.09
412.933	957.39
413.31	964.4
413.687	976.6
414.065	997.16
414.442	1026.31
414.819	1009.37
415.197	1023.38
415.574	1024.51
415.951	1048.69
416.328	1062.02
416.705	1069.48
417.082	1058.4
417.46	1096.14
417.837	1094.56
418.214	1115.35
418.591	1133.66
418.967	1111.74
419.344	1106.54
419.721	1132.53
420.098	1163.94
420.475	1156.93
420.852	1185.86
421.228	1175.24
421.605	1215.69
421.982	1224.73
422.358	1227.44
422.735	1239.19
423.111	1238.06
423.488	1265.4
423.864	1279.87
424.241	1274.9
424.617	1325.74
424.994	1316.7
425.37	1317.61
425.746	1337.95
426.123	1361.9
426.499	1359.41
426.875	1390.15
427.251	1454.33
427.627	1453.2
428.003	1440.09
428.379	1462.24
428.756	1499.75
429.132	1525.28
429.507	1548.79
429.883	1544.72
430.259	1574.1
430.635	1567.09
431.011	1602.57
431.387	1634.43
431.763	1657.71
432.138	1652.29
432.514	1701.33
432.89	1726.18
433.265	1739.74
433.641	1777.26
434.016	1795.56
434.392	1802.34
434.767	1832.85
435.143	1852.73
435.518	1875.78
435.894	1898.38
436.269	1890.7
436.644	1931.38
437.02	1944.26
437.395	1971.6
437.77	1977.93
438.145	2016.8
438.52	2027.42
438.895	2086.4
439.271	2043.69
439.646	2108.55
440.021	2130.69
440.395	2118.26
440.77	2111.03
441.145	2148.77
441.52	2196.68
441.895	2197.81
442.27	2202.1
442.645	2173.18
443.019	2285.04
443.394	2240.52
443.769	2284.81
444.143	2257.47
444.518	2317.58
444.892	2288.65
445.267	2350.35
445.641	2324.81
446.016	2366.84
446.39	2392.83
446.764	2411.36
447.139	2420.63
447.513	2407.75
447.887	2468.31
448.262	2481.19
448.636	2477.58
449.01	2502.66
449.384	2532.72
449.758	2551.47
450.132	2604.58
450.506	2580.62
450.88	2645.71
451.254	2633.96
451.628	2677.34
452.002	2748.76
452.376	2723.45
452.75	2760.73
453.123	2783.33
453.497	2801.86
453.871	2860.39
454.244	2874.85
454.618	2889.32
454.992	2973.16
455.365	2965.7
455.739	3017.22
456.112	3028.07
456.486	3060.16
456.859	3145.81
457.232	3176.77
457.606	3191.23
457.979	3257.44
458.352	3278.23
458.725	3376.54
459.099	3371.79
459.472	3428.96
459.845	3469.19
460.218	3489.98
460.591	3520.26
460.964	3534.95
461.337	3637.09
461.71	3661.5
462.083	3765.9
462.456	3693.59
462.829	3754.6
463.201	3826.02
463.574	3873.7
463.947	3886.35
464.32	4030.76
464.692	4039.12
465.065	4063.3
465.438	4103.3
465.81	4177.87
466.183	4254.7
466.555	4329.5
466.928	4356.85
467.3	4303.06
467.672	4429.84
468.045	4542.15
468.417	4567.24
468.789	4567.01
469.161	4686.56
469.534	4744.86
469.906	4817.63
470.278	4848.14
470.65	4929.94
471.022	5011.29
471.394	5111.63
471.766	5183.27
472.138	5185.98
472.51	5325.41
472.882	5430.27
473.253	5473.43
473.625	5550.26
473.997	5664.38
474.369	5737.83
474.74	5750.94
475.112	5917.94
475.484	6011.04
475.855	6125.39
476.227	6159.74
476.598	6324.03
476.97	6370.13
477.341	6527.41
477.713	6605.83
478.084	6631.82
478.455	6862.77
478.827	6877.69
479.198	7115.87
479.569	7091.24
479.94	7329.2
480.311	7380.27
480.682	7539.14
481.053	7720.15
481.424	7880.37
481.795	7966.47
482.166	8075.62
482.537	8157.88
482.908	8330.98
483.279	8504.08
483.65	8635.83
484.021	8801.7
484.391	8811.87
484.762	8892.55
485.133	8973.9
485.503	9094.13
485.874	9345.87
486.244	9500.22
486.615	9678.74
486.985	9682.58
487.356	9950.83
487.726	10014.33
488.097	10144.72
488.467	10257.71
488.837	10505.39
489.207	10643.24
489.578	10721.65
489.948	10888.43
490.318	11067.41
490.688	11078.93
491.058	11267.63
491.428	11375.42
491.798	11506.72
492.168	11731.34
492.538	11819.25
492.908	11878.46
493.278	12060.6
493.648	12138.57
494.017	12320.48
494.387	12387.15
494.757	12543.07
495.126	12710.53
495.496	12654.03
495.866	12858.09
496.235	12976.51
496.605	13050.86
496.974	13132.89
497.344	13306.22
497.713	13415.37
498.082	13514.8
498.452	13583.95
498.821	13710.5
499.19	13775.81
499.559	13919.76
499.928	13974.45
500.298	14207.44
500.667	14271.16
501.036	14274.55
501.405	14468.45
501.774	14500.99
502.143	14675.67
502.512	14689.46
502.88	14870.92
503.249	14799.51
503.618	14969.23
503.987	15069.79
504.356	15136
504.724	15316.11
505.093	15343.68
505.462	15456.44
505.83	15603.33
506.199	15707.06
506.567	15824.34
506.936	15974.17
507.304	16100.04
507.672	16201.96
508.041	16284.67
508.409	16398.11
508.777	16546.58
509.145	16783.19
509.514	16776.18
509.882	16857.54
510.25	16933.92
510.618	17028.15
510.986	17147.25
511.354	17361.7
511.722	17522.15
512.09	17613.45
512.458	17642.15
512.826	17910.16
513.193	17947.9
513.561	18040.1
513.929	18255.01
514.297	18356.48
514.664	18554.44
515.032	18663.59
515.4	18808.22
515.767	18834.89
516.135	19062.9
516.502	18838.05
516.869	19350.13
517.237	19447.53
517.604	19388.09
517.972	19591.7
518.339	19760.51
518.706	19798.02
519.073	19925.7
519.44	20037.11
519.808	20370.89
520.175	20340.84
520.542	20631.9
520.909	20728.17
521.276	20750.09
521.643	20994.83
522.009	21182.17
522.376	21295.16
522.743	21477.75
523.11	21827.12
523.477	21845.88
523.843	21963.39
524.21	22352.08
524.577	22437.28
524.943	22511.85
525.31	22636.14
525.676	22861.22
526.043	23014.66
526.409	23111.38
526.776	23380.98
527.142	23473.63
527.508	23690.13
527.874	23844.47
528.241	24018.48
528.607	24011.93
528.973	24338.02
529.339	24422.99
529.705	24616.65
530.071	24822.07
530.437	24996.76
530.803	25085.57
531.169	25226.36
531.535	25246.02
531.901	25343.64
532.267	25370.31
532.632	25701.15
532.998	25776.17
533.364	26054.13
533.73	26169.16
534.095	26432.88
534.461	26422.94
534.826	26614.79
535.192	26856.37
535.557	26911.51
535.923	26781.8
536.288	26966.65
536.653	27143.14
537.019	27109.7
537.384	27397.15
537.749	27481.66
538.114	27589.23
538.479	27577.26
538.845	27847.08
539.21	27685.27
539.575	27895.44
539.94	28033.06
540.305	28220.85
540.67	28191.7
541.034	28476.89
541.399	28380.62
541.764	28643.89
542.129	28635.98
542.494	28760.73
542.858	28811.8
543.223	28886.37
543.587	29150.32
543.952	29116.2
544.316	29137.21
544.681	29130.21
545.045	29543.31
545.41	29649.97
545.774	29662.85
546.138	29861.71
546.503	29896.29
546.867	29948.27
547.231	30160.24
547.595	30197.98
547.959	30419.21
548.324	30369.27
548.688	30523.17
549.052	30651.3
549.416	30649.26
549.779	30750.96
550.143	30861.46
550.507	31065.3
550.871	31220.55
551.235	31142.59
551.599	31480.2
551.962	31550.48
552.326	31589.13
552.689	31822.57
553.053	31887.42
553.417	31938.27
553.78	32315.66
554.143	32088.77
554.507	32355.66
554.87	32466.62
555.234	32703.9
555.597	32730.57
555.96	32780.96
556.323	33084.45
556.686	33198.8
557.05	33427.04
557.413	33526.03
557.776	33644.67
558.139	33768.05
558.502	33836.53
558.865	33928.05
559.228	34240.81
559.59	34515.15
559.953	34267.93
560.316	34749.72
560.679	34746.33
561.041	34973.22
561.404	35198.75
561.767	35405.07
562.129	35318.52
562.492	35677.83
562.854	35758.06
563.217	35846.19
563.579	36008.67
563.941	36186.29
564.304	36510.13
564.666	36564.82
565.028	36844.81
565.39	36861.3
565.753	37134.52
566.115	37190.56
566.477	37402.76
566.839	37448.41
567.201	37681.62
567.563	37625.8
567.925	37959.58
568.287	37909.86
568.648	38053.82
569.01	38225.56
569.372	38382.85
569.734	38355.28
570.095	38655.16
570.457	38940.8
570.819	38956.16
571.18	39007.01
571.542	39305.08
571.903	39432.31
572.265	39466.43
572.626	39600.89
572.987	39645.41
573.349	39715.47
573.71	39995.91
574.071	39945.97
574.432	40011.05
574.794	40338.5
575.155	40121.11
575.516	40215.11
575.877	40513.19
576.238	40664.59
576.599	40682.22
576.96	40746.17
577.32	40795.44
577.681	40958.82
578.042	41120.4
578.403	41056.67
578.763	41167.41
579.124	41267.74
579.485	41342.54
579.845	41388.87
580.206	41424.12
580.566	41522.2
580.927	41340.06
581.287	41442.43
581.648	41309.55
582.008	41702.76
582.368	41692.82
582.728	41648.07
583.089	41635.19
583.449	41709.76
583.809	41775.3
584.169	41919.93
584.529	41802.87
584.889	41917.22
585.249	41746.37
585.609	41727.17
585.969	41936.43
586.329	41792.25
586.688	41984.56
587.048	41864.11
587.408	41976.42
587.768	41992.92
588.127	41892.13
588.487	41891.46
588.846	42144.33
589.206	41897.78
589.565	42004.45
589.925	42050.55
590.284	41990.21
590.643	42102.3
591.003	42175.74
591.362	42196.08
591.721	42031.56
592.08	42214.84
592.44	42306.59
592.799	42461.61
593.158	42318.79
593.517	42411.67
593.876	42347.49
594.235	42267.04
594.593	42406.7
594.952	42518.11
595.311	42273.37
595.67	42481.27
596.029	42770.75
596.387	42551.55
596.746	42567.82
597.104	42441.05
597.463	42574.15
597.822	42768.27
598.18	42504.32
598.538	42656.63
598.897	42776.63
599.255	42472.23
599.613	43057.07
599.972	42790.41
600.33	42941.37
600.688	42802.62
601.046	42867.02
601.404	42949.05
601.762	42956.74
602.12	43120.8
602.478	43316.28
602.836	43120.8
603.194	42899.56
603.552	42975.95
603.91	42875.16
604.268	43201.25
604.625	43123.96
604.983	43312.89
605.341	43130.97
605.698	43417.29
606.056	43534.58
606.413	43477.4
606.771	43624.29
607.128	43649.83
607.485	43450.96
607.843	43564.18
608.2	43600.56
608.557	43942.7
608.914	43593.11
609.272	43922.81
609.629	43958.07
609.986	44040.1
610.343	43888.24
610.7	44072.41
611.057	44026.54
611.414	43943.15
611.771	44143.15
612.127	44341.56
612.484	44362.35
612.841	44362.35
613.198	44059.08
613.554	44372.97
613.911	44438.28
614.267	44402.58
614.624	44365.29
614.98	44502.69
615.337	44847.31
615.693	44762.11
616.05	44686.64
616.406	44899.06
616.762	44704.26
617.118	44587.2
617.475	44791.94
617.831	44909.45
618.187	44919.62
618.543	44883.24
618.899	45110.13
619.255	44922.34
619.611	44974.76
619.967	45237.58
620.323	45222.44
620.678	45008.89
621.034	45059.96
621.39	45027.19
621.746	44998.94
622.101	45522.32
622.457	45219.96
622.812	45175.44
623.168	45230.35
623.523	45238.49
623.879	45463.11
624.234	45140.64
624.589	45357.8
624.945	45302.66
625.3	45209.11
625.655	45143.12
626.01	45290.69
626.365	45237.58
626.72	45286.39
627.075	45228.09
627.43	45170.46
627.785	45044.14
628.14	45130.01
628.495	45272.16
628.85	45136.79
629.205	45098.83
629.559	45265.6
629.914	44824.94
630.269	44920.53
630.623	44862.22
630.978	44821.77
631.332	44901.32
631.687	45038.04
632.041	44961.66
632.396	44884.14
632.75	44706.97
633.104	44709.01
633.459	44606.19
633.813	44595.56
634.167	44583.14
634.521	44574.1
634.875	44634.89
635.229	44371.84
635.583	44231.96
635.937	44350.37
636.291	44283.03
636.645	44412.29
636.999	44278.51
637.352	44316.25
637.706	44050.27
638.06	44263.82
638.413	44089.36
638.767	43985.19
639.121	44062.7
639.474	43753.78
639.828	43818.64
640.181	43827.45
640.534	43791.52
640.888	43783.61
641.241	43521.92
641.594	43678.53
641.947	43688.02
642.301	43640.79
642.654	43599.66
643.007	43659.09
643.36	43585.2
643.713	43569.6
644.066	43604.4
644.419	43293.68
644.771	42993.12
645.124	42526.47
645.477	42428.16
645.83	42378.67
646.182	42011.45
646.535	41940.95
646.888	42152.92
647.24	41834.51
647.593	42153.6
647.945	42141.84
648.298	41951.57
648.65	41902.75
649.002	41601.52
649.355	41741.18
649.707	41652.37
650.059	41883.55
650.411	42430.2
650.763	42361.27
651.115	42771.66
651.467	42531.44
651.819	42494.15
652.171	42498.67
652.523	42251.67
652.875	42328.28
653.227	42136.19
653.578	42508.39
653.93	42418.45
654.282	42202.63
654.633	42221.39
654.985	42266.59
655.337	42239.02
655.688	42367.37
656.039	42101.84
656.391	41813.49
656.742	41778.01
657.094	41938.01
657.445	42038.12
657.796	42018.23
658.147	41968.29
658.498	41883.32
658.849	41957.67
659.2	41794.96
659.551	41802.64
659.902	41932.36
660.253	41865.92
660.604	41821.63
660.955	41559.03
661.306	41851
661.656	41611.69
662.007	41716.32
662.358	41546.38
662.708	41630.9
663.059	41552.93
663.409	41292.37
663.76	41649.65
664.11	41355.88
664.461	41537.34
664.811	41482.88
665.161	41507.06
665.511	41339.61
665.862	41474.97
666.212	41599.49
666.562	41574.85
666.912	41466.61
667.262	41466.16
667.612	41398.13
667.962	41410.34
668.312	41306.39
668.662	41603.78
669.011	41416.21
669.361	41460.73
669.711	41387.74
670.06	41291.02
670.41	41044.02
670.76	41049.9
671.109	41185.71
671.459	41170.57
671.808	41081.76
672.157	41115.2
672.507	40956.56
672.856	41019.16
673.205	41007.41
673.554	41047.18
673.904	40786.4
674.253	41130.8
674.602	40972.61
674.951	40471.61
675.3	40282.23
675.649	40857.36
675.998	40678.38
676.346	40754.54
676.695	40858.94
677.044	40622.34
677.393	40750.92
677.741	40721.99
678.09	40635.22
678.438	40570.81
678.787	40545.28
679.135	40659.62
679.484	40429.8
679.832	40559.29
680.181	40239.97
680.529	40430.7
680.877	40169.92
681.225	40148.68
681.573	40505.95
681.922	40147.55
682.27	40001.11
682.618	40118.39
682.966	39985.97
683.314	40132.63
683.661	39858.51
684.009	39628.69
684.357	39538.97
684.705	39594.79
685.053	39608.35
685.4	39588.92
685.748	39472.08
686.095	39402.03
686.443	39263.5
686.79	39175.37
687.138	39229.6
687.485	39202.03
687.832	38980.8
688.18	39124.75
688.527	38911.19
688.874	38818.32
689.221	38654.48
689.568	38590.3
689.915	38631.43
690.262	38480.47
690.609	38411.32
690.956	38293.58
691.303	38212.68
691.65	37964.78
691.997	38142.85
692.344	37812.92
692.69	37862.86
693.037	37900.6
693.383	37701.73
693.73	37848.17
694.077	37631
694.423	37546.71
694.769	37558.91
695.116	37425.36
695.462	37393.04
695.808	37283.44
696.155	37145.82
696.501	36867.41
696.847	36795.54
697.193	36627.19
697.539	36790.57
697.885	36500.64
698.231	36365.05
698.577	36323.24
698.923	36338.15
699.269	36055.45
699.614	35819.3
699.96	35888.9
700.306	35960.76
700.651	35858.39
700.997	35908.11
701.342	35748.79
701.688	35649.81
702.033	35525.75
702.379	35333.21
702.724	35335.02
703.069	35486.88
703.415	34977.74
703.76	35050.5
704.105	34971.18
704.45	34809.61
704.795	34468.83
705.14	34604.19
705.485	34584.53
705.83	34425.66
706.175	34427.02
706.52	34301.6
706.865	34272.9
707.209	34219.11
707.554	34150.42
707.899	34302.5
708.243	33946.35
708.588	33919.24
708.932	33758.56
709.277	33703.2
709.621	33727.83
709.966	33451.9
710.31	33603.76
710.654	33368.97
710.998	33443.32
711.342	33516.99
711.687	33313.83
712.031	33189.54
712.375	33033.16
712.719	33136.66
713.063	33079.71
713.407	33103.44
713.75	32878.13
714.094	32769.21
714.438	32662.55
714.782	32905.7
715.125	32752.26
715.469	32812.82
715.812	32562.89
716.156	32369.45
716.499	32374.87
716.843	32234.53
717.186	32197.7
717.53	32213.97
717.873	32290.13
718.216	32218.71
718.559	32093.52
718.902	31916.8
719.246	31913.19
719.589	31898.5
719.932	31771.95
720.275	31740.08
720.617	31749.12
720.96	31663.48
721.303	31542.12
721.646	31573.31
721.989	31368.79
722.331	31460.32
722.674	31234.56
723.016	31288.34
723.359	31308.23
723.701	31239.76
724.044	31025.98
724.386	30926.32
724.729	31083.83
725.071	30994.79
725.413	30948.69
725.755	30941.23
726.097	30865.76
726.439	30662.15
726.782	30622.82
727.124	30712.54
727.465	30581.02
727.807	30574.92
728.149	30624.41
728.491	30482.72
728.833	30386.45
729.175	30436.61
729.516	30366.56
729.858	30254.47
730.199	30306.22
730.541	30126.11
730.882	30133.12
731.224	30268.71
731.565	30094.7
731.906	30111.2
732.248	29940.81
732.589	29731.55
732.93	29716.86
733.271	29824.43
733.612	29894.48
733.953	29843.64
734.294	29640.48
734.635	29664.21
734.976	29733.13
735.317	29483.87
735.658	29549.86
735.999	29499.01
736.339	29467.6
736.68	29568.62
737.021	29303.54
737.361	29186.03
737.702	29375.63
738.042	29200.49
738.383	29074.62
738.723	29221.73
739.063	29038.01
739.404	29180.83
739.744	28987.39
740.084	28954.85
740.424	29013.6
740.764	28865.36
741.104	28959.82
741.444	28735.64
741.784	28708.75
742.124	28766.38
742.464	28676.89
742.804	28569.32
743.143	28698.36
743.483	28585.36
743.823	28358.48
744.162	28472.15
744.502	28352.83
744.841	28315.99
745.181	28555.53
745.52	28257.24
745.86	28292.26
746.199	28068.09
746.538	28127.3
746.877	28047.07
747.216	28009.33
747.556	27907.87
747.895	27969.34
748.234	27796.68
748.573	27821.09
748.911	27719.4
749.25	27650.47
749.589	27610.47
749.928	27647.08
750.267	27639.63
750.605	27551.04
750.944	27548.33
751.283	27516.24
751.621	27511.27
751.96	27321.89
752.298	27161.22
752.636	27257.26
752.975	27162.8
753.313	27014.11
753.651	27115.8
