Data from plate_ceramic_FLMS001491_081.txt Node
Date: Tue Feb 07 11:17:24 GMT 2017
User: dcchb
Spectrometer: FLMS00149
Trigger mode: 0
Integration Time (sec): 2.000000E-2
Scans to average: 10
Electric dark correction enabled: true
Nonlinearity correction enabled: false
Boxcar width: 0
XAxis mode: Wavelengths
Number of Pixels in Spectrum: 2048
>>>>>Begin Spectral Data<<<<<
341.393	-14.29
341.776	-14.29
342.16	-14.29
342.543	-56.78
342.927	-72.82
343.31	-83.67
343.693	-102.2
344.077	-61.52
344.46	-77.57
344.843	-59.26
345.226	-32.37
345.61	-9.55
345.993	-11.81
346.376	-1.64
346.759	9.66
347.142	23.67
347.525	47.4
347.908	70.22
348.291	75.65
348.674	99.15
349.057	113.84
349.44	133.27
349.823	153.61
350.206	157.68
350.588	198.58
350.971	222.99
351.354	235.87
351.737	261.86
352.119	285.13
352.502	284.46
352.884	305.02
353.267	303.89
353.65	318.13
354.032	333.04
354.414	335.08
354.797	322.42
355.179	334.85
355.562	338.47
355.944	335.75
356.326	354.51
356.709	349.99
357.091	361.52
357.473	360.16
357.855	336.21
358.238	366.49
358.62	359.03
359.002	362.87
359.384	357.45
359.766	349.54
360.148	365.36
360.53	365.13
360.912	355.64
361.294	354.28
361.676	347.96
362.057	317.22
362.439	349.99
362.821	356.32
363.203	354.74
363.584	354.51
363.966	375.98
364.348	351.12
364.729	345.25
365.111	344.34
365.493	350.44
365.874	362.87
366.256	333.49
366.637	347.73
367.019	347.96
367.4	347.73
367.781	357.22
368.163	341.86
368.544	359.26
368.925	359.93
369.306	385.02
369.688	357.45
370.069	365.81
370.45	344.12
370.831	347.96
371.212	371.46
371.593	362.65
371.974	342.76
372.355	361.52
372.736	381.63
373.117	355.64
373.498	383.44
373.879	376.88
374.26	362.19
374.641	366.26
375.021	365.81
375.402	367.17
375.783	384.57
376.163	388.86
376.544	392.25
376.925	400.84
377.305	376.2
377.686	376.43
378.066	397
378.447	381.63
378.827	386.37
379.208	414.62
379.588	410.78
379.968	402.42
380.349	402.64
380.729	397
381.109	402.87
381.489	416.66
381.87	422.98
382.25	407.62
382.63	427.5
383.01	433.15
383.39	412.59
383.77	438.12
384.15	436.54
384.53	434.51
384.91	449.65
385.29	443.55
385.67	440.84
386.049	470.67
386.429	452.36
386.809	444.9
387.189	447.62
387.568	451.68
387.948	468.63
388.328	476.77
388.707	452.36
389.087	465.02
389.466	480.61
389.846	490.55
390.225	504.79
390.605	496.2
390.984	495.07
391.363	512.92
391.743	522.19
392.122	497.11
392.501	494.85
392.881	526.03
393.26	511.57
393.639	523.77
394.018	547.5
394.397	557.67
394.776	538.69
395.155	547.5
395.534	536.2
395.913	563.09
396.292	541.4
396.671	555.41
397.05	557.67
397.429	561.06
397.808	564.45
398.186	590.66
398.565	579.59
398.944	599.25
399.323	586.82
399.701	584.56
400.08	593.83
400.458	611
400.837	625.69
401.215	634.96
401.594	636.54
401.972	607.16
402.351	646.25
402.729	625.24
403.107	652.36
403.486	652.36
403.864	686.03
404.242	647.84
404.62	687.84
404.999	701.85
405.377	701.62
405.755	688.29
406.133	719.25
406.511	695.29
406.889	739.59
407.267	726.03
407.645	748.85
408.023	750.43
408.401	764.9
408.779	775.06
409.156	751.34
409.534	801.96
409.912	800.83
410.29	793.82
410.667	820.49
411.045	822.75
411.422	817.32
411.8	841.05
412.178	838.34
412.555	876.98
412.933	869.07
413.31	897.32
413.687	904.1
414.065	915.4
414.442	907.04
414.819	931.67
415.197	933.7
415.574	933.48
415.951	955.85
416.328	962.86
416.705	950.2
417.082	956.98
417.46	994.49
417.837	996.75
418.214	964.21
418.591	1008.5
418.967	1020.26
419.344	1026.36
419.721	1058.67
420.098	1075.17
420.475	1058.9
420.852	1067.26
421.228	1069.52
421.605	1078.79
421.982	1110.65
422.358	1118.56
422.735	1118.11
423.111	1134.15
423.488	1140.25
423.864	1148.39
424.241	1161.04
424.617	1184.55
424.994	1166.69
425.37	1241.94
425.746	1205.11
426.123	1217.76
426.499	1242.17
426.875	1233.58
427.251	1304.54
427.627	1275.39
428.003	1293.24
428.379	1324.65
428.756	1354.71
429.132	1345.22
429.507	1383.41
429.883	1411.66
430.259	1441.49
430.635	1425.44
431.011	1422.96
431.387	1459.11
431.763	1472.22
432.138	1476.74
432.514	1525.78
432.89	1499.79
433.265	1548.83
433.641	1587.92
434.016	1566.91
434.392	1617.75
434.767	1642.39
435.143	1626.34
435.518	1635.83
435.894	1655.95
436.269	1694.14
436.644	1725.55
437.02	1724.64
437.395	1721.71
437.77	1739.78
438.145	1771.87
438.52	1792.21
438.895	1821.14
439.271	1823.85
439.646	1875.37
440.021	1884.19
440.395	1889.39
440.77	1846.22
441.145	1919.67
441.52	1923.06
441.895	1947.46
442.27	1961.02
442.645	1954.69
443.019	1960.12
443.394	1996.28
443.769	2037.18
444.143	2005.54
444.518	2072.88
444.892	2052.77
445.267	2040.34
445.641	2102.26
446.016	2112.88
446.39	2121.02
446.764	2089.15
447.139	2095.48
447.513	2138.87
447.887	2111.75
448.262	2192.43
448.636	2185.87
449.01	2208.7
449.384	2237.17
449.758	2253.9
450.132	2278.08
450.506	2273.33
450.88	2281.24
451.254	2308.36
451.628	2376.15
452.002	2363.27
452.376	2377.73
452.75	2399.43
453.123	2409.82
453.497	2478.3
453.871	2495.47
454.244	2514.91
454.618	2495.7
454.992	2624.28
455.365	2582.93
455.739	2625.86
456.112	2656.37
456.486	2710.83
456.859	2713.77
457.232	2760.55
457.606	2777.95
457.979	2822.92
458.352	2846.87
458.725	2897.72
459.099	2931.84
459.472	2985.85
459.845	3012.75
460.218	3046.19
460.591	3079.64
460.964	3084.16
461.337	3144.04
461.71	3203.02
462.083	3259.97
462.456	3262.68
462.829	3302.91
463.201	3335.22
463.574	3363.02
463.947	3385.84
464.32	3470.36
464.692	3501.55
465.065	3531.15
465.438	3565.05
465.81	3557.36
466.183	3658.15
466.555	3742.44
466.928	3756.45
467.3	3770.47
467.672	3859.28
468.045	3923.46
468.417	3916
468.789	3928.43
469.161	4007.75
469.534	4098.82
469.906	4134.75
470.278	4219.27
470.65	4252.49
471.022	4340.85
471.394	4483.44
471.766	4485.02
472.138	4509.2
472.51	4587.62
472.882	4654.74
473.253	4717.11
473.625	4848.63
473.997	4918.68
474.369	4930.66
474.74	4975.18
475.112	5054.73
475.484	5169.07
475.855	5251.78
476.227	5303.76
476.598	5412.91
476.97	5492
477.341	5588.05
477.713	5659.46
478.084	5706.46
478.455	5919.11
478.827	5952.56
479.198	6075.49
479.569	6174.24
479.94	6294.92
480.311	6346.44
480.682	6511.86
481.053	6610.84
481.424	6756.6
481.795	6786.21
482.166	6907.11
482.537	7003.6
482.908	7106.88
483.279	7209.02
483.65	7392.29
484.021	7500.54
484.391	7637.93
484.762	7636.8
485.133	7730.36
485.503	7874.76
485.874	8025.95
486.244	8063.46
486.615	8172.84
486.985	8297.58
487.356	8481.98
487.726	8614.41
488.097	8747.74
488.467	8804.68
488.837	8979.37
489.207	9100.95
489.578	9234.05
489.948	9326.48
490.318	9481.73
490.688	9553.14
491.058	9576.19
491.428	9759.91
491.798	9840.81
492.168	10056.4
492.538	10124.2
492.908	10198.77
493.278	10358.99
493.648	10349.28
494.017	10431.08
494.387	10640.34
494.757	10671.3
495.126	10850.05
495.496	10890.73
495.866	10942.25
496.235	11127.56
496.605	11242.81
496.974	11224.06
497.344	11340.21
497.713	11516.25
498.082	11529.81
498.452	11661.11
498.821	11709.69
499.19	11757.83
499.559	11875.79
499.928	11978.39
500.298	12019.06
500.667	12179.28
501.036	12189.68
501.405	12362.1
501.774	12406.17
502.143	12463.57
502.512	12540.18
502.88	12656.33
503.249	12701.76
503.618	12724.81
503.987	12890.9
504.356	13017.23
504.724	13063.78
505.093	13122.76
505.462	13161.18
505.83	13245.92
506.199	13475.75
506.567	13643.65
506.936	13519.81
507.304	13773.14
507.672	13822.63
508.041	13918.22
508.409	13988.05
508.777	14134.71
509.145	14102.62
509.514	14277.31
509.882	14364.99
510.25	14445.44
510.618	14536.74
510.986	14662.61
511.354	14787.13
511.722	14776.96
512.09	15037.97
512.458	15033.9
512.826	15179.88
513.193	15257.62
513.561	15280.45
513.929	15552.3
514.297	15638.63
514.664	15742.81
515.032	15930.15
515.4	16013.76
515.767	16033.65
516.135	16199.74
516.502	16030.26
516.869	16459.17
517.237	16516.8
517.604	16522.67
517.972	16713.18
518.339	16773.74
518.706	16866.62
519.073	16942.32
519.44	17136.44
519.808	17278.13
520.175	17310.22
520.542	17631.8
520.909	17727.84
521.276	17728.97
521.643	17942.52
522.009	18053.93
522.376	18103.65
522.743	18204.89
523.11	18439.01
523.477	18684.42
523.843	18765.55
524.21	18897.98
524.577	19139.33
524.943	19175.94
525.31	19344.97
525.676	19473.33
526.043	19551.75
526.409	19700.67
526.776	19952.64
527.142	19996.48
527.508	20217.27
527.874	20393.53
528.241	20446.19
528.607	20463.81
528.973	20765.73
529.339	20717.14
529.705	20919.17
530.071	21177.69
530.437	21149.44
530.803	21299.27
531.169	21449.1
531.535	21521.86
531.901	21590.34
532.267	21697.9
532.632	21845.7
532.998	21894.74
533.364	22178.57
533.73	22145.58
534.095	22335.18
534.461	22507.6
534.826	22599.58
535.192	22671.21
535.557	22880.92
535.923	22908.72
536.288	22892.22
536.653	23164.08
537.019	22955.72
537.384	23218.32
537.749	23353.91
538.114	23401.36
538.479	23478.65
538.845	23475.26
539.21	23575.37
539.575	23639.77
539.94	23880.22
540.305	23973.1
540.67	23990.27
541.034	24007
541.399	24298.06
541.764	24281.34
542.129	24319.76
542.494	24413.09
542.858	24529.92
543.223	24568.79
543.587	24738.05
543.952	24766.52
544.316	24813.08
544.681	24926.29
545.045	24958.16
545.41	25112.5
545.774	25156.57
546.138	25160.19
546.503	25411.48
546.867	25330.35
547.231	25679.95
547.595	25804.91
547.959	25858.02
548.324	25843.56
548.688	25978.02
549.052	26164.68
549.416	26234.51
549.779	26196.09
550.143	26187.5
550.507	26393.37
550.871	26540.04
551.235	26582.07
551.599	26725.79
551.962	26746.36
552.326	26863.87
552.689	27024.32
553.053	27112.22
553.417	27157.65
553.78	27484.42
554.143	27444.87
554.507	27614.58
554.87	27810.74
555.234	27824.97
555.597	27695.49
555.96	27918.76
556.323	28150.39
556.686	28211.41
557.05	28429.03
557.413	28504.28
557.776	28632.86
558.139	28767.55
558.502	28815.91
558.865	28869.92
559.228	29177.26
559.59	29299.51
559.953	29314.88
560.316	29624.48
560.679	29607.75
561.041	29768.65
561.404	29946.95
561.767	30278.7
562.129	30127.29
562.492	30434.17
562.854	30530.89
563.217	30539.48
563.579	30728.4
563.941	30730.21
564.304	30997.77
564.666	31162.97
565.028	31229.18
565.39	31495.39
565.753	31649.73
566.115	31663.97
566.477	31787.58
566.839	31890.63
567.201	32137.4
567.563	32192.77
567.925	32385.08
568.287	32434.34
568.648	32527.22
569.01	32749.59
569.372	32887.21
569.734	32775.58
570.095	33225.74
570.457	33222.8
570.819	33376.02
571.18	33295.57
571.542	33529.23
571.903	33654.88
572.265	33793.18
572.626	33870.24
572.987	33838.83
573.349	33987.52
573.71	34089.67
574.071	34197.69
574.432	34355.65
574.794	34568.75
575.155	34626.83
575.516	34467.29
575.877	34708.41
576.238	34800.61
576.599	35013.49
576.96	34999.25
577.32	35143.65
577.681	35148.4
578.042	35209.87
578.403	35217.55
578.763	35351.33
579.124	35439.46
579.485	35537.77
579.845	35675.16
580.206	35634.03
580.566	35476.52
580.927	35530.08
581.287	35713.58
581.648	35543.42
582.008	35726.24
582.368	35677.65
582.728	35849.17
583.089	35672.68
583.449	35833.35
583.809	35859.57
584.169	36017.08
584.529	35884.2
584.889	36194.25
585.249	35932.33
585.609	35959.22
585.969	36089.16
586.329	35985.44
586.688	36005.55
587.048	36091.42
587.408	36100.24
587.768	35869.73
588.127	35946.12
588.487	36002.61
588.846	36249.16
589.206	35973.46
589.565	36028.15
589.925	36149.73
590.284	36001.71
590.643	36119.67
591.003	36232.66
591.362	36258.88
591.721	36256.39
592.08	36193.57
592.44	36416.61
592.799	36473.11
593.158	36331.64
593.517	36411.42
593.876	36504.29
594.235	36337.07
594.593	36461.36
594.952	36388.37
595.311	36341.36
595.67	36590.17
596.029	36692.76
596.387	36719.2
596.746	36608.7
597.104	36497.97
597.463	36525.54
597.822	36715.14
598.18	36707.23
598.538	36493.45
598.897	36934.57
599.255	36526.67
599.613	37152.41
599.972	36766.43
600.33	36918.07
600.688	36778.64
601.046	36943.15
601.404	37077.39
601.762	37082.13
602.12	37239.87
602.478	37151.96
602.836	37086.43
603.194	36990.16
603.552	37067.67
603.91	36975.69
604.268	37286.87
604.625	36972.76
604.983	37371.84
605.341	37158.74
605.698	37463.37
606.056	37350.15
606.413	37405.29
606.771	37492.74
607.128	37612.97
607.485	37341.56
607.843	37559.41
608.2	37536.81
608.557	37652.96
608.914	37552.63
609.272	37697.48
609.629	37850.7
609.986	37988.55
610.343	37822.45
610.7	38119.17
611.057	38003.46
611.414	37962.34
611.771	37998.27
612.127	38168.43
612.484	38011.83
612.841	38326.62
613.198	38128.21
613.554	38087.08
613.911	38431.7
614.267	38418.37
614.624	38301.99
614.98	38461.31
615.337	38602.09
615.693	38626.27
616.05	38570.68
616.406	38741.3
616.762	38661.75
617.118	38478.93
617.475	38589.66
617.831	38676.44
618.187	38696.78
618.543	38909.43
618.899	38974.51
619.255	38790.79
619.611	38817
619.967	38943.78
620.323	38970.67
620.678	38913.27
621.034	38765.7
621.39	38840.5
621.746	38839.15
622.101	39388.06
622.457	38888.41
622.812	38905.59
623.168	39046.6
623.523	38967.51
623.879	39193.26
624.234	38859.26
624.589	38997.34
624.945	39087.96
625.3	39156.88
625.655	38981.52
626.01	38985.36
626.365	38962.53
626.72	38959.37
627.075	38996.21
627.43	39071.91
627.785	38926.6
628.14	38952.37
628.495	38908.07
628.85	38928.86
629.205	38809.09
629.559	39155.3
629.914	38885.93
630.269	38947.85
630.623	38846.15
630.978	38657.01
631.332	38835.31
631.687	38826.95
632.041	38646.16
632.396	38711.47
632.75	38682.99
633.104	38612.71
633.459	38639.61
633.813	38438.48
634.167	38486.84
634.521	38409.56
634.875	38471.93
635.229	38385.15
635.583	38191.93
635.937	38270.35
636.291	38136.79
636.645	38173.63
636.999	38088.66
637.352	38272.16
637.706	37920.08
638.06	38169.56
638.413	37986.97
638.767	37861.55
639.121	37907.87
639.474	37737.71
639.828	37679.18
640.181	37700.87
640.534	37813.19
640.888	37584.72
641.241	37506.98
641.594	37483.03
641.947	37687.09
642.301	37615
642.654	37511.5
643.007	37617.71
643.36	37442.12
643.713	37340.66
644.066	37436.7
644.419	37257.72
644.771	36897.73
645.124	36492.54
645.477	36539.77
645.83	36325.99
646.182	36245.09
646.535	36173.46
646.888	36308.37
647.24	35958.77
647.593	36249.84
647.945	36230.63
648.298	36081.03
648.65	35944.08
649.002	35869.96
649.355	35922.61
649.707	35887.36
650.059	35932.33
650.411	36301.59
650.763	36279.67
651.115	36597.85
651.467	36573.22
651.819	36547.23
652.171	36513.56
652.523	36452.54
652.875	36445.31
653.227	36216.39
653.578	36396.5
653.93	36384.52
654.282	36296.39
654.633	36209.84
654.985	36280.12
655.337	36265.43
655.688	36164.19
656.039	36339.78
656.391	36028.83
656.742	36034.02
657.094	36041.03
657.445	36168.94
657.796	36117.64
658.147	36049.17
658.498	36028.6
658.849	36100.24
659.2	35936.85
659.551	35780.47
659.902	35999.9
660.253	35812.11
660.604	35928.94
660.955	35662.28
661.306	35923.29
661.656	35720.59
662.007	35763.75
662.358	35763.75
662.708	35815.27
663.059	35682.17
663.409	35450.08
663.76	35788.16
664.11	35779.79
664.461	35782.28
664.811	35707.25
665.161	35780.02
665.511	35581.61
665.862	35716.74
666.212	35731.89
666.562	35662.73
666.912	35629.29
667.262	35583.41
667.612	35570.31
667.962	35577.09
668.312	35513.59
668.662	35603.3
669.011	35463.64
669.361	35483.08
669.711	35411.89
670.06	35401.27
670.41	35322.86
670.76	35285.8
671.109	35478.56
671.459	35322.18
671.808	35168.51
672.157	35218.23
672.507	35129.64
672.856	35118.12
673.205	35250.77
673.554	35126.48
673.904	35070.66
674.253	35330.54
674.602	35170.54
674.951	34782.76
675.3	34524.23
675.649	35079.7
675.998	34957.22
676.346	35027.95
676.695	35243.99
677.044	34816.66
677.393	34944.11
677.741	34933.04
678.09	34898.46
678.438	34737.34
678.787	34795.64
679.135	34779.59
679.484	34796.77
679.832	34779.82
680.181	34356.78
680.529	34709.99
680.877	34484.69
681.225	34335.09
681.573	34661.41
681.922	34288.31
682.27	34146.39
682.618	34357.23
682.966	34275.88
683.314	34274.52
683.661	34220.74
684.009	33980.97
684.357	33937.58
684.705	33871.82
685.053	33977.81
685.4	33822.11
685.748	33707.31
686.095	33688.55
686.443	33691.04
686.79	33455.56
687.138	33556.12
687.485	33481.32
687.832	33494.66
688.18	33416.24
688.527	33277.03
688.874	33216.02
689.221	33279.07
689.568	32978.51
689.915	32941
690.262	33004.05
690.609	32891.28
690.956	32888.12
691.303	32780.78
691.65	32667.11
691.997	32603.83
692.344	32508.24
692.69	32415.59
693.037	32559.54
693.383	32270.51
693.73	32334.69
694.077	32144.86
694.423	32209.94
694.769	32082.49
695.116	31924.3
695.462	31873.91
695.808	31699
696.155	31799.11
696.501	31472.56
696.847	31497.42
697.193	31310.31
697.539	31456.29
697.885	31228.05
698.231	31174.94
698.577	31147.83
698.923	30995.06
699.269	30935.4
699.614	30781.28
699.96	30779.93
700.306	30783.77
700.651	30529.54
700.997	30534.96
701.342	30483.89
701.688	30451.12
702.033	30260.16
702.379	30304.01
702.724	30226.27
703.069	30277.57
703.415	29897.01
703.76	29892.26
704.105	29910.8
704.45	29800.06
704.795	29626.74
705.14	29620.63
705.485	29587.19
705.83	29439.17
706.175	29614.53
706.52	29454.54
706.865	29283.47
707.209	29204.83
707.554	29213.86
707.899	29203.24
708.243	29032.17
708.588	29072.85
708.932	28757.61
709.277	28840.77
709.621	28881.67
709.966	28489.36
710.31	28619.76
710.654	28408.24
710.998	28453.43
711.342	28525.52
711.687	28356.71
712.031	28266.32
712.375	28214.34
712.719	28215.02
713.063	28118.75
713.407	28253.89
713.75	28066.1
714.094	27946.33
714.438	27953.56
714.782	28043.95
715.125	28007.34
715.469	27877.63
715.812	27596.28
716.156	27630.63
716.499	27624.75
716.843	27611.87
717.186	27439.45
717.53	27567.13
717.873	27393.8
718.216	27455.04
718.559	27218.21
718.902	27173.01
719.246	27202.17
719.589	27061.6
719.932	26968.27
720.275	26938.9
720.617	26897.32
720.96	26917.2
721.303	26917.2
721.646	26878.78
721.989	26733.7
722.331	26799.92
722.674	26695.51
723.016	26614.61
723.359	26567.83
723.701	26551.11
724.044	26425.01
724.386	26269.54
724.729	26390.44
725.071	26401.51
725.413	26331.91
725.755	26325.13
726.097	26202.42
726.439	26119.03
726.782	26128.52
727.124	26208.97
727.465	25973.72
727.807	25988.41
728.149	25898.47
728.491	25840.39
728.833	25825.48
729.175	25721.53
729.516	25753.62
729.858	25730.79
730.199	25713.62
730.541	25663.9
730.882	25634.98
731.224	25664.81
731.565	25609.21
731.906	25477.47
732.248	25581.64
732.589	25326.06
732.93	25398.82
733.271	25447.41
733.612	25379.16
733.953	25204.03
734.294	25262.33
734.635	25110.24
734.976	25340.29
735.317	25177.81
735.658	25110.47
735.999	25058.49
736.339	25009
736.68	24964.26
737.021	24928.33
737.361	24810.14
737.702	25050.58
738.042	24880.65
738.383	24803.13
738.723	24810.36
739.063	24764.72
739.404	24817.37
739.744	24773.3
740.084	24543.48
740.424	24592.52
740.764	24542.35
741.104	24595.91
741.444	24417.15
741.784	24394.33
742.124	24524.27
742.464	24370.83
742.804	24391.39
743.143	24347.78
743.483	24266.42
743.823	24157.05
744.162	24110.5
744.502	24151.85
744.841	24089.48
745.181	24157.73
745.52	23955.47
745.86	23985.75
746.199	23835.7
746.538	23886.77
746.877	23780.56
747.216	23837.73
747.556	23647.23
747.895	23735.82
748.234	23689.49
748.573	23564.75
748.911	23556.16
749.25	23638.64
749.589	23378.76
749.928	23533.34
750.267	23436.16
750.605	23280.69
750.944	23297.18
751.283	23215.15
751.621	23333.34
751.96	22994.59
752.298	23143.29
752.636	23164.53
752.975	22996.85
753.313	22912.79
753.651	23093.57
