Data from plate_porcelain_FLMS001491_015.txt Node
Date: Tue Feb 07 11:18:52 GMT 2017
User: dcchb
Spectrometer: FLMS00149
Trigger mode: 0
Integration Time (sec): 2.000000E-2
Scans to average: 10
Electric dark correction enabled: true
Nonlinearity correction enabled: false
Boxcar width: 0
XAxis mode: Wavelengths
Number of Pixels in Spectrum: 2048
>>>>>Begin Spectral Data<<<<<
341.393	3.05
341.776	3.05
342.16	3.05
342.543	-64.97
342.927	-77.63
343.31	-62.26
343.693	-68.36
344.077	-74.46
344.46	-73.11
344.843	-29.72
345.226	-44.63
345.61	-22.94
345.993	-9.38
346.376	-1.47
346.759	5.08
347.142	18.64
347.525	56.38
347.908	48.93
348.291	46.21
348.674	81.47
349.057	129.6
349.44	131.41
349.823	106.78
350.206	169.6
350.588	192.65
350.971	239.2
351.354	259.09
351.737	259.54
352.119	269.94
352.502	274.23
352.884	333.89
353.267	296.6
353.65	350.61
354.032	330.73
354.414	348.35
354.797	334.12
355.179	352.87
355.562	369.14
355.944	367.33
356.326	379.99
356.709	390.39
357.091	362.59
357.473	358.97
357.855	359.43
358.238	403.49
358.62	384.74
359.002	389.26
359.384	392.19
359.766	399.42
360.148	371.85
360.53	371.85
360.912	369.82
361.294	373.44
361.676	380.44
362.057	379.54
362.439	365.98
362.821	381.57
363.203	382.48
363.584	384.96
363.966	387.22
364.348	380.22
364.729	372.31
365.111	393.1
365.493	390.61
365.874	381.12
366.256	393.77
366.637	382.48
367.019	398.97
367.4	375.47
367.781	383.61
368.163	393.77
368.544	389.26
368.925	386.32
369.306	388.8
369.688	380.67
370.069	393.1
370.45	378.86
370.831	383.38
371.212	403.27
371.593	396.03
371.974	403.94
372.355	406.88
372.736	399.42
373.117	413.89
373.498	414.79
373.879	393.55
374.26	384.74
374.641	389.71
375.021	403.94
375.402	425.86
375.783	429.93
376.163	410.05
376.544	441.68
376.925	432.19
377.305	455.02
377.686	456.82
378.066	454.56
378.447	461.8
378.827	446.88
379.208	461.34
379.588	466.54
379.968	466.77
380.349	466.99
380.729	489.37
381.109	494.56
381.489	469.93
381.87	476.94
382.25	482.59
382.63	486.88
383.01	501.79
383.39	502.92
383.77	496.15
384.15	520.55
384.53	525.3
384.91	526.88
385.29	540.44
385.67	528.01
386.049	532.08
386.429	517.61
386.809	538.63
387.189	520.1
387.568	558.52
387.948	533.43
388.328	570.72
388.707	552.41
389.087	557.84
389.466	598.97
389.846	594.9
390.225	615.69
390.605	588.12
390.984	599.42
391.363	606.42
391.743	626.76
392.122	629.25
392.501	642.36
392.881	633.77
393.26	616.37
393.639	643.03
394.018	658.85
394.397	664.95
394.776	673.99
395.155	686.65
395.534	673.99
395.913	685.29
396.292	682.58
396.671	711.28
397.05	707.89
397.429	698.63
397.808	732.75
398.186	700.43
398.565	742.92
398.944	740.21
399.323	744.27
399.701	755.8
400.08	772.07
400.458	782.69
400.837	801.45
401.215	790.15
401.594	771.17
401.972	796.02
402.351	813.2
402.729	824.5
403.107	839.86
403.486	834.44
403.864	822.01
404.242	841.45
404.62	864.95
404.999	864.72
405.377	868.11
405.755	879.19
406.133	913.08
406.511	897.72
406.889	939.98
407.267	948.79
407.645	958.51
408.023	961.9
408.401	958.73
408.779	985.17
409.156	1002.35
409.534	994.21
409.912	1016.13
410.29	1041.67
410.667	1063.36
411.045	1086.41
411.422	1078.73
411.8	1100.88
412.178	1082.57
412.555	1106.98
412.933	1128.22
413.31	1146.75
413.687	1160.99
414.065	1173.42
414.442	1179.97
414.819	1221.78
415.197	1217.71
415.574	1259.06
415.951	1231.72
416.328	1259.74
416.705	1257.26
417.082	1266.29
417.46	1271.94
417.837	1341.09
418.214	1322.56
418.591	1349.46
418.967	1345.84
419.344	1373.64
419.721	1367.99
420.098	1355.78
420.475	1399.85
420.852	1412.05
421.228	1413.86
421.605	1432.62
421.982	1463.13
422.358	1457.02
422.735	1510.13
423.111	1492.96
423.488	1521.65
423.864	1513.07
424.241	1589
424.617	1556.91
424.994	1593.52
425.37	1589.22
425.746	1613.86
426.123	1632.16
426.499	1645.72
426.875	1696.34
427.251	1691.37
427.627	1727.75
428.003	1767.07
428.379	1759.84
428.756	1805.04
429.132	1791.7
429.507	1851.36
429.883	1853.17
430.259	1923.45
430.635	1927.75
431.011	1895.2
431.387	1957.8
431.763	1995.77
432.138	2020.4
432.514	2053.39
432.89	2053.17
433.265	2090.68
433.641	2141.07
434.016	2163.45
434.392	2176.78
434.767	2216.78
435.143	2208.42
435.518	2267.85
435.894	2279.83
436.269	2297.91
436.644	2361.63
437.02	2369.99
437.395	2361.63
437.77	2398.69
438.145	2436.66
438.52	2477.79
438.895	2471.69
439.271	2511.46
439.646	2586.03
440.021	2537.9
440.395	2572.47
440.77	2537
441.145	2589.65
441.52	2680.72
441.895	2623.09
442.27	2718.91
442.645	2687.95
443.019	2718.23
443.394	2712.81
443.769	2787.84
444.143	2737.67
444.518	2828.74
444.892	2798.23
445.267	2785.58
445.641	2808.85
446.016	2847.72
446.39	2912.13
446.764	2917.78
447.139	2903.09
447.513	2975.4
447.887	2927.95
448.262	2982.63
448.636	3017.66
449.01	3029.19
449.384	3093.82
449.758	3120.93
450.132	3173.36
450.506	3148.73
450.88	3187.6
451.254	3198.67
451.628	3200.48
452.002	3286.58
452.376	3267.6
452.75	3308.5
453.123	3345.79
453.497	3439.34
453.871	3486.35
454.244	3531.32
454.618	3549.62
454.992	3592.11
455.365	3608.15
455.739	3652.22
456.112	3699.9
456.486	3751.65
456.859	3815.15
457.232	3856.06
457.606	3856.96
457.979	3903.29
458.352	3992.55
458.725	4040.68
459.099	4044.75
459.472	4176.5
459.845	4256.72
460.218	4228.02
460.591	4278.87
460.964	4298.98
461.337	4421.47
461.71	4443.16
462.083	4525.19
462.456	4519.77
462.829	4577.85
463.201	4636.15
463.574	4670.5
463.947	4761.34
464.32	4833.88
464.692	4857.84
465.065	4931.96
465.438	4967.67
465.81	5041.56
466.183	5102.13
466.555	5216.02
466.928	5272.74
467.3	5274.32
467.672	5357.49
468.045	5553.64
468.417	5566.97
468.789	5520.42
469.161	5618.95
469.534	5689.68
469.906	5863.91
470.278	5921.77
470.65	5967.41
471.022	6084.25
471.394	6176.22
471.766	6231.81
472.138	6286.28
472.51	6450.56
472.882	6549.55
473.253	6595.19
473.625	6695.76
473.997	6848.29
474.369	6912.02
474.74	6958.12
475.112	7123.54
475.484	7187.49
475.855	7398.11
476.227	7457.09
476.598	7655.05
476.97	7693.47
477.341	7887.36
477.713	8028.83
478.084	8007.81
478.455	8250.52
478.827	8356.5
479.198	8653.44
479.569	8567.8
479.94	8871.07
480.311	8942.93
480.682	9186.99
481.053	9313.09
481.424	9488.68
481.795	9582.23
482.166	9689.58
482.537	9809.8
482.908	10042.79
483.279	10161.43
483.65	10387.64
484.021	10625.82
484.391	10623.79
484.762	10765.03
485.133	10898.36
485.503	11106.94
485.874	11287.73
486.244	11369.31
486.615	11600.26
486.985	11777.66
487.356	11960.02
487.726	12064.2
488.097	12363.18
488.467	12403.4
488.837	12667.58
489.207	12713.68
489.578	13069.15
489.948	13120.22
490.318	13336.03
490.688	13379.2
491.058	13574.67
491.428	13815.57
491.798	13868.67
492.168	14185.73
492.538	14230.02
492.908	14345.27
493.278	14576.68
493.648	14640.86
494.017	14814.64
494.387	14975.76
494.757	15034.29
495.126	15254.18
495.496	15352.25
495.866	15493.94
496.235	15667.95
496.605	15775.29
496.974	15970.54
497.344	16038.56
497.713	16072.23
498.082	16275.39
498.452	16394.48
498.821	16526.01
499.19	16627.47
499.559	16774.14
499.928	16935.03
500.298	17060.23
500.667	17174.12
501.036	17161.7
501.405	17328.7
501.774	17463.38
502.143	17558.97
502.512	17604.4
502.88	17866.76
503.249	17900.21
503.618	18041.45
503.987	18112.41
504.356	18336.35
504.724	18452.74
505.093	18494.54
505.462	18591.94
505.83	18742.9
506.199	18958.71
506.567	19185.6
506.936	19080.97
507.304	19294.75
507.672	19366.16
508.041	19565.47
508.409	19682.31
508.777	19897.67
509.145	19986.03
509.514	20039.13
509.882	20292.23
510.25	20238
510.618	20458.11
510.986	20581.72
511.354	20749.17
511.722	21001.37
512.09	21200.46
512.458	21162.27
512.826	21355.26
513.193	21490.62
513.561	21624.4
513.929	21799.99
514.297	22036.82
514.664	22136.03
515.032	22275.01
515.4	22338.51
515.767	22550.48
516.135	22662.79
516.502	22621.44
516.869	23034.31
517.237	23162.44
517.604	23137.13
517.972	23492.6
518.339	23587.74
518.706	23784.57
519.073	23892.37
519.44	23867.73
519.808	24363.09
520.175	24312.02
520.542	24638.34
520.909	24743.19
521.276	24797.88
521.643	25171.43
522.009	25346.11
522.376	25530.74
522.743	25609.16
523.11	25920.56
523.477	26132.76
523.843	26293.88
524.21	26586.76
524.577	26826.75
524.943	26935
525.31	27086.86
525.676	27346.06
526.043	27545.83
526.409	27687.75
526.776	27927.97
527.142	28145.36
527.508	28208.18
527.874	28561.4
528.241	28633.48
528.607	28864.66
528.973	28952.35
529.339	28997.99
529.705	29295.61
530.071	29649.73
530.437	29780.12
530.803	30007.46
531.169	30107.57
531.535	30157.74
531.901	30277.06
532.267	30343.04
532.632	30651.96
532.998	30827.78
533.364	30938.06
533.73	31035.91
534.095	31314.54
534.461	31363.81
534.826	31641.77
535.192	31757.02
535.557	31943.68
535.923	31992.04
536.288	32129.66
536.653	32302.99
537.019	32268.87
537.384	32420.5
537.749	32612.59
538.114	32686.94
538.479	32716.54
538.845	32933.26
539.21	32879.47
539.575	33139.58
539.94	33386.81
540.305	33467.03
540.67	33349.74
541.034	33601.04
541.399	33741.6
541.764	33868.15
542.129	34013
542.494	34050.52
542.858	34288.02
543.223	34349.72
543.587	34525.98
543.952	34528.7
544.316	34666.32
544.681	34550.39
545.045	34862.93
545.41	35025.63
545.774	35204.39
546.138	35197.15
546.503	35398.28
546.867	35397.6
547.231	35660.42
547.595	35814.99
547.959	35794.88
548.324	36046.85
548.688	36061.76
549.052	36259.27
549.416	36328.2
549.779	36450.45
550.143	36495.42
550.507	36841.63
550.871	36903.78
551.235	36931.35
551.599	37313.71
551.962	37255.18
552.326	37370.43
552.689	37627.82
553.053	37520.03
553.417	37745.34
553.78	37982.62
554.143	37953.92
554.507	38269.84
554.87	38343.06
555.234	38609.49
555.597	38547.12
555.96	38667.34
556.323	38844.52
556.686	38990.95
557.05	39376.7
557.413	39473.88
557.776	39488.11
558.139	39866.18
558.502	39945.5
558.865	39913.87
559.228	40268.43
559.59	40431.14
559.953	40291.93
560.316	40942.77
560.679	40747.74
561.041	41118.35
561.404	41326.94
561.767	41620.49
562.129	41615.97
562.492	41950.2
562.854	41953.81
563.217	41963.3
563.579	42404.87
563.941	42521.48
564.304	42675.83
564.666	42832.21
565.028	42997.85
565.39	43104.52
565.753	43247.56
566.115	43348.35
566.477	43574.11
566.839	43695.46
567.201	44070.14
567.563	44059.52
567.925	44388.55
568.287	44329.57
568.648	44509.68
569.01	44699.05
569.372	44890.46
569.734	44892.72
570.095	45127.29
570.457	45332.48
570.819	45474.62
571.18	45373.38
571.542	45604.56
571.903	45653.38
572.265	45994.38
572.626	45926.14
572.987	46058.79
573.349	46303.08
573.71	46445.67
574.071	46490.64
574.432	46654.03
574.794	46855.15
575.155	46855.15
575.516	46801.82
575.877	46976.05
576.238	47085.2
576.599	47116.84
576.96	47143.05
577.32	47322.03
577.681	47397.74
578.042	47426.21
578.403	47573.33
578.763	47504.85
579.124	47686.09
579.485	47680.44
579.845	47820.78
580.206	47798.4
580.566	47821.68
580.927	47774.45
581.287	48008.57
581.648	47827.56
582.008	48078.85
582.368	48057.15
582.728	48108.9
583.089	47975.8
583.449	47976.48
583.809	48154.78
584.169	48251.73
584.529	48120.2
584.889	48500.08
585.249	48149.58
585.609	48214.44
585.969	48307.54
586.329	48207.88
586.688	48247.21
587.048	48374.21
587.408	48180.77
587.768	48291.5
588.127	48195.46
588.487	48121.79
588.846	48493.75
589.206	48160.88
589.565	48161.33
589.925	48371.27
590.284	48175.12
590.643	48333.76
591.003	48413.98
591.362	48496.92
591.721	48443.13
592.08	48461.66
592.44	48528.33
592.799	48537.82
593.158	48592.96
593.517	48502.34
593.876	48484.49
594.235	48485.39
594.593	48394.32
594.952	48598.61
595.311	48562.68
595.67	48595.67
596.029	48877.02
596.387	48745.05
596.746	48712.96
597.104	48742.79
597.463	48793.86
597.822	48805.38
598.18	48688.55
598.538	48716.12
598.897	48901.43
599.255	48741.66
599.613	49175.54
599.972	48910.01
600.33	49057.35
600.688	48874.31
601.046	48963.35
601.404	49107.07
601.762	49079.73
602.12	49230.23
602.478	49231.59
602.836	49194.75
603.194	49108.2
603.552	49191.59
603.91	48989.79
604.268	49204.24
604.625	49206.95
604.983	49520.84
605.341	49297.57
605.698	49564.01
606.056	49498.7
606.413	49455.31
606.771	49608.75
607.128	49627.73
607.485	49407.18
607.843	49475.65
608.2	49658.92
608.557	49824.79
608.914	49597.68
609.272	49822.76
609.629	49850.55
609.986	50005.13
610.343	49859.14
610.7	50122.64
611.057	50022.98
611.414	50069.76
611.771	50026.82
612.127	50150.21
612.484	50211.45
612.841	50242.63
613.198	50206.7
613.554	50149.53
613.911	50404.44
614.267	50456.87
614.624	50344.33
614.98	50418.67
615.337	50526.69
615.693	50485.57
616.05	50453.25
616.406	50631.32
616.762	50515.62
617.118	50470.2
617.475	50565.34
617.831	50648.72
618.187	50725.11
618.543	50757.42
618.899	50909.06
619.255	50812.11
619.611	50672
619.967	50913.58
620.323	50815.95
620.678	50706.12
621.034	50690.53
621.39	50760.13
621.746	50721.72
622.101	51092.55
622.457	50854.14
622.812	50697.99
623.168	51021.6
623.523	50926.68
623.879	51035.16
624.234	50785.67
624.589	50991.77
624.945	50890.07
625.3	50939.56
625.655	50960.58
626.01	50882.62
626.365	50957.19
626.72	50852.34
627.075	50861.6
627.43	50891.66
627.785	50793.58
628.14	50829.96
628.495	50922.62
628.85	50801.94
629.205	50653.7
629.559	50842.62
629.914	50656.41
630.269	50830.64
630.623	50551.55
630.978	50585.68
631.332	50759.91
631.687	50695.5
632.041	50559.46
632.396	50597.43
632.75	50397.21
633.104	50542.51
633.459	50456.41
633.813	50372.57
634.167	50341.16
634.521	50401.05
634.875	50350.88
635.229	50264.33
635.583	50140.49
635.937	50067.27
636.291	50104.11
636.645	50155.18
636.999	50057.33
637.352	50034.28
637.706	49855.3
638.06	49854.62
638.413	49857.11
638.767	49777.34
639.121	49814.4
639.474	49598.81
639.828	49637.9
640.181	49643.55
640.534	49689.43
640.888	49470.45
641.241	49416.44
641.594	49427.51
641.947	49501.18
642.301	49432.03
642.654	49390.23
643.007	49414.18
643.36	49301.87
643.713	49200.63
644.066	49400.4
644.419	49077.69
644.771	48763.8
645.124	48304.83
645.477	48337.83
645.83	48179.64
646.182	48021.22
646.535	47903.94
646.888	47949.81
647.24	47753.43
647.593	47938.74
647.945	47889.25
648.298	47611.52
648.65	47604.74
649.002	47509.37
649.355	47617.84
649.707	47505.53
650.059	47718.18
650.411	48013.31
650.763	48091.96
651.115	48380.54
651.467	48253.31
651.819	48300.31
652.171	48084.05
652.523	48111.84
652.875	48016.25
653.227	47876.59
653.578	48082.46
653.93	47938.74
654.282	47832.3
654.633	47758.86
654.985	47800.89
655.337	47884.28
655.688	47814.67
656.039	47884.73
656.391	47646.54
656.742	47685.19
657.094	47702.59
657.445	47710.04
657.796	47726.54
658.147	47658.75
658.498	47651.29
658.849	47760.21
659.2	47524.06
659.551	47564.29
659.902	47626.21
660.253	47499.66
660.604	47520.22
660.955	47330.17
661.306	47512.76
661.656	47424.85
662.007	47510.5
662.358	47281.81
662.708	47345.99
663.059	47256.95
663.409	47040.68
663.76	47386.44
664.11	47388.92
664.461	47496.72
664.811	47365.42
665.161	47274.35
665.511	47180.34
665.862	47240.23
666.212	47308.93
666.562	47311.86
666.912	47272.77
667.262	47206.56
667.612	47155.48
667.962	47301.69
668.312	47074.13
668.662	47248.81
669.011	47151.64
669.361	47086.11
669.711	47132.66
670.06	46946
670.41	46934.92
670.76	46818.99
671.109	47038.42
671.459	46907.35
671.808	46862.38
672.157	46865.55
672.507	46527.25
672.856	46632.11
673.205	46706.91
673.554	46853.34
673.904	46597.31
674.253	46735.38
674.602	46604.76
674.951	46110.09
675.3	45967.04
675.649	46585.33
675.998	46503.52
676.346	46478.89
676.695	46729.96
677.044	46223.98
677.393	46550.53
677.741	46454.71
678.09	46341.49
678.438	46288.84
678.787	46285
679.135	46290.2
679.484	46065.57
679.832	46196.86
680.181	45927.27
680.529	46017.89
680.877	45972.92
681.225	45907.61
681.573	46099.92
681.922	45733.37
682.27	45699.93
682.618	45619.48
682.966	45568.86
683.314	45644.34
683.661	45472.82
684.009	45235.99
684.357	45141.3
684.705	45101.75
685.053	45259.94
685.4	45129.55
685.748	44892.27
686.095	44987.63
686.443	44715.32
686.79	44741.54
687.138	44671.25
687.485	44743.12
687.832	44507.19
688.18	44681.42
688.527	44299.06
688.874	44389.45
689.221	44297.71
689.568	44156.01
689.915	44011.61
690.262	44132.51
690.609	43974.78
690.956	43737.49
691.303	43608.91
691.65	43461.57
691.997	43490.27
692.344	43233.1
692.69	43184.74
693.037	43182.93
693.383	42814.81
693.73	43011.86
694.077	42757.41
694.423	42864.97
694.769	42734.13
695.116	42662.04
695.462	42444.65
695.808	42304.09
696.155	42419.79
696.501	42015.28
696.847	42052.57
697.193	41905.45
697.539	41929.18
697.885	41667.72
698.231	41658.9
698.577	41614.39
698.923	41545.24
699.269	41309.76
699.614	40966.04
699.96	41148.86
700.306	40973.95
700.651	40939.38
700.997	40956.32
701.342	40799.94
701.688	40731.7
702.033	40604.02
702.379	40544.58
702.724	40398.82
703.069	40365.38
703.415	39979.63
703.76	40012.85
704.105	39964.49
704.45	39938.95
704.795	39670.71
705.14	39635.23
705.485	39569.24
705.83	39397.04
706.175	39371.28
706.52	39375.12
706.865	39244.73
707.209	39129.93
707.554	39008.58
707.899	39171.29
708.243	38954.79
708.588	38872.99
708.932	38514.13
709.277	38633.22
709.621	38536.95
709.966	38324.3
710.31	38413.11
710.654	38170.63
710.998	38135.83
711.342	37964.54
711.687	37926.57
712.031	37781.49
712.375	37779.68
712.719	37736.97
713.063	37663.53
713.407	37723.41
713.75	37464.66
714.094	37451.33
714.438	37293.82
714.782	37343.54
715.125	37262.64
715.469	37358.23
715.812	36959.14
716.156	36851.8
716.499	36879.37
716.843	36965.02
717.186	36728.64
717.53	36994.62
717.873	36737.45
718.216	36618.81
718.559	36439.15
718.902	36368.87
719.246	36344.69
719.589	36183.79
719.932	36112.84
720.275	35986.96
720.617	36009.34
720.96	36040.3
721.303	35981.09
721.646	35750.59
721.989	35671.04
722.331	35800.08
722.674	35608.22
723.016	35806.63
723.359	35583.81
723.701	35583.58
724.044	35339.75
724.386	35256.81
724.729	35262.01
725.071	35248.68
725.413	35191.96
725.755	35041.23
726.097	35104.95
726.439	34850.72
726.782	34899.53
727.124	35018.18
727.465	34733.21
727.807	34859.76
728.149	34676.49
728.491	34554.68
728.833	34630.39
729.175	34577.28
729.516	34406.21
729.858	34390.17
730.199	34427
730.541	34375.03
730.882	34227.46
731.224	34368.93
731.565	34140.46
731.906	34152.44
732.248	34226.11
732.589	33915.15
732.93	33832.9
733.271	33879.9
733.612	33922.16
733.953	33946.57
734.294	33630.87
734.635	33622.51
734.976	33648.27
735.317	33480.14
735.658	33495.05
735.999	33433.58
736.339	33379.57
736.68	33348.39
737.021	33288.28
737.361	33127.83
737.702	33311.78
738.042	33307.49
738.383	33073.37
738.723	33216.41
739.063	33093.25
739.404	33119.47
739.744	33025.01
740.084	32865.24
740.424	32745.24
740.764	32768.74
741.104	32860.72
741.444	32588.63
741.784	32394.06
742.124	32665.69
742.464	32635.87
742.804	32522.65
743.143	32371.47
743.483	32400.84
743.823	32303.9
744.162	32264.58
744.502	32199.49
744.841	32058.25
745.181	32249.89
745.52	31947.75
745.86	32046.28
746.199	31979.16
746.538	31816
746.877	31929.89
747.216	31828.43
747.556	31767.41
747.895	31683.12
748.234	31563.8
748.573	31566.06
748.911	31392.28
749.25	31464.37
749.589	31444.26
749.928	31372.4
750.267	31240.42
750.605	31104.61
750.944	30976.25
751.283	31035.46
751.621	31018.05
751.96	30907.32
752.298	30991.84
752.636	30953.88
752.975	30735.35
