Data from plate_porcelain_FLMS001491_014.txt Node
Date: Tue Feb 07 11:18:51 GMT 2017
User: dcchb
Spectrometer: FLMS00149
Trigger mode: 0
Integration Time (sec): 2.000000E-2
Scans to average: 10
Electric dark correction enabled: true
Nonlinearity correction enabled: false
Boxcar width: 0
XAxis mode: Wavelengths
Number of Pixels in Spectrum: 2048
>>>>>Begin Spectral Data<<<<<
341.393	-11.03
341.776	-11.03
342.16	-11.03
342.543	-41.76
342.927	-74.08
343.31	-91.03
343.693	-31.6
344.077	-58.04
344.46	-88.99
344.843	-55.55
345.226	-45.15
345.61	-54.19
345.993	-30.92
346.376	-3.57
346.759	7.73
347.142	30.55
347.525	64
347.908	52.24
348.291	78.01
348.674	101.73
349.057	124.78
349.44	108.06
349.823	144.67
350.206	167.5
350.588	196.87
350.971	212.69
351.354	258.79
351.737	269.87
352.119	275.74
352.502	285.68
352.884	309.19
353.267	317.1
353.65	310.54
354.032	303.54
354.414	339.02
354.797	338.34
355.179	362.74
355.562	338.79
355.944	374.72
356.326	374.27
356.709	372.69
357.091	363.42
357.473	383.31
357.855	368.85
358.238	383.54
358.62	380.6
359.002	379.24
359.384	395.51
359.766	365.46
360.148	361.61
360.53	359.81
360.912	379.69
361.294	389.41
361.676	379.24
362.057	389.86
362.439	397.32
362.821	367.49
363.203	382.86
363.584	385.79
363.966	378.79
364.348	386.47
364.729	376.53
365.111	387.15
365.493	373.59
365.874	382.18
366.256	382.41
366.637	359.35
367.019	363.65
367.4	388.05
367.781	392.8
368.163	403.2
368.544	396.64
368.925	384.44
369.306	361.61
369.688	397.77
370.069	388.96
370.45	405.46
370.831	386.92
371.212	379.47
371.593	401.39
371.974	405.46
372.355	406.59
372.736	396.64
373.117	385.57
373.498	409.07
373.879	412.23
374.26	408.62
374.641	410.88
375.021	385.57
375.402	398
375.783	427.6
376.163	443.65
376.544	432.12
376.925	458.11
377.305	457.88
377.686	458.56
378.066	438.45
378.447	431.9
378.827	455.85
379.208	453.14
379.588	476.19
379.968	443.65
380.349	464.89
380.729	470.31
381.109	461.5
381.489	482.97
381.87	479.58
382.25	484.55
382.63	469.86
383.01	495.62
383.39	493.81
383.77	520.71
384.15	496.07
384.53	499.92
384.91	504.44
385.29	527.49
385.67	517.54
386.049	527.94
386.429	537.88
386.809	539.69
387.189	539.46
387.568	541.5
387.948	543.08
388.328	559.35
388.707	558.9
389.087	575.62
389.466	580.37
389.846	581.5
390.225	580.37
390.605	598.67
390.984	584.66
391.363	601.16
391.743	632.34
392.122	599.8
392.501	613.59
392.881	628.27
393.26	647.03
393.639	629.63
394.018	666.01
394.397	653.81
394.776	641.16
395.155	683.19
395.534	685.22
395.913	691.32
396.292	688.39
396.671	690.42
397.05	698.33
397.429	705.33
397.808	706.01
398.186	716.63
398.565	747.59
398.944	725.45
399.323	758.21
399.701	760.93
400.08	756.18
400.458	767.48
400.837	774.71
401.215	773.13
401.594	779.68
401.972	812.68
402.351	809.06
402.729	790.3
403.107	818.1
403.486	836.86
403.864	835.73
404.242	840.02
404.62	856.07
404.999	867.82
405.377	860.58
405.755	875.5
406.133	874.6
406.511	911.2
406.889	909.85
407.267	930.87
407.645	927.7
408.023	927.93
408.401	962.5
408.779	964.08
409.156	979.45
409.534	1016.51
409.912	1024.42
410.29	1046.57
410.667	1043.18
411.045	1073.01
411.422	1065.55
411.8	1076.17
412.178	1095.61
412.555	1124.08
412.933	1143.97
413.31	1151.42
413.687	1171.54
414.065	1175.38
414.442	1162.27
414.819	1217.41
415.197	1225.55
415.574	1209.95
415.951	1232.1
416.328	1272.1
416.705	1250.4
417.082	1240.24
417.46	1288.37
417.837	1296.73
418.214	1321.14
418.591	1330.63
418.967	1352.1
419.344	1379.89
419.721	1407.24
420.098	1365.66
420.475	1439.33
420.852	1403.85
421.228	1417.18
421.605	1422.38
421.982	1460.12
422.358	1469.83
422.735	1475.48
423.111	1482.49
423.488	1521.13
423.864	1512.32
424.241	1554.8
424.617	1546.89
424.994	1601.36
425.37	1629.15
425.746	1617.4
426.123	1635.71
426.499	1660.79
426.875	1662.82
427.251	1671.41
427.627	1739.43
428.003	1750.96
428.379	1763.39
428.756	1782.59
429.132	1827.79
429.507	1828.02
429.883	1854
430.259	1890.61
430.635	1900.11
431.011	1929.48
431.387	1988.69
431.763	1996.83
432.138	2021.68
432.514	2055.81
432.89	2039.54
433.265	2131.74
433.641	2136.94
434.016	2178.29
434.392	2193.66
434.767	2224.39
435.143	2201.57
435.518	2237.95
435.894	2289.47
436.269	2321.56
436.644	2326.31
437.02	2352.52
437.395	2337.38
437.77	2389.81
438.145	2462.58
438.52	2466.19
438.895	2466.87
439.271	2513.65
439.646	2536.25
440.021	2576.92
440.395	2552.97
440.77	2564.49
441.145	2634.55
441.52	2673.42
441.895	2644.49
442.27	2672.74
442.645	2645.62
443.019	2712.29
443.394	2705.96
443.769	2757.71
444.143	2719.29
444.518	2800.42
444.892	2827.09
445.267	2832.51
445.641	2844.94
446.016	2886.29
446.39	2893.53
446.764	2916.35
447.139	2943.24
447.513	2949.34
447.887	2943.02
448.262	2977.59
448.636	3033.41
449.01	3067.08
449.384	3039.06
449.758	3115.44
450.132	3125.61
450.506	3163.8
450.88	3201.31
451.254	3179.39
451.628	3242.89
452.002	3311.37
452.376	3315.66
452.75	3352.5
453.123	3328.32
453.497	3422.33
453.871	3442.66
454.244	3526.96
454.618	3551.36
454.992	3587.97
455.365	3615.54
455.739	3710.23
456.112	3703.22
456.486	3705.03
456.859	3785.48
457.232	3866.61
457.606	3884.91
457.979	3877.45
458.352	3994.06
458.725	4069.77
459.099	4087.39
459.472	4141.63
459.845	4203.55
460.218	4172.59
460.591	4303.66
460.964	4319.93
461.337	4407.16
461.71	4439.47
462.083	4518.34
462.456	4561.73
462.829	4571.22
463.201	4670.65
463.574	4656.87
463.947	4728.51
464.32	4848.95
464.692	4889.18
465.065	4905.68
465.438	5006.92
465.81	5063.19
466.183	5130.75
466.555	5213.24
466.928	5279.68
467.3	5253.24
467.672	5344.53
468.045	5512.89
468.417	5450.29
468.789	5567.81
469.161	5639.67
469.534	5739.78
469.906	5819.1
470.278	5867.23
470.65	5905.2
471.022	6027.91
471.394	6153.33
471.766	6241.23
472.138	6325.53
472.51	6469.02
472.882	6540.21
473.253	6575.01
473.625	6697.27
473.997	6870.6
474.369	6841.22
474.74	6978.84
475.112	7091.16
475.484	7229.91
475.855	7361.66
476.227	7465.83
476.598	7632.61
476.97	7667.86
477.341	7956.9
477.713	7947.86
478.084	8067.4
478.455	8271.92
478.827	8372.93
479.198	8613.83
479.569	8601.62
479.94	8824.67
480.311	8999.58
480.682	9129.29
481.053	9296.07
481.424	9514.59
481.795	9530.41
482.166	9700.35
482.537	9886.56
482.908	10073.22
483.279	10183.5
483.65	10320
484.021	10610.16
484.391	10706.88
484.762	10768.8
485.133	10873.43
485.503	11036.59
485.874	11246.75
486.244	11358.16
486.615	11556.12
486.985	11721.77
487.356	11931.71
487.726	12104.13
488.097	12382.54
488.467	12372.6
488.837	12519.04
489.207	12768.75
489.578	12966.03
489.948	13129.64
490.318	13243.54
490.688	13309.75
491.058	13565.56
491.428	13685.78
491.798	13960.13
492.168	14186.56
492.538	14326.67
492.908	14357.86
493.278	14598.53
493.648	14629.26
494.017	14829.03
494.387	14998.97
494.757	15149.93
495.126	15317.83
495.496	15252.75
495.866	15510.14
496.235	15668.56
496.605	15723.92
496.974	15940.64
497.344	16083.24
497.713	16051.37
498.082	16252.04
498.452	16406.84
498.821	16513.05
499.19	16640.06
499.559	16764.35
499.928	16949.88
500.298	17000.05
500.667	17174.96
501.036	17154.17
501.405	17391.68
501.774	17382.64
502.143	17590.09
502.512	17720.48
502.88	17887.71
503.249	18013.58
503.618	17955.28
503.987	18039.57
504.356	18175.16
504.724	18379.22
505.093	18506.67
505.462	18601.14
505.83	18691.08
506.199	18956.15
506.567	19108.92
506.936	19049.94
507.304	19258.75
507.672	19397.72
508.041	19587.32
508.409	19650.15
508.777	19943.02
509.145	20009.23
509.514	20105.28
509.882	20231.83
510.25	20305.95
510.618	20623.23
510.986	20589.78
511.354	20729.67
511.722	20925.59
512.09	21137.34
512.458	21095.08
512.826	21427.95
513.193	21497.33
513.561	21467.95
513.929	21862.74
514.297	21933.48
514.664	22133.25
515.032	22243.75
515.4	22414.37
515.767	22561.94
516.135	22715.15
516.502	22693.91
516.869	23129.83
517.237	23115.82
517.604	23088.02
517.972	23474
518.339	23690.72
518.706	23670.15
519.073	23817.5
519.44	23952.41
519.808	24293.41
520.175	24424.71
520.542	24624.93
520.909	24877.58
521.276	24926.39
521.643	25115.54
522.009	25329.77
522.376	25527.73
522.743	25691.8
523.11	25936.76
523.477	26139.69
523.843	26294.04
524.21	26525.67
524.577	26766.34
524.943	26952.1
525.31	27116.62
525.676	27374.92
526.043	27520.22
526.409	27603.61
526.776	28035.69
527.142	28113.88
527.508	28311.39
527.874	28481.33
528.241	28741.89
528.607	28790.02
528.973	29092.16
529.339	28973.97
529.705	29346.16
530.071	29616.44
530.437	29770.56
530.803	29840.84
531.169	30117.44
531.535	30214.16
531.901	30169.19
532.267	30457.77
532.632	30613.47
532.998	30767.37
533.364	30943.41
533.73	31086.23
534.095	31374.81
534.461	31449.61
534.826	31620.68
535.192	31690.96
535.557	31960.56
535.923	31982.7
536.288	32040.33
536.653	32240.32
537.019	32275.35
537.384	32438.51
537.749	32520.32
538.114	32633.99
538.479	32721.44
538.845	32856.58
539.21	32973.19
539.575	33097.93
539.94	33204.14
540.305	33534.75
540.67	33387.19
541.034	33675.99
541.399	33729.78
541.764	33899.94
542.129	34120.05
542.494	34282.3
542.858	34315.98
543.223	34339.93
543.587	34547.38
543.952	34500.15
544.316	34714.38
544.681	34706.7
545.045	34992.12
545.41	35040.25
545.774	35130.42
546.138	35280.92
546.503	35313.69
546.867	35398.66
547.231	35777.18
547.595	35777.41
547.959	35970.4
548.324	35991.86
548.688	36104.18
549.052	36205.87
549.416	36282.48
549.779	36428.92
550.143	36461.91
550.507	36767.89
550.871	36944.16
551.235	36930.6
551.599	37218.05
551.962	37353.18
552.326	37451.71
552.689	37664.14
553.053	37604.03
553.417	37720.86
553.78	38179.38
554.143	38032.26
554.507	38231.58
554.87	38302.76
555.234	38702.08
555.597	38477
555.96	38858
556.323	38984.55
556.686	39043.76
557.05	39372.79
557.413	39406.69
557.776	39457.08
558.139	39982.27
558.502	39871.31
558.865	39920.57
559.228	40394.69
559.59	40383.39
559.953	40431.3
560.316	40790.16
560.679	40911.28
561.041	41059.53
561.404	41370.71
561.767	41652.51
562.129	41550.59
562.492	41957.13
562.854	41946.74
563.217	41927.75
563.579	42343.56
563.941	42509.66
564.304	42582.65
564.666	42805.92
565.028	43052.24
565.39	43234.84
565.753	43165.91
566.115	43423.08
566.477	43698.55
566.839	43767.48
567.201	44085.66
567.563	44137.41
567.925	44369.72
568.287	44431.19
568.648	44432.09
569.01	44600.23
569.372	44976.94
569.734	44799.09
570.095	45214.22
570.457	45352.97
570.819	45482.91
571.18	45363.37
571.542	45677.71
571.903	45799.52
572.265	45843.58
572.626	45971.04
572.987	45960.42
573.349	46224.14
573.71	46378.94
574.071	46485.6
574.432	46616.9
574.794	46794.52
575.155	46896.66
575.516	46713.16
575.877	46872.48
576.238	47070.9
576.599	47202.19
576.96	47222.53
577.32	47209.2
577.681	47416.42
578.042	47561.73
578.403	47519.47
578.763	47522.18
579.124	47623.42
579.485	47699.13
579.845	47936.41
580.206	47766.02
580.566	47712.01
580.927	47904.55
581.287	48126.01
581.648	47895.73
582.008	47933.47
582.368	47877.43
582.728	48078.78
583.089	48099.12
583.449	48072.68
583.809	48053.92
584.169	48245.1
584.529	48113.81
584.889	48425.44
585.249	48227.7
585.609	48068.16
585.969	48331.88
586.329	48204.42
586.688	48217.76
587.048	48252.33
587.408	48182.73
587.768	48264.08
588.127	48326.46
588.487	48207.14
588.846	48525.32
589.206	48066.58
589.565	48233.35
589.925	48360.58
590.284	48217.31
590.643	48385.44
591.003	48446.68
591.362	48512.44
591.721	48425.66
592.08	48488.03
592.44	48541.36
592.799	48631.31
593.158	48457.07
593.517	48512.44
593.876	48537.3
594.235	48462.04
594.593	48568.48
594.952	48700.46
595.311	48576.17
595.67	48494.59
596.029	48707.24
596.387	48848.25
596.746	48799.89
597.104	48646.67
597.463	48598.76
597.822	48977.29
598.18	48739.1
598.538	48799.66
598.897	49015.7
599.255	48667.46
599.613	49231.52
599.972	48900.9
600.33	49117.62
600.688	48911.52
601.046	49032.43
601.404	49196.71
601.762	49182.25
602.12	49291.63
602.478	49307.9
602.836	49252.76
603.194	49248.92
603.552	49190.16
603.91	49085.08
604.268	49226.09
604.625	49243.49
604.983	49396.03
605.341	49290.27
605.698	49570.26
606.056	49554.9
606.413	49473.09
606.771	49619.3
607.128	49589.7
607.485	49507.44
607.843	49556.03
608.2	49631.51
608.557	49823.14
608.914	49647.78
609.272	49820.43
609.629	49838.51
609.986	50030.37
610.343	49754.44
610.7	50184.71
611.057	50052.96
611.414	49958.5
611.771	49937.94
612.127	50189.91
612.484	50095.67
612.841	50337.48
613.198	50123.24
613.554	50293.64
613.911	50317.82
614.267	50360.3
614.624	50287.08
614.98	50303.13
615.337	50582.44
615.693	50488.43
616.05	50419.51
616.406	50684.36
616.762	50567.53
617.118	50552.16
617.475	50481.65
617.831	50646.85
618.187	50736.11
618.543	50776.33
618.899	50843.68
619.255	50831.25
619.611	50666.51
619.967	50822.43
620.323	50937.01
620.678	50781.31
621.034	50728.2
621.39	50758.71
621.746	50713.74
622.101	51162.09
622.457	50798.71
622.812	50855.2
623.168	50934.75
623.523	50932.49
623.879	51022.88
624.234	50768.88
624.589	50952.15
624.945	50919.83
625.3	50919.38
625.655	50800.97
626.01	50836.45
626.365	50987.85
626.72	50875.99
627.075	50790.12
627.43	50825.6
627.785	50842.77
628.14	50838.71
628.495	50897.91
628.85	50858.82
629.205	50703.34
629.559	50725.94
629.914	50734.3
630.269	50730.01
630.623	50579.28
630.978	50492.95
631.332	50632.16
631.687	50730.23
632.041	50596
632.396	50617.47
632.75	50506.06
633.104	50502.44
633.459	50340.41
633.813	50391.49
634.167	50393.29
634.521	50350.13
634.875	50386.97
635.229	50317.59
635.583	50001.44
635.937	50135.67
636.291	50065.39
636.645	50035.79
636.999	49991.5
637.352	50054.32
637.706	49796.25
638.06	50015.68
638.413	49793.99
638.767	49764.38
639.121	49843.7
639.474	49528.91
639.828	49642.35
640.181	49666.08
640.534	49603.03
640.888	49580.43
641.241	49370.72
641.594	49328.46
641.947	49458.63
642.301	49353.77
642.654	49428.12
643.007	49350.16
643.36	49374.11
643.713	49230.16
644.066	49407.78
644.419	49190.84
644.771	48722.6
645.124	48321.03
645.477	48245.33
645.83	48034.49
646.182	47889.18
646.535	47901.61
646.888	47965.33
647.24	47803.98
647.593	47918.1
647.945	47958.78
648.298	47729.63
648.65	47596.31
649.002	47469.53
649.355	47750.2
649.707	47524.67
650.059	47681.95
650.411	48001.49
650.763	48046.01
651.115	48413.91
651.467	48351.09
651.819	48268.15
652.171	48178.66
652.523	48113.35
652.875	48100.02
653.227	47880.14
653.578	48105.9
653.93	47918.78
654.282	47827.49
654.633	47726.02
654.985	47840.59
655.337	47918.33
655.688	47827.49
656.039	47974.37
656.391	47686.25
656.742	47770.09
657.094	47692.35
657.445	47743.42
657.796	47821.84
658.147	47726.47
658.498	47581.16
658.849	47749.3
659.2	47531
659.551	47432.02
659.902	47559.47
660.253	47479.25
660.604	47450.77
660.955	47413.94
661.306	47492.13
661.656	47459.81
662.007	47413.03
662.358	47380.04
662.708	47279.03
663.059	47338.23
663.409	47007.62
663.76	47437.21
664.11	47404.9
664.461	47421.85
664.811	47387.04
665.161	47338.01
665.511	47257.56
665.862	47170.33
666.212	47335.07
666.562	47419.81
666.912	47294.62
667.262	47120.39
667.612	47085.58
667.962	47181.17
668.312	47139.14
668.662	47302.98
669.011	47146.83
669.361	47062.08
669.711	47066.6
670.06	46877.68
670.41	46824.35
670.76	46720.62
671.109	47017.79
671.459	46818.02
671.808	46807.85
672.157	46834.52
672.507	46704.13
672.856	46656.67
673.205	46771.69
673.554	46768.98
673.904	46660.51
674.253	46870.9
674.602	46666.16
674.951	46063.69
675.3	45948.66
675.649	46597.91
675.998	46602.66
676.346	46532.38
676.695	46607.86
677.044	46232.5
677.393	46471.36
677.741	46537.12
678.09	46267.53
678.438	46204.48
678.787	46176.68
679.135	46366.51
679.484	46048.78
679.832	46166.06
680.181	45815.56
680.529	46209
680.877	46057.81
681.225	45837.03
681.573	46173.74
681.922	45672.51
682.27	45600.65
682.618	45680.2
682.966	45637.71
683.314	45603.59
683.661	45572.63
684.009	45290.6
684.357	45181.45
684.705	45102.36
685.053	45206.76
685.4	45088.57
685.748	44980.1
686.095	45044.73
686.443	44657.85
686.79	44664.86
687.138	44702.14
687.485	44856.26
687.832	44708.7
688.18	44661.01
688.527	44282.72
688.874	44187.81
689.221	44221.48
689.568	44067.13
689.915	43964.76
690.262	43968.38
690.609	43945.33
690.956	43738.1
691.303	43714.37
691.65	43400.26
691.997	43369.52
692.344	43276.19
692.69	43232.35
693.037	43276.19
693.383	42957.56
693.73	43118.91
694.077	42803.66
694.423	42807.05
694.769	42671.24
695.116	42551.47
695.462	42372.04
695.808	42461.52
696.155	42483.22
696.501	42227.18
696.847	42383.56
697.193	41662.45
697.539	41935.66
697.885	41638.95
698.231	41559.63
698.577	41697.48
698.923	41580.19
699.269	41444.15
699.614	41153.31
699.96	41046.65
700.306	41222.01
700.651	40992.41
700.997	40951.51
701.342	40719.65
701.688	40638.97
702.033	40542.03
702.379	40621.35
702.724	40437.62
703.069	40475.36
703.415	39977.97
703.76	39857.75
704.105	40046.45
704.45	39940.24
704.795	39677.87
705.14	39661.15
705.485	39493.24
705.83	39343.64
706.175	39416.18
706.52	39404.43
706.865	39228.84
707.209	39073.14
707.554	38944.1
707.899	39065.23
708.243	39028.39
708.588	38755.63
708.932	38556.32
709.277	38489.65
709.621	38608.07
709.966	38312.71
710.31	38407.62
710.654	38072.26
710.998	38158.59
711.342	38105.48
711.687	37948.65
712.031	37851.25
712.375	37669.79
712.719	37931.7
713.063	37729.9
713.407	37704.36
713.75	37486.74
714.094	37727.86
714.438	37440.64
714.782	37375.1
715.125	37129.46
715.469	37207.43
715.812	37039.29
716.156	36912.74
716.499	36941.67
716.843	36952.97
717.186	36820.77
717.53	36903.25
717.873	36707.78
718.216	36696.48
718.559	36562.92
718.902	36418.97
719.246	36446.99
719.589	36161.58
719.932	36105.08
720.275	36005.88
720.617	36065.99
720.96	36041.58
721.303	36063.73
721.646	36013.56
721.989	35827.8
722.331	35772.44
722.674	35541.93
723.016	35719.56
723.359	35627.35
723.701	35588.71
724.044	35399.56
724.386	35258.55
724.729	35440.92
725.071	35180.36
725.413	35108.27
725.755	35232.79
726.097	35001.83
726.439	35013.59
726.782	34940.37
727.124	35087.71
727.465	34797.77
727.807	34716.19
728.149	34650.43
728.491	34656.31
728.833	34777.21
729.175	34546.25
729.516	34541.28
729.858	34454.73
730.199	34433.04
730.541	34480.94
730.882	34370.44
731.224	34355.3
731.565	34212.25
731.906	34240.27
732.248	34331.57
732.589	33918.92
732.93	33901.98
733.271	33828.31
733.612	33810.9
733.953	33878.02
734.294	33769.78
734.635	33665.37
734.976	33801.19
735.317	33414.98
735.658	33657.46
735.999	33496.34
736.339	33458.82
736.68	33461.76
737.021	33288.66
737.361	33131.37
737.702	33379.96
738.042	33126.85
738.383	33099.74
738.723	33179.96
739.063	33023.81
739.404	32994.66
739.744	32993.07
740.084	32807.09
740.424	32767.99
740.764	32854.77
741.104	32742.46
741.444	32583.82
741.784	32554.67
742.124	32677.83
742.464	32579.75
742.804	32514.22
743.143	32488.68
743.483	32421.79
743.823	32267.89
744.162	32111.97
744.502	32220.66
744.841	32128.92
745.181	32285.97
745.52	31934.34
745.86	32022.03
746.199	31880.33
746.538	31848.92
746.877	31988.35
747.216	31920.11
747.556	31801.24
747.895	31716.27
748.234	31607.12
748.573	31514.02
748.911	31526.9
749.25	31423.17
749.589	31349.05
749.928	31307.47
750.267	31418.43
750.605	31185.21
750.944	31208.71
751.283	30925.56
751.621	31150.41
751.96	30866.8
752.298	30725.56
752.636	30790.87
