Data from plate_porcelain_FLMS001491_002.txt Node
Date: Tue Feb 07 11:18:38 GMT 2017
User: dcchb
Spectrometer: FLMS00149
Trigger mode: 0
Integration Time (sec): 2.000000E-2
Scans to average: 10
Electric dark correction enabled: true
Nonlinearity correction enabled: false
Boxcar width: 0
XAxis mode: Wavelengths
Number of Pixels in Spectrum: 2048
>>>>>Begin Spectral Data<<<<<
341.393	-20.49
341.776	-20.49
342.16	-20.49
342.543	-49.87
342.927	-73.6
343.31	-60.72
343.693	-57.33
344.077	-50.55
344.46	-44.9
344.843	-59.36
345.226	-44
345.61	-45.58
345.993	-26.14
346.376	2.33
346.759	-6.03
347.142	19.05
347.525	30.35
347.908	57.47
348.291	89.79
348.674	92.5
349.057	103.12
349.44	117.58
349.823	164.36
350.206	162.55
350.588	213.62
350.971	261.31
351.354	248.2
351.737	278.03
352.119	280.06
352.502	275.77
352.884	301.53
353.267	321.64
353.65	334.3
354.032	347.41
354.414	361.42
354.797	366.39
355.179	365.48
355.562	368.42
355.944	372.04
356.326	391.7
356.709	379.04
357.091	401.64
357.473	405.94
357.855	374.98
358.238	398.25
358.62	411.59
359.002	403.45
359.384	396.22
359.766	397.12
360.148	403.9
360.53	392.6
360.912	384.69
361.294	399.61
361.676	409.55
362.057	400.74
362.439	405.26
362.821	397.35
363.203	391.47
363.584	397.8
363.966	364.13
364.348	414.75
364.729	390.57
365.111	388.99
365.493	393.51
365.874	406.61
366.256	394.64
366.637	395.31
367.019	400.29
367.4	389.21
367.781	415.65
368.163	383.79
368.544	412.72
368.925	412.72
369.306	437.8
369.688	401.64
370.069	425.6
370.45	391.25
370.831	408.42
371.212	407.29
371.593	437.35
371.974	427.86
372.355	414.3
372.736	425.14
373.117	427.18
373.498	438.48
373.879	427.63
374.26	417.91
374.641	413.39
375.021	429.89
375.402	429.89
375.783	459.72
376.163	479.15
376.544	474.41
376.925	460.17
377.305	487.06
377.686	468.53
378.066	444.13
378.447	462.21
378.827	480.51
379.208	488.65
379.588	505.14
379.968	499.04
380.349	499.94
380.729	505.59
381.109	500.85
381.489	512.37
381.87	516.44
382.25	492.49
382.63	499.72
383.01	530.45
383.39	523.45
383.77	534.07
384.15	559.38
384.53	543.79
384.91	542.2
385.29	571.81
385.67	548.08
386.049	566.84
386.429	588.76
386.809	579.94
387.189	591.02
387.568	594.18
387.948	592.15
388.328	579.94
388.707	592.6
389.087	611.13
389.466	640.96
389.846	633.5
390.225	644.12
390.605	648.42
390.984	660.84
391.363	678.02
391.743	683.67
392.122	659.49
392.501	678.92
392.881	704.68
393.26	693.84
393.639	694.97
394.018	740.16
394.397	706.27
394.776	724.35
395.155	733.84
395.534	733.38
395.913	744.01
396.292	748.98
396.671	726.15
397.05	779.49
397.429	781.97
397.808	796.43
398.186	799.82
398.565	798.69
398.944	797.11
399.323	794.4
399.701	806.38
400.08	811.35
400.458	842.08
400.837	853.83
401.215	853.16
401.594	845.7
401.972	884.34
402.351	875.3
402.729	905.58
403.107	920.27
403.486	927.5
403.864	919.82
404.242	941.74
404.62	959.37
404.999	975.41
405.377	953.49
405.755	970.89
406.133	991.91
406.511	1011.12
406.889	1024.22
407.267	1042.53
407.645	1034.62
408.023	1055.41
408.401	1090.89
408.779	1097.22
409.156	1100.15
409.534	1137.44
409.912	1149.87
410.29	1168.18
410.667	1168.4
411.045	1178.57
411.422	1210.66
411.8	1203.88
412.178	1260.38
412.555	1233.26
412.933	1291.11
413.31	1288.62
413.687	1331.56
414.065	1331.34
414.442	1349.87
414.819	1339.92
415.197	1365.01
415.574	1370.43
415.951	1425.57
416.328	1421.5
416.705	1420.15
417.082	1466.47
417.46	1468.51
417.837	1489.75
418.214	1502.63
418.591	1520.71
418.967	1511.67
419.344	1524.32
419.721	1541.27
420.098	1548.73
420.475	1580.14
420.852	1616.3
421.228	1609.07
421.605	1607.03
421.982	1645.45
422.358	1693.59
422.735	1712.79
423.111	1718.22
423.488	1734.49
423.864	1746.24
424.241	1757.09
424.617	1788.05
424.994	1808.38
425.37	1800.48
425.746	1829.63
426.123	1887.93
426.499	1850.87
426.875	1925.67
427.251	1968.15
427.627	1995.95
428.003	2005.22
428.379	2051.09
428.756	2065.33
429.132	2108.04
429.507	2113.24
429.883	2135.83
430.259	2175.61
430.635	2216.51
431.011	2215.61
431.387	2250.86
431.763	2290.86
432.138	2320.46
432.514	2374.25
432.89	2375.83
433.265	2435.03
433.641	2470.97
434.016	2506.67
434.392	2531.98
434.767	2582.83
435.143	2579.21
435.518	2585.99
435.894	2644.97
436.269	2689.72
436.644	2743.28
437.02	2736.04
437.395	2758.64
437.77	2807
438.145	2844.74
438.52	2886.1
438.895	2891.07
439.271	2919.09
439.646	2975.13
440.021	2981.91
440.395	3036.83
440.77	2981.24
441.145	3072.53
441.52	3110.27
441.895	3108.24
442.27	3144.17
442.645	3139.2
443.019	3191.63
443.394	3190.72
443.769	3251.28
444.143	3199.31
444.518	3264.84
444.892	3289.93
445.267	3305.52
445.641	3336.25
446.016	3390.72
446.39	3430.71
446.764	3443.14
447.139	3411.51
447.513	3476.36
447.887	3488.79
448.262	3519.07
448.636	3570.37
449.01	3624.16
449.384	3638.62
449.758	3679.75
450.132	3707.09
450.506	3745.73
450.88	3785.73
451.254	3746.64
451.628	3878.39
452.002	3867.99
452.376	3881.55
452.75	3945.28
453.123	4028.67
453.497	4056.46
453.871	4080.42
454.244	4120.64
454.618	4214.65
454.992	4260.07
455.365	4295.1
455.739	4401.76
456.112	4387.3
456.486	4463.68
456.859	4493.06
457.232	4578.26
457.606	4610.8
457.979	4705.48
458.352	4727.86
458.725	4838.81
459.099	4849.43
459.472	4911.35
459.845	5010.33
460.218	5053.95
460.591	5098.02
460.964	5150.67
461.337	5249.42
461.71	5347.27
462.083	5396.09
462.456	5404
462.829	5451.23
463.201	5568.06
463.574	5615.74
463.947	5665.46
464.32	5833.36
464.692	5887.83
465.065	5897.77
465.438	5972.57
465.81	6070.65
466.183	6126.01
466.555	6300.02
466.928	6299.79
467.3	6290.75
467.672	6446.91
468.045	6628.82
468.417	6612.55
468.789	6667.92
469.161	6732.32
469.534	6849.83
469.906	7067.23
470.278	7038.08
470.65	7160.56
471.022	7325.53
471.394	7484.39
471.766	7478.07
472.138	7649.59
472.51	7768.91
472.882	7940.2
473.253	8025.17
473.625	8127.77
473.997	8263.58
474.369	8385.39
474.74	8486.4
475.112	8629.9
475.484	8764.81
475.855	8957.58
476.227	9043
476.598	9278.47
476.97	9377.9
477.341	9597.56
477.713	9763.43
478.084	9741.51
478.455	10068.73
478.827	10139.69
479.198	10499.46
479.569	10476.86
479.94	10761.14
480.311	10940.8
480.682	11119.55
481.053	11321.13
481.424	11555.02
481.795	11684.74
482.166	11863.04
482.537	11969.93
482.908	12263.03
483.279	12388.67
483.65	12564.49
484.021	12963.57
484.391	12979.62
484.762	13146.17
485.133	13322.66
485.503	13514.74
485.874	13734.4
486.244	13898.69
486.615	14259.81
486.985	14338.45
487.356	14579.57
487.726	14761.26
488.097	15082.16
488.467	15171.88
488.837	15471.3
489.207	15657.51
489.578	15920.56
489.948	15969.59
490.318	16306.99
490.688	16350.38
491.058	16548.11
491.428	16871.49
491.798	17004.14
492.168	17379.05
492.538	17457.46
492.908	17559.83
493.278	17836.66
493.648	18027.62
494.017	18148.97
494.387	18325.24
494.757	18534.5
495.126	18698.11
495.496	18767.71
495.866	18992.79
496.235	19120.7
496.605	19363.4
496.974	19582.83
497.344	19670.06
497.713	19794.58
498.082	19998.87
498.452	20239.99
498.821	20345.75
499.19	20430.27
499.559	20582.13
499.928	20729.7
500.298	20863.02
500.667	21129.68
501.036	21042
501.405	21277.03
501.774	21425.72
502.143	21644.47
502.512	21647.86
502.88	21922.43
503.249	21971.02
503.618	22259.82
503.987	22235.87
504.356	22439.71
504.724	22591.12
505.093	22665.92
505.462	22797.89
505.83	22998.34
506.199	23207.37
506.567	23497.31
506.936	23547.7
507.304	23855.49
507.672	23885.54
508.041	24077.86
508.409	24151.53
508.777	24346.32
509.145	24629.03
509.514	24772.3
509.882	24808.46
510.25	24982.46
510.618	25194.21
510.986	25237.83
511.354	25539.06
511.722	25839.39
512.09	25971.59
512.458	26031.02
512.826	26250.68
513.193	26324.58
513.561	26525.25
513.929	26816.09
514.297	27102.18
514.664	27227.6
515.032	27235.29
515.4	27701.94
515.767	27779.68
516.135	28001.59
516.502	27753.01
516.869	28430.74
517.237	28434.35
517.604	28435.26
517.972	28836.15
518.339	29078.18
518.706	29177.83
519.073	29334.44
519.44	29537.15
519.808	29871.6
520.175	29929
520.542	30279.27
520.909	30450.8
521.276	30572.83
521.643	30938.69
522.009	31137.78
522.376	31256.42
522.743	31544.1
523.11	31849.4
523.477	32227.92
523.843	32278.77
524.21	32759.66
524.577	32929.37
524.943	33249.14
525.31	33208.01
525.676	33635.57
526.043	33826.98
526.409	34072.62
526.776	34405.49
527.142	34440.07
527.508	34690.01
527.874	35047.28
528.241	35254.51
528.607	35318.92
528.973	35698.79
529.339	35643.65
529.705	35999.58
530.071	36457.42
530.437	36580.58
530.803	36769.05
531.169	36989.15
531.535	36986.89
531.901	37154.12
532.267	37312.99
532.632	37632.53
532.998	37698.06
533.364	38050.14
533.73	38200.42
534.095	38420.53
534.461	38624.59
534.826	38708.88
535.192	38971.93
535.557	39192.71
535.923	39239.72
536.288	39418.24
536.653	39709.53
537.019	39657.11
537.384	39758.12
537.749	39868.85
538.114	40063.42
538.479	40021.17
538.845	40420.93
539.21	40382.51
539.575	40591.55
539.94	40829.73
540.305	40890.97
540.67	41070.4
541.034	41263.39
541.399	41436.72
541.764	41394.46
542.129	41533.22
542.494	41625.64
542.858	41879.65
543.223	41909.48
543.587	42225.4
543.952	42283.48
544.316	42390.14
544.681	42382.46
545.045	42604.37
545.41	42839.62
545.774	42877.81
546.138	43100.86
546.503	43162.33
546.867	43160.74
547.231	43538.81
547.595	43622.43
547.959	43813.83
548.324	43879.14
548.688	44031.23
549.052	44134.28
549.416	44136.54
549.779	44266.48
550.143	44478.9
550.507	44723.87
550.871	44900.36
551.235	44982.16
551.599	45269.39
551.962	45251.08
552.326	45433.68
552.689	45592.77
553.053	45491.76
553.417	45788.02
553.78	46222.13
554.143	46080.44
554.507	46351.39
554.87	46481.56
555.234	46941.21
555.597	46644.27
555.96	46860.76
556.323	47112.5
556.686	47129.45
557.05	47541.42
557.413	47591.36
557.776	47637.01
558.139	47906.83
558.502	47881.52
558.865	48055.53
559.228	48441.06
559.59	48389.31
559.953	48560.6
560.316	48947.03
560.679	49031.78
561.041	49230.19
561.404	49416.17
561.767	49595.38
562.129	49466.11
562.492	49870.62
562.854	49937.29
563.217	49937.97
563.579	50135.7
563.941	50334.57
564.304	50601.23
564.666	50836.02
565.028	50838.51
565.39	50907.43
565.753	51194.2
566.115	51337.7
566.477	51438.27
566.839	51439.62
567.201	51668.32
567.563	51780.18
567.925	52023.34
568.287	51977.24
568.648	52029.21
569.01	52273.72
569.372	52423.55
569.734	52358.92
570.095	52621.51
570.457	52731.57
570.819	52794.84
571.18	52836.65
571.542	53005.46
571.903	53031.9
572.265	53133.81
572.626	53197.09
572.987	53262.4
573.349	53404.09
573.71	53492.68
574.071	53607.47
574.432	53657.19
574.794	53819.22
575.155	53864.64
575.516	53829.84
575.877	53949.16
576.238	53925.21
576.599	54108.03
576.96	54148.25
577.32	54164.3
577.681	54254.24
578.042	54341.47
578.403	54411.07
578.763	54388.47
579.124	54468.69
579.485	54575.36
579.845	54653.32
580.206	54574.68
580.566	54660.78
580.927	54633.21
581.287	54721.34
581.648	54612.87
582.008	54729.25
582.368	54716.37
582.728	54810.61
583.089	54724.51
583.449	54763.38
583.809	54858.06
584.169	54872.75
584.529	54728.8
584.889	55008.57
585.249	54799.99
585.609	54753.21
585.969	54888.8
586.329	54843.83
586.688	54870.94
587.048	54910.49
587.408	54823.26
587.768	54875.46
588.127	54887.44
588.487	54775.58
588.846	54971.96
589.206	54891.96
589.565	54861.45
589.925	54964.28
590.284	54938.29
590.643	55066.42
591.003	54967.44
591.362	55126.3
591.721	55072.07
592.08	55014.22
592.44	55244.04
592.799	55216.25
593.158	55032.75
593.517	55127.21
593.876	55138.51
594.235	55091.5
594.593	55075.01
594.952	55128.11
595.311	55060.09
595.67	55117.27
596.029	55323.36
596.387	55271.61
596.746	55324.94
597.104	55237.04
597.463	55207.66
597.822	55379.41
598.18	55305.96
598.538	55291.95
598.897	55401.55
599.255	55204.49
599.613	55628.21
599.972	55336.69
600.33	55422.57
600.688	55440.42
601.046	55563.81
601.404	55604.26
601.762	55539.85
602.12	55716.12
602.478	55639.51
602.836	55642
603.194	55607.42
603.552	55649
603.91	55570.59
604.268	55683.58
604.625	55606.07
604.983	55766.74
605.341	55653.07
605.698	55827.53
606.056	55827.08
606.413	55791.37
606.771	55839.96
607.128	55863.23
607.485	55854.87
607.843	55810.81
608.2	56056.22
608.557	56091.48
608.914	55948.2
609.272	56217.35
609.629	56131.48
609.986	56281.08
610.343	56100.29
610.7	56296.44
611.057	56249.21
611.414	56269.78
611.771	56292.38
612.127	56368.98
612.484	56343.45
612.841	56349.78
613.198	56341.87
613.554	56358.81
613.911	56522.65
614.267	56540.96
614.624	56506.83
614.98	56544.57
615.337	56680.84
615.693	56620.28
616.05	56643.55
616.406	56709.77
616.762	56655.76
617.118	56621.63
617.475	56678.13
617.831	56872.93
618.187	56719.48
618.543	56669.32
618.899	56915.41
619.255	56865.47
619.611	56816.66
619.967	56884.45
620.323	56919.25
620.678	56831.57
621.034	56848.75
621.39	56849.65
621.746	56858.91
622.101	57072.24
622.457	56830.44
622.812	56886.03
623.168	56967.84
623.523	56979.36
623.879	57044.45
624.234	56876.32
624.589	56968.74
624.945	56992.7
625.3	56879.03
625.655	56959.7
626.01	56974.17
626.365	56975.07
626.72	56949.53
627.075	56940.04
627.43	56927.39
627.785	56900.95
628.14	56921.06
628.495	56898.91
628.85	56838.8
629.205	56723.55
629.559	56868.86
629.914	56792.48
630.269	56863.43
630.623	56757.45
630.978	56641.29
631.332	56781.63
631.687	56823.21
632.041	56665.02
632.396	56762.65
632.75	56632.93
633.104	56705.92
633.459	56585.25
633.813	56598.36
634.167	56478.81
634.521	56531.69
634.875	56562.88
635.229	56515.42
635.583	56356.78
635.937	56339.38
636.291	56337.12
636.645	56331.92
636.999	56243.56
637.352	56283.11
637.706	56105.04
638.06	56208.08
638.413	56164.7
638.767	56108.65
639.121	56191.14
639.474	55964.47
639.828	55933.29
640.181	55998.15
640.534	55968.32
640.888	55879.96
641.241	55808.09
641.594	55902.1
641.947	55962.21
642.301	55789.11
642.654	55780.98
643.007	55904.59
643.36	55751.37
643.713	55747.53
644.066	55745.27
644.419	55615.33
644.771	55428.67
645.124	55161.78
645.477	55138.06
645.83	54937.61
646.182	54789.59
646.535	54757.95
646.888	54773.55
647.24	54675.24
647.593	54761.57
647.945	54769.7
648.298	54548.47
648.65	54470.05
649.002	54376.72
649.355	54501.91
649.707	54384.63
650.059	54569.94
650.411	54884.5
650.763	54918.63
651.115	55224.61
651.467	55129.47
651.819	55012.64
652.171	54936.93
652.523	54862.13
652.875	54906.2
653.227	54748.46
653.578	54876.14
653.93	54787.56
654.282	54671.18
654.633	54580.78
654.985	54759.31
655.337	54693.32
655.688	54679.08
656.039	54810.61
656.391	54569.48
656.742	54677.73
657.094	54680.21
657.445	54782.36
657.796	54626.2
658.147	54584.62
658.498	54519.99
658.849	54626.66
659.2	54492.65
659.551	54492.65
659.902	54609.03
660.253	54470.73
660.604	54510.5
660.955	54375.59
661.306	54496.72
661.656	54325.65
662.007	54370.62
662.358	54339.21
662.708	54350.96
663.059	54307.34
663.409	54088.37
663.76	54328.81
664.11	54251.3
664.461	54249.04
664.811	54250.17
665.161	54222.83
665.511	54264.86
665.862	54261.02
666.212	54358.19
666.562	54292.43
666.912	54242.03
667.262	54194.58
667.612	54256.72
667.962	54267.8
668.312	54158.87
668.662	54275.48
669.011	54212.2
669.361	54075.48
669.711	54141.47
670.06	54078.87
670.41	54009.5
670.76	53951.65
671.109	53970.18
671.459	54046.56
671.808	53929.95
672.157	54037.29
672.507	53738.32
672.856	53861.25
673.205	53921.36
673.554	53944.87
673.904	53858.77
674.253	53988.26
674.602	53808.37
674.951	53398.44
675.3	53307.6
675.649	53776.28
675.998	53768.6
676.346	53751.2
676.695	53864.42
677.044	53608.38
677.393	53692.9
677.741	53785.32
678.09	53606.34
678.438	53480.7
678.787	53602.5
679.135	53622.62
679.484	53370.87
679.832	53466.46
680.181	53295.39
680.529	53369.06
680.877	53299.23
681.225	53249.29
681.573	53492.68
681.922	53308.95
682.27	53141.72
682.618	53222.85
682.966	53102.86
683.314	53087.94
683.661	53013.37
684.009	52776.76
684.357	52789.19
684.705	52770.43
685.053	52766.14
685.4	52719.14
685.748	52549.88
686.095	52488.41
686.443	52445.02
686.79	52255.87
687.138	52444.79
687.485	52347.62
687.832	52267.17
688.18	52285.7
688.527	52037.12
688.874	52093.62
689.221	51898.14
689.568	51822.21
689.915	51823.79
690.262	51828.76
690.609	51789.44
690.956	51538.6
691.303	51528.89
691.65	51365.27
691.997	51330.7
692.344	51197.14
692.69	51214.32
693.037	51246.18
693.383	50926.64
693.73	51023.14
694.077	50857.26
694.423	50895.23
694.769	50638.97
695.116	50563.49
695.462	50574.11
695.808	50540.66
696.155	50519.87
696.501	50322.82
696.847	50309.03
697.193	50029.72
697.539	50072.88
697.885	49947.91
698.231	49730.51
698.577	49789.95
698.923	49815.03
699.269	49436.74
699.614	49243.52
699.96	49313.12
700.306	49366
700.651	49093.92
700.997	49166.46
701.342	48975.51
701.688	48861.84
702.033	48643.99
702.379	48716.08
702.724	48511.34
703.069	48652.12
703.415	48197
703.76	48244.45
704.105	48118.58
704.45	47978.7
704.795	47790.23
705.14	47750.68
705.485	47749.32
705.83	47541.87
706.175	47694.18
706.52	47561.76
706.865	47451.03
707.209	47278.83
707.554	47252.84
707.899	47188.21
708.243	47108.44
708.588	46950.02
708.932	46690.82
709.277	46776.02
709.621	46685.4
709.966	46530.82
710.31	46614.21
710.654	46181.91
710.998	46315.91
711.342	46379.64
711.687	46163.15
712.031	45873.21
712.375	45856.04
712.719	45899.88
713.063	45823.72
713.407	45962.03
713.75	45704.63
714.094	45696.04
714.438	45470.51
714.782	45488.59
715.125	45164.31
715.469	45402.49
715.812	45009.96
716.156	44973.8
716.499	44812.23
716.843	44912.56
717.186	44733.13
717.53	44783.53
717.873	44788.5
718.216	44712.12
718.559	44572.68
718.902	44323.88
719.246	44286.14
719.589	44386.47
719.932	44149.19
720.275	44212.47
720.617	44079.14
720.96	44028.07
721.303	43896.77
721.646	43954.85
721.989	43644.8
722.331	43781.07
722.674	43577
723.016	43628.98
723.359	43504.92
723.701	43542.2
724.044	43321.42
724.386	43112.38
724.729	43192.83
725.071	43104.7
725.413	43199.16
725.755	42998.04
726.097	42868.77
726.439	42639.4
726.782	42667.65
727.124	42893.41
727.465	42598.5
727.807	42591.95
728.149	42457.71
728.491	42395.79
728.833	42480.54
729.175	42393.08
729.516	42152.18
729.858	42145.4
730.199	42237.6
730.541	42171.17
730.882	42094.78
731.224	42073.99
731.565	41901.57
731.906	41804.4
732.248	41787.9
732.589	41732.98
732.93	41615.25
733.271	41446.66
733.612	41460.68
733.953	41536.83
734.294	41528.02
734.635	41273.79
734.976	41340.23
735.317	41162.6
735.658	41212.55
735.999	41080.35
736.339	40899.11
736.68	41079.67
737.021	40967.58
737.361	40721.49
737.702	40902.05
738.042	40824.31
738.383	40735.27
738.723	40803.07
739.063	40553.81
739.404	40453.47
739.744	40488.5
740.084	40327.6
740.424	40404.66
740.764	40190.65
741.104	40368.95
741.444	39982.97
741.784	40050.99
742.124	39940.94
742.464	39957.44
742.804	39750.21
743.143	39779.14
743.483	39749.08
743.823	39544.79
744.162	39531.69
744.502	39665.69
744.841	39382.09
745.181	39632.93
745.52	39438.13
745.86	39518.81
746.199	39284.46
746.538	39261.19
746.877	39317.68
747.216	39235.65
747.556	39053.73
747.895	39015.09
748.234	38807.19
748.573	38780.75
748.911	38634.99
749.25	38663.46
749.589	38526.06
749.928	38572.39
750.267	38571.49
750.605	38412.62
750.944	38174.89
751.283	38233.42
751.621	38188.67
751.96	38099.63
752.298	37962.46
752.636	38055.12
