Data from plate_ceramic_FLMS001491_063.txt Node
Date: Tue Feb 07 11:17:07 GMT 2017
User: dcchb
Spectrometer: FLMS00149
Trigger mode: 0
Integration Time (sec): 2.000000E-2
Scans to average: 10
Electric dark correction enabled: true
Nonlinearity correction enabled: false
Boxcar width: 0
XAxis mode: Wavelengths
Number of Pixels in Spectrum: 2048
>>>>>Begin Spectral Data<<<<<
341.393	-15.73
341.776	-15.73
342.16	-15.73
342.543	-51.44
342.927	-74.72
343.31	-62.96
343.693	-77.43
344.077	-68.84
344.46	-51.67
344.843	-64.32
345.226	-48.05
345.61	-36.52
345.993	-9.41
346.376	1.89
346.759	17.71
347.142	38.28
347.525	38.95
347.908	71.95
348.291	63.81
348.674	92.74
349.057	93.87
349.44	117.14
349.823	149.23
350.206	187.65
350.588	213.64
350.971	236.91
351.354	249.34
351.737	268.33
352.119	266.97
352.502	296.57
352.884	294.77
353.267	294.31
353.65	320.98
354.032	339.74
354.414	335.67
354.797	325.73
355.179	351.71
355.562	337.48
355.944	356.23
356.326	363.92
356.709	341.09
357.091	353.97
357.473	374.09
357.855	352.62
358.238	365.27
358.62	362.79
359.002	353.75
359.384	373.41
359.766	378.61
360.148	397.36
360.53	363.24
360.912	373.18
361.294	359.62
361.676	363.69
362.057	360.3
362.439	358.27
362.821	377.7
363.203	371.37
363.584	365.5
363.966	355.33
364.348	369.11
364.729	372.96
365.111	348.55
365.493	350.81
365.874	358.72
366.256	356.01
366.637	375.67
367.019	358.49
367.4	351.94
367.781	369.79
368.163	364.82
368.544	369.11
368.925	360.08
369.306	363.92
369.688	361.88
370.069	369.34
370.45	368.21
370.831	361.21
371.212	377.93
371.593	391.26
371.974	357.59
372.355	362.34
372.736	376.12
373.117	384.93
373.498	370.7
373.879	378.61
374.26	376.8
374.641	368.66
375.021	385.16
375.402	377.7
375.783	380.19
376.163	417.25
376.544	416.34
376.925	397.81
377.305	415.22
377.686	419.51
378.066	418.6
378.447	423.35
378.827	402.11
379.208	401.66
379.588	429.45
379.968	420.86
380.349	438.49
380.729	433.75
381.109	439.62
381.489	406.63
381.87	431.49
382.25	447.76
382.63	437.59
383.01	463.58
383.39	434.2
383.77	447.53
384.15	456.34
384.53	448.43
384.91	478.04
385.29	460.19
385.67	461.32
386.049	486.4
386.429	454.31
386.809	481.88
387.189	486.17
387.568	515.55
387.948	509.68
388.328	505.16
388.707	474.42
389.087	507.42
389.466	517.81
389.846	515.1
390.225	533.86
390.605	530.24
390.984	522.33
391.363	554.19
391.743	532.05
392.122	547.41
392.501	535.21
392.881	554.42
393.26	572.95
393.639	580.63
394.018	562.1
394.397	576.11
394.776	576.79
395.155	609.11
395.534	589.67
395.913	600.07
396.292	592.84
396.671	608.43
397.05	627.86
397.429	633.29
397.808	646.4
398.186	627.41
398.565	653.4
398.944	647.98
399.323	653.17
399.701	671.25
400.08	647.3
400.458	666.96
400.837	665.83
401.215	672.84
401.594	691.37
401.972	681.42
402.351	695.21
402.729	683.46
403.107	709.44
403.486	695.66
403.864	726.39
404.242	744.25
404.62	733.17
404.999	734.75
405.377	740.63
405.755	771.36
406.133	762.1
406.511	777.92
406.889	777.24
407.267	805.26
407.645	817.24
408.023	819.27
408.401	830.57
408.779	825.15
409.156	845.71
409.534	868.08
409.912	875.54
410.29	896.11
410.667	896.11
411.045	923.68
411.422	935.2
411.8	921.19
412.178	920.29
412.555	940.17
412.933	975.43
413.31	967.06
413.687	986.73
414.065	989.66
414.442	998.7
414.819	1030.34
415.197	1013.84
415.574	1059.27
415.951	1058.59
416.328	1067.63
416.705	1071.69
417.082	1079.6
417.46	1061.53
417.837	1094.29
418.214	1101.75
418.591	1134.74
418.967	1112.37
419.344	1153.73
419.721	1147.85
420.098	1164.12
420.475	1160.51
420.852	1194.18
421.228	1203.67
421.605	1207.96
421.982	1231.69
422.358	1249.09
422.735	1259.71
423.111	1255.87
423.488	1285.25
423.864	1313.95
424.241	1306.04
424.617	1315.3
424.994	1338.58
425.37	1353.5
425.746	1359.82
426.123	1369.99
426.499	1376.77
426.875	1417
427.251	1450.89
427.627	1485.24
428.003	1458.13
428.379	1509.42
428.756	1501.97
429.132	1514.85
429.507	1515.3
429.883	1590.55
430.259	1590.1
430.635	1600.72
431.011	1609.76
431.387	1649.53
431.763	1663.77
432.138	1687.72
432.514	1735.18
432.89	1717.78
433.265	1758
433.641	1789.42
434.016	1774.28
434.392	1837.1
434.767	1845.69
435.143	1856.99
435.518	1899.24
435.894	1903.31
436.269	1908.28
436.644	1928.85
437.02	1963.87
437.395	1998.45
437.77	1994.16
438.145	2016.3
438.52	2038.22
438.895	2079.13
439.271	2086.58
439.646	2106.92
440.021	2105.57
440.395	2141.72
440.77	2146.24
441.145	2166.13
441.52	2189.63
441.895	2253.13
442.27	2240.48
442.645	2216.52
443.019	2267.82
443.394	2302.85
443.769	2296.3
444.143	2288.61
444.518	2334.26
444.892	2334.26
445.267	2320.02
445.641	2352.79
446.016	2372.68
446.39	2401.38
446.764	2400.93
447.139	2414.03
447.513	2453.58
447.887	2463.75
448.262	2454.48
448.636	2509.4
449.01	2541.49
449.384	2552.79
449.758	2578.1
450.132	2587.36
450.506	2602.28
450.88	2601.37
451.254	2641.6
451.628	2680.24
452.002	2697.19
452.376	2691.54
452.75	2727.02
453.123	2791.88
453.497	2805.21
453.871	2859.67
454.244	2887.24
454.618	2913
454.992	2973.34
455.365	2961.14
455.739	3065.09
456.112	3078.87
456.486	3152.32
456.859	3150.06
457.232	3206.78
457.606	3202.03
457.979	3261.92
458.352	3286.1
458.725	3364.29
459.099	3397.74
459.472	3442.71
459.845	3483.61
460.218	3494.68
460.591	3541.01
460.964	3574.45
461.337	3642.7
461.71	3714.11
462.083	3766.99
462.456	3750.95
462.829	3738.07
463.201	3827.55
463.574	3873.2
463.947	3871.4
464.32	4038.62
464.692	4040.2
465.065	4075.91
465.438	4145.51
465.81	4173.53
466.183	4234.78
466.555	4326.98
466.928	4347.54
467.3	4340.08
467.672	4415.56
468.045	4566.29
468.417	4524.94
468.789	4602.68
469.161	4682.9
469.534	4726.51
469.906	4869.11
470.278	4903.01
470.65	4928.99
471.022	5019.16
471.394	5128.99
471.766	5144.58
472.138	5222.55
472.51	5329.66
472.882	5417.12
473.253	5473.61
473.625	5596.1
473.997	5703.44
474.369	5763.32
474.74	5748.41
475.112	5893.72
475.484	5927.16
475.855	6098.91
476.227	6159.02
476.598	6349.3
476.97	6397.2
477.341	6561.27
477.713	6594.26
478.084	6649.63
478.455	6873.12
478.827	6897.08
479.198	7099.56
479.569	7144.76
479.94	7375.71
480.311	7428.14
480.682	7633.33
481.053	7822.25
481.424	7894.34
481.795	7938.18
482.166	8024.51
482.537	8185.18
482.908	8343.82
483.279	8471.27
483.65	8677.6
484.021	8783.36
484.391	8864.94
484.762	9004.59
485.133	9047.08
485.503	9194.42
485.874	9369.78
486.244	9447.29
486.615	9736.33
486.985	9727.74
487.356	9967.96
487.726	9990.33
488.097	10206.37
488.467	10306.25
488.837	10483.42
489.207	10616.75
489.578	10817.2
489.948	10844.32
490.318	11012.9
490.688	11055.84
491.058	11275.49
491.428	11394.81
491.798	11503.29
492.168	11740.12
492.538	11772.43
492.908	12036.15
493.278	12169.93
493.648	12179.2
494.017	12371.28
494.387	12437.5
494.757	12542.13
495.126	12731.05
495.496	12764.49
495.866	12832.74
496.235	12990.93
496.605	13131.26
496.974	13177.59
497.344	13383.24
497.713	13348.66
498.082	13493.74
498.452	13678.6
498.821	13699.16
499.19	13818.03
499.559	13938.25
499.928	14047.62
500.298	14157
500.667	14300.5
501.036	14311.12
501.405	14453.49
501.774	14460.27
502.143	14629.08
502.512	14698.91
502.88	14778.45
503.249	14851.22
503.618	15030.88
503.987	15100.7
504.356	15267.48
504.724	15248.27
505.093	15380.92
505.462	15483.07
505.83	15651.65
506.199	15737.3
506.567	15957.41
506.936	15876.05
507.304	16194.24
507.672	16148.13
508.041	16311.52
508.409	16407.34
508.777	16602.36
509.145	16658.18
509.514	16770.27
509.882	16906.53
510.25	16922.35
510.618	17076.7
510.986	17200.08
511.354	17334.54
511.722	17556.46
512.09	17675.1
512.458	17621.77
512.826	17826.51
513.193	17940.86
513.561	18018.59
513.929	18181.53
514.297	18473.5
514.664	18548.52
515.032	18532.7
515.4	18781.96
515.767	18883.66
516.135	18962.07
516.502	18879.36
516.869	19308.05
517.237	19329.29
517.604	19373.59
517.972	19612.68
518.339	19804.54
518.706	19799.79
519.073	19932.89
519.44	20119.33
519.808	20437.29
520.175	20397.29
520.542	20745.53
520.909	20690.39
521.276	20800.44
521.643	21047.21
522.009	21190.71
522.376	21296.93
522.743	21383.7
523.11	21685.39
523.477	21961.77
523.843	22013.29
524.21	22175.77
524.577	22423.22
524.943	22657.12
525.31	22751.8
525.676	22942.53
526.043	23107.27
526.409	23208.29
526.776	23442.18
527.142	23590.65
527.508	23721.27
527.874	23915.61
528.241	24143.4
528.607	24151.09
528.973	24344.3
529.339	24487.12
529.705	24674.46
530.071	24857.74
530.437	24896.38
530.803	25100.67
531.169	25324.84
531.535	25259.53
531.901	25376.59
532.267	25477.83
532.632	25730.03
532.998	25832.4
533.364	25904.26
533.73	26143.58
534.095	26352.84
534.461	26457.24
534.826	26685.71
535.192	26709.66
535.557	26925.48
535.923	26838.93
536.288	27009.54
536.653	27185.36
537.019	27242.53
537.384	27355.07
537.749	27405.01
538.114	27535.18
538.479	27737.43
538.845	27692.92
539.21	27802.52
539.575	27924.1
539.94	28074.6
540.305	28244.09
540.67	28279.12
541.034	28393.69
541.399	28584.42
541.764	28602.72
542.129	28669.84
542.494	28766.56
542.858	28808.14
543.223	28993.9
543.587	29078.64
543.952	29066.89
544.316	29229.82
544.681	29310.5
545.045	29431.63
545.41	29661.45
545.774	29634.56
546.138	29680.43
546.503	29929.69
546.867	29964.95
547.231	30248.1
547.595	30177.82
547.959	30421.66
548.324	30420.53
548.688	30433.86
549.052	30634.76
549.416	30749.56
549.779	30843.57
550.143	31023.9
550.507	31233.61
550.871	31347.28
551.235	31226.83
551.599	31602.19
551.962	31566.94
552.326	31639.48
552.689	31850.09
553.053	31785.01
553.417	31924.22
553.78	32288.05
554.143	32193.81
554.507	32499.8
554.87	32594.93
555.234	32977.3
555.597	32761.71
555.96	33009.61
556.323	33110.4
556.686	33237.4
557.05	33370.73
557.413	33421.58
557.776	33588.58
558.139	33902.92
558.502	33914.67
558.865	34059.98
559.228	34371.61
559.59	34235.34
559.953	34547.42
560.316	34821.32
560.679	34958.94
561.041	35032.61
561.404	35223.57
561.767	35421.07
562.129	35308.31
562.492	35770.22
562.854	35777.22
563.217	35911.68
563.579	36071.68
563.941	36251.56
564.304	36418.79
564.666	36623.08
565.028	36716.86
565.39	36938.1
565.753	37226.22
566.115	37238.65
566.477	37399.78
566.839	37360.46
567.201	37611.75
567.563	37689.26
567.925	38003.38
568.287	37999.99
568.648	38112.53
569.01	38399.3
569.372	38649.46
569.734	38507.32
570.095	38741.21
570.457	38952.51
570.819	39121.77
571.18	39164.7
571.542	39382.1
571.903	39427.52
572.265	39641.98
572.626	39593.17
572.987	39723.11
573.349	39966.49
573.71	40036.77
574.071	40010.56
574.432	40119.03
574.794	40500.71
575.155	40547.49
575.516	40417.33
575.877	40627.49
576.238	40751.56
576.599	40863.87
576.96	40846.92
577.32	40885.79
577.681	41186.12
578.042	41170.3
578.403	41187.48
578.763	41294.14
579.124	41370.75
579.485	41441.93
579.845	41484.87
580.206	41613.45
580.566	41575.94
580.927	41622.95
581.287	41812.77
581.648	41628.59
582.008	41747.24
582.368	41714.92
582.728	41764.64
583.089	41735.48
583.449	41830.4
583.809	41968.47
584.169	41959.89
584.529	41797.4
584.889	42099.09
585.249	41853.45
585.609	41768.03
585.969	42185.42
586.329	41876.27
586.688	42081.24
587.048	42152.87
587.408	41966.44
587.768	42002.6
588.127	41975.03
588.487	42034.91
588.846	42274.45
589.206	42127.34
589.565	42107.23
589.925	42238.07
590.284	42197.17
590.643	42244.85
591.003	42448.23
591.362	42306.09
591.721	42340.67
592.08	42267.22
592.44	42458.63
592.799	42416.14
593.158	42351.74
593.517	42432.42
593.876	42378.18
594.235	42381.12
594.593	42443.26
594.952	42591.96
595.311	42395.13
595.67	42478.06
596.029	42688.91
596.387	42781.11
596.746	42746.31
597.104	42635.8
597.463	42586.99
597.822	42862.91
598.18	42617.04
598.538	42643.71
598.897	42935
599.255	42683.71
599.613	43190.81
599.972	42925.74
600.33	42954.66
600.688	42899.3
601.046	43021.78
601.404	43221.55
601.762	43100.87
602.12	43357.14
602.478	43290.7
602.836	43363.92
603.194	43140.19
603.552	43089.57
603.91	42964.15
604.268	43311.04
604.625	43302.22
604.983	43407.08
605.341	43175.67
605.698	43602.1
606.056	43516
606.413	43502.9
606.771	43643.91
607.128	43647.07
607.485	43549
607.843	43684.13
608.2	43915.54
608.557	43934.75
608.914	43757.8
609.272	43964.8
609.629	44173.84
609.986	44184.23
610.343	44040.96
610.7	44377.22
611.057	44134.97
611.414	44209.54
611.771	44276.21
612.127	44478.46
612.484	44316.43
612.841	44625.8
613.198	44306.49
613.554	44345.36
613.911	44596.88
614.267	44550.78
614.624	44505.36
614.98	44837.78
615.337	45001.39
615.693	44811.56
616.05	44897.44
616.406	44951.9
616.762	44865.8
617.118	44882.97
617.475	44975.63
617.831	44970.88
618.187	44902.63
618.543	45082.74
618.899	45280.25
619.255	45195.73
619.611	45192.79
619.967	45270.31
620.323	45314.37
620.678	45302.17
621.034	45143.08
621.39	45131.55
621.746	45091.78
622.101	45554.82
622.457	45127.94
622.812	45310.98
623.168	45380.13
623.523	45317.09
623.879	45608.38
624.234	45263.75
624.589	45390.98
624.945	45417.2
625.3	45347.82
625.655	45283.19
626.01	45393.92
626.365	45499.45
626.72	45489.74
627.075	45386.69
627.43	45379
627.785	45234.15
628.14	45339.23
628.495	45432.11
628.85	45459
629.205	45214.49
629.559	45389.85
629.914	45192.57
630.269	45185.79
630.623	45079.13
630.978	44952.35
631.332	45157.99
631.687	45146.02
632.041	45036.87
632.396	45090.2
632.75	44867.15
633.104	44938.11
633.459	44766.14
633.813	44745.8
634.167	44793.71
634.521	44837.32
634.875	44701.28
635.229	44726.82
635.583	44453.38
635.937	44386.71
636.291	44543.32
636.645	44440.27
636.999	44369.09
637.352	44393.27
637.706	44160.05
638.06	44298.81
638.413	44180.84
638.767	44129.77
639.121	44200.28
639.474	43876.45
639.828	43862.89
640.181	43971.81
640.534	44034.63
640.888	43840.51
641.241	43748.54
641.594	43890.23
641.947	43816.56
642.301	43782.21
642.654	43761.87
643.007	43671.7
643.36	43493.86
643.713	43524.36
644.066	43665.83
644.419	43364.37
644.771	43140.65
645.124	42682.35
645.477	42598.29
645.83	42354
646.182	42204.62
646.535	42174.34
646.888	42295.47
647.24	42076.04
647.593	42454.34
647.945	42238.75
648.298	42148.58
648.65	42011.86
649.002	41919.89
649.355	42128.47
649.707	41819.1
650.059	41999.21
650.411	42446.88
650.763	42510.83
651.115	42904.72
651.467	42626.99
651.819	42622.69
652.171	42713.76
652.523	42526.88
652.875	42454.56
653.227	42385.86
653.578	42570.49
653.93	42582.47
654.282	42381.8
654.633	42362.59
654.985	42396.94
655.337	42402.81
655.688	42434.9
656.039	42421.79
656.391	41986.78
656.742	42050.28
657.094	42145.19
657.445	42260.89
657.796	42139.77
658.147	42062.48
658.498	42024.06
658.849	42050.28
659.2	41920.56
659.551	41787.69
659.902	41991.07
660.253	41966.66
660.604	41911.3
660.955	41671.98
661.306	42071.07
661.656	41821.81
662.007	41874.24
662.358	41759.44
662.708	41756.95
663.059	41864.97
663.409	41608.93
663.76	41627.01
664.11	41637.63
664.461	41688.93
664.811	41724.19
665.161	41660.68
665.511	41527.13
665.862	41551.08
666.212	41758.53
666.562	41685.77
666.912	41582.27
667.262	41693
667.612	41598.54
667.962	41654.13
668.312	41517.86
668.662	41874.69
669.011	41431.76
669.361	41537.07
669.711	41469.05
670.06	41320.35
670.41	41159
670.76	41242.16
671.109	41373.46
671.459	41299.11
671.808	41229.28
672.157	41314.25
672.507	41004.2
672.856	40960.82
673.205	41166.91
673.554	41114.48
673.904	41091.21
674.253	41310.64
674.602	41104.54
674.951	40573.03
675.3	40471.34
675.649	41075.61
675.998	40900.93
676.346	40953.58
676.695	41045.33
677.044	40668.62
677.393	40825
677.741	40842.63
678.09	40781.61
678.438	40756.53
678.787	40739.13
679.135	40699.13
679.484	40624.78
679.832	40785
680.181	40497.33
680.529	40666.59
680.877	40420.72
681.225	40260.72
681.573	40622.52
681.922	40246.26
682.27	40110.22
682.618	40208.07
682.966	40112.02
683.314	40199.71
683.661	40099.14
684.009	39805.59
684.357	39829.55
684.705	39741.41
685.053	39677.91
685.4	39646.73
685.748	39544.81
686.095	39561.76
686.443	39402.89
686.79	39234.99
687.138	39246.28
687.485	39230.01
687.832	39225.49
688.18	39185.27
688.527	39010.58
688.874	39011.71
689.221	38700.31
689.568	38671.61
689.915	38549.13
690.262	38584.38
690.609	38585.28
690.956	38478.62
691.303	38362.92
691.65	38418.06
691.997	38241.79
692.344	38114.11
692.69	38115.92
693.037	38124.96
693.383	37797.51
693.73	38004.06
694.077	37644.97
694.423	37689.72
694.769	37548.02
695.116	37537.85
695.462	37413.34
695.808	37356.39
696.155	37186.23
696.501	37094.25
696.847	37073.46
697.193	36777.87
697.539	37031.2
697.885	36693.13
698.231	36720.02
698.577	36621.95
698.923	36523.87
699.269	36178.12
699.614	36041.62
699.96	36007.95
700.306	36114.16
700.651	36025.13
700.997	35877.79
701.342	35778.81
701.688	35789.88
702.033	35608.41
702.379	35633.95
702.724	35431.92
703.069	35523.44
703.415	35124.13
703.76	35013.4
704.105	35065.38
704.45	34991.26
704.795	34734.76
705.14	34676.46
705.485	34666.97
705.83	34576.35
706.175	34676.01
706.52	34473.98
706.865	34316.92
707.209	34342.23
707.554	34177.04
707.899	34285.96
708.243	34097.04
708.588	34165.51
708.932	33944.5
709.277	33905.86
709.621	33712.19
709.966	33604.85
710.31	33667.9
710.654	33390.85
710.998	33552.65
711.342	33534.57
711.687	33488.7
712.031	33278.76
712.375	33295.25
712.719	33149.72
713.063	33044.87
713.407	33212.54
713.75	32985.43
714.094	33023.85
714.438	32873.8
714.782	32883.97
715.125	32740.47
715.469	32733.91
715.812	32554.48
716.156	32350.19
716.499	32425.22
716.843	32565.1
717.186	32238.79
717.53	32382.74
717.873	32313.13
718.216	32234.27
718.559	32082.18
718.902	32082.86
719.246	32034.27
719.589	31883.54
719.932	31844.9
720.275	31779.14
720.617	31852.58
720.96	31600.16
721.303	31645.58
721.646	31665.01
721.989	31463.44
722.331	31494.17
722.674	31420.73
723.016	31376.21
723.359	31314.06
723.701	31418.69
724.044	30945.71
724.386	31037.23
724.729	31075.65
725.071	31018.03
725.413	30922.44
725.755	30925.37
726.097	30870.69
726.439	30723.57
726.782	30609.22
727.124	30804.47
727.465	30599.28
727.807	30541.88
728.149	30446.97
728.491	30491.26
728.833	30561.77
729.175	30224.83
729.516	30280.19
729.858	30293.53
730.199	30313.19
730.541	30044.94
730.882	30116.13
731.224	30298.27
731.565	29939.41
731.906	30086.75
732.248	29948.68
732.589	29851.05
732.93	29666.2
733.271	29802.01
733.612	29858.73
733.953	29839.75
734.294	29684.5
734.635	29709.81
734.976	29705.97
735.317	29605.18
735.658	29533.77
735.999	29481.34
736.339	29489.03
736.68	29544.84
737.021	29321.35
737.361	29292.65
737.702	29378.97
738.042	29337.39
738.383	29144.4
738.723	29186.21
739.063	29145.76
739.404	29188.02
739.744	29073.9
740.084	29077.06
740.424	28997.51
740.764	28980.34
741.104	29072.77
741.444	28778.99
741.784	28645.21
742.124	28814.92
742.464	28674.13
742.804	28609.28
743.143	28556.85
743.483	28639.78
743.823	28513.23
744.162	28457.42
744.502	28519.56
744.841	28285.22
745.181	28321.15
745.52	28291.54
745.86	28237.53
746.199	28165.45
746.538	28150.31
746.877	28107.59
747.216	27989.18
747.556	28001.61
747.895	27981.95
748.234	27794.16
748.573	27950.31
748.911	27841.84
749.25	27812.91
749.589	27612.69
749.928	27624.22
750.267	27696.31
750.605	27537.89
750.944	27531.11
751.283	27397.56
751.621	27485.01
751.96	27235.98
752.298	27214.96
752.636	27330.67
752.975	27148.98
753.313	27132.25
753.651	27037.79
753.989	26963.22
