Data from plate_ceramic_FLMS001491_076.txt Node
Date: Tue Feb 07 11:17:16 GMT 2017
User: dcchb
Spectrometer: FLMS00149
Trigger mode: 0
Integration Time (sec): 2.000000E-2
Scans to average: 10
Electric dark correction enabled: true
Nonlinearity correction enabled: false
Boxcar width: 0
XAxis mode: Wavelengths
Number of Pixels in Spectrum: 2048
>>>>>Begin Spectral Data<<<<<
341.393	0.32
341.776	0.32
342.16	0.32
342.543	-71.31
342.927	-65.66
343.31	-50.07
343.693	-62.72
344.077	-80.13
344.46	-75.15
344.843	-59.79
345.226	-54.81
345.61	-34.25
345.993	-3.97
346.376	-1.48
346.759	14.34
347.142	42.36
347.525	41
347.908	40.32
348.291	93.43
348.674	86.65
349.057	104.28
349.44	133.88
349.823	149.25
350.206	152.64
350.588	190.6
350.971	234.44
351.354	208.68
351.737	247.55
352.119	274.44
352.502	273.09
352.884	282.8
353.267	298.17
353.65	291.16
354.032	317.15
354.414	323.93
354.797	342.69
355.179	326.64
355.562	375.91
355.944	342.69
356.326	352.41
356.709	337.27
357.091	355.34
357.473	351.05
357.855	371.84
358.238	372.29
358.62	368.45
359.002	359.64
359.384	360.54
359.766	349.47
360.148	363.03
360.53	382.24
360.912	358.73
361.294	349.92
361.676	347.43
362.057	351.28
362.439	366.64
362.821	365.29
363.203	361.22
363.584	346.3
363.966	375.23
364.348	362.12
364.729	349.92
365.111	343.37
365.493	358.06
365.874	358.06
366.256	369.58
366.637	375.91
367.019	356.02
367.4	371.16
367.781	360.32
368.163	355.34
368.544	362.35
368.925	364.38
369.306	351.5
369.688	358.51
370.069	363.03
370.45	373.65
370.831	349.02
371.212	361.9
371.593	363.48
371.974	356.25
372.355	368
372.736	384.27
373.117	396.92
373.498	376.81
373.879	359.41
374.26	360.77
374.641	369.81
375.021	372.29
375.402	385.4
375.783	376.81
376.163	403.48
376.544	403.93
376.925	410.26
377.305	387.89
377.686	386.3
378.066	412.07
378.447	367.09
378.827	395.12
379.208	411.84
379.588	411.16
379.968	421.56
380.349	410.94
380.729	418.39
381.109	409.13
381.489	412.74
381.87	442.8
382.25	433.99
382.63	413.65
383.01	415.23
383.39	457.26
383.77	450.03
384.15	445.96
384.53	447.54
384.91	430.82
385.29	466.53
385.67	443.7
386.049	461.56
386.429	449.8
386.809	456.58
387.189	466.75
387.568	463.59
387.948	484.83
388.328	490.26
388.707	493.19
389.087	493.19
389.466	488.9
389.846	489.58
390.225	509.92
390.605	513.53
390.984	515.79
391.363	502.68
391.743	523.7
392.122	538.62
392.501	550.14
392.881	553.98
393.26	534.55
393.639	539.07
394.018	543.59
394.397	548.79
394.776	584.49
395.155	562.57
395.534	576.13
395.913	572.51
396.292	578.39
396.671	614.32
397.05	633.98
397.429	606.41
397.808	605.73
398.186	609.8
398.565	633.3
398.944	620.87
399.323	615.22
399.701	636.47
400.08	643.02
400.458	647.54
400.837	649.57
401.215	676.69
401.594	656.35
401.972	673.75
402.351	674.43
402.729	690.93
403.107	699.52
403.486	688.44
403.864	686.41
404.242	703.13
404.62	709.23
404.999	713.53
405.377	734.54
405.755	735.9
406.133	759.4
406.511	761.43
406.889	765.05
407.267	767.76
407.645	783.36
408.023	793.3
408.401	790.59
408.779	803.02
409.156	835.78
409.534	822.9
409.912	834.65
410.29	864.48
410.667	860.64
411.045	895.67
411.422	890.47
411.8	876.91
412.178	917.14
412.555	911.26
412.933	956.01
413.31	942.9
413.687	970.24
414.065	968.66
414.442	981.54
414.819	984.71
415.197	1009.11
415.574	1010.47
415.951	997.36
416.328	1046.17
416.705	1045.27
417.082	1040.3
417.46	1069.45
417.837	1051.6
418.214	1086.17
418.591	1083.23
418.967	1112.61
419.344	1116
419.721	1129.79
420.098	1126.4
420.475	1163.68
420.852	1158.03
421.228	1190.12
421.605	1192.38
421.982	1203.01
422.358	1185.15
422.735	1209.78
423.111	1217.24
423.488	1251.37
423.864	1255.21
424.241	1271.93
424.617	1295.43
424.994	1294.08
425.37	1297.24
425.746	1327.75
426.123	1326.17
426.499	1330.91
426.875	1350.35
427.251	1388.99
427.627	1426.5
428.003	1445.48
428.379	1456.11
428.756	1464.24
429.132	1465.6
429.507	1519.61
429.883	1512.15
430.259	1531.58
430.635	1567.06
431.011	1571.81
431.387	1594.41
431.763	1657.23
432.138	1647.29
432.514	1680.96
432.89	1689.32
433.265	1708.08
433.641	1750.11
434.016	1716.44
434.392	1765.93
434.767	1785.59
435.143	1812.48
435.518	1833.27
435.894	1878.24
436.269	1873.27
436.644	1910.33
437.02	1886.83
437.395	1916.66
437.77	1974.51
438.145	1979.26
438.52	1973.38
438.895	2015.87
439.271	2027.62
439.646	2079.14
440.021	2066.71
440.395	2070.55
440.77	2070.78
441.145	2100.83
441.52	2137.22
441.895	2136.99
442.27	2157.78
442.645	2172.7
443.019	2228.97
443.394	2209.98
443.769	2242.75
444.143	2186.71
444.518	2250.21
444.892	2242.98
445.267	2282.07
445.641	2308.29
446.016	2299.25
446.39	2327.95
446.764	2377.66
447.139	2325.24
447.513	2377.89
447.887	2408.62
448.262	2427.83
448.636	2421.73
449.01	2449.07
449.384	2485.68
449.758	2478
450.132	2549.86
450.506	2522.07
450.88	2547.6
451.254	2577.43
451.628	2595.06
452.002	2644.55
452.376	2633.48
452.75	2673.02
453.123	2701.27
453.497	2773.81
453.871	2741.5
454.244	2843.19
454.618	2881.15
454.992	2888.84
455.365	2858.1
455.739	2929.97
456.112	3031.21
456.486	3032.79
456.859	3054.48
457.232	3100.81
457.606	3105.1
457.979	3153.24
458.352	3217.19
458.725	3268.49
459.099	3294.48
459.472	3362.72
459.845	3379.22
460.218	3406.34
460.591	3405.21
460.964	3442.04
461.337	3549.16
461.71	3591.19
462.083	3667.57
462.456	3662.83
462.829	3719.55
463.201	3751.86
463.574	3763.16
463.947	3832.77
464.32	3916.83
464.692	3936.94
465.065	3949.6
465.438	4039.31
465.81	4099.43
466.183	4176.94
466.555	4262.36
466.928	4249.7
467.3	4257.84
467.672	4329.93
468.045	4485.4
468.417	4448.57
468.789	4509.36
469.161	4550.04
469.534	4632.75
469.906	4770.82
470.278	4768.79
470.65	4828.22
471.022	4918.84
471.394	5017.14
471.766	5055.79
472.138	5154.54
472.51	5225.72
472.882	5255.33
473.253	5362.44
473.625	5432.72
473.997	5542.33
474.369	5550.24
474.74	5655.32
475.112	5742.55
475.484	5874.29
475.855	5945.93
476.227	6007.4
476.598	6202.42
476.97	6206.04
477.341	6374.17
477.713	6493.71
478.084	6472.02
478.455	6703.2
478.827	6782.52
479.198	6961.95
479.569	6993.59
479.94	7108.39
480.311	7195.62
480.682	7422.05
481.053	7566.68
481.424	7706.56
481.795	7749.95
482.166	7910.4
482.537	7989.72
482.908	8181.8
483.279	8240.33
483.65	8403.04
484.021	8578.86
484.391	8682.81
484.762	8739.76
485.133	8856.59
485.503	9012.07
485.874	9194.66
486.244	9268.33
486.615	9413.64
486.985	9540.19
487.356	9731.82
487.726	9771.82
488.097	9984.47
488.467	10020.63
488.837	10272.82
489.207	10401.18
489.578	10556.43
489.948	10617.45
490.318	10856.99
490.688	10875.52
491.058	11053.59
491.428	11221.95
491.798	11250.2
492.168	11395.28
492.538	11512.56
492.908	11694.71
493.278	11858.09
493.648	11853.12
494.017	12042.04
494.387	12162.94
494.757	12131.98
495.126	12469.15
495.496	12431.64
495.866	12570.84
496.235	12657.39
496.605	12853.09
496.974	12871.85
497.344	13041.11
497.713	13047.67
498.082	13229.36
498.452	13303.93
498.821	13496.69
499.19	13463.7
499.559	13660.98
499.928	13684.26
500.298	13756.12
500.667	13899.39
501.036	13915.44
501.405	13996.12
501.774	14152.27
502.143	14258.93
502.512	14361.53
502.88	14575.53
503.249	14524.91
503.618	14624.57
503.987	14711.12
504.356	14902.98
504.724	14948.63
505.093	14991.34
505.462	15097.1
505.83	15197.21
506.199	15339.81
506.567	15466.58
506.936	15597.2
507.304	15742.74
507.672	15900.7
508.041	15855.95
508.409	16070.64
508.777	16054.14
509.145	16252.55
509.514	16314.25
509.882	16394.47
510.25	16501.36
510.618	16634.01
510.986	16779.54
511.354	16859.99
511.722	16981.35
512.09	17084.85
512.458	17203.94
512.826	17426.08
513.193	17393.09
513.561	17550.6
513.929	17692.29
514.297	17942.68
514.664	17954.66
515.032	18009.57
515.4	18272.84
515.767	18350.12
516.135	18312.16
516.502	18445.49
516.869	18830.56
517.237	18815.2
517.604	18835.31
517.972	19121.4
518.339	19256.32
518.706	19235.07
519.073	19378.57
519.44	19567.72
519.808	19728.17
520.175	19869.63
520.542	19966.13
520.909	20061.04
521.276	20205.67
521.643	20444.31
522.009	20607.01
522.376	20676.62
522.743	20884.07
523.11	21043.16
523.477	21126.55
523.843	21371.29
524.21	21567.67
524.577	21805.18
524.943	21820.09
525.31	21970.59
525.676	22223.47
526.043	22408.32
526.409	22460.07
526.776	22708.43
527.142	22765.6
527.508	23083.33
527.874	23099.15
528.241	23239.04
528.607	23434.28
528.973	23572.13
529.339	23518.8
529.705	23796.08
530.071	24017.55
530.437	24247.6
530.803	24354.26
531.169	24492.11
531.535	24442.17
531.901	24557.65
532.267	24812.78
532.632	24901.82
532.998	24932.78
533.364	25214.13
533.73	25303.61
534.095	25579.77
534.461	25526.21
534.826	25587.22
535.192	25755.58
535.557	25893.2
535.923	26099.53
536.288	26073.76
536.653	26319.63
537.019	26195.34
537.384	26383.13
537.749	26562.34
538.114	26560.08
538.479	26667.65
538.845	26821.09
539.21	26810.24
539.575	26846.17
539.94	27090.01
540.305	27283.68
540.67	27080.06
541.034	27348.53
541.399	27475.08
541.764	27592.59
542.129	27619.49
542.494	27775.41
542.858	27876.2
543.223	27936.54
543.587	28162.07
543.952	28187.61
544.316	28159.36
544.681	28253.14
545.045	28465.79
545.41	28456.07
545.774	28506.92
546.138	28619.91
546.503	28781.49
546.867	28766.12
547.231	29085.21
547.595	29055.15
547.959	29103.97
548.324	29228.48
548.688	29330.18
549.052	29622.82
549.416	29635.7
549.779	29811.74
550.143	29785.76
550.507	29922.7
550.871	30170.83
551.235	30028.46
551.599	30273.88
551.962	30250.6
552.326	30401.56
552.689	30718.61
553.053	30604.72
553.417	30702.34
553.78	31166.06
554.143	31040.64
554.507	31211.93
554.87	31241.54
555.234	31543.9
555.597	31509.55
555.96	31683.11
556.323	31846.49
556.686	31787.06
557.05	32086.03
557.413	32137.56
557.776	32232.25
558.139	32509.3
558.502	32606.7
558.865	32729.41
559.228	32933.02
559.59	33095.73
559.953	33001.04
560.316	33364.42
560.679	33598.76
561.041	33539.33
561.404	33805.09
561.767	34011.41
562.129	33965.99
562.492	34304.06
562.854	34335.92
563.217	34396.26
563.579	34514.22
563.941	34796.92
564.304	34850.03
564.666	35080.76
565.028	35127.08
565.39	35385.38
565.753	35482.56
566.115	35480.07
566.477	35750.12
566.839	35803
567.201	35979.49
567.563	36215.64
567.925	36497.22
568.287	36526.37
568.648	36598.46
569.01	36741.28
569.372	37117.32
569.734	36999.35
570.095	37162.51
570.457	37350.53
570.819	37409.74
571.18	37406.57
571.542	37669.16
571.903	37791.2
572.265	37978.31
572.626	37956.84
572.987	38023.73
573.349	38312.99
573.71	38469.6
574.071	38418.98
574.432	38468.24
574.794	38857.83
575.155	38853.77
575.516	38548.69
575.877	38806.76
576.238	38972.18
576.599	39157.49
576.96	39160.2
577.32	39282
577.681	39309.8
578.042	39557.48
578.403	39412.85
578.763	39577.82
579.124	39660.52
579.485	39838.6
579.845	39864.36
580.206	39755.89
580.566	39795.89
580.927	39771.93
581.287	39931.03
581.648	39830.69
582.008	40077.01
582.368	39857.81
582.728	39957.01
583.089	40029.33
583.449	40018.03
583.809	40114.75
584.169	40280.62
584.529	40079.5
584.889	40490.33
585.249	40173.73
585.609	40162.66
585.969	40400.84
586.329	40259.61
586.688	40302.77
587.048	40285.14
587.408	40182.55
587.768	40258.02
588.127	40323.11
588.487	40269.55
588.846	40524.01
589.206	40323.78
589.565	40164.01
589.925	40521.07
590.284	40381.41
590.643	40398.36
591.003	40490.56
591.362	40740.5
591.721	40512.48
592.08	40650.78
592.44	40766.03
592.799	40564.46
593.158	40713.83
593.517	40553.16
593.876	40629.09
594.235	40589.31
594.593	40738.46
594.952	40777.33
595.311	40663.66
595.67	40707.28
596.029	41010.55
596.387	40987.27
596.746	41002.64
597.104	40870.21
597.463	40800.16
597.822	41026.59
598.18	40794.28
598.538	40841.74
598.897	41181.61
599.255	40989.53
599.613	41456.86
599.972	41282.86
600.33	41344.77
600.688	41043.99
601.046	41230.43
601.404	41425
601.762	41249.18
602.12	41501.15
602.478	41401.04
602.836	41473.81
603.194	41358.33
603.552	41464.32
603.91	41299.8
604.268	41487.82
604.625	41512
604.983	41503.87
605.341	41372.57
605.698	41733.24
606.056	41823.18
606.413	41761.26
606.771	41918.54
607.128	41913.57
607.485	41871.54
607.843	41838.09
608.2	42005.77
608.557	42231.98
608.914	41946.57
609.272	42167.35
609.629	42202.83
609.986	42311.3
610.343	42183.4
610.7	42423.84
611.057	42499.32
611.414	42348.82
611.771	42380.45
612.127	42580
612.484	42579.54
612.841	42676.72
613.198	42581.58
613.554	42524.86
613.911	42856.15
614.267	42900.21
614.624	42600.11
614.98	42874.9
615.337	42895.69
615.693	42794
616.05	42958.97
616.406	43163.48
616.762	42968.46
617.118	43041.45
617.475	43058.18
617.831	43118.06
618.187	43102.92
618.543	43179.08
618.899	43264.95
619.255	43384.72
619.611	43344.5
619.967	43270.6
620.323	43406.64
620.678	43224.05
621.034	43221.79
621.39	43180.43
621.746	43240.54
622.101	43685.73
622.457	43337.04
622.812	43464.94
623.168	43436.24
623.523	43443.93
623.879	43650.93
624.234	43293.65
624.589	43577.26
624.945	43569.8
625.3	43469.24
625.655	43438.5
626.01	43704.26
626.365	43466.3
626.72	43374.78
627.075	43494.32
627.43	43400.54
627.785	43361.9
628.14	43337.04
628.495	43410.71
628.85	43347.21
629.205	43273.76
629.559	43606.41
629.914	43278.28
630.269	43300.43
630.623	43212.75
630.978	43090.04
631.332	43300.88
631.687	43299.98
632.041	43212.3
632.396	43207.1
632.75	42934.34
633.104	43105.18
633.459	43027.22
633.813	42847.56
634.167	42969.14
634.521	42809.37
634.875	42816.37
635.229	42706.09
635.583	42560.56
635.937	42523.73
636.291	42487.34
636.645	42746.32
636.999	42556.72
637.352	42671.97
637.706	42446.21
638.06	42587.91
638.413	42275.6
638.767	42276.28
639.121	42269.72
639.474	41968.26
639.828	42204.86
640.181	42189.95
640.534	42173
640.888	42034.25
641.241	41839.45
641.594	41958.77
641.947	42005.77
642.301	41976.85
642.654	41959.67
643.007	41835.38
643.36	41864.53
643.713	41684.65
644.066	41808.27
644.419	41461.61
644.771	41267.26
645.124	40753.15
645.477	40801.29
645.83	40625.02
646.182	40459.6
646.535	40206.05
646.888	40471.35
647.24	40234.52
647.593	40401.3
647.945	40305.71
648.298	40173.05
648.65	40092.38
649.002	39894.87
649.355	40071.81
649.707	39919.05
650.059	40039.72
650.411	40552.7
650.763	40535.08
651.115	40899.14
651.467	40776.2
651.819	40745.24
652.171	40733.72
652.523	40656.88
652.875	40635.64
653.227	40528.3
653.578	40707.28
653.93	40547.51
654.282	40472.26
654.633	40270.23
654.985	40412.6
655.337	40400.84
655.688	40524.91
656.039	40483.55
656.391	40150.68
656.742	40311.36
657.094	40330.34
657.445	40390.68
657.796	40309.32
658.147	40257.12
658.498	40058.71
658.849	40232.49
659.2	40198.59
659.551	39906.85
659.902	40149.55
660.253	40056.9
660.604	40166.05
660.955	39837.47
661.306	40128.08
661.656	39986.39
662.007	40059.16
662.358	39932.61
662.708	39982.1
663.059	39853.51
663.409	39555.89
663.76	39836.34
664.11	39867.75
664.461	39884.93
664.811	39784.82
665.161	39835.89
665.511	39756.12
665.862	39627.08
666.212	39873.17
666.562	39848.54
666.912	39825.72
667.262	39792.95
667.612	39650.36
667.962	39693.29
668.312	39477.25
668.662	39667.98
669.011	39505.73
669.361	39549.57
669.711	39537.82
670.06	39479.06
670.41	39525.61
670.76	39542.11
671.109	39470.02
671.459	39335.34
671.808	39280.65
672.157	39425.5
672.507	39169.69
672.856	39141.89
673.205	39165.62
673.554	39289.46
673.904	39167.66
674.253	39436.12
674.602	39260.76
674.951	38732.87
675.3	38476.6
675.649	39132.63
675.998	39065.06
676.346	39139.41
676.695	39068
677.044	38801.79
677.393	38934.22
677.741	38969.92
678.09	38900.77
678.438	38855.35
678.787	38920.21
679.135	38921.11
679.484	38683.6
679.832	38779.42
680.181	38538.52
680.529	38619.65
680.877	38354.34
681.225	38464.17
681.573	38600.67
681.922	38478.86
682.27	38268.25
682.618	38340.79
682.966	38123.84
683.314	38254.23
683.661	38242.71
684.009	37963.62
684.357	37877.52
684.705	37877.3
685.053	37875.26
685.4	37939.44
685.748	37655.15
686.095	37691.99
686.443	37443.18
686.79	37361.83
687.138	37463.97
687.485	37463.29
687.832	37320.47
688.18	37447.93
688.527	37185.34
688.874	37174.49
689.221	36966.81
689.568	36940.37
689.915	36803.88
690.262	36865.57
690.609	36741.51
690.956	36625.58
691.303	36691.56
691.65	36478.91
691.997	36433.72
692.344	36271.91
692.69	36344.68
693.037	36375.19
693.383	35991.69
693.73	36144.91
694.077	35866.27
694.423	36007.29
694.769	35821.3
695.116	35685.26
695.462	35587.64
695.808	35415.44
696.155	35521.42
696.501	35240.75
696.847	35256.8
697.193	34942.46
697.539	35196.46
697.885	34811.84
698.231	34852.06
698.577	34916.47
698.923	34807.77
699.269	34450.27
699.614	34308.12
699.96	34375.47
700.306	34349.48
700.651	34202.82
700.997	34196.26
701.342	34105.42
701.688	33893.44
702.033	33842.15
702.379	33975.7
702.724	33831.3
703.069	33801.92
703.415	33366.91
703.76	33461.14
704.105	33374.36
704.45	33260.69
704.795	33122.39
705.14	33013.47
705.485	32895.28
705.83	32737.77
706.175	32953.58
706.52	32767.6
706.865	32839.46
707.209	32673.14
707.554	32620.03
707.899	32677.66
708.243	32417.78
708.588	32460.04
708.932	32158.35
709.277	32211.91
709.621	32081.29
709.966	32033.15
710.31	32164.45
710.654	31865.93
710.998	31813.95
711.342	31832.93
711.687	31775.53
712.031	31730.34
712.375	31594.07
712.719	31641.07
713.063	31378.48
713.407	31441.08
713.75	31357.24
714.094	31358.14
714.438	31218.71
714.782	31295.77
715.125	31129
715.469	31202.44
715.812	30882.45
716.156	30741.44
716.499	30874.32
716.843	30843.36
717.186	30619.41
717.53	30794.77
717.873	30711.16
718.216	30589.8
718.559	30568.79
718.902	30433.42
719.246	30580.99
719.589	30270.04
719.932	30138.29
720.275	30176.25
720.617	30072.75
720.96	30186.2
721.303	30043.15
721.646	30039.08
721.989	29804.06
722.331	29934.23
722.674	29837.05
723.016	29799.09
723.359	29790.73
723.701	29791.63
724.044	29476.39
724.386	29407.46
724.729	29595.7
725.071	29505.31
725.413	29415.6
725.755	29388.48
726.097	29280.68
726.439	29040.92
726.782	29269.16
727.124	29222.83
727.465	29131.54
727.807	29004.31
728.149	28930.64
728.491	28842.28
728.833	28963.63
729.175	28839.79
729.516	28802.28
729.858	28747.37
730.199	28739.23
730.541	28653.36
730.882	28488.62
731.224	28711.89
731.565	28592.79
731.906	28457.66
732.248	28426.7
732.589	28318.9
732.93	28319.35
733.271	28265.34
733.612	28374.49
733.953	28181.5
734.294	28166.14
734.635	28223.54
734.976	28205.68
735.317	28068.97
735.658	28189.41
735.999	28005.24
736.339	27962.3
736.68	28083.88
737.021	27849.08
737.361	27823.32
737.702	27908.74
738.042	27801.18
738.383	27689.54
738.723	27784.45
739.063	27584.01
739.404	27620.39
739.744	27512.6
740.084	27509.43
740.424	27462.88
740.764	27469.66
741.104	27467.85
741.444	27353.05
741.784	27248.87
742.124	27199.84
742.464	27177.46
742.804	27143.79
743.143	27042.33
743.483	27104.7
743.823	26973.85
744.162	27059.95
744.502	27019.73
744.841	26842.1
745.181	27089.78
745.52	26878.94
745.86	26718.04
746.199	26735.67
746.538	26768.89
746.877	26848.66
747.216	26697.48
747.556	26496.58
747.895	26627.87
748.234	26561.21
748.573	26365.06
748.911	26300.42
749.25	26343.14
749.589	26232.63
749.928	26177.72
750.267	26162.8
750.605	26115.34
750.944	25967.33
751.283	25971.39
751.621	26100.66
751.96	25828.57
752.298	25969.36
752.636	25775.24
752.975	25667.9
753.313	25490.28
753.651	25728.46
753.989	25561.69
