Data from plate_ceramic_FLMS001491_033.txt Node
Date: Tue Feb 07 11:16:40 GMT 2017
User: dcchb
Spectrometer: FLMS00149
Trigger mode: 0
Integration Time (sec): 2.000000E-2
Scans to average: 10
Electric dark correction enabled: true
Nonlinearity correction enabled: false
Boxcar width: 0
XAxis mode: Wavelengths
Number of Pixels in Spectrum: 2048
>>>>>Begin Spectral Data<<<<<
341.393	-21.26
341.776	-21.26
342.16	-21.26
342.543	-55.61
342.927	-51.99
343.31	-71.65
343.693	-75.72
344.077	-58.09
344.46	-43.63
344.843	-53.12
345.226	-51.76
345.61	-9.05
345.993	-27.36
346.376	-13.8
346.759	0.44
347.142	43.6
347.525	38.4
347.908	40.66
348.291	60.78
348.674	97.84
349.057	122.47
349.44	130.38
349.823	143.03
350.206	160.89
350.588	211.05
350.971	206.53
351.354	250.6
351.737	269.13
352.119	289.47
352.502	302.12
352.884	310.03
353.267	313.2
353.65	316.81
354.032	323.82
354.414	325.85
354.797	341.67
355.179	342.12
355.562	336.7
355.944	348.23
356.326	345.74
356.709	353.87
357.091	356.81
357.473	370.6
357.855	356.59
358.238	380.09
358.62	351.62
359.002	377.6
359.384	372.18
359.766	397.49
360.148	355
360.53	383.03
360.912	360.2
361.294	380.77
361.676	363.14
362.057	343.71
362.439	355
362.821	372.86
363.203	362.46
363.584	362.69
363.966	369.24
364.348	361.78
364.729	352.07
365.111	346.64
365.493	358.85
365.874	371.5
366.256	377.38
366.637	360.88
367.019	363.82
367.4	360.88
367.781	369.92
368.163	369.92
368.544	368.34
368.925	358.85
369.306	366.3
369.688	372.41
370.069	385.06
370.45	365.85
370.831	372.41
371.212	379.41
371.593	371.28
371.974	364.72
372.355	397.26
372.736	379.86
373.117	380.77
373.498	369.69
373.879	380.77
374.26	369.69
374.641	385.51
375.021	371.73
375.402	404.5
375.783	393.42
376.163	419.86
376.544	410.6
376.925	406.08
377.305	409.69
377.686	399.98
378.066	405.4
378.447	431.16
378.827	426.64
379.208	413.53
379.588	401.11
379.968	427.55
380.349	419.41
380.729	426.42
381.109	430.26
381.489	402.91
381.87	457.37
382.25	447.43
382.63	467.54
383.01	446.08
383.39	448.79
383.77	436.13
384.15	458.05
384.53	467.54
384.91	461.67
385.29	471.84
385.67	459.86
386.049	480.2
386.429	482.91
386.809	482.01
387.189	468.67
387.568	470.93
387.948	496.47
388.328	499.86
388.707	501.22
389.087	517.94
389.466	532.4
389.846	536.24
390.225	523.14
390.605	529.24
390.984	547.77
391.363	554.55
391.743	539.18
392.122	554.77
392.501	569.69
392.881	555.23
393.26	582.34
393.639	580.54
394.018	584.38
394.397	592.06
394.776	604.49
395.155	588.9
395.534	607.65
395.913	613.98
396.292	611.95
396.671	601.55
397.05	609.69
397.429	618.5
397.808	633.64
398.186	644.26
398.565	647.88
398.944	637.71
399.323	612.17
399.701	651.49
400.08	662.57
400.458	670.02
400.837	674.54
401.215	694.88
401.594	686.07
401.972	687.43
402.351	687.2
402.729	676.35
403.107	711.38
403.486	728.1
403.864	741.44
404.242	721.32
404.62	766.07
404.999	767.65
405.377	758.16
405.755	761.77
406.133	791.38
406.511	792.51
406.889	808.55
407.267	794.99
407.645	822.56
408.023	833.41
408.401	834.77
408.779	840.64
409.156	856.46
409.534	865.73
409.912	885.16
410.29	882.45
410.667	899.85
411.045	921.77
411.422	916.12
411.8	949.34
412.178	949.11
412.555	967.19
412.933	986.63
413.31	987.08
413.687	968.32
414.065	1004.93
414.442	1027.08
414.819	999.28
415.197	1039.73
415.574	1036.34
415.951	1061.88
416.328	1078.38
416.705	1085.61
417.082	1107.75
417.46	1124.93
417.837	1109.79
418.214	1122.44
418.591	1127.87
418.967	1142.33
419.344	1158.37
419.721	1219.16
420.098	1186.62
420.475	1213.29
420.852	1210.35
421.228	1226.85
421.605	1228.43
421.982	1234.08
422.358	1244.02
422.735	1287.86
423.111	1315.88
423.488	1287.64
423.864	1324.02
424.241	1321.76
424.617	1334.41
424.994	1328.31
425.37	1340.74
425.746	1371.7
426.123	1407.63
426.499	1390.46
426.875	1431.13
427.251	1442.21
427.627	1462.77
428.003	1513.17
428.379	1514.97
428.756	1545.48
429.132	1569.89
429.507	1573.73
429.883	1599.72
430.259	1614.18
430.635	1590.45
431.011	1604.69
431.387	1688.98
431.763	1688.76
432.138	1696.21
432.514	1749.54
432.89	1761.07
433.265	1754.29
433.641	1811.46
434.016	1828.41
434.392	1867.28
434.767	1889.65
435.143	1886.72
435.518	1912.03
435.894	1947.51
436.269	1987.05
436.644	1976.88
437.02	1989.99
437.395	2013.27
437.77	2029.76
438.145	2074.51
438.52	2077.22
438.895	2111.57
439.271	2121.06
439.646	2180.04
440.021	2168.29
440.395	2169.19
440.77	2159.93
441.145	2191.57
441.52	2254.16
441.895	2274.28
442.27	2288.74
442.645	2276.08
443.019	2342.52
443.394	2285.12
443.769	2325.8
444.143	2283.77
444.518	2381.39
444.892	2343.2
445.267	2382.75
445.641	2415.74
446.016	2408.51
446.39	2473.59
446.764	2490.54
447.139	2488.96
447.513	2488.51
447.887	2517.66
448.262	2521.73
448.636	2530.77
449.01	2567.38
449.384	2594.04
449.758	2593.36
450.132	2640.37
450.506	2653.93
450.88	2658.22
451.254	2695.06
451.628	2752.46
452.002	2765.11
452.376	2817.54
452.75	2773.25
453.123	2837.2
453.497	2870.87
453.871	2921.94
454.244	2999.91
454.618	3008.72
454.992	3019.34
455.365	3048.49
455.739	3159.22
456.112	3136.63
456.486	3187.92
456.859	3188.38
457.232	3291.65
457.606	3273.57
457.979	3303.18
458.352	3394.02
458.725	3427.92
459.099	3423.85
459.472	3505.88
459.845	3526.67
460.218	3589.72
460.591	3631.53
460.964	3636.05
461.337	3704.97
461.71	3805.08
462.083	3838.08
462.456	3820.45
462.829	3859.32
463.201	3950.39
463.574	3938.64
463.947	3989.94
464.32	4097.28
464.692	4151.97
465.065	4164.62
465.438	4248.46
465.81	4304.28
466.183	4347.89
466.555	4450.72
466.928	4452.98
467.3	4469.92
467.672	4529.81
468.045	4666.76
468.417	4642.58
468.789	4715.34
469.161	4788.56
469.534	4919.18
469.906	4998.27
470.278	4979.29
470.65	5040.08
471.022	5151.04
471.394	5278.72
471.766	5304.03
472.138	5330.47
472.51	5470.12
472.882	5555.55
473.253	5620.86
473.625	5678.71
473.997	5844.8
474.369	5836.89
474.74	5936.33
475.112	6034.18
475.484	6173.38
475.855	6225.36
476.227	6310.78
476.598	6487.5
476.97	6583.99
477.341	6706.02
477.713	6775.4
478.084	6832.8
478.455	7056.98
478.827	7108.27
479.198	7317.31
479.569	7243.86
479.94	7516.62
480.311	7610.63
480.682	7799.33
481.053	7985.09
481.424	8047.01
481.795	8132.88
482.166	8249.71
482.537	8409.26
482.908	8569.25
483.279	8651.51
483.65	8787.33
484.021	9011.05
484.391	9075.45
484.762	9228.67
485.133	9311.61
485.503	9426.4
485.874	9594.31
486.244	9697.58
486.615	9928.54
486.985	9928.09
487.356	10194.97
487.726	10248.53
488.097	10539.14
488.467	10576.43
488.837	10768.06
489.207	10901.62
489.578	11072.92
489.948	11127.38
490.318	11276.75
490.688	11409.63
491.058	11569.63
491.428	11700.92
491.798	11855.27
492.168	12192.89
492.538	12133
492.908	12276.95
493.278	12499.09
493.648	12450.05
494.017	12676.71
494.387	12784.73
494.757	12817.28
495.126	13019.98
495.496	13038.51
495.866	13276.92
496.235	13385.85
496.605	13463.59
496.974	13575.9
497.344	13707.2
497.713	13764.82
498.082	13883.46
498.452	14096.34
498.821	14094.08
499.19	14160.29
499.559	14318.03
499.928	14440.74
500.298	14551.92
500.667	14671.24
501.036	14717.34
501.405	14912.36
501.774	14914.17
502.143	15072.81
502.512	15057.22
502.88	15239.13
503.249	15285.69
503.618	15399.13
503.987	15575.17
504.356	15654.94
504.724	15776.52
505.093	15805.9
505.462	15934.03
505.83	16026.01
506.199	16176.96
506.567	16390.52
506.936	16407.46
507.304	16630.28
507.672	16661.47
508.041	16804.97
508.409	16846.77
508.777	16997.73
509.145	17242.92
509.514	17228.69
509.882	17392.75
510.25	17403.6
510.618	17530.6
510.986	17734.21
511.354	17882
511.722	17937.82
512.09	18097.82
512.458	18208.32
512.826	18319.05
513.193	18463.91
513.561	18528.54
513.929	18705.03
514.297	18938.7
514.664	18971.69
515.032	19021.86
515.4	19293.94
515.767	19352.47
516.135	19493.94
516.502	19462.07
516.869	19972.79
517.237	19879.24
517.604	19879.24
517.972	20281.94
518.339	20306.57
518.706	20422.05
519.073	20506.79
519.44	20700.23
519.808	20966.67
520.175	20899.1
520.542	21161.01
520.909	21411.63
521.276	21383.83
521.643	21618.17
522.009	21879.64
522.376	21906.08
522.743	22143.81
523.11	22332.51
523.477	22472.16
523.843	22650.01
524.21	22886.39
524.577	23064.69
524.943	23132.26
525.31	23322.54
525.676	23531.57
526.043	23630.1
526.409	23729.76
526.776	24074.83
527.142	24160.48
527.508	24416.52
527.874	24498.78
528.241	24679.56
528.607	24823.97
528.973	25053.56
529.339	24913.46
529.705	25348.7
530.071	25561.57
530.437	25641.12
530.803	25831.62
531.169	26113.65
531.535	26081.33
531.901	26162.46
532.267	26178.05
532.632	26464.83
532.998	26609.46
533.364	26707.98
533.73	26957.02
534.095	27063.91
534.461	27192.04
534.826	27322.21
535.192	27376.67
535.557	27806.49
535.923	27630.9
536.288	27733.72
536.653	27892.36
537.019	27838.12
537.384	28035.63
537.749	28248.28
538.114	28191.34
538.479	28298.9
538.845	28514.72
539.21	28508.39
539.575	28661.38
539.94	28840.81
540.305	29000.13
540.67	28935.04
541.034	29227.69
541.399	29385.65
541.764	29298.2
542.129	29467.46
542.494	29502.04
542.858	29756.49
543.223	29678.75
543.587	29976.37
543.952	29892.08
544.316	30112.19
544.681	30218.85
545.045	30294.56
545.41	30431.73
545.774	30338.85
546.138	30536.81
546.503	30685.96
546.867	30849.12
547.231	31150.13
547.595	31075.78
547.959	31279.84
548.324	31215.44
548.688	31335.89
549.052	31557.12
549.416	31688.19
549.779	31541.53
550.143	31778.81
550.507	32015.64
550.871	32069.2
551.235	32148.52
551.599	32292.7
551.962	32532.01
552.326	32586.7
552.689	32718.9
553.053	32524.55
553.417	32789.63
553.78	33183.07
554.143	33069.4
554.507	33281.6
554.87	33384.42
555.234	33756.39
555.597	33620.12
555.96	33850.4
556.323	34078.41
556.686	34149.37
557.05	34242.48
557.413	34451.06
557.776	34537.83
558.139	34764.5
558.502	34728.34
558.865	34925.4
559.228	35141.21
559.59	35305.27
559.953	35466.62
560.316	35792.27
560.679	35804.69
561.041	36011.92
561.404	36230.9
561.767	36452.36
562.129	36375.75
562.492	36643.32
562.854	36753.14
563.217	36876.76
563.579	37148.39
563.941	37294.37
564.304	37506.57
564.666	37680.35
565.028	37676.51
565.39	37886.67
565.753	37945.43
566.115	38333.44
566.477	38383.38
566.839	38395.59
567.201	38577.73
567.563	38789.7
567.925	39002.12
568.287	39082.57
568.648	39083.25
569.01	39245.73
569.372	39515.11
569.734	39700.18
570.095	39846.17
570.457	39932.27
570.819	40110.8
571.18	40242.32
571.542	40271.7
571.903	40557.34
572.265	40650.89
572.626	40745.13
572.987	40877.78
573.349	40926.37
573.71	41070.77
574.071	41044.56
574.432	41247.71
574.794	41507.14
575.155	41497.88
575.516	41376.53
575.877	41648.61
576.238	41728.61
576.599	41971.99
576.96	42051.76
577.32	41980.8
577.681	42224.41
578.042	42391.41
578.403	42345.54
578.763	42479.09
579.124	42519.32
579.485	42720.22
579.845	42854.9
580.206	42578.3
580.566	42543.73
580.927	42703.5
581.287	42756.6
581.648	42581.69
582.008	42905.07
582.368	42770.39
582.728	42865.98
583.089	42836.83
583.449	42934.45
583.809	43009.48
584.169	43008.8
584.529	43069.81
584.889	43285.18
585.249	43014
585.609	43065.75
585.969	43352.29
586.329	43097.61
586.688	43172.86
587.048	43126.08
587.408	43168.12
587.768	43098.29
588.127	43011.51
588.487	43041.34
588.846	43448.33
589.206	43205.4
589.565	43286.08
589.925	43413.53
590.284	43372.18
590.643	43389.58
591.003	43395.46
591.362	43520.65
591.721	43427.77
592.08	43429.13
592.44	43502.8
592.799	43653.98
593.158	43575.56
593.517	43539.18
593.876	43575.11
594.235	43559.52
594.593	43722.68
594.952	43697.59
595.311	43674.32
595.67	43839.74
596.029	43856.69
596.387	43869.79
596.746	43999.96
597.104	43618.27
597.463	43792.05
597.822	44075.21
598.18	43953.63
598.538	43837.48
598.897	43969
599.255	43723.81
599.613	44353.4
599.972	44121.54
600.33	44090.8
600.688	44045.61
601.046	44158.82
601.404	44352.04
601.762	44282.89
602.12	44497.12
602.478	44508.19
602.836	44454.86
603.194	44324.24
603.552	44290.35
603.91	44312.04
604.268	44613.28
604.625	44394.07
604.983	44564.92
605.341	44485.14
605.698	44756.55
606.056	44802.88
606.413	44772.82
606.771	44877.45
607.128	44783.67
607.485	44750.67
607.843	44808.53
608.2	45047.84
608.557	45129.65
608.914	44927.39
609.272	45176.2
609.629	45235.86
609.986	45348.17
610.343	45222.07
610.7	45528.96
611.057	45334.16
611.414	45375.52
611.771	45516.08
612.127	45528.96
612.484	45568.28
612.841	45749.52
613.198	45755.84
613.554	45662.51
613.911	45900.02
614.267	45812.34
614.624	45905.9
614.98	45863.86
615.337	46051.66
615.693	46030.64
616.05	45847.59
616.406	46258.43
616.762	46083.29
617.118	46060.24
617.475	45994.26
617.831	46127.13
618.187	46149.96
618.543	46239
618.899	46462.04
619.255	46345.21
619.611	46206.45
619.967	46399.22
620.323	46601.02
620.678	46394.02
621.034	46288.94
621.39	46387.24
621.746	46305.21
622.101	46839.88
622.457	46383.17
622.812	46550.17
623.168	46569.38
623.523	46553.34
623.879	46739.55
624.234	46401.7
624.589	46507.01
624.945	46529.16
625.3	46630.4
625.655	46541.14
626.01	46491.19
626.365	46657.52
626.72	46597.63
627.075	46588.59
627.43	46453.45
627.785	46374.81
628.14	46517.18
628.495	46542.04
628.85	46467.01
629.205	46433.12
629.559	46610.06
629.914	46293.01
630.269	46370.74
630.623	46310.63
630.978	46420.23
631.332	46379.11
631.687	46402.38
632.041	46334.59
632.396	46330.75
632.75	46153.57
633.104	46123.52
633.459	46027.48
633.813	45956.29
634.167	46030.41
634.521	45976.63
634.875	45944.31
635.229	45736.41
635.583	45628.62
635.937	45673.81
636.291	45541.84
636.645	45636.75
636.999	45695.51
637.352	45645.11
637.706	45377.32
638.06	45542.29
638.413	45565.57
638.767	45362.18
639.121	45454.84
639.474	45159.93
639.828	45252.81
640.181	45114.28
640.534	45293.48
640.888	45211.9
641.241	45035.19
641.594	45048.97
641.947	45197.44
642.301	45034.06
642.654	44984.79
643.007	45096.88
643.36	45030.67
643.713	44939.6
644.066	44961.74
644.419	44612.6
644.771	44199.5
645.124	43940.75
645.477	43933.75
645.83	43609.69
646.182	43539.63
646.535	43242.92
646.888	43547.09
647.24	43400.2
647.593	43497.6
647.945	43394.33
648.298	43250.6
648.65	43167.44
649.002	43086.31
649.355	43197.95
649.707	43227.32
650.059	43284.95
650.411	43789.57
650.763	43701.66
651.115	44115.66
651.467	43894.88
651.819	43978.49
652.171	43836.57
652.523	43772.62
652.875	43662.57
653.227	43506.64
653.578	43859.17
653.93	43712.51
654.282	43561.55
654.633	43594.55
654.985	43609.91
655.337	43500.54
655.688	43649.46
656.039	43652.62
656.391	43218.06
656.742	43340.09
657.094	43313.88
657.445	43553.42
657.796	43426.87
658.147	43149.13
658.498	43312.52
658.849	43208.34
659.2	43205.63
659.551	43093.77
659.902	43166.08
660.253	43195.01
660.604	43230.04
660.955	42972.87
661.306	43122.24
661.656	43135.35
662.007	42998.4
662.358	43022.36
662.708	43084.5
663.059	43015.35
663.409	42738.52
663.76	42942.36
664.11	42892.87
664.461	42977.16
664.811	43128.12
665.161	43035.69
665.511	42761.8
665.862	42903.49
666.212	43030.72
666.562	42977.16
666.912	42858.52
667.262	42774
667.612	42804.06
667.962	42860.1
668.312	42478.19
668.662	42998.86
669.011	42736.04
669.361	42758.41
669.711	42689.26
670.06	42574.23
670.41	42569.94
670.76	42468.25
671.109	42600.9
671.459	42511.18
671.808	42456.27
672.157	42658.75
672.507	42285.43
672.856	42275.94
673.205	42368.36
673.554	42489.26
673.904	42322.49
674.253	42599.32
674.602	42269.83
674.951	41750.3
675.3	41596.18
675.649	42137.41
675.998	42074.59
676.346	42136.28
676.695	42298.76
677.044	41950.52
677.393	42021.03
677.741	42133.57
678.09	42041.37
678.438	41933.8
678.787	41857.42
679.135	42047.69
679.484	41842.28
679.832	41923.4
680.181	41667.82
680.529	41883.63
680.877	41761.37
681.225	41502.62
681.573	41745.33
681.922	41545.11
682.27	41417.43
682.618	41465.56
682.966	41301.27
683.314	41433.02
683.661	41320.26
684.009	41145.12
684.357	40938.12
684.705	41028.29
685.053	41058.34
685.4	40849.31
685.748	40939.47
686.095	40788.07
686.443	40584.23
686.79	40433.27
687.138	40547.85
687.485	40480.73
687.832	40330.9
688.18	40513.95
688.527	40335.87
688.874	40051.14
689.221	40064.92
689.568	39945.38
689.915	39897.02
690.262	39862.89
690.609	39764.59
690.956	39737.92
691.303	39623.12
691.65	39496.12
691.997	39476.46
692.344	39310.59
692.69	39293.87
693.037	39391.72
693.383	39028.34
693.73	39063.82
694.077	38828.57
694.423	38730.27
694.769	38796.03
695.116	38758.74
695.462	38766.2
695.808	38557.62
696.155	38478.3
696.501	38149.49
696.847	38187.68
697.193	37972.32
697.539	38231.75
697.885	37866.11
698.231	37708.37
698.577	37691.65
698.923	37683.74
699.269	37519.45
699.614	37247.59
699.96	37121.5
700.306	37168.5
700.651	37013.48
700.997	37033.36
701.342	36971.22
701.688	36853.25
702.033	36707.95
702.379	36704.78
702.724	36676.31
703.069	36679.47
703.415	36279.94
703.76	36239.26
704.105	36318.8
704.45	36058.47
704.795	35828.42
705.14	35841.76
705.485	35808.99
705.83	35745.94
706.175	35820.51
706.52	35655.77
706.865	35556.11
707.209	35432.95
707.554	35345.5
707.899	35348.43
708.243	35247.42
708.588	35158.38
708.932	34946.64
709.277	34775.34
709.621	34899.86
709.966	34600.43
710.31	34739.19
710.654	34517.95
710.998	34750.26
711.342	34626.87
711.687	34426.2
712.031	34398.18
712.375	34209.26
712.719	34307.56
713.063	34276.6
713.407	34224.4
713.75	34050.62
714.094	33922.26
714.438	33933.56
714.782	34007.45
715.125	33794.13
715.469	33843.39
715.812	33704.64
716.156	33501.93
716.499	33594.58
716.843	33530.18
717.186	33280.92
717.53	33503.29
717.873	33356.85
718.216	33344.19
718.559	33297.42
718.902	32965.67
719.246	33045.9
719.589	32968.16
719.932	32830.31
720.275	32880.25
720.617	32685.23
720.96	32735.62
721.303	32695.85
721.646	32669.41
721.989	32478.45
722.331	32576.98
722.674	32337.44
723.016	32416.53
723.359	32304.67
723.701	32280.94
724.044	32115.98
724.386	32085.92
724.729	32153.26
725.071	32067.84
725.413	32019.71
725.755	31854.97
726.097	31761.18
726.439	31579.04
726.782	31581.98
727.124	31785.14
727.465	31688.42
727.807	31565.94
728.149	31462.66
728.491	31513.06
728.833	31539.04
729.175	31432.38
729.516	31354.19
729.858	31279.62
730.199	31278.94
730.541	31264.25
730.882	31115.78
731.224	31385.83
731.565	31050.47
731.906	30976.35
732.248	31096.34
732.589	30759.63
732.93	30811.61
733.271	30849.8
733.612	30819.29
733.953	30799.63
734.294	30654.1
734.635	30733.64
734.976	30680.76
735.317	30545.85
735.658	30519.18
735.999	30519.86
736.339	30416.59
736.68	30550.14
737.021	30440.54
737.361	30162.36
737.702	30421.11
738.042	30217.5
738.383	30186.08
738.723	30232.19
739.063	30073.77
739.404	30142.24
739.744	29999.88
740.084	29883.72
740.424	29983.15
740.764	29880.56
741.104	29973.44
741.444	29674.46
741.784	29628.59
742.124	29739.09
742.464	29625.42
742.804	29630.62
743.143	29468.36
743.483	29448.25
743.823	29300.01
744.162	29356.28
744.502	29435.82
744.841	29259.56
745.181	29373
745.52	29269.95
745.86	29227.47
746.199	29067.7
746.538	29201.93
746.877	29095.72
747.216	29046.91
747.556	28899.34
747.895	28989.96
748.234	28829.96
748.573	28832
748.911	28755.39
749.25	28727.59
749.589	28574.38
749.928	28527.82
750.267	28476.3
750.605	28467.03
750.944	28473.81
751.283	28402.18
751.621	28321.5
751.96	28164.9
752.298	28279.24
752.636	28139.36
752.975	28112.69
753.313	27926.94
753.651	28084.45
