Data from plate_porcelain_FLMS001491_074.txt Node
Date: Tue Feb 07 11:19:52 GMT 2017
User: dcchb
Spectrometer: FLMS00149
Trigger mode: 0
Integration Time (sec): 2.000000E-2
Scans to average: 10
Electric dark correction enabled: true
Nonlinearity correction enabled: false
Boxcar width: 0
XAxis mode: Wavelengths
Number of Pixels in Spectrum: 2048
>>>>>Begin Spectral Data<<<<<
341.393	-13.74
341.776	-13.74
342.16	-13.74
342.543	-56.45
342.927	-74.08
343.31	-63.68
343.693	-74.53
344.077	-64.36
344.46	-61.42
344.843	-67.3
345.226	-39.28
345.61	-23.46
345.993	-4.48
346.376	-7.64
346.759	1.62
347.142	38.91
347.525	42.98
347.908	42.53
348.291	74.84
348.674	86.82
349.057	118.46
349.44	114.16
349.823	126.59
350.206	158.23
350.588	223.09
350.971	261.28
351.354	273.26
351.737	297.89
352.119	302.63
352.502	306.02
352.884	311.22
353.267	334.72
353.65	339.02
354.032	356.42
354.414	367.26
354.797	364.1
355.179	364.78
355.562	379.92
355.944	367.26
356.326	380.6
356.709	393.7
357.091	381.28
357.473	397.55
357.855	395.74
358.238	384.44
358.62	426.02
359.002	409.75
359.384	386.7
359.766	389.18
360.148	423.99
360.53	424.89
360.912	406.36
361.294	386.92
361.676	397.55
362.057	406.59
362.439	396.64
362.821	408.85
363.203	413.14
363.584	395.06
363.966	402.97
364.348	392.12
364.729	416.08
365.111	400.03
365.493	407.49
365.874	398.68
366.256	421.73
366.637	414.72
367.019	402.97
367.4	421.95
367.781	422.4
368.163	402.29
368.544	417.66
368.925	419.92
369.306	417.43
369.688	422.4
370.069	431.22
370.45	420.82
370.831	419.47
371.212	427.83
371.593	435.74
371.974	445.23
372.355	450.43
372.736	470.09
373.117	442.06
373.498	425.79
373.879	446.81
374.26	453.82
374.641	441.84
375.021	449.52
375.402	478.22
375.783	474.15
376.163	476.19
376.544	480.48
376.925	482.74
377.305	477.77
377.686	477.32
378.066	492.68
378.447	506.02
378.827	512.57
379.208	507.15
379.588	508.05
379.968	510.99
380.349	513.25
380.729	526.81
381.109	534.94
381.489	535.85
381.87	542.85
382.25	547.82
382.63	562.51
383.01	544.21
383.39	543.98
383.77	572.91
384.15	591.21
384.53	567.94
384.91	599.12
385.29	582.4
385.67	587.15
386.049	609.97
386.429	593.7
386.809	604.77
387.189	638.44
387.568	632.57
387.948	623.75
388.328	649.97
388.707	671.21
389.087	656.3
389.466	678.67
389.846	655.62
390.225	687.03
390.605	685.22
390.984	697.65
391.363	716.63
391.743	710.98
392.122	721.15
392.501	745.11
392.881	746.92
393.26	754.15
393.639	787.82
394.018	773.36
394.397	775.84
394.776	789.85
395.155	772.68
395.534	822.39
395.913	825.56
396.292	821.04
396.671	842.05
397.05	825.78
397.429	856.74
397.808	823.52
398.186	858.78
398.565	865.78
398.944	889.96
399.323	893.35
399.701	884.99
400.08	903.3
400.458	935.39
400.837	944.88
401.215	931.09
401.594	957.98
401.972	955.5
402.351	960.47
402.729	984.65
403.107	1024.2
403.486	1011.09
403.864	1023.52
404.242	1029.39
404.62	1048.38
404.999	1044.08
405.377	1060.35
405.755	1066.46
406.133	1084.08
406.511	1108.04
406.889	1133.8
407.267	1150.97
407.645	1151.2
408.023	1162.05
408.401	1199.56
408.779	1189.39
409.156	1211.31
409.534	1253.34
409.912	1243.63
410.29	1290.86
410.667	1301.93
411.045	1324.08
411.422	1326.34
411.8	1335.37
412.178	1378.31
412.555	1372.21
412.933	1414.24
413.31	1427.8
413.687	1454.47
414.065	1479.1
414.442	1479.78
414.819	1490.17
415.197	1522.04
415.574	1540.57
415.951	1531.3
416.328	1565.65
416.705	1626.21
417.082	1596.84
417.46	1650.85
417.837	1669.38
418.214	1673.44
418.591	1670.73
418.967	1692.2
419.344	1702.37
419.721	1720.22
420.098	1755.7
420.475	1783.72
420.852	1784.85
421.228	1822.37
421.605	1828.69
421.982	1866.89
422.358	1855.81
422.735	1913.89
423.111	1929.26
423.488	1945.98
423.864	1962.93
424.241	1996.6
424.617	2026.2
424.994	2017.62
425.37	2058.97
425.746	2079.08
426.123	2075.02
426.499	2123.38
426.875	2158.4
427.251	2190.27
427.627	2222.13
428.003	2198.85
428.379	2275.24
428.756	2321.56
429.132	2377.16
429.507	2370.15
429.883	2398.17
430.259	2442.01
430.635	2454.44
431.011	2479.53
431.387	2524.04
431.763	2600.2
432.138	2616.92
432.514	2665.96
432.89	2683.36
433.265	2754.55
433.641	2770.37
434.016	2799.29
434.392	2823.7
434.767	2899.85
435.143	2887.65
435.518	2942.56
435.894	2970.36
436.269	3028.66
436.644	3064.14
437.02	3083.13
437.395	3114.54
437.77	3163.58
438.145	3258.26
438.52	3286.74
438.895	3259.17
439.271	3266.17
439.646	3343.23
440.021	3368.99
440.395	3415.77
440.77	3353.85
441.145	3415.32
441.52	3512.27
441.895	3501.19
442.27	3557.46
442.645	3571.7
443.019	3638.82
443.394	3640.17
443.769	3639.49
444.143	3644.47
444.518	3763.79
444.892	3723.56
445.267	3801.07
445.641	3790
446.016	3832.03
446.39	3843.56
446.764	3917.45
447.139	3853.05
447.513	3950.67
447.887	3962.65
448.262	3958.13
448.636	3993.38
449.01	4053.72
449.384	4082.65
449.758	4154.06
450.132	4213.04
450.506	4195.64
450.88	4197.9
451.254	4220.04
451.628	4315.64
452.002	4368.52
452.376	4428.85
452.75	4497.55
453.123	4513.6
453.497	4583.42
453.871	4640.6
454.244	4723.31
454.618	4775.28
454.992	4858.9
455.365	4808.05
455.739	4970.99
456.112	5027.48
456.486	5085.56
456.859	5121.72
457.232	5206.69
457.606	5198.1
457.979	5324.2
458.352	5418.66
458.725	5462.27
459.099	5494.81
459.472	5590.86
459.845	5694.81
460.218	5764.41
460.591	5827.01
460.964	5846.22
461.337	5977.51
461.71	6032.2
462.083	6202.37
462.456	6171.41
462.829	6228.13
463.201	6339.08
463.574	6409.82
463.947	6470.61
464.32	6590.38
464.692	6706.08
465.065	6732.52
465.438	6839.64
465.81	6890.48
466.183	6984.04
466.555	7167.09
466.928	7220.64
467.3	7185.84
467.672	7351.94
468.045	7550.58
468.417	7574.08
468.789	7634.19
469.161	7726.17
469.534	7863.34
469.906	8062.43
470.278	8108.53
470.65	8232.37
471.022	8337.45
471.394	8503.77
471.766	8618.12
472.138	8716.65
472.51	8931.56
472.882	9062.4
473.253	9162.74
473.625	9288.39
473.997	9529.06
474.369	9518.44
474.74	9693.8
475.112	9834.36
475.484	10032.77
475.855	10236.84
476.227	10298.3
476.598	10591.18
476.97	10623.04
477.341	10907.78
477.713	11074.33
478.084	11188.45
478.455	11458.95
478.827	11603.35
479.198	11884.02
479.569	11998.82
479.94	12372.6
480.311	12498.02
480.682	12712.02
481.053	12953.6
481.424	13203.99
481.795	13379.58
482.166	13559.46
482.537	13736.86
482.908	14021.59
483.279	14210.74
483.65	14461.81
484.021	14727.34
484.391	14899.09
484.762	15086.65
485.133	15248.91
485.503	15401.22
485.874	15792.4
486.244	16053.18
486.615	16282.55
486.985	16412.27
487.356	16801.63
487.726	16874.63
488.097	17287.05
488.467	17352.35
488.837	17706.47
489.207	17926.8
489.578	18193.69
489.948	18321.59
490.318	18677.52
490.688	18807.46
491.058	19053.1
491.428	19257.62
491.798	19532.41
492.168	19917.71
492.538	19946.41
492.908	20168.55
493.278	20467.53
493.648	20635.66
494.017	20853.28
494.387	21048.53
494.757	21274.29
495.126	21392.47
495.496	21448.29
495.866	21618.23
496.235	22036.98
496.605	22232.23
496.974	22312.68
497.344	22580.24
497.713	22687.81
498.082	22842.61
498.452	23144.07
498.821	23149.49
499.19	23321.92
499.559	23547.45
499.928	23719.87
500.298	23995.57
500.667	24113.53
501.036	24080.31
501.405	24370.48
501.774	24454.31
502.143	24682.11
502.512	24887.52
502.88	25007.52
503.249	25099.72
503.618	25410.45
503.987	25485.25
504.356	25625.81
504.724	25786.93
505.093	25994.84
505.462	26155.06
505.83	26260.37
506.199	26490.19
506.567	26952.1
506.936	26770.41
507.304	27230.96
507.672	27321.36
508.041	27515.48
508.409	27702.82
508.777	27952.3
509.145	28188.68
509.514	28211.28
509.882	28468.22
510.25	28568.78
510.618	28842.9
510.986	28898.04
511.354	29232.04
511.722	29417.8
512.09	29661.41
512.458	29626.61
512.826	29958.35
513.193	30140.27
513.561	30256.2
513.929	30582.74
514.297	30875.39
514.664	31170.3
515.032	31351.53
515.4	31523.06
515.767	31639.66
516.135	31918.75
516.502	31720.56
516.869	32283.26
517.237	32459.3
517.604	32463.14
517.972	32956.92
518.339	33183.12
518.706	33268.32
519.073	33438.49
519.44	33772.26
519.808	34057.23
520.175	34129.99
520.542	34561.62
520.909	34763.2
521.276	34718.23
521.643	35341.26
522.009	35433.23
522.376	35603.63
522.743	36018.53
523.11	36397.05
523.477	36609.48
523.843	36753.43
524.21	37196.13
524.577	37382.79
524.943	37641.76
525.31	37873.62
525.676	38206.27
526.043	38587.05
526.409	38744.79
526.776	38970.77
527.142	39287.14
527.508	39419.12
527.874	39752.22
528.241	40082.83
528.607	40139.1
528.973	40612.99
529.339	40445.53
529.705	40892.75
530.071	41429.01
530.437	41495.22
530.803	41726.4
531.169	41970.01
531.535	41922.1
531.901	42115.77
532.267	42353.05
532.632	42662.65
532.998	42739.26
533.364	43046.37
533.73	43258.34
534.095	43537.43
534.461	43597.54
534.826	43784.65
535.192	43988.26
535.557	44399.1
535.923	44239.11
536.288	44515.93
536.653	44702.82
537.019	44794.34
537.384	44952.08
537.749	45140.55
538.114	45176.71
538.479	45334.44
538.845	45541.9
539.21	45404.72
539.575	45773.75
539.94	45844.26
540.305	46243.35
540.67	46059.4
541.034	46367.18
541.399	46534.19
541.764	46620.06
542.129	46710
542.494	46839.04
542.858	47030.67
543.223	47215.52
543.587	47444.67
543.952	47420.72
544.316	47727.15
544.681	47654.16
545.045	47928.27
545.41	48099.34
545.774	48057.54
546.138	48106.57
546.503	48378.21
546.867	48384.98
547.231	48766.22
547.595	48609.16
547.959	48865.42
548.324	48810.06
548.688	49118.98
549.052	49179.99
549.416	49304.06
549.779	49445.97
550.143	49514.67
550.507	49709.47
550.871	49922.35
551.235	49978.39
551.599	50211.38
551.962	50292.28
552.326	50321.66
552.689	50527.53
553.053	50449.11
553.417	50609.33
553.78	51022.43
554.143	50897.24
554.507	51132.94
554.87	51301.74
555.234	51614.96
555.597	51421.29
555.96	51569.08
556.323	51787.38
556.686	51800.04
557.05	52082.97
557.413	52166.58
557.776	52171.33
558.139	52503.97
558.502	52484.76
558.865	52551.2
559.228	52844.53
559.59	52923.85
559.953	52980.34
560.316	53296.27
560.679	53321.58
561.041	53497.17
561.404	53679.08
561.767	53823.49
562.129	53729.7
562.492	54104.83
562.854	54149.35
563.217	54115
563.579	54290.82
563.941	54487.2
564.304	54648.1
564.666	54831.82
565.028	54769.45
565.39	54936.23
565.753	55198.59
566.115	55225.71
566.477	55362.88
566.839	55377.12
567.201	55549.77
567.563	55557.9
567.925	55762.19
568.287	55818.69
568.648	55895.3
569.01	56018.46
569.372	56253.7
569.734	56133.26
570.095	56378.67
570.457	56468.39
570.819	56532.57
571.18	56483.08
571.542	56646.69
571.903	56710.87
572.265	56889.39
572.626	56887.36
572.987	56894.82
573.349	57034.47
573.71	57126.22
574.071	57170.97
574.432	57267.46
574.794	57434.69
575.155	57418.42
575.516	57304.3
575.877	57475.82
576.238	57537.29
576.599	57608.47
576.96	57694.57
577.32	57673.55
577.681	57758.07
578.042	57851.4
578.403	57915.13
578.763	57956.03
579.124	57958.07
579.485	58036.48
579.845	58096.14
580.206	57992.42
580.566	58014.79
580.927	58083.71
581.287	58198.06
581.648	58031.96
582.008	58268.57
582.368	58163.03
582.728	58222.24
583.089	58173.88
583.449	58189.25
583.809	58214.33
584.169	58289.81
584.529	58250.49
584.889	58406.42
585.249	58250.71
585.609	58212.07
585.969	58371.61
586.329	58299.98
586.688	58399.18
587.048	58335.46
587.408	58355.12
587.768	58289.36
588.127	58325.51
588.487	58211.17
588.846	58471.27
589.206	58342.24
589.565	58347.21
589.925	58456.13
590.284	58391.28
590.643	58440.31
591.003	58467.21
591.362	58525.74
591.721	58426.08
592.08	58467.21
592.44	58540.42
592.799	58566.86
593.158	58505.17
593.517	58477.37
593.876	58532.97
594.235	58429.92
594.593	58546.07
594.952	58503.14
595.311	58495.91
595.67	58574.55
596.029	58760.76
596.387	58674.66
596.746	58727.09
597.104	58607.09
597.463	58655.9
597.822	58830.13
598.18	58645.28
598.538	58694.77
598.897	58835.11
599.255	58600.54
599.613	58975.67
599.972	58752.62
600.33	58877.59
600.688	58769.57
601.046	58925.72
601.404	59013.63
601.762	58911.71
602.12	58983.8
602.478	59054.99
602.836	59031.03
603.194	58933.41
603.552	59005.72
603.91	58906.29
604.268	59080.97
604.625	58975.67
604.983	59087.98
605.341	58995.55
605.698	59135.44
606.056	59179.5
606.413	59125.95
606.771	59241.65
607.128	59280.97
607.485	59134.76
607.843	59137.47
608.2	59312.61
608.557	59440.51
608.914	59290.91
609.272	59407.07
609.629	59418.14
609.986	59500.85
610.343	59400.51
610.7	59554.86
611.057	59601.19
611.414	59574.75
611.771	59605.93
612.127	59635.99
612.484	59592.6
612.841	59721.64
613.198	59635.76
613.554	59678.93
613.911	59793.72
614.267	59800.5
614.624	59788.53
614.98	59791.01
615.337	59935.64
615.693	59905.81
616.05	59910.11
616.406	60003.89
616.762	59933.83
617.118	59959.82
617.475	59986.71
617.831	60012.48
618.187	59959.14
618.543	59986.71
618.899	60165.92
619.255	60120.04
619.611	60089.08
619.967	60160.49
620.323	60201.4
620.678	60125.24
621.034	60031.91
621.39	60026.26
621.746	60088.41
622.101	60258.34
622.457	60089.76
622.812	60113.04
623.168	60183.09
623.523	60197.78
623.879	60209.08
624.234	60109.42
624.589	60208.4
624.945	60185.8
625.3	60283.88
625.655	60206.14
626.01	60223.09
626.365	60184
626.72	60117.78
627.075	60165.01
627.43	60146.26
627.785	60122.08
628.14	60122.98
628.495	60168.18
628.85	60076.2
629.205	59977.22
629.559	60174.28
629.914	60075.07
630.269	60069.88
630.623	59952.82
630.978	59909.43
631.332	60099.93
631.687	60068.07
632.041	59908.3
632.396	59930.22
632.75	59892.7
633.104	59893.38
633.459	59775.87
633.813	59807.74
634.167	59809.77
634.521	59732.71
634.875	59758.92
635.229	59730.9
635.583	59577.68
635.937	59624.92
636.291	59631.47
636.645	59582.66
636.999	59498.14
637.352	59607.97
637.706	59490
638.06	59593.73
638.413	59463.11
638.767	59418.59
639.121	59451.13
639.474	59287.75
639.828	59307.86
640.181	59287.52
640.534	59307.18
640.888	59284.13
641.241	59115.32
641.594	59193.29
641.947	59303.12
642.301	59096.34
642.654	59091.6
643.007	59141.99
643.36	59046.4
643.713	59094.53
644.066	59148.09
644.419	58936.12
644.771	58807.99
645.124	58532.06
645.477	58479.18
645.83	58313.09
646.182	58129.59
646.535	58128.46
646.888	58187.89
647.24	58091.4
647.593	58207.1
647.945	58159.19
648.298	58000.1
648.65	57940.67
649.002	57800.78
649.355	57993.32
649.707	57911.51
650.059	57980.21
650.411	58328.23
650.763	58251.17
651.115	58587.43
651.467	58388.56
651.819	58401.67
652.171	58352.18
652.523	58328.68
652.875	58352.63
653.227	58165.52
653.578	58339.07
653.93	58211.39
654.282	58130.27
654.633	58137.5
654.985	58175.69
655.337	58145.18
655.688	58192.86
656.039	58228.79
656.391	57909.03
656.742	58032.19
657.094	58017.27
657.445	58219.08
657.796	58138.4
658.147	58059.76
658.498	58021.57
658.849	58002.59
659.2	57893.66
659.551	57965.3
659.902	58018.86
660.253	57911.29
660.604	57963.72
660.955	57839.65
661.306	57958.52
661.656	57834.91
662.007	57941.34
662.358	57864.96
662.708	57798.97
663.059	57808.01
663.409	57584.97
663.76	57761.69
664.11	57766.66
664.461	57762.14
664.811	57761.91
665.161	57756.04
665.511	57679.66
665.862	57740.67
666.212	57815.25
666.562	57739.54
666.912	57787.9
667.262	57655.02
667.612	57688.7
667.962	57734.8
668.312	57694.8
668.662	57773.89
669.011	57676.27
669.361	57539.55
669.711	57522.37
670.06	57560.34
670.41	57508.59
670.76	57540.45
671.109	57537.06
671.459	57512.65
671.808	57409.15
672.157	57533.22
672.507	57325.54
672.856	57395.6
673.205	57467.01
673.554	57497.06
673.904	57357.4
674.253	57394.69
674.602	57365.77
674.951	57048.03
675.3	56931.43
675.649	57368.93
675.998	57251.64
676.346	57246.45
676.695	57295.71
677.044	57180.91
677.393	57276.73
677.741	57310.17
678.09	57189.05
678.438	57155.83
678.787	57178.65
679.135	57156.28
679.484	56984.31
679.832	57105.43
680.181	56966.45
680.529	57061.37
680.877	56926.46
681.225	56842.84
681.573	56973.01
681.922	56845.78
682.27	56784.09
682.618	56811.66
682.966	56706.57
683.314	56735.05
683.661	56587.93
684.009	56454.83
684.357	56462.06
684.705	56423.87
685.053	56408.28
685.4	56415.06
685.748	56257.32
686.095	56210.09
686.443	56122.18
686.79	56064.56
687.138	56138.68
687.485	56086.48
687.832	55994.73
688.18	56024.78
688.527	55875.86
688.874	55864.34
689.221	55765.81
689.568	55746.83
689.915	55665.7
690.262	55728.52
690.609	55475.42
690.956	55450.79
691.303	55410.34
691.65	55277.46
691.997	55341.64
692.344	55096.22
692.69	55130.12
693.037	55229.55
693.383	54986.17
693.73	55024.13
694.077	54787.98
694.423	54738.49
694.769	54682.22
695.116	54654.2
695.462	54630.92
695.808	54568.33
696.155	54519.06
696.501	54292.4
696.847	54324.72
697.193	54122.01
697.539	54229.12
697.885	54021.22
698.231	53865.29
698.577	53985.52
698.923	53837.04
699.269	53715.92
699.614	53542.59
699.96	53523.38
700.306	53497.62
700.651	53468.24
700.997	53308.47
701.342	53262.37
701.688	53194.35
702.033	53072.32
702.379	53072.55
702.724	52915.94
703.069	52995.94
703.415	52689.05
703.76	52604.08
704.105	52669.62
704.45	52505.55
704.795	52442.96
705.14	52252
705.485	52296.97
705.83	52181.5
706.175	52173.36
706.52	52182.63
706.865	52026.7
707.209	51945.57
707.554	51787.38
707.899	52008.84
708.243	51686.82
708.588	51580.61
708.932	51532.7
709.277	51343.1
709.621	51455.86
709.966	51273.5
710.31	51292.93
710.654	50990.57
710.998	51092.03
711.342	50962.09
711.687	50998.7
712.031	50732.95
712.375	50689.78
712.719	50780.4
713.063	50631.48
713.407	50710.57
713.75	50413.41
714.094	50521.43
714.438	50306.06
714.782	50311.71
715.125	50165.95
715.469	50292.96
715.812	49974.77
716.156	49855.91
716.499	49873.53
716.843	49905.17
717.186	49639.64
717.53	49834.21
717.873	49786.98
718.216	49748.34
718.559	49608.68
718.902	49450.27
719.246	49427.67
719.589	49330.27
719.932	49102.48
720.275	49152.87
720.617	49125.08
720.96	49015.93
721.303	48960.34
721.646	49037.85
721.989	48799.44
722.331	48773.68
722.674	48794.69
723.016	48736.16
723.359	48582.72
723.701	48513.34
724.044	48465.89
724.386	48056.41
724.729	48361.26
725.071	48187.02
725.413	48249.62
725.755	48201.71
726.097	47953.36
726.439	47843.98
726.782	47754.72
727.124	47831.33
727.465	47644.44
727.807	47737.32
728.149	47571.45
728.491	47434.28
728.833	47684.89
729.175	47378.91
729.516	47349.53
729.858	47209.42
730.199	47232.02
730.541	47117.67
730.882	47028.86
731.224	47213.26
731.565	46928.75
731.906	47173.49
732.248	47101.18
732.589	46692.83
732.93	46672.71
733.271	46588.42
733.612	46717.68
733.953	46603.11
734.294	46493.51
734.635	46520.18
734.976	46461.19
735.317	46298.94
735.658	46084.93
735.999	46188.43
736.339	46122.9
736.68	46175.33
737.021	45994.31
737.361	45861.21
737.702	46000.41
738.042	45842.23
738.383	45740.76
738.723	45745.73
739.063	45746.41
739.404	45692.63
739.744	45485.17
740.084	45373.09
740.424	45478.39
740.764	45397.27
741.104	45382.13
741.444	45021.91
741.784	45056.71
742.124	45109.14
742.464	44978.97
742.804	44916.38
743.143	44915.7
743.483	44923.61
743.823	44763.61
744.162	44612.43
744.502	44629.83
744.841	44498.99
745.181	44669.38
745.52	44430.96
745.86	44515.93
746.199	44385.77
746.538	44231.87
746.877	44193.23
747.216	44166.11
747.556	43910.07
747.895	44043.4
748.234	43790.53
748.573	43731.1
748.911	43757.76
749.25	43772
749.589	43556.19
749.928	43714.83
750.267	43518.45
750.605	43294.5
750.944	43183.09
751.283	43096.99
751.621	43054.05
751.96	42866.94
752.298	42860.38
