Data from plate_porcelain_FLMS001491_088.txt Node
Date: Tue Feb 07 11:20:03 GMT 2017
User: dcchb
Spectrometer: FLMS00149
Trigger mode: 0
Integration Time (sec): 2.000000E-2
Scans to average: 10
Electric dark correction enabled: true
Nonlinearity correction enabled: false
Boxcar width: 0
XAxis mode: Wavelengths
Number of Pixels in Spectrum: 2048
>>>>>Begin Spectral Data<<<<<
341.393	-19.28
341.776	-19.28
342.16	-19.28
342.543	-63.12
342.927	-58.83
343.31	-64.48
343.693	-69
344.077	-65.38
344.46	-52.05
344.843	-67.19
345.226	-29.45
345.61	2.42
345.993	-15.44
346.376	-11.14
346.759	29.53
347.142	26.82
347.525	29.31
347.908	60.94
348.291	56.88
348.674	81.96
349.057	86.25
349.44	119.25
349.823	125.58
350.206	167.61
350.588	222.3
350.971	275.18
351.354	270.66
351.737	260.94
352.119	258
352.502	293.03
352.884	279.92
353.267	301.39
353.65	320.6
354.032	323.31
354.414	359.02
354.797	345.01
355.179	362.86
355.562	349.07
355.944	367.6
356.326	383.87
356.709	377.55
357.091	373.03
357.473	380.03
357.855	378.22
358.238	378.45
358.62	395.4
359.002	395.85
359.384	380.94
359.766	385.46
360.148	384.33
360.53	394.5
360.912	360.37
361.294	383.65
361.676	375.51
362.057	403.99
362.439	381.39
362.821	396.08
363.203	358.34
363.584	364.89
363.966	389.52
364.348	379.58
364.729	405.57
365.111	386.81
365.493	405.79
365.874	388.85
366.256	387.04
366.637	391.78
367.019	366.47
367.4	380.03
367.781	380.26
368.163	384.55
368.544	388.39
368.925	407.15
369.306	393.37
369.688	378
370.069	379.58
370.45	398.79
370.831	394.04
371.212	388.39
371.593	409.86
371.974	401.05
372.355	391.56
372.736	386.81
373.117	418.9
373.498	407.15
373.879	427.04
374.26	410.31
374.641	398.34
375.021	414.83
375.402	439.47
375.783	429.07
376.163	463.87
376.544	454.61
376.925	440.37
377.305	456.19
377.686	465.23
378.066	463.65
378.447	446.47
378.827	449.64
379.208	440.82
379.588	461.16
379.968	476.98
380.349	474.72
380.729	478.11
381.109	478.56
381.489	478.79
381.87	492.8
382.25	495.28
382.63	500.26
383.01	495.51
383.39	508.84
383.77	509.52
384.15	510.65
384.53	526.7
384.91	514.49
385.29	525.11
385.67	573.02
386.049	551.55
386.429	563.76
386.809	551.55
387.189	562.4
387.568	554.72
387.948	554.27
388.328	570.99
388.707	599.69
389.087	589.07
389.466	590.42
389.846	607.37
390.225	605.79
390.605	627.26
390.984	620.25
391.363	615.05
391.743	610.08
392.122	636.52
392.501	645.56
392.881	654.15
393.26	667.93
393.639	672
394.018	668.61
394.397	682.4
394.776	708.39
395.155	678.56
395.534	695.05
395.913	713.58
396.292	702.74
396.671	725.79
397.05	730.98
397.429	728.05
397.808	746.58
398.186	753.81
398.565	781.38
398.944	768.95
399.323	795.16
399.701	763.53
400.08	788.61
400.458	813.47
400.837	795.61
401.215	833.58
401.594	824.54
401.972	843.07
402.351	857.76
402.729	840.59
403.107	858.89
403.486	874.03
403.864	888.49
404.242	850.75
404.62	905.44
404.999	906.12
405.377	925.33
405.755	934.59
406.133	923.29
406.511	946.12
406.889	926.91
407.267	980.47
407.645	978.21
408.023	1031.99
408.401	1014.82
408.779	1029.28
409.156	1053.91
409.534	1054.14
409.912	1068.15
410.29	1104.08
410.667	1121.48
411.045	1140.01
411.422	1132.1
411.8	1139.79
412.178	1167.36
412.555	1181.82
412.933	1201.48
413.31	1211.65
413.687	1256.39
414.065	1248.03
414.442	1276.28
414.819	1277.18
415.197	1273.12
415.574	1315.83
415.951	1328.71
416.328	1318.09
416.705	1373.9
417.082	1342.27
417.46	1407.12
417.837	1405.09
418.214	1375.26
418.591	1403.73
418.967	1438.99
419.344	1437.63
419.721	1467.91
420.098	1462.72
420.475	1460.46
420.852	1497.29
421.228	1536.84
421.605	1553.79
421.982	1557.85
422.358	1582.71
422.735	1578.64
423.111	1584.52
423.488	1627.23
423.864	1649.83
424.241	1694.8
424.617	1652.99
424.994	1711.3
425.37	1734.12
425.746	1749.94
426.123	1746.78
426.499	1778.41
426.875	1817.06
427.251	1831.29
427.627	1885.98
428.003	1901.35
428.379	1914.68
428.756	1923.27
429.132	1933.44
429.507	1987.22
429.883	2021.35
430.259	2064.06
430.635	2066.99
431.011	2098.86
431.387	2122.36
431.763	2172.3
432.138	2166.43
432.514	2223.15
432.89	2224.05
433.265	2336.14
433.641	2329.81
434.016	2307.44
434.392	2419.98
434.767	2425.18
435.143	2444.38
435.518	2446.87
435.894	2486.64
436.269	2534.78
436.644	2532.52
437.02	2571.84
437.395	2623.14
437.77	2642.35
438.145	2676.92
438.52	2696.36
438.895	2699.75
439.271	2750.37
439.646	2809.8
440.021	2795.79
440.395	2869.68
440.77	2831.95
441.145	2855.22
441.52	2920.76
441.895	2918.27
442.27	2937.93
442.645	2985.39
443.019	2999.17
443.394	2996.01
443.769	3068.55
444.143	3061.54
444.518	3096.35
444.892	3087.08
445.267	3127.76
445.641	3140.86
446.016	3179.51
446.39	3214.53
446.764	3223.8
447.139	3239.62
447.513	3276.91
447.887	3318.26
448.262	3344.25
448.636	3333.18
449.01	3376.56
449.384	3407.52
449.758	3436.68
450.132	3485.04
450.506	3480.52
450.88	3560.06
451.254	3546.95
451.628	3577.91
452.002	3619.72
452.376	3672.15
452.75	3755.31
453.123	3742.66
453.497	3815.2
453.871	3905.59
454.244	3960.28
454.618	3950.11
454.992	3977.9
455.365	4061.29
455.739	4130.89
456.112	4117.34
456.486	4219.25
456.859	4242.76
457.232	4358.23
457.606	4356.43
457.979	4425.58
458.352	4485.24
458.725	4557.32
459.099	4572.92
459.472	4691.78
459.845	4722.74
460.218	4765.45
460.591	4858.56
460.964	4861.04
461.337	4985.56
461.71	4993.92
462.083	5108.27
462.456	5125.44
462.829	5148.04
463.201	5252.67
463.574	5261.03
463.947	5317.76
464.32	5497.41
464.692	5547.13
465.065	5591.87
465.438	5612.89
465.81	5787.12
466.183	5747.35
466.555	5966.78
466.928	6004.07
467.3	6007
467.672	6122.25
468.045	6266.43
468.417	6247.45
468.789	6327.9
469.161	6419.65
469.534	6519.08
469.906	6663.03
470.278	6740.54
470.65	6755.68
471.022	6932.18
471.394	7038.16
471.766	7098.05
472.138	7185.05
472.51	7352.73
472.882	7458.26
473.253	7530.35
473.625	7697.13
473.997	7927.4
474.369	7931.02
474.74	8016.44
475.112	8114.97
475.484	8338.92
475.855	8475.19
476.227	8494.4
476.598	8716.99
476.97	8867.94
477.341	9082.18
477.713	9168.05
478.084	9134.38
478.455	9490.3
478.827	9541.6
479.198	9873.34
479.569	9877.86
479.94	10131.41
480.311	10252.54
480.682	10528.47
481.053	10768.01
481.424	10902.69
481.795	11030.6
482.166	11142.24
482.537	11333.19
482.908	11531.15
483.279	11731.15
483.65	11932.5
484.021	12155.54
484.391	12334.75
484.762	12525.02
485.133	12586.27
485.503	12767.73
485.874	13023.77
486.244	13227.83
486.615	13452.68
486.985	13533.81
487.356	13936.74
487.726	13979.45
488.097	14239.55
488.467	14329.5
488.837	14678.19
489.207	14854
489.578	15086.31
489.948	15171.51
490.318	15410.6
490.688	15526.53
491.058	15747.09
491.428	15971.49
491.798	16105.72
492.168	16480.17
492.538	16507.74
492.908	16669.32
493.278	16901.18
493.648	16987.05
494.017	17256.2
494.387	17358.34
494.757	17568.96
495.126	17653.93
495.496	17776.41
495.866	17962.17
496.235	18138.44
496.605	18344.31
496.974	18478.54
497.344	18632.43
497.713	18796.05
498.082	18995.36
498.452	19046.43
498.821	19211.18
499.19	19299.53
499.559	19510.83
499.928	19640.32
500.298	19684.84
500.667	20062.9
501.036	19886.41
501.405	20217.48
501.774	20216.12
502.143	20451.14
502.512	20505.38
502.88	20794.64
503.249	20872.6
503.618	21049.77
503.987	21073.73
504.356	21342.19
504.724	21384.9
505.093	21534.05
505.462	21668.96
505.83	21789.41
506.199	22015.85
506.567	22295.84
506.936	22356.18
507.304	22534.93
507.672	22700.12
508.041	22705.55
508.409	22889.95
508.777	23152.54
509.145	23393.89
509.514	23286.77
509.882	23476.83
510.25	23737.84
510.618	23974.44
510.986	24017.38
511.354	24244.94
511.722	24377.37
512.09	24498.49
512.458	24665.95
512.826	24815.77
513.193	25072.04
513.561	25194.3
513.929	25390.45
514.297	25636.77
514.664	25811.68
515.032	25936.42
515.4	26326.24
515.767	26266.13
516.135	26413.7
516.502	26455.5
516.869	26899.11
517.237	26988.6
517.604	26879.67
517.972	27530.73
518.339	27593.33
518.706	27775.7
519.073	27802.14
519.44	28091.85
519.808	28252.07
520.175	28440.99
520.542	28791.26
520.909	28862
521.276	28865.16
521.643	29215.88
522.009	29477.35
522.376	29753.05
522.743	29932.7
523.11	30127.5
523.477	30498.79
523.843	30633.93
524.21	31077.98
524.577	31217.64
524.943	31314.59
525.31	31598.19
525.676	31941.46
526.043	31944.63
526.409	32214.68
526.776	32576.93
527.142	32767.66
527.508	32935.11
527.874	33208.1
528.241	33439.28
528.607	33546.84
528.973	33865.93
529.339	33898.47
529.705	34053.95
530.071	34538.46
530.437	34746.81
530.803	34706.36
531.169	35124.2
531.535	35045.34
531.901	35103.41
532.267	35364.88
532.632	35701.82
532.998	35798.31
533.364	36083.5
533.73	36313.32
534.095	36509.25
534.461	36503.38
534.826	36747.89
535.192	37035.79
535.557	37202.57
535.923	37179.74
536.288	37377.03
536.653	37570.69
537.019	37561.65
537.384	37709.22
537.749	37789.67
538.114	37968.2
538.479	38049.1
538.845	38317.79
539.21	38242.09
539.575	38503.55
539.94	38758.01
540.305	38985.34
540.67	38869.19
541.034	39089.3
541.399	39178.11
541.764	39305.56
542.129	39512.56
542.494	39721.82
542.858	39756.4
543.223	39767.47
543.587	40025.54
543.952	39967.01
544.316	40272.77
544.681	40279.32
545.045	40497.4
545.41	40731.97
545.774	40820.32
546.138	40774.22
546.503	40986.87
546.867	41049.47
547.231	41506.63
547.595	41560.19
547.959	41594.77
548.324	41621.66
548.688	41816.68
549.052	41778.72
549.416	42049.67
549.779	42313.17
550.143	42298.25
550.507	42626.15
550.871	42733.5
551.235	42796.54
551.599	43009.87
551.962	43049.64
552.326	43167.16
552.689	43520.82
553.053	43426.36
553.417	43624.09
553.78	44076.51
554.143	43957.87
554.507	44031.31
554.87	44235.6
555.234	44691.86
555.597	44513.79
555.96	44725.76
556.323	44911.06
556.686	44871.29
557.05	45255.69
557.413	45378.17
557.776	45411.84
558.139	45822.23
558.502	45843.47
558.865	45949.91
559.228	46337.47
559.59	46344.47
559.953	46501.98
560.316	46905.36
560.679	46881.63
561.041	47142.42
561.404	47244.79
561.767	47607.49
562.129	47439.13
562.492	47843.64
562.854	47828.28
563.217	47975.17
563.579	48057.2
563.941	48436.85
564.304	48482.27
564.666	48880.45
565.028	48778.08
565.39	48964.29
565.753	49241.57
566.115	49303.72
566.477	49493.09
566.839	49480.89
567.201	49794.33
567.563	49852.4
567.925	50082.45
568.287	50154.77
568.648	50202.23
569.01	50427.53
569.372	50639.05
569.734	50470.01
570.095	50838.14
570.457	50924.69
570.819	50987.29
571.18	51029.55
571.542	51193.84
571.903	51295.98
572.265	51318.81
572.626	51509.31
572.987	51641.51
573.349	51720.38
573.71	51786.59
574.071	51898.23
574.432	51989.97
574.794	52206.24
575.155	52104.55
575.516	52049.63
575.877	52278.33
576.238	52341.83
576.599	52371.89
576.96	52533.92
577.32	52510.87
577.681	52668.15
578.042	52631.09
578.403	52731.65
578.763	52842.61
579.124	52850.29
579.485	52905.88
579.845	53033.11
580.206	52973
580.566	52976.62
580.927	53043.28
581.287	53094.8
581.648	53034.24
582.008	53189.04
582.368	53058.65
582.728	53233.11
583.089	53127.8
583.449	53192.2
583.809	53193.33
584.169	53298.41
584.529	53235.59
584.889	53407.11
585.249	53202.15
585.609	53153.56
585.969	53340
586.329	53225.87
586.688	53326.89
587.048	53349.04
587.408	53319.43
587.768	53248.47
588.127	53301.8
588.487	53336.15
588.846	53487.11
589.206	53197.4
589.565	53302.26
589.925	53508.8
590.284	53377.51
590.643	53483.72
591.003	53515.58
591.362	53521.91
591.721	53464.29
592.08	53483.95
592.44	53541.57
592.799	53601.23
593.158	53494.57
593.517	53569.37
593.876	53508.35
594.235	53537.28
594.593	53591.51
594.952	53697.95
595.311	53589.93
595.67	53601.46
596.029	53745.18
596.387	53740.89
596.746	53815.46
597.104	53757.16
597.463	53757.16
597.822	53859.76
598.18	53637.16
598.538	53710.83
598.897	53957.83
599.255	53666.54
599.613	54133.65
599.972	53788.35
600.33	54041.67
600.688	53927.1
601.046	54024.5
601.404	54125.74
601.762	54001
602.12	54219.75
602.478	54219.07
602.836	54203.02
603.194	53946.76
603.552	54125.06
603.91	54074.21
604.268	54281.44
604.625	54208.9
604.983	54276.24
605.341	54116.02
605.698	54292.29
606.056	54361.21
606.413	54277.6
606.771	54441.44
607.128	54431.94
607.485	54311.04
607.843	54415.22
608.2	54542.22
608.557	54594.65
608.914	54470.14
609.272	54715.33
609.629	54664.48
609.986	54758.26
610.343	54654.54
610.7	54849.11
611.057	54846.85
611.414	54821.54
611.771	54859.96
612.127	54960.52
612.484	54951.48
612.841	55054.3
613.198	55017.24
613.554	54923.01
613.911	55158.25
614.267	55016.56
614.624	55141.98
614.98	55146.28
615.337	55333.62
615.693	55149.67
616.05	55087.75
616.406	55348.76
616.762	55286.39
617.118	55237.8
617.475	55266.5
617.831	55304.01
618.187	55322.54
618.543	55351.47
618.899	55492.26
619.255	55479.83
619.611	55504.46
619.967	55538.13
620.323	55562.08
620.678	55486.83
621.034	55395.31
621.39	55461.52
621.746	55444.8
622.101	55699.03
622.457	55446.83
622.812	55499.26
623.168	55636.66
623.523	55580.39
623.879	55644.34
624.234	55473.05
624.589	55590.56
624.945	55643.21
625.3	55651.35
625.655	55562.76
626.01	55630.78
626.365	55673.04
626.72	55572.93
627.075	55624.68
627.43	55578.36
627.785	55465.36
628.14	55537
628.495	55515.76
628.85	55495.42
629.205	55365.93
629.559	55475.53
629.914	55313.28
630.269	55417.91
630.623	55346.95
630.978	55303.33
631.332	55338.81
631.687	55502.2
632.041	55352.6
632.396	55294.97
632.75	55238.02
633.104	55237.57
633.459	55135.43
633.813	55153.96
634.167	55171.36
634.521	55182.43
634.875	55130.01
635.229	55079.39
635.583	54943.12
635.937	54952.61
636.291	54950.57
636.645	54955.09
636.999	54819.05
637.352	54908.32
637.706	54839.62
638.06	54801.65
638.413	54843.01
638.767	54743.8
639.121	54779.05
639.474	54562.79
639.828	54580.64
640.181	54586.52
640.534	54626.97
640.888	54556.01
641.241	54309.91
641.594	54417.48
641.947	54459.74
642.301	54309.01
642.654	54368.22
643.007	54370.7
643.36	54346.3
643.713	54269.46
644.066	54369.57
644.419	54191.27
644.771	53946.76
645.124	53719.87
645.477	53784.05
645.83	53444.63
646.182	53386.77
646.535	53188.59
646.888	53264.52
647.24	53087.8
647.593	53311.97
647.945	53129.38
648.298	52965.77
648.65	52950.18
649.002	52877.64
649.355	53044.64
649.707	52980.23
650.059	53145.65
650.411	53434.46
650.763	53405.08
651.115	53726.65
651.467	53527.79
651.819	53568.46
652.171	53456.15
652.523	53479.2
652.875	53424.29
653.227	53251.41
653.578	53415.93
653.93	53322.37
654.282	53145.88
654.633	53125.99
654.985	53152.2
655.337	53313.78
655.688	53165.99
656.039	53241.02
656.391	53062.26
656.742	53127.57
657.094	53180.23
657.445	53171.19
657.796	53114.92
658.147	53107.46
658.498	52968.93
658.849	53050.96
659.2	53077.18
659.551	53005.77
659.902	53049.16
660.253	52984.52
660.604	52952.66
660.955	52826.56
661.306	52988.82
661.656	52930.29
662.007	52854.81
662.358	52878.31
662.708	52893.23
663.059	52801.03
663.409	52711.09
663.76	52895.04
664.11	52751.31
664.461	52858.2
664.811	52824.53
665.161	52732.1
665.511	52641.26
665.862	52772.33
666.212	52887.8
666.562	52750.86
666.912	52693.23
667.262	52756.28
667.612	52618.66
667.962	52782.72
668.312	52618.88
668.662	52778.43
669.011	52580.47
669.361	52582.73
669.711	52577.3
670.06	52532.11
670.41	52430.19
670.76	52518.32
671.109	52616.4
671.459	52505.22
671.808	52635.38
672.157	52540.69
672.507	52301.83
672.856	52275.84
673.205	52410.3
673.554	52349.51
673.904	52377.08
674.253	52513.58
674.602	52339.34
674.951	51899.13
675.3	51738.46
675.649	52223.64
675.998	52176.18
676.346	52082.85
676.695	52230.19
677.044	52005.34
677.393	52165.79
677.741	52258.89
678.09	52152.91
678.438	51998.79
678.787	52070.2
679.135	52026.13
679.484	51906.36
679.832	52002.4
680.181	51792.01
680.529	51909.75
680.877	51775.07
681.225	51691.9
681.573	51938.45
681.922	51505.69
682.27	51593.38
682.618	51625.01
682.966	51488.29
683.314	51552.02
683.661	51402.87
684.009	51218.47
684.357	51143.22
684.705	51161.52
685.053	51134.18
685.4	51169.43
685.748	50972.83
686.095	50973.28
686.443	50795.2
686.79	50702.1
687.138	50783
687.485	50736.22
687.832	50720.4
688.18	50696.68
688.527	50527.87
688.874	50582.33
689.221	50263.24
689.568	50267.53
689.915	50097.6
690.262	50122.23
690.609	50068.9
690.956	49913.87
691.303	49928.79
691.65	49628.45
691.997	49678.85
692.344	49554.33
692.69	49460.1
693.037	49571.06
693.383	49224.17
693.73	49425.52
694.077	49081.12
694.423	49018.3
694.769	48889.04
695.116	48941.24
695.462	48896.5
695.808	48789.61
696.155	48757.07
696.501	48372.22
696.847	48555.94
697.193	48196.63
697.539	48433.68
697.885	48061.04
698.231	47983.07
698.577	47984.43
698.923	47963.87
699.269	47701.5
699.614	47447.72
699.96	47420.83
700.306	47547.38
700.651	47255.41
700.997	47226.48
701.342	47164.56
701.688	47013.83
702.033	46883.89
702.379	46836.21
702.724	46671.02
703.069	46793.5
703.415	46392.38
703.76	46370.91
704.105	46330.91
704.45	46181.31
704.795	45973.41
705.14	45952.62
705.485	45916.46
705.83	45772.06
706.175	45700.87
706.52	45655.68
706.865	45623.59
707.209	45446.19
707.554	45268.12
707.899	45441.45
708.243	45106.77
708.588	45156.26
708.932	44880.11
709.277	44843.72
709.621	44837.62
709.966	44710.84
710.31	44628.13
710.654	44333.68
710.998	44527.57
711.342	44410.06
711.687	44196.06
712.031	44061.6
712.375	43990.86
712.719	44015.95
713.063	44037.64
713.407	44008.94
713.75	43703.19
714.094	43796.29
714.438	43599.01
714.782	43570.08
715.125	43354.04
715.469	43507.94
715.812	43142.75
716.156	42985.24
716.499	43010.32
716.843	43087.61
717.186	42794.28
717.53	42993.83
717.873	42858.01
718.216	42844.45
718.559	42639.49
718.902	42408.53
719.246	42462.77
719.589	42397.46
719.932	42187.97
720.275	42328.08
720.617	42209.44
720.96	42173.28
721.303	42106.84
721.646	42157.46
721.989	41775.1
722.331	41992.27
722.674	41801.54
723.016	41723.8
723.359	41699.4
723.701	41533.75
724.044	41364.27
724.386	41265.74
724.729	41460.76
725.071	41326.53
725.413	41403.59
725.755	41189.81
726.097	41045.18
726.439	40781.91
726.782	40741.23
727.124	41035.91
727.465	40810.16
727.807	40811.96
728.149	40604.96
728.491	40610.16
728.833	40752.08
729.175	40555.25
729.516	40355.48
729.858	40417.62
730.199	40370.62
730.541	40317.29
730.882	40210.85
731.224	40333.11
731.565	39977.41
731.906	40007.69
732.248	40039.78
732.589	39810.18
732.93	39725.89
733.271	39780.8
733.612	39793.01
733.953	39852.67
734.294	39560.7
734.635	39626.23
734.976	39564.76
735.317	39398.89
735.658	39275.51
735.999	39411.1
736.339	39348.73
736.68	39314.6
737.021	39096.98
737.361	38840.04
737.702	39294.04
738.042	39073.93
738.383	38900.83
738.723	38989.19
739.063	38915.52
739.404	38900.83
739.744	38727.95
740.084	38446.83
740.424	38574.51
740.764	38452.25
741.104	38597.78
741.444	38440.73
741.784	38170.23
742.124	38294.52
742.464	38124.12
742.804	38110.57
743.143	38062.21
743.483	38108.76
743.823	37862.44
744.162	37967.07
744.502	37946.5
744.841	37682.78
745.181	37802.55
745.52	37695.66
745.86	37858.14
746.199	37570.69
746.538	37444.59
746.877	37488.21
747.216	37565.5
747.556	37364.82
747.895	37271.72
748.234	37144.72
748.573	37130.7
748.911	37024.49
749.25	37182.68
749.589	36829.24
749.928	36984.49
750.267	36852.29
750.605	36713.09
750.944	36687.33
751.283	36501.57
751.621	36683.48
751.96	36485.75
752.298	36434.9
752.636	36390.84
752.975	36248.47
