Data from plate_ceramic_FLMS001491_078.txt Node
Date: Tue Feb 07 11:17:17 GMT 2017
User: dcchb
Spectrometer: FLMS00149
Trigger mode: 0
Integration Time (sec): 2.000000E-2
Scans to average: 10
Electric dark correction enabled: true
Nonlinearity correction enabled: false
Boxcar width: 0
XAxis mode: Wavelengths
Number of Pixels in Spectrum: 2048
>>>>>Begin Spectral Data<<<<<
341.393	-7.26
341.776	-7.26
342.16	-7.26
342.543	-63.53
342.927	-70.76
343.31	-67.37
343.693	-62.63
344.077	-66.92
344.46	-60.14
344.843	-41.61
345.226	-40.48
345.61	-30.76
345.993	-24.43
346.376	-18.56
346.759	20.54
347.142	19.63
347.525	37.48
347.908	53.98
348.291	69.12
348.674	100.99
349.057	111.16
349.44	141.21
349.823	152.74
350.206	174.88
350.588	221.21
350.971	219.4
351.354	244.49
351.737	253.3
352.119	268.44
352.502	262.79
352.884	300.53
353.267	303.01
353.65	320.19
354.032	314.99
354.414	306.4
354.797	335.56
355.179	331.04
355.562	370.36
355.944	357.48
356.326	364.71
356.709	359.51
357.091	381.66
357.473	356.35
357.855	367.65
358.238	362.22
358.62	365.16
359.002	371.04
359.384	387.53
359.766	362.9
360.148	375.1
360.53	362.22
360.912	366.29
361.294	343.24
361.676	379.85
362.057	373.75
362.439	349.79
362.821	398.83
363.203	352.05
363.584	373.97
363.966	370.36
364.348	374.43
364.729	343.24
365.111	356.57
365.493	373.97
365.874	353.18
366.256	362.9
366.637	359.74
367.019	367.19
367.4	376.23
367.781	358.83
368.163	387.31
368.544	370.13
368.925	360.64
369.306	346.4
369.688	367.65
370.069	373.75
370.45	380.3
370.831	377.59
371.212	362.9
371.593	371.49
371.974	361.32
372.355	360.64
372.736	366.29
373.117	381.88
373.498	364.03
373.879	360.19
374.26	373.75
374.641	387.31
375.021	370.81
375.402	392.28
375.783	375.33
376.163	409.9
376.544	414.2
376.925	399.74
377.305	401.32
377.686	387.08
378.066	426.85
378.447	401.77
378.827	407.64
379.208	414.88
379.588	406.29
379.968	426.85
380.349	407.19
380.729	434.31
381.109	433.63
381.489	432.28
381.87	450.36
382.25	446.29
382.63	425.27
383.01	449.9
383.39	434.08
383.77	447.42
384.15	444.93
384.53	444.48
384.91	453.52
385.29	456.91
385.67	459.62
386.049	479.51
386.429	463.24
386.809	486.29
387.189	481.09
387.568	484.25
387.948	503.46
388.328	509.11
388.707	506.63
389.087	489.45
389.466	528.32
389.846	501.88
390.225	533.97
390.605	516.57
390.984	524.93
391.363	544.14
391.743	528.32
392.122	528.77
392.501	546.4
392.881	570.35
393.26	538.04
393.639	560.18
394.018	553.4
394.397	580.97
394.776	563.12
395.155	572.16
395.534	538.94
395.913	591.37
396.292	597.47
396.671	578.49
397.05	609.45
397.429	575.78
397.808	622.1
398.186	613.06
398.565	604.48
398.944	644.93
399.323	639.95
399.701	647.86
400.08	643.12
400.458	652.38
400.837	677.92
401.215	676.56
401.594	662.33
401.972	673.17
402.351	688.54
402.729	676.11
403.107	685.38
403.486	709.78
403.864	705.49
404.242	707.52
404.62	721.76
404.999	742.78
405.377	754.3
405.755	749.33
406.133	755.88
406.511	761.08
406.889	787.52
407.267	796.56
407.645	796.56
408.023	803.57
408.401	816.22
408.779	847.63
409.156	821.42
409.534	818.48
409.912	851.02
410.29	873.85
410.667	872.04
411.045	882.89
411.422	873.17
411.8	893.06
412.178	908.87
412.555	909.78
412.933	951.13
413.31	919.5
413.687	960.62
414.065	955.43
414.442	1005.6
414.819	992.49
415.197	1017.57
415.574	1029.55
415.951	1042.88
416.328	1032.49
416.705	1059.15
417.082	1057.57
417.46	1052.83
417.837	1089.66
418.214	1080.4
418.591	1100.06
418.967	1117.91
419.344	1124.24
419.721	1137.79
420.098	1144.12
420.475	1142.77
420.852	1146.16
421.228	1181.64
421.605	1184.8
421.982	1188.42
422.358	1222.31
422.735	1282.88
423.111	1246.72
423.488	1265.7
423.864	1269.09
424.241	1294.18
424.617	1272.71
424.994	1305.02
425.37	1311.8
425.746	1333.27
426.123	1342.08
426.499	1341.63
426.875	1366.94
427.251	1404.91
427.627	1435.87
428.003	1409.43
428.379	1454.85
428.756	1460.27
429.132	1477.67
429.507	1523.1
429.883	1551.12
430.259	1544.56
430.635	1572.81
431.011	1576.88
431.387	1599.03
431.763	1663.66
432.138	1640.38
432.514	1684.9
432.89	1675.18
433.265	1709.98
433.641	1748.17
434.016	1778.46
434.392	1754.05
434.767	1832.69
435.143	1824.78
435.518	1833.14
435.894	1857.32
436.269	1877.44
436.644	1902.07
437.02	1956.98
437.395	1929.86
437.77	1921.28
438.145	1990.88
438.52	2003.08
438.895	2025.23
439.271	2012.12
439.646	2076.53
440.021	2101.61
440.395	2071.1
440.77	2101.61
441.145	2121.27
441.52	2145.45
441.895	2165.34
442.27	2170.08
442.645	2195.85
443.019	2223.64
443.394	2225.68
443.769	2238.1
444.143	2211.21
444.518	2274.49
444.892	2272.68
445.267	2301.15
445.641	2308.61
446.016	2316.52
446.39	2366.01
446.764	2382.28
447.139	2369.17
447.513	2406.69
447.887	2388.38
448.262	2419.8
448.636	2422.73
449.01	2458.44
449.384	2487.82
449.758	2493.69
450.132	2527.81
450.506	2542.73
450.88	2597.64
451.254	2569.85
451.628	2625.44
452.002	2629.73
452.376	2680.81
452.75	2703.18
453.123	2748.15
453.497	2789.95
453.871	2763.51
454.244	2872.21
454.618	2857.52
454.992	2945.43
455.365	2880.12
455.739	2995.15
456.112	2987.69
456.486	3045.32
456.859	3096.16
457.232	3114.92
457.606	3118.31
457.979	3170.06
458.352	3254.8
458.725	3278.3
459.099	3304.29
459.472	3358.98
459.845	3407.34
460.218	3404.18
460.591	3475.81
460.964	3499.99
461.337	3522.59
461.71	3570.73
462.083	3663.83
462.456	3684.17
462.829	3669.25
463.201	3766.43
463.574	3779.99
463.947	3787.67
464.32	3909.7
464.692	3979.3
465.065	3942.24
465.438	4010.49
465.81	4112.63
466.183	4120.77
466.555	4239.63
466.928	4299.52
467.3	4271.05
467.672	4325.06
468.045	4405.51
468.417	4465.39
468.789	4483.7
469.161	4576.57
469.534	4627.65
469.906	4723.01
470.278	4773.41
470.65	4813.63
471.022	4944.02
471.394	5004.13
471.766	5004.59
472.138	5110.8
472.51	5196.67
472.882	5318.25
473.253	5361.64
473.625	5449.77
473.997	5570.9
474.369	5551.92
474.74	5675.75
475.112	5751.91
475.484	5825.58
475.855	5999.81
476.227	6020.38
476.598	6214.95
476.97	6187.83
477.341	6380.59
477.713	6454.94
478.084	6520.25
478.455	6760.7
478.827	6760.25
479.198	6943.52
479.569	6972.22
479.94	7134.02
480.311	7234.13
480.682	7452.88
481.053	7555.93
481.424	7612.88
481.795	7753.89
482.166	7889.93
482.537	7992.53
482.908	8171.96
483.279	8272.07
483.65	8408.11
484.021	8543.48
484.391	8640.2
484.762	8781.89
485.133	8893.3
485.503	8971.94
485.874	9174.87
486.244	9232.5
486.615	9410.35
486.985	9586.39
487.356	9661.86
487.726	9811.69
488.097	10091.01
488.467	10027.28
488.837	10301.85
489.207	10371.45
489.578	10531.67
489.948	10630.2
490.318	10821.38
490.688	10852.57
491.058	10945.67
491.428	11196.29
491.798	11241.94
492.168	11459.56
492.538	11530.74
492.908	11671.08
493.278	11871.75
493.648	11902.48
494.017	12078.52
494.387	12162.59
494.757	12212.08
495.126	12383.15
495.496	12434.45
495.866	12611.62
496.235	12672.86
496.605	12864.04
496.974	12877.15
497.344	13017.71
497.713	13104.26
498.082	13210.7
498.452	13404.14
498.821	13318.04
499.19	13561.65
499.559	13584.93
499.928	13632.38
500.298	13818.82
500.667	13871.7
501.036	13962.32
501.405	14152.37
501.774	14069.88
502.143	14346.94
502.512	14361.4
502.88	14557.78
503.249	14491.79
503.618	14717.1
503.987	14649.53
504.356	14745.8
504.724	14879.35
505.093	15043.42
505.462	15042.29
505.83	15194.37
506.199	15337.87
506.567	15505.55
506.936	15511.88
507.304	15689.73
507.672	15856.28
508.041	15908.48
508.409	16051.53
508.777	16097.4
509.145	16245.42
509.514	16248.13
509.882	16472.08
510.25	16493.55
510.618	16622.13
510.986	16727.44
511.354	16872.07
511.722	17015.57
512.09	17122.69
512.458	17155.68
512.826	17321.55
513.193	17463.24
513.561	17498.27
513.929	17775.32
514.297	17878.6
514.664	18018.93
515.032	18086.95
515.4	18231.13
515.767	18246.27
516.135	18413.72
516.502	18408.3
516.869	18738.69
517.237	18857.1
517.604	18823.43
517.972	19098.68
518.339	19195.85
518.706	19291.44
519.073	19449.86
519.44	19525.56
519.808	19739.79
520.175	19857.3
520.542	20037.19
520.909	20148.14
521.276	20248.7
521.643	20468.59
522.009	20555.36
522.376	20701.35
522.743	20754.23
523.11	21127.33
523.477	21141.11
523.843	21333.65
524.21	21558.73
524.577	21848.89
524.943	21809.79
525.31	21984.48
525.676	22242.32
526.043	22459.72
526.409	22543.79
526.776	22642.77
527.142	22854.96
527.508	23008.86
527.874	23103.55
528.241	23333.82
528.607	23342.63
528.973	23617.66
529.339	23655.85
529.705	23828.72
530.071	23953.24
530.437	24021.26
530.803	24296.28
531.169	24491.31
531.535	24562.04
531.901	24628.48
532.267	24743.05
532.632	24976.94
532.998	25051.74
533.364	25226.43
533.73	25337.38
534.095	25556.36
534.461	25623.03
534.826	25663.48
535.192	25717.94
535.557	25953.19
535.923	26069.12
536.288	26083.13
536.653	26360.63
537.019	26340.75
537.384	26423.01
537.749	26737.57
538.114	26591.14
538.479	26577.13
538.845	26814.86
539.21	26813.5
539.575	26929.21
539.94	26966.95
540.305	27289.65
540.67	27248.52
541.034	27314.28
541.399	27399.7
541.764	27584.11
542.129	27655.52
542.494	27869.3
542.858	27922.63
543.223	28008.05
543.587	28054.15
543.952	28043.3
544.316	28255.05
544.681	28261.15
545.045	28448.04
545.41	28517.64
545.774	28533.46
546.138	28653.68
546.503	28873.34
546.867	28845.77
547.231	29064.97
547.595	29092.54
547.959	29255.93
548.324	29259.99
548.688	29370.72
549.052	29648.68
549.416	29532.08
549.779	29762.13
550.143	29974.32
550.507	30026.75
550.871	30136.58
551.235	30175.9
551.599	30258.16
551.962	30399.62
552.326	30510.58
552.689	30712.38
553.053	30661.09
553.417	30711.93
553.78	31141.53
554.143	30960.51
554.507	31282.31
554.87	31259.26
555.234	31563.89
555.597	31437.34
555.96	31536.54
556.323	31684.34
556.686	31817.21
557.05	32108.51
557.413	32089.52
557.776	32297.43
558.139	32533.58
558.502	32626.68
558.865	32704.87
559.228	32811.31
559.59	33018.76
559.953	33014.7
560.316	33343.95
560.679	33449.94
561.041	33530.16
561.404	33811.29
561.767	34025.52
562.129	33886.76
562.492	34419.41
562.854	34322.91
563.217	34403.59
563.579	34597.03
563.941	34897.81
564.304	34947.53
564.666	35199.72
565.028	35206.05
565.39	35333.51
565.753	35544.12
566.115	35630.9
566.477	35749.77
566.839	35898.91
567.201	36165.57
567.563	36208.51
567.925	36451.67
568.287	36458.9
568.648	36634.49
569.01	36798.33
569.372	36977.08
569.734	36933.46
570.095	37270.86
570.457	37441.47
570.819	37443.51
571.18	37356.05
571.542	37766.66
571.903	37739.54
572.265	37874
572.626	38062.93
572.987	38077.16
573.349	38258.85
573.71	38409.36
574.071	38362.8
574.432	38433.76
574.794	38715.34
575.155	38732.06
575.516	38707.2
575.877	38859.06
576.238	39027.19
576.599	39174.76
576.96	39103.12
577.32	39233.06
577.681	39511.93
578.042	39627.18
578.403	39501.53
578.763	39558.03
579.124	39819.26
579.485	39847.74
579.845	39932.03
580.206	39788.76
580.566	39762.32
580.927	39842.99
581.287	40015.87
581.648	39932.71
582.008	40061.74
582.368	39883.22
582.728	40082.53
583.089	39965.93
583.449	40031.01
583.809	40162.08
584.169	40224.9
584.529	40170.89
584.889	40534.5
585.249	40231.91
585.609	40143.55
585.969	40265.35
586.329	40303.09
586.688	40243.89
587.048	40176.54
587.408	40278.69
587.768	40296.99
588.127	40216.09
588.487	40310.78
588.846	40525.91
589.206	40346.71
589.565	40348.29
589.925	40546.25
590.284	40361.62
590.643	40302.41
591.003	40577.89
591.362	40673.25
591.721	40623.54
592.08	40669.18
592.44	40600.71
592.799	40747.83
593.158	40667.15
593.517	40581.73
593.876	40682.52
594.235	40557.32
594.593	40643.87
594.952	40816.75
595.311	40496.99
595.67	40687.94
596.029	41003.87
596.387	41005.45
596.746	41008.39
597.104	40826.47
597.463	40796.19
597.822	41018.1
598.18	40925.9
598.538	40951.89
598.897	41096.29
599.255	40892.68
599.613	41474.36
599.972	41254.48
600.33	41313.01
600.688	41156.86
601.046	41157.53
601.404	41349.84
601.762	41301.26
602.12	41496.73
602.478	41554.81
602.836	41503.51
603.194	41367.25
603.552	41435.94
603.91	41382.39
604.268	41624.64
604.625	41512.1
604.983	41589.61
605.341	41460.58
605.698	41729.27
606.056	41772.43
606.413	41719.78
606.771	41899.44
607.128	41977.85
607.485	41787.8
607.843	41954.12
608.2	42113.67
608.557	42157.28
608.914	41949.83
609.272	42124.29
609.629	42078.64
609.986	42277.96
610.343	42263.04
610.7	42456.48
611.057	42381
611.414	42477.95
611.771	42514.11
612.127	42546.42
612.484	42417.16
612.841	42713.2
613.198	42504.16
613.554	42564.05
613.911	42845.17
614.267	42875
614.624	42770.6
614.98	42922.91
615.337	43011.95
615.693	42897.37
616.05	42842.01
616.406	43153.41
616.762	43144.37
617.118	43003.36
617.475	43041.55
617.831	43261.66
618.187	43187.08
618.543	43172.62
618.899	43267.08
619.255	43215.33
619.611	43173.75
619.967	43432.5
620.323	43467.98
620.678	43373.97
621.034	43229.34
621.39	43310.92
621.746	43243.58
622.101	43797.46
622.457	43259.85
622.812	43487.19
623.168	43399.51
623.523	43566.51
623.879	43574.42
624.234	43342.56
624.589	43473.86
624.945	43438.83
625.3	43519.05
625.655	43367.19
626.01	43500.07
626.365	43578.94
626.72	43456
627.075	43370.81
627.43	43518.6
627.785	43409.45
628.14	43416.68
628.495	43462.33
628.85	43383.01
629.205	43315.22
629.559	43420.98
629.914	43290.58
630.269	43241.77
630.623	43253.52
630.978	43152.96
631.332	43267.76
631.687	43239.96
632.041	43015.34
632.396	43145.5
632.75	42898.28
633.104	43153.41
633.459	42561.11
633.813	42772.41
634.167	42766.53
634.521	42846.08
634.875	42880.65
635.229	42794.1
635.583	42740.09
635.937	42524.73
636.291	42675.69
636.645	42593.43
636.999	42620.55
637.352	42662.13
637.706	42397.28
638.06	42578.51
638.413	42319.09
638.767	42305.53
639.121	42312.76
639.474	41996.61
639.828	42071.41
640.181	42159.99
640.534	41989.38
640.888	42084.51
641.241	41802.26
641.594	42020.79
641.947	42046.78
642.301	41793.9
642.654	41989.15
643.007	41860.57
643.36	41879.32
643.713	41843.62
644.066	41809.49
644.419	41418.77
644.771	41224.65
645.124	40747.37
645.477	40845.45
645.83	40527.72
646.182	40452.24
646.535	40292.25
646.888	40472.58
647.24	40215.19
647.593	40460.83
647.945	40263.32
648.298	40119.14
648.65	40046.83
649.002	39932.71
649.355	40037.56
649.707	39875.76
650.059	39897
650.411	40405.69
650.763	40567.94
651.115	41019.46
651.467	40842.29
651.819	40806.13
652.171	40666.02
652.523	40702.86
652.875	40576.98
653.227	40469.64
653.578	40769.07
653.93	40680.03
654.282	40432.35
654.633	40352.36
654.985	40479.13
655.337	40530.43
655.688	40387.61
656.039	40527.04
656.391	40163.44
656.742	40308.29
657.094	40296.09
657.445	40308.74
657.796	40367.27
658.147	40020.84
658.498	40167.28
658.849	40239.14
659.2	40185.58
659.551	40172.93
659.902	40048.18
660.253	40133.83
660.604	40171.12
660.955	39831.47
661.306	40120.72
661.656	39861.52
662.007	40025.81
662.358	39940.16
662.708	39905.59
663.059	39897.68
663.409	39628.31
663.76	40065.81
664.11	39759.38
664.461	39843.67
664.811	39770.23
665.161	39868.98
665.511	39811.13
665.862	39817.68
666.212	39891.35
666.562	39846.83
666.912	39708.98
667.262	39736.55
667.612	39652.94
667.962	39512.83
668.312	39593.05
668.662	39736.1
669.011	39483.68
669.361	39495.88
669.711	39556.45
670.06	39480.29
670.41	39510.12
670.76	39384.47
671.109	39438.93
671.459	39531.81
671.808	39409.56
672.157	39411.14
672.507	39082.79
672.856	39150.35
673.205	39232.39
673.554	39258.15
673.904	39167.98
674.253	39274.42
674.602	39269.67
674.951	38804.6
675.3	38407.55
675.649	39179.05
675.998	39155.78
676.346	39075.55
676.695	39258.37
677.044	38865.84
677.393	38908.55
677.741	39038.27
678.09	38783.36
678.438	38794.21
678.787	38813.64
679.135	38865.39
679.484	38466.98
679.832	38796.92
680.181	38396.48
680.529	38615.68
680.877	38535.23
681.225	38408
681.573	38686.86
681.922	38355.57
682.27	38235.58
682.618	38443.71
682.966	38230.38
683.314	38324.61
683.661	38131.4
684.009	38000.33
684.357	37861.35
684.705	37873.55
685.053	37897.05
685.4	37848.92
685.748	37510.17
686.095	37673.56
686.443	37505.43
686.79	37491.19
687.138	37429.95
687.485	37429.5
687.832	37392.66
688.18	37395.15
688.527	37148.83
688.874	37097.98
689.221	37041.94
689.568	36959.68
689.915	36929.85
690.262	36884.43
690.609	36809.85
690.956	36689.63
691.303	36730.31
691.65	36528.73
691.997	36468.62
692.344	36251.9
692.69	36212.13
693.037	36403.76
693.383	35968.74
693.73	36217.55
694.077	35922.19
694.423	35878.8
694.769	35872.47
695.116	35779.37
695.462	35619.37
695.808	35578.25
696.155	35555.65
696.501	35213.06
696.847	35234.98
697.193	34985.49
697.539	35173.28
697.885	34810.13
698.231	34641.09
698.577	34707.08
698.923	34733.07
699.269	34563.13
699.614	34285.17
699.96	34264.61
700.306	34354.1
700.651	34154.33
700.997	34177.38
701.342	34052.86
701.688	34040.88
702.033	33885.63
702.379	33830.27
702.724	33876.6
703.069	33818.29
703.415	33265.54
703.76	33372.2
704.105	33452.65
704.45	33369.72
704.795	33128.37
705.14	33131.3
705.485	33002.49
705.83	32894.02
706.175	33012.21
706.52	32838.2
706.865	32801.14
707.209	32775.83
707.554	32514.6
707.899	32703.52
708.243	32552.11
708.588	32419.01
708.932	32158.9
709.277	32174.94
709.621	32256.52
709.966	32101.05
710.31	32185.11
710.654	31770.89
710.998	31781.96
711.342	31910.55
711.687	31696.31
712.031	31648.63
712.375	31560.95
712.719	31656.99
713.063	31427.62
713.407	31460.16
713.75	31277.57
714.094	31279.83
714.438	31254.07
714.782	31266.95
715.125	31033.73
715.469	31152.6
715.812	30983.56
716.156	30773.17
716.499	30831.25
716.843	30914.19
717.186	30769.56
717.53	30809.11
717.873	30723.46
718.216	30582.9
718.559	30593.52
718.902	30392.17
719.246	30432.17
719.589	30357.59
719.932	30119.63
720.275	30122.12
720.617	30168.67
720.96	30035.34
721.303	30218.16
721.646	30024.04
721.989	29838.74
722.331	29863.37
722.674	29828.11
723.016	29847.1
723.359	29694.56
723.701	29744.05
724.044	29579.31
724.386	29361.69
724.729	29530.04
725.071	29457.28
725.413	29473.55
725.755	29353.32
726.097	29329.82
726.439	29128.25
726.782	29140.22
727.124	29257.51
727.465	29139.09
727.807	28962.37
728.149	29033.33
728.491	28914.69
728.833	28931.41
729.175	28889.16
729.516	28774.36
729.858	28743.62
730.199	28755.15
730.541	28724.87
730.882	28661.14
731.224	28665.88
731.565	28548.15
731.906	28501.14
732.248	28399.45
732.589	28428.6
732.93	28279.23
733.271	28373.91
733.612	28412.78
733.953	28253.69
734.294	28249.85
734.635	28175.95
734.976	28259.12
735.317	28036.52
735.658	28147.93
735.999	28017.99
736.339	27926.7
736.68	28046.24
737.021	27894.15
737.361	27849.41
737.702	27891.44
738.042	27818.22
738.383	27656.42
738.723	27715.18
739.063	27545.46
739.404	27751.56
739.744	27596.76
740.084	27506.82
740.424	27590.21
740.764	27417.78
741.104	27418.01
741.444	27281.74
741.784	27205.81
742.124	27446.48
742.464	27217.34
742.804	27195.64
743.143	27132.82
743.483	27113.16
743.823	27024.8
744.162	27003.56
744.502	26970.11
744.841	26965.59
745.181	26950.9
745.52	26840.85
745.86	26815.99
746.199	26787.06
746.538	26765.6
746.877	26739.38
747.216	26625.26
747.556	26637.69
747.895	26618.03
748.234	26449.9
748.573	26374.19
748.911	26382.78
749.25	26358.15
749.589	26283.12
749.928	26269.34
750.267	26218.72
750.605	26124.93
750.944	26090.36
751.283	26007.42
751.621	26023.24
751.96	25890.14
752.298	25863.25
752.636	25847.2
752.975	25778.28
753.313	25549.58
