Data from plate_ceramic_FLMS001491_044.txt Node
Date: Tue Feb 07 11:16:49 GMT 2017
User: dcchb
Spectrometer: FLMS00149
Trigger mode: 0
Integration Time (sec): 2.000000E-2
Scans to average: 10
Electric dark correction enabled: true
Nonlinearity correction enabled: false
Boxcar width: 0
XAxis mode: Wavelengths
Number of Pixels in Spectrum: 2048
>>>>>Begin Spectral Data<<<<<
341.393	-20.37
341.776	-20.37
342.16	-20.37
342.543	-81.16
342.927	-51.1
343.31	-82.51
343.693	-67.37
344.077	-57.88
344.46	-61.27
344.843	-57.88
345.226	-35.51
345.61	-32.34
345.993	0.2
346.376	-0.71
346.759	6.98
347.142	24.6
347.525	53.08
347.908	39.97
348.291	63.47
348.674	88.56
349.057	118.61
349.44	116.13
349.823	139.63
350.206	157.26
350.588	203.13
350.971	212.4
351.354	235.45
351.737	245.84
352.119	246.29
352.502	268.21
352.884	264.15
353.267	302.11
353.65	314.99
354.032	300.3
354.414	311.38
354.797	321.55
355.179	336.91
355.562	314.31
355.944	342.79
356.326	349.57
356.709	325.61
357.091	339.4
357.473	342.34
357.855	357.02
358.238	356.8
358.62	329
359.002	333.52
359.384	322.9
359.766	347.31
360.148	338.95
360.53	359.51
360.912	347.08
361.294	365.61
361.676	330.81
362.057	343.92
362.439	333.75
362.821	341.21
363.203	349.79
363.584	339.62
363.966	333.52
364.348	359.06
364.729	325.16
365.111	328.78
365.493	344.37
365.874	337.36
366.256	329.45
366.637	344.37
367.019	343.47
367.4	340.08
367.781	326.97
368.163	340.75
368.544	334.65
368.925	342.79
369.306	362.45
369.688	329.68
370.069	342.56
370.45	334.2
370.831	343.92
371.212	326.06
371.593	359.96
371.974	340.08
372.355	339.62
372.736	349.34
373.117	361.32
373.498	351.15
373.879	349.79
374.26	345.95
374.641	349.34
375.021	352.28
375.402	361.09
375.783	388.21
376.163	394.09
376.544	381.2
376.925	384.82
377.305	343.69
377.686	364.03
378.066	385.72
378.447	387.76
378.827	388.66
379.208	389.11
379.588	365.61
379.968	386.18
380.349	406.74
380.729	397.02
381.109	390.02
381.489	393.41
381.87	397.7
382.25	397.93
382.63	415.1
383.01	377.14
383.39	415.78
383.77	403.12
384.15	406.97
384.53	410.81
384.91	418.04
385.29	444.25
385.67	452.84
386.049	443.12
386.429	432.73
386.809	437.47
387.189	449.23
387.568	413.07
387.948	433.63
388.328	441.99
388.707	468.89
389.087	455.1
389.466	453.29
389.846	451.49
390.225	461.88
390.605	466.85
390.984	475.21
391.363	482.67
391.743	501.2
392.122	490.35
392.501	493.74
392.881	493.74
393.26	501.88
393.639	497.13
394.018	517.25
394.397	508.88
394.776	530.58
395.155	527.64
395.534	540.97
395.913	542.33
396.292	534.65
396.671	553.86
397.05	524.25
397.429	550.47
397.808	539.39
398.186	565.38
398.565	569.67
398.944	594.08
399.323	573.52
399.701	581.43
400.08	586.4
400.458	584.36
400.837	591.59
401.215	609.67
401.594	612.39
401.972	612.39
402.351	602.67
402.729	616.45
403.107	655.55
403.486	625.27
403.864	630.24
404.242	629.33
404.62	668.43
404.999	656.68
405.377	662.33
405.755	676.34
406.133	683.12
406.511	689.45
406.889	687.41
407.267	701.2
407.645	735.09
408.023	712.95
408.401	716.56
408.779	718.37
409.156	739.39
409.534	747.97
409.912	765.83
410.29	782.55
410.667	775.09
411.045	768.54
411.422	805.37
411.8	797.01
412.178	816.22
412.555	816.9
412.933	822.1
413.31	861.42
413.687	849.44
414.065	853.73
414.442	850.12
414.819	859.84
415.197	866.39
415.574	928.08
415.951	891.02
416.328	945.48
416.705	917.24
417.082	947.07
417.46	964.01
417.837	948.65
418.214	958.36
418.591	974.41
418.967	945.26
419.344	975.99
419.721	1001.98
420.098	1025.03
420.475	1024.58
420.852	1025.93
421.228	1041.75
421.605	1044.24
421.982	1054.63
422.358	1054.63
422.735	1084.01
423.111	1068.64
423.488	1111.58
423.864	1095.54
424.241	1117
424.617	1129.66
424.994	1155.42
425.37	1153.16
425.746	1182.09
426.123	1178.7
426.499	1173.5
426.875	1191.58
427.251	1197.23
427.627	1250.79
428.003	1254.85
428.379	1259.15
428.756	1257.34
429.132	1284.23
429.507	1326.72
429.883	1307.51
430.259	1347.73
430.635	1350.9
431.011	1370.56
431.387	1379.6
431.763	1436.54
432.138	1412.82
432.514	1439.71
432.89	1460.5
433.265	1473.38
433.641	1516.09
434.016	1529.2
434.392	1532.13
434.767	1569.42
435.143	1561.74
435.518	1573.94
435.894	1599.7
436.269	1622.75
436.644	1674.28
437.02	1658.23
437.395	1647.61
437.77	1667.27
438.145	1711.79
438.52	1714.73
438.895	1722.41
439.271	1748.63
439.646	1772.13
440.021	1807.38
440.395	1811
440.77	1789.08
441.145	1813.48
441.52	1872.24
441.895	1846.48
442.27	1880.37
442.645	1866.82
443.019	1880.37
443.394	1891.22
443.769	1901.39
444.143	1921.5
444.518	1957.66
444.892	1922.41
445.267	1957.43
445.641	2001.05
446.016	1991.33
446.39	2006.25
446.764	2013.48
447.139	2015.51
447.513	2067.71
447.887	2041.27
448.262	2051.67
448.636	2045.34
449.01	2107.94
449.384	2144.55
449.758	2135.96
450.132	2178.67
450.506	2164.66
450.88	2185
451.254	2174.15
451.628	2220.7
452.002	2260.25
452.376	2255.05
452.75	2288.05
453.123	2344.32
453.497	2338.44
453.871	2352.68
454.244	2422.51
454.618	2401.94
454.992	2460.02
455.365	2484.88
455.739	2545.67
456.112	2548.15
456.486	2586.8
456.859	2588.38
457.232	2667.92
457.606	2647.59
457.979	2659.34
458.352	2748.37
458.725	2762.38
459.099	2761.48
459.472	2830.41
459.845	2853.46
460.218	2892.1
460.591	2905.43
460.964	2924.41
461.337	2961.02
461.71	3052.09
462.083	3067.24
462.456	3093.45
462.829	3122.6
463.201	3156.95
463.574	3201.47
463.947	3256.16
464.32	3305.87
464.692	3332.31
465.065	3358.98
465.438	3404.85
465.81	3481.46
466.183	3515.59
466.555	3583.83
466.928	3606.88
467.3	3600.56
467.672	3690.27
468.045	3773.88
468.417	3718.52
468.789	3792.19
469.161	3874.9
469.534	3927.1
469.906	3961.45
470.278	3990.15
470.65	4054.78
471.022	4161.44
471.394	4233.08
471.766	4251.39
472.138	4329.8
472.51	4356.02
472.882	4426.97
473.253	4515.56
473.625	4614.31
473.997	4658.61
474.369	4708.55
474.74	4777.02
475.112	4865.38
475.484	4901.31
475.855	5018.6
476.227	5058.37
476.598	5200.51
476.97	5243.68
477.341	5322.32
477.713	5412.71
478.084	5424.01
478.455	5616.77
478.827	5672.14
479.198	5807.28
479.569	5845.69
479.94	6034.39
480.311	6081.62
480.682	6191.22
481.053	6358.67
481.424	6429.41
481.795	6510.08
482.166	6605.45
482.537	6763.86
482.908	6815.84
483.279	6917.3
483.65	7035.27
484.021	7178.09
484.391	7282.27
484.762	7279.1
485.133	7415.14
485.503	7524.97
485.874	7687.91
486.244	7751.41
486.615	7899.43
486.985	8023.94
487.356	8139.64
487.726	8248.79
488.097	8405.63
488.467	8376.47
488.837	8607.66
489.207	8699.4
489.578	8793.41
489.948	8829.57
490.318	9050.81
490.688	9112.73
491.058	9197.92
491.428	9319.27
491.798	9432.94
492.168	9623.22
492.538	9614.63
492.908	9763.78
493.278	9996.55
493.648	9986.83
494.017	10016.43
494.387	10116.99
494.757	10312.47
495.126	10374.84
495.496	10391.34
495.866	10497.1
496.235	10568.73
496.605	10712.23
496.974	10830.65
497.344	10946.35
497.713	10992.68
498.082	11139.34
498.452	11157.64
498.821	11273.8
499.19	11273.57
499.559	11398.77
499.928	11474.02
500.298	11562.83
500.667	11641.7
501.036	11696.16
501.405	11815.48
501.774	11793.56
502.143	12018.86
502.512	12043.04
502.88	12175.92
503.249	12168.92
503.618	12338.4
503.987	12343.6
504.356	12412.07
504.724	12501.11
505.093	12568.45
505.462	12675.34
505.83	12756.25
506.199	12887.99
506.567	13042.79
506.936	13025.84
507.304	13200.3
507.672	13276.01
508.041	13297.93
508.409	13401.43
508.777	13639.39
509.145	13657.47
509.514	13689.78
509.882	13846.16
510.25	13810.46
510.618	13955.31
510.986	13989.89
511.354	14195.53
511.722	14339.03
512.09	14433.72
512.458	14389.42
512.826	14536.31
513.193	14696.53
513.561	14739.92
513.929	14927.94
514.297	15021.72
514.664	15136.97
515.032	15178.33
515.4	15332.68
515.767	15418.55
516.135	15514.37
516.502	15467.81
516.869	15789.61
517.237	15801.14
517.604	15864.64
517.972	16127.91
518.339	16193.44
518.706	16186.21
519.073	16287.68
519.44	16389.82
519.808	16583.72
520.175	16630.27
520.542	16869.81
520.909	16972.18
521.276	16983.03
521.643	17242
522.009	17307.99
522.376	17506.4
522.743	17651.03
523.11	17771.93
523.477	17973.96
523.843	18073.85
524.21	18331.69
524.577	18383.9
524.943	18490.11
525.31	18630.89
525.676	18741.85
526.043	18855.97
526.409	18987.27
526.776	19220.26
527.142	19378.9
527.508	19480.14
527.874	19566.46
528.241	19748.38
528.607	19762.84
528.973	19872.9
529.339	19873.35
529.705	20185.2
530.071	20216.62
530.437	20394.24
530.803	20539.32
531.169	20684.17
531.535	20737.96
531.901	20899.31
532.267	20927.33
532.632	21102.47
532.998	21156.7
533.364	21261.11
533.73	21334.33
534.095	21418.62
534.461	21599.86
534.826	21639.63
535.192	21785.84
535.557	21936.12
535.923	21968.89
536.288	22053.63
536.653	22182.89
537.019	22153.74
537.384	22344.69
537.749	22420.63
538.114	22564.8
538.479	22563.9
538.845	22672.37
539.21	22644.8
539.575	22894.29
539.94	22867.62
540.305	23032.36
540.67	22931.35
541.034	23149.19
541.399	23360.71
541.764	23382.18
542.129	23395.97
542.494	23502.18
542.858	23565
543.223	23623.31
543.587	23761.83
543.952	23660.82
544.316	23939.68
544.681	23872.56
545.045	24060.13
545.41	24156.4
545.774	24326.79
546.138	24241.14
546.503	24410.86
546.867	24310.52
547.231	24578.99
547.595	24713.22
547.959	24625.54
548.324	24781.69
548.688	24887.68
549.052	24896.27
549.416	25048.8
549.779	25249.03
550.143	25275.47
550.507	25420.55
550.871	25434.78
551.235	25548.9
551.599	25740.76
551.962	25753.64
552.326	25897.37
552.689	26087.2
553.053	25976.69
553.417	26121.32
553.78	26437.02
554.143	26343.23
554.507	26458.71
554.87	26609.67
555.234	26754.07
555.597	26698.7
555.96	26761.98
556.323	26894.63
556.686	27000.17
557.05	27262.31
557.413	27335.07
557.776	27321.29
558.139	27605.35
558.502	27625.46
558.865	27691.22
559.228	27964.66
559.59	28007.82
559.953	28127.59
560.316	28378.66
560.679	28377.08
561.041	28627.92
561.404	28819.55
561.767	29013.22
562.129	28909.27
562.492	29126.89
562.854	29132.54
563.217	29274.46
563.579	29352.19
563.941	29518.97
564.304	29765.74
564.666	29837.61
565.028	29897.72
565.39	30112.63
565.753	30303.81
566.115	30333.86
566.477	30495.44
566.839	30562.33
567.201	30876.22
567.563	30806.17
567.925	30998.93
568.287	30952.6
568.648	31240.51
569.01	31410.45
569.372	31548.52
569.734	31450.9
570.095	31804.33
570.457	31831.23
570.819	31876.87
571.18	31918.91
571.542	32244.1
571.903	32130.88
572.265	32222.63
572.626	32430.53
572.987	32314.38
573.349	32706
573.71	32665.78
574.071	32685.44
574.432	32793.01
574.794	33114.36
575.155	33075.03
575.516	32969.05
575.877	33187.57
576.238	33215.14
576.599	33373.78
576.96	33373.56
577.32	33387.57
577.681	33496.04
578.042	33623.95
578.403	33570.16
578.763	33764.96
579.124	33796.6
579.485	34065.06
579.845	33904.39
580.206	33920.66
580.566	33950.27
580.927	34034.11
581.287	34162.24
581.648	33950.27
582.008	34261.44
582.368	34153.65
582.728	34135.57
583.089	34119.07
583.449	34187.1
583.809	34193.65
584.169	34219.41
584.529	34138.74
584.889	34449.24
585.249	34393.19
585.609	34157.27
585.969	34495.11
586.329	34317.04
586.688	34425.06
587.048	34359.97
587.408	34407.88
587.768	34268
588.127	34394.55
588.487	34371.72
588.846	34691.71
589.206	34326.3
589.565	34434.55
589.925	34465.28
590.284	34388.9
590.643	34381.67
591.003	34568.78
591.362	34603.58
591.721	34569.01
592.08	34578.27
592.44	34603.13
592.799	34671.15
593.158	34668.89
593.517	34719.74
593.876	34700.98
594.235	34542.34
594.593	34747.53
594.952	34844.93
595.311	34627.54
595.67	34682.45
596.029	34762
596.387	34999.96
596.746	35042.21
597.104	34926.74
597.463	34817.36
597.822	35072.27
598.18	34923.8
598.538	34893.74
598.897	35090.8
599.255	34877.92
599.613	35347.29
599.972	35125.6
600.33	35236.33
600.688	35101.65
601.046	35239.27
601.404	35370.57
601.762	35370.12
602.12	35364.69
602.478	35416.44
602.836	35354.07
603.194	35287.18
603.552	35300.06
603.91	35210.8
604.268	35520.62
604.625	35234.07
604.983	35579.15
605.341	35402.2
605.698	35575.99
606.056	35633.39
606.413	35538.7
606.771	35806.71
607.128	35765.81
607.485	35609.88
607.843	35761.52
608.2	35894.4
608.557	35965.13
608.914	35862.53
609.272	35967.16
609.629	36048.52
609.986	36135.97
610.343	36043.77
610.7	36323.08
611.057	36249.41
611.414	36197.44
611.771	36140.26
612.127	36294.16
612.484	36287.61
612.841	36475.62
613.198	36310.66
613.554	36433.82
613.911	36543.42
614.267	36469.75
614.624	36453.25
614.98	36480.14
615.337	36641.27
615.693	36594.04
616.05	36753.36
616.406	36874.26
616.762	36831.55
617.118	36728.72
617.475	36805.78
617.831	36900.02
618.187	36910.19
618.543	37034.03
618.899	37046.46
619.255	37051.88
619.611	36929.17
619.967	37043.29
620.323	37156.96
620.678	37044.2
621.034	36986.12
621.39	37067.92
621.746	36923.07
622.101	37385.43
622.457	37079.45
622.812	37112.89
623.168	37280.35
623.523	37178.66
623.879	37223.85
624.234	36955.84
624.589	37179.11
624.945	37132.55
625.3	37273.57
625.655	37250.52
626.01	37203.97
626.365	37160.35
626.72	37193.34
627.075	37120.8
627.43	37195.6
627.785	37095.27
628.14	37077.41
628.495	37047.13
628.85	37023.63
629.205	36970.07
629.559	37178.43
629.914	36930.98
630.269	36970.3
630.623	36801.94
630.978	36917.87
631.332	36977.98
631.687	36963.07
632.041	36776.18
632.396	36828.16
632.75	36680.82
633.104	36725.56
633.459	36621.61
633.813	36515.85
634.167	36591.1
634.521	36464.55
634.875	36554.26
635.229	36627.03
635.583	36374.83
635.937	36400.14
636.291	36309.98
636.645	36192.92
636.999	36193.82
637.352	36315.85
637.706	36044
638.06	36288.74
638.413	36056.2
638.767	36102.75
639.121	36076.54
639.474	35952.02
639.828	35871.57
640.181	35898.69
640.534	35932.59
640.888	35721.74
641.241	35740.27
641.594	35700.05
641.947	35741.86
642.301	35550.68
642.654	35599.26
643.007	35784.34
643.36	35618.47
643.713	35425.25
644.066	35662.76
644.419	35268.2
644.771	35072.95
645.124	34827.76
645.477	34723.58
645.83	34455.79
646.182	34411.72
646.535	34160.2
646.888	34315
647.24	34139.64
647.593	34418.95
647.945	34254.44
648.298	34156.14
648.65	33998.17
649.002	33817.39
649.355	34051.51
649.707	33983.71
650.059	34122.01
650.411	34463.47
650.763	34450.37
651.115	34736.91
651.467	34798.38
651.819	34575.56
652.171	34677.25
652.523	34607.42
652.875	34473.64
653.227	34463.92
653.578	34660.3
653.93	34663.92
654.282	34373.31
654.633	34307.77
654.985	34309.8
655.337	34348
655.688	34318.39
656.039	34452.4
656.391	34050.83
656.742	34293.53
657.094	34228.68
657.445	34330.14
657.796	34157.49
658.147	34155.91
658.498	34128.34
658.849	34133.76
659.2	34207.66
659.551	34068.91
659.902	34052.64
660.253	34108.91
660.604	34037.49
660.955	33890.83
661.306	33973.54
661.656	33889.48
662.007	33798.86
662.358	33922.47
662.708	33858.97
663.059	33926.99
663.409	33605.42
663.76	33751.4
664.11	33727.45
664.461	33797.73
664.811	33949.59
665.161	33798.63
665.511	33642.25
665.862	33549.6
666.212	33678.63
666.562	33828.23
666.912	33675.92
667.262	33595.47
667.612	33646.54
667.962	33566.09
668.312	33528.58
668.662	33571.74
669.011	33662.36
669.361	33549.37
669.711	33509.6
670.06	33423.95
670.41	33406.1
670.76	33480.67
671.109	33444.97
671.459	33346.67
671.808	33376.27
672.157	33465.31
672.507	33105.54
672.856	33256.95
673.205	33303.73
673.554	33322.71
673.904	33141.7
674.253	33372.2
674.602	33149.83
674.951	32921.82
675.3	32617.19
675.649	33089.5
675.998	33020.35
676.346	33067.58
676.695	33174.47
677.044	32962.95
677.393	33072.55
677.741	33062.61
678.09	33008.14
678.438	32894.7
678.787	33002.49
679.135	32949.61
679.484	32682.28
679.832	32892.89
680.181	32650.86
680.529	32791.65
680.877	32668.04
681.225	32545.56
681.573	32669.17
681.922	32461.49
682.27	32338.1
682.618	32423.98
682.966	32309.18
683.314	32400.93
683.661	32178.79
684.009	32127.49
684.357	32033.71
684.705	32014.72
685.053	32229.41
685.4	31990.54
685.748	31825.35
686.095	31864.9
686.443	31822.19
686.79	31630.78
687.138	31700.61
687.485	31626.26
687.832	31606.6
688.18	31615.19
688.527	31475.75
688.874	31489.09
689.221	31402.31
689.568	31309.66
689.915	31148.31
690.262	31195.99
690.609	31184.01
690.956	31039.83
691.303	30981.3
691.65	30797.58
691.997	30773.85
692.344	30600.52
692.69	30563.69
693.037	30747.19
693.383	30328.89
693.73	30698.83
694.077	30483.69
694.423	30429
694.769	30294.32
695.116	30247.31
695.462	30156.01
695.808	29936.59
696.155	30087.54
696.501	29866.53
696.847	29703.37
697.193	29496.15
697.539	29672.64
697.885	29483.49
698.231	29295.25
698.577	29296.15
698.923	29229.26
699.269	29159.66
699.614	28982.71
699.96	28926.67
700.306	29008.93
700.651	28879.89
700.997	28705.88
701.342	28678.77
701.688	28663.4
702.033	28457.53
702.379	28598.32
702.724	28493.91
703.069	28455.49
703.415	28238.78
703.76	28199.91
704.105	28210.76
704.45	28126.92
704.795	28004.21
705.14	27866.13
705.485	27807.6
705.83	27739.36
706.175	27852.57
706.52	27683.31
706.865	27604.9
707.209	27502.07
707.554	27524.67
707.899	27495.75
708.243	27366.03
708.588	27290.55
708.932	27135.08
709.277	27089.2
709.621	27067.28
709.966	27045.81
710.31	26982.99
710.654	26842.2
710.998	26878.81
711.342	26847.63
711.687	26693.96
712.031	26591.81
712.375	26539.16
712.719	26534.42
713.063	26542.1
713.407	26577.58
713.75	26518.37
714.094	26437.92
714.438	26249.68
714.782	26297.59
715.125	26206.51
715.469	26129.45
715.812	26061.89
716.156	25896.47
716.499	26030.25
716.843	25951.83
717.186	25842.23
717.53	25878.61
717.873	25914.09
718.216	25797.94
718.559	25689.24
718.902	25627.77
719.246	25584.16
719.589	25491.96
719.932	25410.38
720.275	25406.08
720.617	25273.21
720.96	25331.96
721.303	25317.27
721.646	25208.35
721.989	25139.2
722.331	25219.65
722.674	25072.08
723.016	24999.31
723.359	24903.27
723.701	24959.99
724.044	24910.05
724.386	24757.29
724.729	24852.88
725.071	24641.58
725.413	24871.63
725.755	24650.85
726.097	24583.51
726.439	24564.75
726.782	24630.06
727.124	24605.88
727.465	24506.67
727.807	24506.22
728.149	24407.69
728.491	24323.85
728.833	24377.64
729.175	24197.75
729.516	24126.34
729.858	24094.93
730.199	24222.16
730.541	24104.2
730.882	24042.05
731.224	24093.12
731.565	23899.46
731.906	23934.94
732.248	23999.11
732.589	23775.39
732.93	23846.8
733.271	23835.96
733.612	23822.17
733.953	23872.11
734.294	23612.23
734.635	23627.37
734.976	23725.9
735.317	23609.97
735.658	23592.12
735.999	23588.96
736.339	23486.81
736.68	23524.78
737.021	23452.24
737.361	23385.57
737.702	23457.21
738.042	23282.3
738.383	23369.53
738.723	23254.5
739.063	23250.66
739.404	23222.19
739.744	23174.28
740.084	23128.86
740.424	23070.78
740.764	22970.44
741.104	23074.62
741.444	22840.73
741.784	22899.48
742.124	22903.1
742.464	22826.04
742.804	22750.79
743.143	22609.32
743.483	22729.54
743.823	22632.15
744.162	22613.84
744.502	22610
744.841	22553.73
745.181	22613.61
745.52	22437.12
745.86	22525.48
746.199	22385.82
746.538	22483.67
746.877	22402.32
747.216	22442.32
747.556	22270.57
747.895	22285.26
748.234	22219.27
748.573	22125.72
748.911	22035.32
749.25	22191.25
749.589	21954.2
749.928	22111.48
750.267	21957.59
750.605	21916.46
750.944	21810.92
751.283	21838.49
751.621	21799.85
751.96	21712.85
752.298	21669.46
752.636	21719.63
752.975	21495
753.313	21592.62
753.651	21546.75
753.989	21445.06
754.327	21466.07
754.666	21351.05
