Data from plate_porcelain_FLMS001491_019.txt Node
Date: Tue Feb 07 11:18:52 GMT 2017
User: dcchb
Spectrometer: FLMS00149
Trigger mode: 0
Integration Time (sec): 2.000000E-2
Scans to average: 10
Electric dark correction enabled: true
Nonlinearity correction enabled: false
Boxcar width: 0
XAxis mode: Wavelengths
Number of Pixels in Spectrum: 2048
>>>>>Begin Spectral Data<<<<<
341.393	-9
341.776	-9
342.16	-9
342.543	-72.27
342.927	-53.52
343.31	-75.21
343.693	-64.59
344.077	-73.18
344.46	-58.49
344.843	-53.97
345.226	-53.52
345.61	-39.05
345.993	-29.34
346.376	-5.83
346.759	16.54
347.142	34.84
347.525	51.11
347.908	70.55
348.291	80.72
348.674	96.99
349.057	102.41
349.44	126.82
349.823	143.99
350.206	158.23
350.588	207.27
350.971	230.54
351.354	252.01
351.737	251.11
352.119	274.84
352.502	282.29
352.884	292.46
353.267	315.74
353.65	323.42
354.032	329.07
354.414	335.63
354.797	365.91
355.179	344.89
355.562	343.99
355.944	369.3
356.326	356.87
356.709	363.65
357.091	375.85
357.473	361.84
357.855	387.38
358.238	376.08
358.62	393.03
359.002	393.25
359.384	394.83
359.766	382.63
360.148	386.47
360.53	358
360.912	391.9
361.294	399.35
361.676	398.45
362.057	389.64
362.439	394.16
362.821	382.86
363.203	383.31
363.584	356.64
363.966	378.11
364.348	392.57
364.729	388.96
365.111	388.51
365.493	404.33
365.874	368.85
366.256	373.14
366.637	393.48
367.019	360.26
367.4	362.07
367.781	382.18
368.163	392.8
368.544	360.71
368.925	382.63
369.306	394.83
369.688	381.73
370.069	389.86
370.45	375.17
370.831	403.42
371.212	409.3
371.593	376.53
371.974	389.64
372.355	383.54
372.736	399.81
373.117	407.49
373.498	398.22
373.879	415.4
374.26	406.59
374.641	409.07
375.021	419.92
375.402	438.45
375.783	432.35
376.163	468.28
376.544	448.84
376.925	462.4
377.305	421.73
377.686	458.56
378.066	450.88
378.447	461.05
378.827	459.92
379.208	457.88
379.588	470.54
379.968	450.2
380.349	473.02
380.729	460.14
381.109	461.27
381.489	467.15
381.87	466.7
382.25	494.27
382.63	473.25
383.01	501.27
383.39	512.12
383.77	490.2
384.15	510.99
384.53	504.44
384.91	490.88
385.29	553.93
385.67	529.29
386.049	533.14
386.429	525.9
386.809	533.36
387.189	551.89
387.568	562.97
387.948	550.08
388.328	548.95
388.707	574.72
389.087	565
389.466	573.36
389.846	611.55
390.225	584.21
390.605	588.05
390.984	612.23
391.363	626.69
391.743	619.46
392.122	621.27
392.501	629.86
392.881	635.05
393.26	659.23
393.639	666.69
394.018	660.82
394.397	684.09
394.776	669.86
395.155	676.63
395.534	689.97
395.913	668.05
396.292	682.96
396.671	700.81
397.05	719.57
397.429	708.72
397.808	737.65
398.186	721.61
398.565	735.62
398.944	738.78
399.323	746.92
399.701	737.2
400.08	742.4
400.458	768.38
400.837	797.31
401.215	783.07
401.594	784.65
401.972	775.84
402.351	795.05
402.729	838.89
403.107	823.07
403.486	821.72
403.864	835.27
404.242	857.42
404.62	853.81
404.999	855.16
405.377	878.21
405.755	912.11
406.133	902.39
406.511	899.68
406.889	920.47
407.267	935.84
407.645	948.27
408.023	972.45
408.401	953.69
408.779	982.84
409.156	995.27
409.534	1019.22
409.912	1032.33
410.29	1028.94
410.667	1071.88
411.045	1061.71
411.422	1112.1
411.8	1108.71
412.178	1102.84
412.555	1109.17
412.933	1115.04
413.31	1141.71
413.687	1168.37
414.065	1123.18
414.442	1186.68
414.819	1206.11
415.197	1195.72
415.574	1233.46
415.951	1260.8
416.328	1266
416.705	1262.16
417.082	1283.4
417.46	1320.46
417.837	1308.93
418.214	1335.83
418.591	1340.35
418.967	1350.29
419.344	1333.34
419.721	1358.2
420.098	1385.09
420.475	1409.72
420.852	1408.59
421.228	1426.9
421.605	1429.16
421.982	1446.33
422.358	1488.36
422.735	1485.88
423.111	1497.63
423.488	1491.3
423.864	1556.84
424.241	1544.41
424.617	1553.22
424.994	1543.73
425.37	1604.97
425.746	1598.87
426.123	1658.53
426.499	1669.6
426.875	1682.26
427.251	1701.92
427.627	1723.61
428.003	1762.93
428.379	1788.92
428.756	1788.02
429.132	1798.19
429.507	1837.06
429.883	1856.72
430.259	1876.83
430.635	1919.54
431.011	1930.16
431.387	1991.18
431.763	1992.98
432.138	2009.48
432.514	2051.74
432.89	2055.58
433.265	2119.76
433.641	2123.83
434.016	2141
434.392	2196.14
434.767	2198.4
435.143	2216.26
435.518	2251.28
435.894	2274.56
436.269	2296.25
436.644	2341.45
437.02	2358.62
437.395	2388.23
437.77	2412.86
438.145	2443.37
438.52	2432.07
438.895	2439.53
439.271	2461.22
439.646	2544.16
440.021	2546.19
440.395	2547.09
440.77	2578.51
441.145	2600.43
441.52	2644.49
441.895	2677.71
442.27	2667.09
442.645	2668.45
443.019	2696.02
443.394	2723.81
443.769	2766.07
444.143	2764.49
444.518	2815.79
444.892	2817.37
445.267	2784.15
445.641	2856.69
446.016	2874.54
446.39	2924.03
446.764	2893.98
447.139	2916.12
447.513	2969.23
447.887	2970.81
448.262	3002
448.636	3012.84
449.01	3081.54
449.384	3108.21
449.758	3100.75
450.132	3141.88
450.506	3139.17
450.88	3216.68
451.254	3178.49
451.628	3253.52
452.002	3289.9
452.376	3327.19
452.75	3355.66
453.123	3370.12
453.497	3448.31
453.871	3453.74
454.244	3503
454.618	3548.65
454.992	3635.43
455.365	3586.84
455.739	3683.11
456.112	3706.16
456.486	3732.37
456.859	3825.7
457.232	3895.53
457.606	3861.64
457.979	3915.65
458.352	3995.19
458.725	4011.91
459.099	4062.99
459.472	4168.97
459.845	4214.62
460.218	4218.69
460.591	4282.42
460.964	4306.82
461.337	4390.21
461.71	4510.21
462.083	4534.16
462.456	4547.72
462.829	4530.54
463.201	4676.53
463.574	4676.76
463.947	4781.61
464.32	4860.71
464.692	4843.76
465.065	4888.73
465.438	5000.59
465.81	5051.66
466.183	5119.91
466.555	5211.43
466.928	5242.62
467.3	5319.22
467.672	5331.65
468.045	5514.25
468.417	5544.53
468.789	5552.44
469.161	5636.5
469.534	5690.97
469.906	5840.34
470.278	5863.84
470.65	5926.89
471.022	6095.25
471.394	6181.57
471.766	6243.27
472.138	6317.84
472.51	6475.58
472.882	6563.71
473.253	6610.04
473.625	6720.54
473.997	6874.44
474.369	6904.04
474.74	6975.45
475.112	7156.69
475.484	7232.39
475.855	7380.19
476.227	7389.68
476.598	7620.86
476.97	7725.71
477.341	7901.08
477.713	8016.1
478.084	8047.29
478.455	8265.14
478.827	8335.19
479.198	8614.96
479.569	8614.96
479.94	8897.89
480.311	8945.12
480.682	9143.53
481.053	9363.86
481.424	9496.06
481.795	9545.1
482.166	9732.44
482.537	9882.04
482.908	10088.36
483.279	10145.09
483.65	10368.81
484.021	10546.43
484.391	10743.04
484.762	10773.32
485.133	10831.62
485.503	11086.98
485.874	11281.33
486.244	11396.58
486.615	11629.79
486.985	11781.43
487.356	11975.32
487.726	12128.99
488.097	12327.4
488.467	12384.58
488.837	12625.02
489.207	12766.71
489.578	13013.03
489.948	13136.19
490.318	13260.03
490.688	13364.66
491.058	13565.79
491.428	13778.66
491.798	13914.7
492.168	14215.04
492.538	14225.66
492.908	14453
493.278	14722.82
493.648	14584.07
494.017	14817.73
494.387	14995.81
494.757	15106.99
495.126	15193.09
495.496	15373.42
495.866	15466.53
496.235	15662
496.605	15795.56
496.974	15865.16
497.344	16093.18
497.713	16064.03
498.082	16286.17
498.452	16463.11
498.821	16504.92
499.19	16647.51
499.559	16820.17
499.928	16925.7
500.298	16974.29
500.667	17172.47
501.036	17101.51
501.405	17301.06
501.774	17370.43
502.143	17526.81
502.512	17779.46
502.88	17733.81
503.249	17910.31
503.618	18099.68
503.987	18129.06
504.356	18231.65
504.724	18416.28
505.093	18502.15
505.462	18576.73
505.83	18617.86
506.199	18986.44
506.567	19065.53
506.936	19149.6
507.304	19336.26
507.672	19411.51
508.041	19581.9
508.409	19769.01
508.777	19788.22
509.145	19934.43
509.514	20027.99
509.882	20190.25
510.25	20292.84
510.618	20493.74
510.986	20548.2
511.354	20754.52
511.722	20911.36
512.09	21119.26
512.458	21033.61
512.826	21328.52
513.193	21452.81
513.561	21601.96
513.929	21812.8
514.297	21912.46
514.664	22153.81
515.032	22203.53
515.4	22395.84
515.767	22515.83
516.135	22698.88
516.502	22571.43
516.869	22979.55
517.237	23115.37
517.604	23128.93
517.972	23413.44
518.339	23662.7
518.706	23706.31
519.073	23881.45
519.44	23962.12
519.808	24360.53
520.175	24382
520.542	24696.57
520.909	24847.3
521.276	24859.05
521.643	25141.3
522.009	25245.25
522.376	25490.45
522.743	25657.22
523.11	25835.07
523.477	26214.27
523.843	26324.77
524.21	26680.92
524.577	26777.87
524.943	26851.77
525.31	27004.3
525.676	27449.94
526.043	27524.29
526.409	27623.72
526.776	27963.37
527.142	28041.11
527.508	28319.07
527.874	28546.86
528.241	28720.87
528.607	28690.81
528.973	29032.95
529.339	29134.42
529.705	29455.54
530.071	29590.9
530.437	29713.16
530.803	30018.01
531.169	30080.16
531.535	30112.47
531.901	30138.91
532.267	30452.8
532.632	30712.46
532.998	30702.51
533.364	30973.92
533.73	31123.29
534.095	31257.98
534.461	31394.7
534.826	31671.98
535.192	31772.99
535.557	31926.21
535.923	31919.2
536.288	32047.11
536.653	32250.27
537.019	32235.8
537.384	32443.03
537.749	32537.94
538.114	32715.34
538.479	32720.31
538.845	32944.03
539.21	33010.93
539.575	33072.85
539.94	33336.79
540.305	33490.01
540.67	33426.28
541.034	33648.42
541.399	33771.81
541.764	33972.03
542.129	34034.85
542.494	34096.32
542.858	34319.59
543.223	34319.82
543.587	34532.92
543.952	34625.12
544.316	34632.58
544.681	34677.55
545.045	34894.72
545.41	34975.85
545.774	35078.67
546.138	35206.8
546.503	35408.6
546.867	35376.97
547.231	35717.52
547.595	35872.09
547.959	35947.12
548.324	35956.61
548.688	36109.38
549.052	36319.31
549.416	36256.49
549.779	36446.77
550.143	36505.75
550.507	36807.21
550.871	36913.42
551.235	37007.2
551.599	37199.97
551.962	37304.37
552.326	37246.07
552.689	37652.84
553.053	37580.3
553.417	37699.16
553.78	38121.3
554.143	37987.52
554.507	38156.1
554.87	38339.37
555.234	38773.71
555.597	38544.79
555.96	38782.53
556.323	39030.88
556.686	38987.94
557.05	39366.01
557.413	39446.46
557.776	39526.91
558.139	39820.24
558.502	39954.02
558.865	40021.81
559.228	40337.29
559.59	40398.98
559.953	40426.1
560.316	40867.89
560.679	40880.78
561.041	41102.92
561.404	41258.39
561.767	41524.6
562.129	41557.37
562.492	41932.95
562.854	41903.35
563.217	42152.38
563.579	42286.84
563.941	42485.03
564.304	42537.23
564.666	42894.96
565.028	42917.78
565.39	43101.51
565.753	43317.1
566.115	43245.46
566.477	43535.17
566.839	43621.04
567.201	44079.34
567.563	44063.29
567.925	44381.47
568.287	44357.75
568.648	44561.13
569.01	44707.34
569.372	45002.25
569.734	44880.9
570.095	45107.78
570.457	45308
570.819	45394.1
571.18	45416.48
571.542	45694.21
571.903	45665.73
572.265	45884.26
572.626	45949.79
572.987	46134.2
573.349	46272.95
573.71	46204.93
574.071	46427.3
574.432	46646.73
574.794	46972.14
575.155	46868.87
575.516	46691.47
575.877	46929.66
576.238	47141.85
576.599	47279.03
576.96	47301.4
577.32	47247.16
577.681	47379.81
578.042	47505.23
578.403	47448.06
578.763	47463.88
579.124	47634.5
579.485	47800.59
579.845	47846.47
580.206	47815.73
580.566	47844.43
580.927	47816.86
581.287	47881.27
581.648	47850.76
582.008	47974.15
582.368	48016.41
582.728	48079
583.089	48019.12
583.449	47929.63
583.809	48188.15
584.169	48210.3
584.529	48077.42
584.889	48416.17
585.249	48073.81
585.609	48079.68
585.969	48255.5
586.329	48314.48
586.688	48268.15
587.048	48209.85
587.408	48251.43
587.768	48080.81
588.127	48086.46
588.487	48208.04
588.846	48401.26
589.206	48086.46
589.565	48262.28
589.925	48359
590.284	48256.85
590.643	48240.13
591.003	48406.23
591.362	48504.98
591.721	48427.92
592.08	48390.63
592.44	48575.94
592.799	48507.02
593.158	48553.34
593.517	48559.22
593.876	48643.96
594.235	48549.5
594.593	48529.39
594.952	48631.53
595.311	48657.07
595.67	48691.42
596.029	48859.77
596.387	48931.19
596.746	48815.93
597.104	48640.57
597.463	48768.48
597.822	48836.95
598.18	48699.33
598.538	48784.75
598.897	49027.23
599.255	48745.43
599.613	49241.46
599.972	48836.95
600.33	49003.5
600.688	48843.5
601.046	49106.55
601.404	49328.91
601.762	49091.63
602.12	49274
602.478	49162.59
602.836	49319.65
603.194	49060.45
603.552	49174.57
603.91	49111.52
604.268	49274.9
604.625	49176.38
604.983	49439.19
605.341	49226.77
605.698	49423.15
606.056	49493.88
606.413	49526.88
606.771	49565.74
607.128	49689.58
607.485	49504.5
607.843	49553.54
608.2	49685.97
608.557	49722.8
608.914	49621.11
609.272	49769.13
609.629	49876.25
609.986	49994.89
610.343	49836.02
610.7	50178.84
611.057	50178.38
611.414	50162.11
611.771	50139.51
612.127	50184.26
612.484	50058.39
612.841	50283.92
613.198	50262.9
613.554	50175.45
613.911	50417.25
614.267	50386.06
614.624	50334.76
614.98	50405.95
615.337	50485.72
615.693	50527.53
616.05	50408.21
616.406	50752.15
616.762	50515.55
617.118	50387.42
617.475	50665.15
617.831	50724.13
618.187	50668.99
618.543	50596.9
618.899	50912.15
619.255	50738.82
619.611	50763.91
619.967	50899.04
620.323	50900.17
620.678	50741.99
621.034	50750.35
621.39	50707.41
621.746	50699.27
622.101	51099.94
622.457	50832.83
622.812	50933.39
623.168	51047.51
623.523	50932.71
623.879	50955.09
624.234	50894.3
624.589	50940.4
624.945	51000.74
625.3	50956.67
625.655	50921.42
626.01	50824.02
626.365	51021.98
626.72	50890
627.075	50918.7
627.43	50877.57
627.785	50746.28
628.14	50870.57
628.495	50880.74
628.85	50884.58
629.205	50712.61
629.559	50873.96
629.914	50660.18
630.269	50772.72
630.623	50598.49
630.978	50605.72
631.332	50777.92
631.687	50726.84
632.041	50584.48
632.396	50602.1
632.75	50391.49
633.104	50536.57
633.459	50382.9
633.813	50305.16
634.167	50477.59
634.521	50356.91
634.875	50403.01
635.229	50270.13
635.583	50104.04
635.937	50229.46
636.291	50057.48
636.645	50245.5
636.999	49983.13
637.352	50024.49
637.706	49849.35
638.06	49950.37
638.413	49908.56
638.767	49807.32
639.121	49813.2
639.474	49582.47
639.828	49704.5
640.181	49690.94
640.534	49657.04
640.888	49633.54
641.241	49402.59
641.594	49473.09
641.947	49474.67
642.301	49354
642.654	49391.96
643.007	49336.15
643.36	49256.37
643.713	49255.7
644.066	49420.44
644.419	48973.67
644.771	48719.67
645.124	48382.95
645.477	48246.68
645.83	47986.8
646.182	47918.56
646.535	47879.91
646.888	48022.96
647.24	47800.14
647.593	47947.48
647.945	47908.61
648.298	47785.45
648.65	47614.16
649.002	47458.23
649.355	47551.79
649.707	47573.25
650.059	47689.86
650.411	48053.69
650.763	48098.44
651.115	48493.23
651.467	48409.39
651.819	48267.93
652.171	48155.84
652.523	48089.63
652.875	48027.03
653.227	47903.19
653.578	48032.45
653.93	47958.78
654.282	47854.38
654.633	47701.39
654.985	47860.93
655.337	47789.75
655.688	47855.96
656.039	47954.26
656.391	47629.3
656.742	47702.52
657.094	47716.75
657.445	47722.4
657.796	47702.06
658.147	47619.81
658.498	47692.35
658.849	47692.12
659.2	47649.41
659.551	47409.87
659.902	47702.97
660.253	47546.14
660.604	47566.7
660.955	47345.69
661.306	47452.58
661.656	47350.66
662.007	47403.09
662.358	47366.25
662.708	47399.25
663.059	47355.63
663.409	47118.35
663.76	47458.46
664.11	47298.23
664.461	47406.48
664.811	47189.54
665.161	47340.27
665.511	47210.55
665.862	47287.61
666.212	47306.14
666.562	47382.3
666.912	47310.21
667.262	47154.51
667.612	47180.72
667.962	47224.79
668.312	47088.97
668.662	47277.67
669.011	47093.95
669.361	47057.79
669.711	47043.78
670.06	46982.31
670.41	46889.43
670.76	46844.46
671.109	46939.15
671.459	46957.9
671.808	46914.06
672.157	46862.76
672.507	46581.42
672.856	46651.92
673.205	46745.25
673.554	46811.47
673.904	46728.98
674.253	46787.96
674.602	46595.88
674.951	46130.58
675.3	46142.56
675.649	46560.17
675.998	46516.33
676.346	46597.46
676.695	46591.59
677.044	46333.29
677.393	46436.11
677.741	46367.64
678.09	46440.18
678.438	46188.21
678.787	46225.95
679.135	46256.23
679.484	46031.83
679.832	46241.54
680.181	46012.39
680.529	46068.44
680.877	45828.89
681.225	45970.36
681.573	46059.62
681.922	45609.01
682.27	45609.24
682.618	45752.06
682.966	45572.18
683.314	45635.45
683.661	45558.84
684.009	45221.68
684.357	45323.82
684.705	45214.22
685.053	45145.97
685.4	45136.71
685.748	44936.04
686.095	44902.14
686.443	44810.84
686.79	44639.77
687.138	44703.05
687.485	44696.04
687.832	44508.48
688.18	44632.09
688.527	44543.05
688.874	44213.57
689.221	44282.49
689.568	44100.8
689.915	44034.14
690.262	43875.27
690.609	43891.54
690.956	43750.3
691.303	43816.97
691.65	43511.44
691.997	43478
692.344	43198.23
692.69	43354.16
693.037	43204.33
693.383	43018.35
693.73	43076.65
694.077	42933.15
694.423	42711.91
694.769	42542.43
695.116	42421.98
695.462	42448.87
695.808	42251.13
696.155	42345.82
696.501	41990.12
696.847	42205.71
697.193	41867.19
697.539	42009.33
697.885	41734.54
698.231	41605.28
698.577	41710.13
698.923	41550.14
699.269	41350.37
699.614	41172.97
699.96	41223.82
700.306	41121.67
700.651	40911.74
700.997	40816.6
701.342	40822.02
701.688	40763.72
702.033	40516.04
702.379	40586.09
702.724	40437.4
703.069	40408.92
703.415	39995.6
703.76	40097.75
704.105	39956.05
704.45	39969.84
704.795	39612.56
705.14	39427.48
705.485	39573.92
705.83	39440.59
706.175	39403.75
706.52	39388.39
706.865	39152.01
707.209	39164.44
707.554	39007.83
707.899	39058.45
708.243	39015.51
708.588	38878.57
708.932	38615.98
709.277	38545.7
709.621	38603.77
709.966	38296.89
710.31	38524.68
710.654	38066.84
710.998	38146.16
711.342	38187.74
711.687	37912.27
712.031	37729.22
712.375	37758.37
712.719	37876.79
713.063	37696.23
713.407	37639.05
713.75	37468.66
714.094	37465.05
714.438	37222.79
714.782	37463.24
715.125	37238.84
715.469	37164.71
715.812	37089.01
716.156	36895.8
716.499	36838.85
716.843	36932.18
717.186	36695.57
717.53	36776.48
717.873	36703.94
718.216	36617.84
718.559	36360.44
718.902	36282.7
719.246	36342.14
719.589	36308.92
719.932	36088.13
720.275	36177.4
720.617	35989.6
720.96	35936.72
721.303	35949.83
721.646	35963.16
721.989	35735.15
722.331	35785.32
722.674	35689.27
723.016	35630.52
723.359	35653.34
723.701	35486.11
724.044	35361.82
724.386	35210.87
724.729	35297.19
725.071	35320.24
725.413	35116.86
725.755	35217.2
726.097	34941.27
726.439	34842.52
726.782	34915.73
727.124	35162.51
727.465	34805.68
727.807	34770.43
728.149	34681.84
728.491	34571.79
728.833	34765.46
729.175	34577.89
729.516	34486.37
729.858	34466.03
730.199	34442.98
730.541	34342.42
730.882	34266.26
731.224	34357.78
731.565	34181.06
731.906	34180.39
732.248	34179.48
732.589	33826.05
732.93	33955.31
733.271	33922.77
733.612	33847.97
733.953	33969.32
734.294	33811.13
734.635	33615.66
734.976	33610.23
735.317	33541.08
735.658	33566.39
735.999	33504.02
736.339	33247.98
736.68	33599.61
737.021	33344.7
737.361	33178.61
737.702	33387.41
738.042	33239.17
738.383	33087.08
738.723	33075.56
739.063	33067.65
739.404	33073.97
739.744	32935.45
740.084	32840.08
740.424	32884.6
740.764	32646.87
741.104	32883.92
741.444	32759.86
741.784	32586.3
742.124	32664.04
742.464	32595.12
742.804	32418.85
743.143	32477.83
743.483	32490.04
743.823	32281
744.162	32175.69
744.502	32254.34
744.841	32101.12
745.181	32182.02
745.52	32045.08
745.86	32045.98
746.199	31955.36
746.538	31872.42
746.877	32057.96
747.216	31859.54
747.556	31782.48
747.895	31629.49
748.234	31552.89
748.573	31495.71
748.911	31495.26
749.25	31639.44
749.589	31396.05
749.928	31397.86
750.267	31296.17
750.605	31082.16
750.944	31037.19
751.283	30902.73
751.621	30998.32
751.96	31029.96
752.298	30867.03
752.636	30898.21
752.975	30751.78
753.313	30568.73
753.651	30668.39
