Data from plate_porcelain_FLMS001491_047.txt Node
Date: Tue Feb 07 11:19:23 GMT 2017
User: dcchb
Spectrometer: FLMS00149
Trigger mode: 0
Integration Time (sec): 2.000000E-2
Scans to average: 10
Electric dark correction enabled: true
Nonlinearity correction enabled: false
Boxcar width: 0
XAxis mode: Wavelengths
Number of Pixels in Spectrum: 2048
>>>>>Begin Spectral Data<<<<<
341.393	-11.82
341.776	-11.82
342.16	-11.82
342.543	-43.91
342.927	-60.18
343.31	-64.25
343.693	-67.64
344.077	-74.64
344.46	-64.93
344.843	-23.8
345.226	-36.91
345.61	-25.38
345.993	-17.92
346.376	-13.18
346.759	-3.46
347.142	20.95
347.525	46.93
347.908	57.1
348.291	78.35
348.674	91.23
349.057	97.55
349.44	139.81
349.823	143.2
350.206	167.61
350.588	247.83
350.971	252.8
351.354	241.73
351.737	274.27
352.119	281.5
352.502	304.33
352.884	302.75
353.267	321.05
353.65	306.81
354.032	340.26
354.414	348.17
354.797	357.43
355.179	353.37
355.562	367.15
355.944	360.37
356.326	366.7
356.709	385.68
357.091	393.37
357.473	390.43
357.855	395.63
358.238	386.59
358.62	393.82
359.002	382.52
359.384	377.32
359.766	402.86
360.148	391.33
360.53	402.18
360.912	426.13
361.294	396.53
361.676	382.29
362.057	419.35
362.439	419.58
362.821	399.24
363.203	395.17
363.584	387.04
363.966	392.01
364.348	399.47
364.729	405.79
365.111	387.49
365.493	392.01
365.874	362.41
366.256	376.64
366.637	396.53
367.019	382.74
367.4	396.98
367.781	368.28
368.163	395.17
368.544	386.36
368.925	399.69
369.306	404.44
369.688	414.83
370.069	408.73
370.45	416.87
370.831	419.58
371.212	407.15
371.593	417.09
371.974	417.32
372.355	419.58
372.736	428.39
373.117	439.69
373.498	434.95
373.879	439.24
374.26	429.97
374.641	416.42
375.021	431.78
375.402	430.43
375.783	456.64
376.163	463.65
376.544	444.21
376.925	487.15
377.305	462.74
377.686	476.3
378.066	467.04
378.447	472.46
378.827	472.69
379.208	473.14
379.588	468.62
379.968	513.36
380.349	509.07
380.729	485.34
381.109	516.3
381.489	494.38
381.87	505.45
382.25	532.12
382.63	541.84
383.01	529.41
383.39	529.63
383.77	535.73
384.15	502.74
384.53	549.07
384.91	550.88
385.29	532.8
385.67	560.14
386.049	567.82
386.429	580.71
386.809	603.3
387.189	611.21
387.568	588.39
387.948	577.09
388.328	630.65
388.707	608.27
389.087	608.95
389.466	634.94
389.846	636.75
390.225	647.6
390.605	633.36
390.984	637.43
391.363	651.89
391.743	657.09
392.122	655.28
392.501	657.31
392.881	714.71
393.26	689.63
393.639	692.34
394.018	706.35
394.397	705
394.776	722.85
395.155	709.97
395.534	727.37
395.913	756.29
396.292	760.81
396.671	793.35
397.05	766.69
397.429	780.02
397.808	768.72
398.186	780.7
398.565	811.21
398.944	799.46
399.323	810.3
399.701	796.74
400.08	847.36
400.458	833.35
400.837	832.22
401.215	849.62
401.594	860.25
401.972	877.65
402.351	867.7
402.729	894.14
403.107	894.37
403.486	878.32
403.864	908.83
404.242	919
404.62	941.37
404.999	944.76
405.377	949.73
405.755	992.9
406.133	989.73
406.511	998.1
406.889	978.21
407.267	1048.72
407.645	1028.6
408.023	1061.82
408.401	1068.6
408.779	1075.38
409.156	1093.23
409.534	1106.11
409.912	1123.06
410.29	1170.07
410.667	1163.51
411.045	1174.36
411.422	1207.36
411.8	1188.6
412.178	1227.02
412.555	1246.9
412.933	1247.81
413.31	1286.68
413.687	1296.84
414.065	1311.31
414.442	1334.58
414.819	1351.98
415.197	1356.28
415.574	1378.42
415.951	1393.34
416.328	1408.03
416.705	1425.2
417.082	1416.84
417.46	1485.54
417.837	1488.48
418.214	1493.68
418.591	1489.38
418.967	1495.71
419.344	1542.04
419.721	1543.84
420.098	1589.94
420.475	1579.1
420.852	1579.55
421.228	1615.93
421.605	1647.57
421.982	1655.48
422.358	1674.46
422.735	1709.94
423.111	1684.63
423.488	1724.18
423.864	1741.58
424.241	1796.49
424.617	1805.98
424.994	1831.75
425.37	1831.07
425.746	1840.33
426.123	1843.72
426.499	1854.12
426.875	1900.44
427.251	1940.9
427.627	1968.47
428.003	1978.18
428.379	2012.53
428.756	2018.63
429.132	2049.37
429.507	2093.89
429.883	2122.81
430.259	2194.45
430.635	2185.63
431.011	2205.3
431.387	2299.98
431.763	2289.81
432.138	2303.37
432.514	2372.75
432.89	2376.14
433.265	2411.62
433.641	2462.24
434.016	2489.58
434.392	2496.59
434.767	2586.75
435.143	2555.57
435.518	2610.26
435.894	2628.33
436.269	2667.66
436.644	2700.42
437.02	2677.6
437.395	2756.92
437.77	2805.05
438.145	2827.43
438.52	2873.3
438.895	2890.47
439.271	2887.54
439.646	2954.88
440.021	2984.26
440.395	3043.69
440.77	3008.89
441.145	2990.36
441.52	3086.85
441.895	3079.4
442.27	3139.96
442.645	3089.34
443.019	3150.58
443.394	3205.49
443.769	3223.8
444.143	3210.47
444.518	3296.79
444.892	3312.84
445.267	3294.53
445.641	3339.05
446.016	3381.54
446.39	3392.38
446.764	3386.06
447.139	3456.34
447.513	3477.58
447.887	3485.04
448.262	3508.54
448.636	3520.29
449.01	3577.24
449.384	3631.92
449.758	3636.44
450.132	3684.13
450.506	3695.88
450.88	3750.79
451.254	3755.76
451.628	3821.07
452.002	3835.76
452.376	3868.75
452.75	3951.69
453.123	3959.37
453.497	4044.79
453.871	4075.75
454.244	4162.31
454.618	4183.77
454.992	4227.39
455.365	4271
455.739	4348.29
456.112	4426.25
456.486	4418.34
456.859	4470.77
457.232	4594.38
457.606	4557.32
457.979	4628.73
458.352	4747.38
458.725	4813.36
459.099	4818.11
459.472	4949.86
459.845	4966.8
460.218	5012.9
460.591	5040.02
460.964	5072.56
461.337	5211.54
461.71	5341.71
462.083	5414.02
462.456	5395.72
462.829	5414.48
463.201	5529.73
463.574	5537.41
463.947	5665.09
464.32	5784.86
464.692	5762.72
465.065	5831.41
465.438	5947.57
465.81	6073.44
466.183	6119.99
466.555	6252.87
466.928	6294.45
467.3	6312.76
467.672	6452.42
468.045	6591.39
468.417	6629.13
468.789	6608.12
469.161	6792.29
469.534	6863.48
469.906	7023.93
470.278	7033.42
470.65	7174.88
471.022	7242
471.394	7467.98
471.766	7501.65
472.138	7701.42
472.51	7787.3
472.882	7929.66
473.253	7997.23
473.625	8135.08
473.997	8291.24
474.369	8389.31
474.74	8457.56
475.112	8606.93
475.484	8741.85
475.855	8918.56
476.227	8915.63
476.598	9184.09
476.97	9391.77
477.341	9548.15
477.713	9681.93
478.084	9768.94
478.455	9918.31
478.827	10157.18
479.198	10453.44
479.569	10413.21
479.94	10689.59
480.311	10908.12
480.682	11069.92
481.053	11347.2
481.424	11447.76
481.795	11623.13
482.166	11843.91
482.537	11966.62
482.908	12230.12
483.279	12336.78
483.65	12622.65
484.021	12794.4
484.391	12976.54
484.762	13120.04
485.133	13270.77
485.503	13527.26
485.874	13774.93
486.244	13906.46
486.615	14220.35
486.985	14354.81
487.356	14571.3
487.726	14753.21
488.097	15084.05
488.467	15078.18
488.837	15463.7
489.207	15596.13
489.578	15888.55
489.948	16073.41
490.318	16223.46
490.688	16293.96
491.058	16561.53
491.428	16791.8
491.798	16963.55
492.168	17281.28
492.538	17427.27
492.908	17565.12
493.278	17725.79
493.648	17868.84
494.017	18236.51
494.387	18374.59
494.757	18404.87
495.126	18707.46
495.496	18754.01
495.866	18958.75
496.235	19147.45
496.605	19326.43
496.974	19345.18
497.344	19667.43
497.713	19778.17
498.082	19923.7
498.452	20220.19
498.821	20329.56
499.19	20310.58
499.559	20514.19
499.928	20724.81
500.298	20848.65
500.667	20933.39
501.036	20991.24
501.405	21297.9
501.774	21220.39
502.143	21504.9
502.512	21719.13
502.88	21953.93
503.249	21953.93
503.618	22046.36
503.987	22209.06
504.356	22395.72
504.724	22570.18
505.093	22687.92
505.462	22784.42
505.83	22991.87
506.199	23158.87
506.567	23438.64
506.936	23346.89
507.304	23803.82
507.672	23964.05
508.041	23908.91
508.409	24209.46
508.777	24437.7
509.145	24608.55
509.514	24583.01
509.882	24917.92
510.25	24880.18
510.618	25230.68
510.986	25230.23
511.354	25590.67
511.722	25717.45
512.09	25863.2
512.458	25976.2
512.826	26159.92
513.193	26379.8
513.561	26635.84
513.929	26727.14
514.297	27029.05
514.664	27165.32
515.032	27292.32
515.4	27587.68
515.767	27653.89
516.135	27926.43
516.502	27729.37
516.869	28303.59
517.237	28478.95
517.604	28399.18
517.972	28788.78
518.339	28939.51
518.706	29145.6
519.073	29257.69
519.44	29561.86
519.808	29847.51
520.175	29884.34
520.542	30385.8
520.909	30471.22
521.276	30485.68
521.643	30915.73
522.009	30968.38
522.376	31403.4
522.743	31491.53
523.11	31734.24
523.477	31997.51
523.843	32337.38
524.21	32556.59
524.577	32762.46
524.943	32947.76
525.31	33261.88
525.676	33525.15
526.043	33615.32
526.409	33859.6
526.776	34166.71
527.142	34291.46
527.508	34551.56
527.874	35019.35
528.241	35077.43
528.607	35240.81
528.973	35572.55
529.339	35504.98
529.705	35949.72
530.071	36294.79
530.437	36443.26
530.803	36787.44
531.169	36927.32
531.535	36826.98
531.901	37087.77
532.267	37253.19
532.632	37483.69
532.998	37541.09
533.364	37830.8
533.73	38176.1
534.095	38305.14
534.461	38474.4
534.826	38731.57
535.192	38772.92
535.557	39268.73
535.923	39196.64
536.288	39355.96
536.653	39421.04
537.019	39430.53
537.384	39553.92
537.749	39721.82
538.114	39972.89
538.479	39968.37
538.845	40218.98
539.21	40393.9
539.575	40527.45
539.94	40715.69
540.305	40863.71
540.67	41076.59
541.034	41072.07
541.399	41392.97
541.764	41282.69
542.129	41567.65
542.494	41613.98
542.858	41811.94
543.223	41921.76
543.587	42092.38
543.952	42071.82
544.316	42320.4
544.681	42516.55
545.045	42542.99
545.41	42804.91
545.774	42839.03
546.138	42879.48
546.503	42945.47
546.867	43012.36
547.231	43397.66
547.595	43480.59
547.959	43769.4
548.324	43822.05
548.688	43808.27
549.052	43923.75
549.416	44075.83
549.779	44155.83
550.143	44324.64
550.507	44594.69
550.871	44700.45
551.235	44804.18
551.599	45291.39
551.962	45290.72
552.326	45317.38
552.689	45530.48
553.053	45420.2
553.417	45712.85
553.78	46163.69
554.143	45951.72
554.507	46159.85
554.87	46312.84
555.234	46852.48
555.597	46615.88
555.96	46821.07
556.323	46942.65
556.686	47102.19
557.05	47349.64
557.413	47426.48
557.776	47498.57
558.139	47920.25
558.502	47866.92
558.865	47959.12
559.228	48276.4
559.59	48402.72
559.953	48439.56
560.316	48926.55
560.679	48895.14
561.041	48936.04
561.404	49215.58
561.767	49635.01
562.129	49341.23
562.492	49917.94
562.854	49828.45
563.217	49891.27
563.579	50030.03
563.941	50353.86
564.304	50519.73
564.666	50608.99
565.028	50645.83
565.39	50843.79
565.753	51091.24
566.115	51186.83
566.477	51326.04
566.839	51335.3
567.201	51715.86
567.563	51574.62
567.925	51866.81
568.287	51903.65
568.648	52010.31
569.01	52201.04
569.372	52316.75
569.734	52260.48
570.095	52511.99
570.457	52628.38
570.819	52657.3
571.18	52756.28
571.542	52997.18
571.903	52922.83
572.265	53090.06
572.626	53151.3
572.987	53203.73
573.349	53449.15
573.71	53487.56
574.071	53530.95
574.432	53614.11
574.794	53820.66
575.155	53764.39
575.516	53733.43
575.877	53848.68
576.238	53928.45
576.599	54048.9
576.96	54019.75
577.32	54052.52
577.681	54207.32
578.042	54237.37
578.403	54249.35
578.763	54382
579.124	54398.95
579.485	54401.89
579.845	54663.35
580.206	54478.5
580.566	54509
580.927	54597.82
581.287	54671.49
581.648	54490.02
582.008	54704.71
582.368	54578.61
582.728	54696.57
583.089	54689.11
583.449	54683.01
583.809	54783.35
584.169	54802.33
584.529	54793.29
584.889	54916.9
585.249	54741.09
585.609	54688.66
585.969	54758.26
586.329	54689.11
586.688	54859.5
587.048	54831.48
587.408	54754.2
587.768	54771.82
588.127	54829.9
588.487	54779.73
588.846	54999.39
589.206	54806.4
589.565	54855.66
589.925	54981.53
590.284	54888.88
590.643	54901.31
591.003	55024.02
591.362	55059.05
591.721	54977.69
592.08	55051.59
592.44	55023.34
592.799	55104.47
593.158	55034.41
593.517	55010.46
593.876	55071.7
594.235	55036.9
594.593	55058.14
594.952	55100.63
595.311	55058.14
595.67	55065.37
596.029	55303.79
596.387	55190.34
596.746	55294.75
597.104	55164.35
597.463	55146.73
597.822	55280.74
598.18	55139.72
598.538	55145.37
598.897	55395.76
599.255	55099.5
599.613	55564.34
599.972	55362.77
600.33	55475.76
600.688	55368.87
601.046	55416.55
601.404	55612.03
601.762	55442.54
602.12	55659.03
602.478	55617.45
602.836	55675.98
603.194	55534.97
603.552	55540.84
603.91	55475.98
604.268	55656.77
604.625	55559.15
604.983	55787.39
605.341	55590.78
605.698	55759.14
606.056	55770.21
606.413	55739.71
606.771	55846.14
607.128	55929.08
607.485	55755.07
607.843	55831.91
608.2	55984.45
608.557	56043.2
608.914	55954.39
609.272	56014.73
609.629	56085.01
609.986	56168.85
610.343	56075.52
610.7	56252.01
611.057	56227.6
611.414	56175.63
611.771	56289.97
612.127	56344.66
612.484	56332.01
612.841	56447.03
613.198	56289.3
613.554	56339.24
613.911	56486.81
614.267	56406.13
614.624	56409.75
614.98	56482.96
615.337	56629.63
615.693	56635.73
616.05	56529.06
616.406	56691.77
616.762	56579.91
617.118	56629.63
617.475	56625.79
617.831	56703.52
618.187	56694.48
618.543	56715.73
618.899	56850.19
619.255	56829.62
619.611	56790.53
619.967	56792.33
620.323	56925.66
620.678	56793.92
621.034	56779.45
621.39	56787.36
621.746	56771.54
622.101	57039.79
622.457	56814.93
622.812	56821.94
623.168	56954.36
623.523	56922.95
623.879	56967.25
624.234	56838.66
624.589	56945.78
624.945	56917.75
625.3	56953.69
625.655	56859.9
626.01	56939.9
626.365	57025.1
626.72	56906.46
627.075	56977.19
627.43	56879.79
627.785	56801.83
628.14	56887.02
628.495	56855.84
628.85	56802.5
629.205	56696.97
629.559	56912.33
629.914	56728.61
630.269	56809.96
630.623	56698.55
630.978	56597.54
631.332	56730.42
631.687	56758.66
632.041	56659.46
632.396	56699.91
632.75	56615.39
633.104	56614.49
633.459	56388.73
633.813	56489.52
634.167	56624.66
634.521	56446.13
634.875	56511.89
635.229	56399.8
635.583	56262.86
635.937	56329.75
636.291	56332.23
636.645	56274.16
636.999	56200.94
637.352	56353.48
637.706	56176.08
638.06	56242.74
638.413	56163.65
638.767	56050.21
639.121	56108.96
639.474	55995.07
639.828	55962.53
640.181	55969.98
640.534	55969.76
640.888	55928.85
641.241	55796.88
641.594	55819.93
641.947	55953.71
642.301	55760.95
642.654	55816.77
643.007	55763.89
643.36	55733.15
643.713	55670.56
644.066	55780.16
644.419	55630.78
644.771	55424.23
645.124	55148.99
645.477	55223.56
645.83	54808.88
646.182	54730.47
646.535	54735.67
646.888	54712.84
647.24	54537.03
647.593	54719.62
647.945	54674.2
648.298	54437.14
648.65	54415.22
649.002	54391.95
649.355	54464.49
649.707	54460.19
650.059	54535.44
650.411	54833.52
650.763	55003.45
651.115	55162.32
651.467	54953.96
651.819	54957.81
652.171	54938.15
652.523	54893.18
652.875	54851.82
653.227	54667.64
653.578	54871.25
653.93	54790.13
654.282	54652.05
654.633	54663.8
654.985	54734.54
655.337	54670.13
655.688	54588.78
656.039	54739.06
656.391	54568.89
656.742	54545.84
657.094	54605.05
657.445	54723.01
657.796	54610.47
658.147	54529.12
658.498	54457.48
658.849	54508.55
659.2	54478.5
659.551	54353.53
659.902	54575.44
660.253	54464.94
660.604	54469.46
660.955	54228.56
661.306	54329.8
661.656	54321.21
662.007	54403.02
662.358	54324.15
662.708	54331.83
663.059	54289.8
663.409	54017.72
663.76	54302.46
664.11	54236.02
664.461	54276.24
664.811	54314.43
665.161	54248.22
665.511	54161.44
665.862	54224.72
666.212	54299.97
666.562	54280.08
666.912	54250.93
667.262	54133.42
667.612	54189.92
667.962	54190.37
668.312	54170.26
668.662	54303.59
669.011	54175
669.361	54167.32
669.711	53953.99
670.06	54011.62
670.41	53998.51
670.76	53937.04
671.109	54063.37
671.459	53991.5
671.808	54009.13
672.157	54066.98
672.507	53744.96
672.856	53784.96
673.205	53858.63
673.554	53960.54
673.904	53814.56
674.253	53869.25
674.602	53835.58
674.951	53387.45
675.3	53233.33
675.649	53774.56
675.998	53727.33
676.346	53674.45
676.695	53676.03
677.044	53553.32
677.393	53668.12
677.741	53584.06
678.09	53566.88
678.438	53537.5
678.787	53577.28
679.135	53564.17
679.484	53339.54
679.832	53554
680.181	53341.8
680.529	53442.82
680.877	53233.56
681.225	53158.53
681.573	53399.2
681.922	53134.8
682.27	53073.79
682.618	53156.27
682.966	53059.55
683.314	53031.08
683.661	52907.69
684.009	52786.56
684.357	52676.74
684.705	52689.84
685.053	52726
685.4	52708.15
685.748	52520.36
686.095	52513.58
686.443	52422.28
686.79	52211.21
687.138	52354.94
687.485	52355.61
687.832	52287.59
688.18	52329.85
688.527	52133.47
688.874	52028.84
689.221	51957.43
689.568	51801.96
689.915	51761.28
690.262	51846.25
690.609	51656.42
690.956	51595.41
691.303	51446.49
691.65	51340.27
691.997	51425.24
692.344	51160.39
692.69	51172.14
693.037	51220.73
693.383	50871.59
693.73	51039.72
694.077	50707.75
694.423	50889.21
694.769	50633.85
695.116	50590.24
695.462	50596.79
695.808	50499.39
696.155	50479.96
696.501	50317.7
696.847	50232.51
697.193	49954.77
697.539	50090.59
697.885	49872.29
698.231	49738.96
698.577	49870.48
698.923	49676.82
699.269	49438.63
699.614	49245.64
699.96	49291.06
700.306	49292.87
700.651	48968.59
700.997	49079.54
701.342	48942.15
701.688	48818.76
702.033	48658.76
702.379	48638.42
702.724	48419.22
703.069	48694.92
703.415	48273.46
703.76	48209.51
704.105	48212.9
704.45	48075.05
704.795	47762.97
705.14	47708.96
705.485	47611.11
705.83	47504.22
706.175	47673.48
706.52	47469.42
706.865	47354.16
707.209	47379.93
707.554	47130.44
707.899	47348.29
708.243	47008.64
708.588	47061.97
708.932	46756.89
709.277	46699.72
709.621	46785.82
709.966	46525.94
710.31	46501.53
710.654	46303.57
710.998	46290.24
711.342	46288.66
711.687	46181.77
712.031	45990.81
712.375	45878.72
712.719	45934.31
713.063	45815.22
713.407	45803.02
713.75	45637.15
714.094	45716.69
714.438	45363.03
714.782	45511.95
715.125	45303.37
715.469	45290.72
715.812	44878.3
716.156	44757.62
716.499	44861.57
716.843	44861.57
717.186	44584.75
717.53	44815.25
717.873	44764.85
718.216	44570.28
718.559	44545.2
718.902	44266.11
719.246	44655.93
719.589	44305.66
719.932	44076.74
720.275	44029.96
720.617	44018.66
720.96	43926.46
721.303	43931.88
721.646	43794.26
721.989	43618.22
722.331	43678.1
722.674	43662.51
723.016	43658.67
723.359	43628.39
723.701	43630.42
724.044	43244.89
724.386	43038.57
724.729	43361.05
725.071	43122.86
725.413	43107.72
725.755	43015.52
726.097	42829.54
726.439	42746.38
726.782	42770.33
727.124	42777.79
727.465	42587.06
727.807	42460.51
728.149	42448.76
728.491	42413.73
728.833	42468.19
729.175	42221.19
729.516	42220.06
729.858	42018.71
730.199	42218.03
730.541	42091.93
730.882	41995.89
731.224	42140.06
731.565	41849.68
731.906	41744.14
732.248	41891.48
732.589	41524.49
732.93	41587.76
733.271	41599.29
733.612	41550.7
733.953	41537.82
734.294	41304.15
734.635	41280.2
734.976	41384.15
735.317	41239.97
735.658	41203.59
735.999	41234.55
736.339	40858.74
736.68	41122.92
737.021	40883.83
737.361	40628.92
737.702	40877.27
738.042	40774.45
738.383	40619.88
738.723	40748.24
739.063	40630.05
739.404	40734.9
739.744	40432.54
740.084	40438.64
740.424	40300.56
740.764	40278.19
741.104	40400.45
741.444	40164.3
741.784	40000.91
742.124	40062.6
742.464	39955.71
742.804	39913.23
743.143	39890.41
743.483	39909.16
743.823	39658.55
744.162	39732.67
744.502	39639.34
744.841	39519.79
745.181	39715.95
745.52	39360.02
745.86	39436.41
746.199	39436.18
746.538	39272.12
746.877	39312.79
747.216	39207.49
747.556	39010.43
747.895	38880.94
748.234	38789.87
748.573	38790.77
748.911	38727.5
749.25	38758.23
749.589	38551.68
749.928	38510.56
750.267	38403.67
750.605	38349.88
750.944	38307.4
751.283	38198.25
751.621	38235.08
751.96	38071.02
752.298	37917.35
752.636	37971.13
