Data from plate_ceramic_FLMS001491_034.txt Node
Date: Tue Feb 07 11:16:40 GMT 2017
User: dcchb
Spectrometer: FLMS00149
Trigger mode: 0
Integration Time (sec): 2.000000E-2
Scans to average: 10
Electric dark correction enabled: true
Nonlinearity correction enabled: false
Boxcar width: 0
XAxis mode: Wavelengths
Number of Pixels in Spectrum: 2048
>>>>>Begin Spectral Data<<<<<
341.393	-0.18
341.776	-0.18
342.16	-0.18
342.543	-62.33
342.927	-65.72
343.31	-66.17
343.693	-78.6
344.077	-60.07
344.46	-62.55
344.843	-47.87
345.226	-56.68
345.61	-27.75
345.993	-9.9
346.376	9.08
346.759	31.45
347.142	25.8
347.525	40.72
347.908	59.93
348.291	71
348.674	69.65
349.057	101.96
349.44	114.62
349.823	140.6
350.206	172.24
350.588	221.05
350.971	224.9
351.354	244.78
351.737	261.05
352.119	267.15
352.502	275.97
352.884	286.59
353.267	320.03
353.65	308.51
354.032	338.11
354.414	323.65
354.797	339.69
355.179	334.04
355.562	369.75
355.944	377.89
356.326	370.2
356.709	350.32
357.091	364.78
357.473	375.17
357.855	384.44
358.238	365.68
358.62	377.66
359.002	349.19
359.384	358.68
359.766	363.2
360.148	373.14
360.53	393.93
360.912	375.63
361.294	362.29
361.676	366.13
362.057	365.23
362.439	363.42
362.821	353.93
363.203	343.54
363.584	379.69
363.966	363.42
364.348	361.84
364.729	349.86
365.111	343.99
365.493	360.71
365.874	349.41
366.256	339.69
366.637	351.67
367.019	366.36
367.4	365.23
367.781	367.26
368.163	351.22
368.544	381.5
368.925	370.65
369.306	378.56
369.688	382.86
370.069	351.9
370.45	359.81
370.831	348.73
371.212	370.65
371.593	385.57
371.974	390.99
372.355	384.67
372.736	376.3
373.117	388.28
373.498	395.06
373.879	387.15
374.26	366.59
374.641	384.89
375.021	374.72
375.402	392.12
375.783	398
376.163	405.68
376.544	408.39
376.925	404.55
377.305	396.64
377.686	406.59
378.066	384.21
378.447	423.76
378.827	420.14
379.208	433.7
379.588	425.57
379.968	445.68
380.349	429.64
380.729	437.09
381.109	443.19
381.489	443.42
381.87	443.87
382.25	430.31
382.63	435.29
383.01	436.87
383.39	456.75
383.77	454.95
384.15	484.55
384.53	470.76
384.91	478.22
385.29	484.32
385.67	478.22
386.049	487.71
386.429	460.14
386.809	504.44
387.189	490.88
387.568	494.27
387.948	494.49
388.328	496.98
388.707	514.38
389.087	543.53
389.466	501.05
389.846	534.94
390.225	520.25
390.605	527.26
390.984	543.76
391.363	551.21
391.743	558.9
392.122	548.95
392.501	569.29
392.881	560.48
393.26	589.18
393.639	568.39
394.018	574.72
394.397	581.72
394.776	589.63
395.155	602.51
395.534	590.76
395.913	609.52
396.292	610.2
396.671	606.35
397.05	638.44
397.429	623.53
397.808	649.52
398.186	605.45
398.565	640.7
398.944	682.51
399.323	661.49
399.701	657.43
400.08	656.75
400.458	656.97
400.837	690.65
401.215	685.9
401.594	700.59
401.972	725
402.351	698.56
402.729	716.63
403.107	713.7
403.486	729.29
403.864	730.87
404.242	747.59
404.62	764.32
404.999	772.23
405.377	753.02
405.755	769.97
406.133	774.94
406.511	781.94
406.889	800.47
407.267	814.94
407.645	809.51
408.023	836.18
408.401	875.05
408.779	857.87
409.156	849.96
409.534	874.37
409.912	888.38
410.29	902.17
410.667	906.69
411.045	929.51
411.422	935.61
411.8	933.35
412.178	968.83
412.555	963.63
412.933	995.5
413.31	981.03
413.687	987.14
414.065	999.56
414.442	996.63
414.819	1059
415.197	1048.38
415.574	1039.79
415.951	1055.83
416.328	1078.88
416.705	1070.3
417.082	1068.49
417.46	1098.54
417.837	1122.05
418.214	1150.07
418.591	1131.99
418.967	1118.43
419.344	1169.73
419.721	1202.72
420.098	1193.23
420.475	1196.4
420.852	1186.9
421.228	1220.58
421.605	1226.68
421.982	1254.25
422.358	1261.48
422.735	1299.67
423.111	1285.88
423.488	1313.91
423.864	1326.79
424.241	1356.84
424.617	1351.65
424.994	1342.61
425.37	1345.54
425.746	1380.57
426.123	1406.33
426.499	1411.3
426.875	1430.51
427.251	1454.92
427.627	1468.25
428.003	1519.78
428.379	1517.97
428.756	1528.59
429.132	1534.92
429.507	1559.1
429.883	1585.09
430.259	1613.11
430.635	1641.81
431.011	1655.82
431.387	1697.62
431.763	1695.82
432.138	1688.59
432.514	1746.44
432.89	1756.61
433.265	1789.83
433.641	1825.53
434.016	1847.23
434.392	1859.43
434.767	1854.68
435.143	1872.76
435.518	1905.3
435.894	1925.42
436.269	1934.23
436.644	1975.81
437.02	2005.19
437.395	2023.72
437.77	2053.32
438.145	2049.25
438.52	2064.17
438.895	2098.07
439.271	2060.33
439.646	2157.73
440.021	2181.91
440.395	2179.19
440.77	2164.05
441.145	2189.14
441.52	2248.57
441.895	2248.57
442.27	2256.93
442.645	2239.98
443.019	2303.48
443.394	2307.55
443.769	2373.54
444.143	2347.78
444.518	2374.67
444.892	2393.65
445.267	2406.53
445.641	2420.32
446.016	2427.78
446.39	2478.85
446.764	2453.99
447.139	2451.5
447.513	2518.17
447.887	2510.71
448.262	2559.3
448.636	2538.73
449.01	2581.22
449.384	2586.64
449.758	2640.2
450.132	2648.11
450.506	2654.44
450.88	2690.59
451.254	2715.23
451.628	2733.98
452.002	2751.83
452.376	2786.86
452.75	2819.18
453.123	2834.54
453.497	2877.25
453.871	2911.6
454.244	2991.83
454.618	3006.97
454.992	3061.43
455.365	3023.92
455.739	3152.5
456.112	3126.51
456.486	3173.97
456.859	3215.55
457.232	3293.06
457.606	3296.9
457.979	3325.38
458.352	3399.28
458.725	3419.16
459.099	3425.72
459.472	3538.71
459.845	3520.4
460.218	3579.84
460.591	3643.56
460.964	3639.49
461.337	3716.1
461.71	3821.86
462.083	3843.33
462.456	3806.5
462.829	3824.57
463.201	3942.76
463.574	3938.92
463.947	4025.7
464.32	4093.95
464.692	4149.09
465.065	4185.47
465.438	4235.19
465.81	4312.25
466.183	4308.18
466.555	4451.45
466.928	4464.78
467.3	4519.25
467.672	4523.09
468.045	4656.64
468.417	4682.41
468.789	4712.69
469.161	4775.74
469.534	4877.43
469.906	5022.51
470.278	4955.84
470.65	5030.42
471.022	5088.72
471.394	5295.27
471.766	5240.13
472.138	5342.73
472.51	5488.49
472.882	5580.01
473.253	5577.07
473.625	5722.6
473.997	5840.79
474.369	5831.98
474.74	5931.41
475.112	6104.06
475.484	6139.54
475.855	6247.34
476.227	6261.8
476.598	6455.92
476.97	6514.9
477.341	6661.79
477.713	6846.64
478.084	6863.82
478.455	7061.33
478.827	7117.37
479.198	7306.29
479.569	7323.69
479.94	7514.42
480.311	7592.61
480.682	7778.14
481.053	7947.86
481.424	8127.06
481.795	8086.16
482.166	8210.45
482.537	8333.83
482.908	8539.03
483.279	8693.83
483.65	8878.68
484.021	9028.51
484.391	9114.83
484.762	9212.46
485.133	9320.93
485.503	9431.21
485.874	9649.28
486.244	9654.48
486.615	9941.02
486.985	9988.93
487.356	10164.75
487.726	10348.47
488.097	10513.44
488.467	10505.3
488.837	10816.71
489.207	10918.63
489.578	11021
489.948	11114.55
490.318	11362.91
490.688	11431.38
491.058	11615.56
491.428	11742.33
491.798	11867.07
492.168	12078.37
492.538	12119.27
492.908	12279.72
493.278	12485.14
493.648	12453.95
494.017	12671.57
494.387	12782.08
494.757	12914.51
495.126	13006.93
495.496	13044.67
495.866	13212.12
496.235	13352.69
496.605	13481.95
496.974	13582.06
497.344	13698.89
497.713	13772.79
498.082	13813.92
498.452	14021.37
498.821	14161.93
499.19	14179.33
499.559	14341.13
499.928	14377.97
500.298	14463.84
500.667	14686.21
501.036	14621.58
501.405	14786.55
501.774	14844.17
502.143	15044.62
502.512	15060.44
502.88	15274.67
503.249	15333.88
503.618	15439.64
503.987	15484.16
504.356	15692.29
504.724	15766.63
505.093	15842.56
505.462	15883.92
505.83	16069.9
506.199	16151.48
506.567	16290.46
506.936	16355.77
507.304	16577.46
507.672	16648.87
508.041	16770.22
508.409	16939.94
508.777	17024
509.145	17151.68
509.514	17193.26
509.882	17343.99
510.25	17414.27
510.618	17603.65
510.986	17606.59
511.354	17880.7
511.722	18000.92
512.09	18121.83
512.458	18192.11
512.826	18315.72
513.193	18539.22
513.561	18565.88
513.929	18658.53
514.297	18893.33
514.664	18993.22
515.032	19127.45
515.4	19306.88
515.767	19350.04
516.135	19473.43
516.502	19416.93
516.869	19874.32
517.237	19966.52
517.604	19905.73
517.972	20185.73
518.339	20352.05
518.706	20418.94
519.073	20561.31
519.44	20619.16
519.808	20976.21
520.175	20959.94
520.542	21192.71
520.909	21378.69
521.276	21372.36
521.643	21652.35
522.009	21834.27
522.376	21959.46
522.743	22049.41
523.11	22375.27
523.477	22586.57
523.843	22636.51
524.21	22956.95
524.577	23136.84
524.943	23188.13
525.31	23291.18
525.676	23610.04
526.043	23702.92
526.409	23841.68
526.776	24084.15
527.142	24247.09
527.508	24390.36
527.874	24529.11
528.241	24686.85
528.607	24830.58
528.973	25143.11
529.339	25143.11
529.705	25270.79
530.071	25607.05
530.437	25538.35
530.803	25838.69
531.169	25980.38
531.535	26051.11
531.901	26140.82
532.267	26264.66
532.632	26391.89
532.998	26588.5
533.364	26692.9
533.73	26886.12
534.095	27121.14
534.461	27185.77
534.826	27393.22
535.192	27492.2
535.557	27625.53
535.923	27626.66
536.288	27768.8
536.653	27971.74
537.019	28025.75
537.384	28079.98
537.749	28331.5
538.114	28370.14
538.479	28381.89
538.845	28409.01
539.21	28439.97
539.575	28796.35
539.94	28846.06
540.305	29018.94
540.67	28854.42
541.034	29085.61
541.399	29248.76
541.764	29375.32
542.129	29563.33
542.494	29440.85
542.858	29558.14
543.223	29866.83
543.587	29988.41
543.952	29939.82
544.316	30060.72
544.681	30018.24
545.045	30122.64
545.41	30479.01
545.774	30503.2
546.138	30515.85
546.503	30756.3
546.867	30828.38
547.231	31153.35
547.595	31185.21
547.959	31320.8
548.324	31230.41
548.688	31363.06
549.052	31465.88
549.416	31587.69
549.779	31684.41
550.143	31876.72
550.507	32045.3
550.871	32133.66
551.235	32186.99
551.599	32415.24
551.962	32413.43
552.326	32625.63
552.689	32785.17
553.053	32761.44
553.417	32855.9
553.78	33163.01
554.143	33094.77
554.507	33250.02
554.87	33401.88
555.234	33753.96
555.597	33639.38
555.96	33719.61
556.323	33953.27
556.686	34052.25
557.05	34383.77
557.413	34431.91
557.776	34586.25
558.139	34775.17
558.502	34921.38
558.865	35045
559.228	35314.14
559.59	35204.77
559.953	35469.84
560.316	35774.24
560.679	35842.49
561.041	35921.36
561.404	36055.82
561.767	36508.46
562.129	36376.71
562.492	36777.83
562.854	36762.69
563.217	36792.52
563.579	37082.68
563.941	37315.22
564.304	37430.02
564.666	37854.19
565.028	37658.49
565.39	37904.13
565.753	38157.46
566.115	38220.51
566.477	38463.21
566.839	38474.51
567.201	38775.29
567.563	38722.19
567.925	39165.11
568.287	39129.41
568.648	39187.26
569.01	39342.74
569.372	39571.43
569.734	39558.1
570.095	39867.24
570.457	40045.32
570.819	40181.81
571.18	40204.18
571.542	40457.96
571.903	40445.76
572.265	40657.28
572.626	40698.18
572.987	40823.15
573.349	40945.86
573.71	41080.09
574.071	41332.06
574.432	41316.47
574.794	41614.99
575.155	41485.28
575.516	41404.15
575.877	41851.15
576.238	41833.74
576.599	41832.61
576.96	41942.44
577.32	42054.53
577.681	42275.31
578.042	42363.9
578.403	42233.28
578.763	42250.68
579.124	42485.03
579.485	42700.39
579.845	42881.63
580.206	42619.26
580.566	42633.72
580.927	42551.69
581.287	42713.27
581.648	42774.51
582.008	42849.54
582.368	42864
582.728	43029.65
583.089	42962.98
583.449	42842.76
583.809	42960.95
584.169	43223.76
584.529	42903.77
584.889	43337.21
585.249	42971.79
585.609	42905.81
585.969	43302.63
586.329	43028.29
586.688	43204.1
587.048	43165.46
587.408	43186.48
587.768	43231.45
588.127	43063.32
588.487	43123.2
588.846	43474.15
589.206	43180.83
589.565	43342.41
589.925	43409.97
590.284	43365.46
590.643	43425.12
591.003	43357.55
591.362	43526.13
591.721	43381.5
592.08	43548.73
592.44	43625.56
592.799	43531.33
593.158	43530.42
593.517	43582.4
593.876	43544.43
594.235	43581.27
594.593	43751.21
594.952	43807.03
595.311	43652.23
595.67	43682.74
596.029	43849.28
596.387	43882.28
596.746	43853.8
597.104	43769.29
597.463	43742.62
597.822	43994.37
598.18	43826.46
598.538	43871.43
598.897	44187.36
599.255	43759.57
599.613	44386.45
599.972	44138.54
600.33	44103.29
600.688	43993.69
601.046	44154.59
601.404	44378.76
601.762	44327.46
602.12	44441.13
602.478	44455.6
602.836	44440.46
603.194	44218.99
603.552	44418.08
603.91	44260.8
604.268	44479.32
604.625	44466.9
604.983	44725.65
605.341	44395.26
605.698	44851.29
606.056	44778.3
606.413	44784.4
606.771	44965.19
607.128	44816.94
607.485	44757.06
607.843	44856.26
608.2	45045.86
608.557	45073.21
608.914	45027.33
609.272	45168.8
609.629	45088.8
609.986	45270.26
610.343	45162.24
610.7	45492.63
611.057	45421.45
611.414	45459.64
611.771	45355.91
612.127	45644.94
612.484	45509.35
612.841	45677.71
613.198	45535.12
613.554	45656.47
613.911	46020.3
614.267	45814.43
614.624	45825.28
614.98	45905.5
615.337	46182.1
615.693	46058.04
616.05	46124.25
616.406	46266.62
616.762	46007.19
617.118	45973.07
617.475	46018.04
617.831	46108.43
618.187	46136.46
618.543	46196.12
618.899	46370.12
619.255	46319.73
619.611	46259.84
619.967	46517.01
620.323	46564.69
620.678	46435.88
621.034	46238.37
621.39	46343
621.746	46393.85
622.101	46732.37
622.457	46427.52
622.812	46477.01
623.168	46598.37
623.523	46406.05
623.879	46696.67
624.234	46355.89
624.589	46434.3
624.945	46509.78
625.3	46610.34
625.655	46522.66
626.01	46597.01
626.365	46528.54
626.72	46638.82
627.075	46608.76
627.43	46392.04
627.785	46512.72
628.14	46538.93
628.495	46517.01
628.85	46478.59
629.205	46367.86
629.559	46532.15
629.914	46346.85
630.269	46345.94
630.623	46359.5
630.978	46204.7
631.332	46377.35
631.687	46434.98
632.041	46176.23
632.396	46319.95
632.75	46081.32
633.104	46154.31
633.459	45904.15
633.813	45931.04
634.167	46008.78
634.521	45918.38
634.875	45930.59
635.229	45759.74
635.583	45749.35
635.937	45881.55
636.291	45609.92
636.645	45648.79
636.999	45701.21
637.352	45590.93
637.706	45420.54
638.06	45587.77
638.413	45442.01
638.767	45316.14
639.121	45408.79
639.474	45246.76
639.828	45177.16
640.181	45301.9
640.534	45300.32
640.888	45139.87
641.241	44881.12
641.594	45062.59
641.947	45183.04
642.301	45011.06
642.654	45026.2
643.007	44953.89
643.36	44845.42
643.713	44894
644.066	45072.98
644.419	44606.1
644.771	44257.41
645.124	43945.55
645.477	43916.63
645.83	43675.28
646.182	43522.29
646.535	43432.57
646.888	43595.73
647.24	43333.59
647.593	43637.09
647.945	43503.31
648.298	43292.69
648.65	43238
649.002	43121.62
649.355	43149.64
649.707	43169.3
650.059	43381.27
650.411	43849.96
650.763	43824.43
651.115	44198.88
651.467	44013.57
651.819	43827.36
652.171	43845.9
652.523	43739.23
652.875	43675.96
653.227	43495.17
653.578	43881.83
653.93	43704.88
654.282	43610.2
654.633	43504.44
654.985	43609.07
655.337	43675.5
655.688	43619.46
656.039	43590.08
656.391	43261.73
656.742	43376.75
657.094	43308.06
657.445	43534.26
657.796	43301.28
658.147	43262.86
658.498	43238
658.849	43335.85
659.2	43268.06
659.551	43053.6
659.902	43198.45
660.253	43141.05
660.604	43084.56
660.955	43134.73
661.306	43226.7
661.656	42943.55
662.007	43091.11
662.358	43127.5
662.708	42975.18
663.059	43078.46
663.409	42846.15
663.76	42928.18
664.11	42907.16
664.461	42976.09
664.811	43062.86
665.161	43069.19
665.511	42821.52
665.862	42995.52
666.212	42917.11
666.562	42890.44
666.912	42895.41
667.262	42882.53
667.612	42769.99
667.962	42810.67
668.312	42697
668.662	42938.12
669.011	42755.3
669.361	42790.78
669.711	42561.86
670.06	42588.98
670.41	42468.98
670.76	42426.95
671.109	42622.88
671.459	42596.44
671.808	42440.96
672.157	42532.48
672.507	42304.92
672.856	42256.33
673.205	42293.17
673.554	42411.13
673.904	42322.32
674.253	42396.44
674.602	42287.52
674.951	41742
675.3	41592.85
675.649	42149.67
675.998	42124.81
676.346	42084.81
676.695	42381.07
677.044	42057.02
677.393	42151.48
677.741	42197.8
678.09	41909.45
678.438	41941.76
678.787	42048.2
679.135	42092.95
679.484	41788.77
679.832	41946.51
680.181	41655.9
680.529	41802.11
680.877	41569.34
681.225	41687.99
681.573	41852.05
681.922	41501.55
682.27	41309.92
682.618	41451.61
682.966	41328.67
683.314	41441.21
683.661	41148.79
684.009	41090.26
684.357	40808.46
684.705	40881.68
685.053	41082.13
685.4	41047.78
685.748	40897.72
686.095	40811.17
686.443	40564.4
686.79	40436.49
687.138	40435.82
687.485	40489.83
687.832	40507.45
688.18	40512.65
688.527	40222.04
688.874	40192.88
689.221	39869.95
689.568	39874.25
689.915	39837.41
690.262	39814.14
690.609	39828.37
690.956	39635.38
691.303	39637.42
691.65	39349.74
691.997	39377.99
692.344	39344.09
692.69	39344.09
693.037	39364.21
693.383	38940.71
693.73	39041.95
694.077	38966.02
694.423	38969.19
694.769	38793.82
695.116	38726.71
695.462	38648.97
695.808	38543.66
696.155	38669.99
696.501	38196.55
696.847	38125.59
697.193	38017.8
697.539	38103.22
697.885	37848.76
698.231	37804.47
698.577	37861.65
698.923	37671.37
699.269	37292.17
699.614	37152.74
699.96	37237.03
700.306	37116.58
700.651	37157.71
700.997	36966.53
701.342	37041.1
701.688	36899.86
702.033	36685.18
702.379	36760.21
702.724	36519.08
703.069	36702.58
703.415	36276.38
703.76	36371.74
704.105	36228.24
704.45	36173.1
704.795	35856.73
705.14	35710.06
705.485	35769.27
705.83	35637.07
706.175	35748.48
706.52	35626.45
706.865	35560.01
707.209	35407.7
707.554	35430.52
707.899	35390.07
708.243	35124.09
708.588	35181.72
708.932	34789.64
709.277	34880.71
709.621	34789.86
709.966	34683.65
710.31	34825.57
710.654	34488.4
710.998	34722.97
711.342	34574.5
711.687	34354.62
712.031	34412.92
712.375	34266.03
712.719	34291.34
713.063	34135.42
713.407	34286.6
713.75	34018.13
714.094	34090.9
714.438	33947.4
714.782	34003.22
715.125	33818.59
715.469	33869.43
715.812	33696.56
716.156	33552.83
716.499	33585.37
716.843	33465.6
717.186	33256.57
717.53	33465.6
717.873	33426.06
718.216	33271.94
718.559	33317.58
718.902	33050.25
719.246	33059.96
719.589	32838.05
719.932	32875.79
720.275	32891.83
720.617	32706.08
720.96	32692.29
721.303	32674.66
721.646	32829.69
721.989	32377.72
722.331	32532.97
722.674	32460.43
723.016	32369.13
723.359	32344.73
723.701	32311.96
724.044	32116.03
724.386	32010.05
724.729	32147.67
725.071	32048.47
725.413	32010.27
725.755	31861.35
726.097	31746.33
726.439	31714.69
726.782	31709.49
727.124	31828.81
727.465	31659.32
727.807	31524.19
728.149	31482.15
728.491	31503.85
728.833	31548.37
729.175	31340.91
729.516	31338.43
729.858	31354.02
730.199	31424.3
730.541	31266.56
730.882	31215.27
731.224	31187.24
731.565	31041.94
731.906	31005.1
732.248	31146.57
732.589	30933.69
732.93	30859.57
733.271	30719.91
733.612	30876.29
733.953	30775.73
734.294	30612.12
734.635	30592.01
734.976	30604.21
735.317	30492.35
735.658	30481.5
735.999	30497.77
736.339	30328.51
736.68	30492.12
737.021	30359.02
737.361	30207.61
737.702	30341.62
738.042	30337.78
738.383	30164.67
738.723	30197.89
739.063	30048.97
739.404	30196.76
739.744	30105.47
740.084	29834.51
740.424	29985.24
740.764	29903.44
741.104	29937.79
741.444	29764.46
741.784	29639.26
742.124	29668.87
742.464	29719.26
742.804	29532.83
743.143	29590.45
743.483	29485.14
743.823	29445.82
744.162	29417.35
744.502	29414.41
744.841	29265.04
745.181	29262.55
745.52	29211.48
745.86	29166.28
746.199	29070.01
746.538	29074.08
746.877	29093.06
747.216	29085.15
747.556	28884.03
747.895	28959.28
748.234	28740.98
748.573	28689.68
748.911	28676.58
749.25	28760.64
749.589	28555.22
749.928	28626.63
750.267	28587.09
750.605	28481.33
750.944	28433.19
751.283	28314.1
751.621	28404.27
751.96	28171.73
752.298	28084.28
752.636	28123.37
752.975	27955.01
753.313	28002.7
753.651	28020.1
753.989	27829.37
