Data from plate_porcelain_FLMS001491_044.txt Node
Date: Tue Feb 07 11:19:22 GMT 2017
User: dcchb
Spectrometer: FLMS00149
Trigger mode: 0
Integration Time (sec): 2.000000E-2
Scans to average: 10
Electric dark correction enabled: true
Nonlinearity correction enabled: false
Boxcar width: 0
XAxis mode: Wavelengths
Number of Pixels in Spectrum: 2048
>>>>>Begin Spectral Data<<<<<
341.393	-14.91
341.776	-14.91
342.16	-14.91
342.543	-55.37
342.927	-85.87
343.31	-70.28
343.693	-62.82
344.077	-69.38
344.46	-76.16
344.843	-58.3
345.226	-26.89
345.61	-51.07
345.993	0.68
346.376	-16.5
346.759	7.68
347.142	42.71
347.525	37.06
347.908	55.82
348.291	83.84
348.674	103.27
349.057	100.34
349.44	133.33
349.823	135.14
350.206	173.1
350.588	245.87
350.971	261.01
351.354	240.45
351.737	275.25
352.119	308.47
352.502	304.85
352.884	320.9
353.267	312.76
353.65	349.82
354.032	340.1
354.414	353.21
354.797	353.44
355.179	366.54
355.562	375.13
355.944	368.13
356.326	376.71
356.709	374.23
357.091	373.55
357.473	397.96
357.855	378.07
358.238	392.53
358.62	387.33
359.002	400.44
359.384	383.94
359.766	382.36
360.148	392.76
360.53	408.58
360.912	382.59
361.294	382.81
361.676	406.09
362.057	389.37
362.439	392.98
362.821	388.01
363.203	389.59
363.584	371.74
363.966	394.34
364.348	394.34
364.729	398.86
365.111	402.7
365.493	369.26
365.874	395.92
366.256	402.48
366.637	385.07
367.019	397.05
367.4	396.6
367.781	379.65
368.163	401.8
368.544	397.28
368.925	397.05
369.306	420.55
369.688	391.4
370.069	401.57
370.45	406.32
370.831	410.61
371.212	420.33
371.593	411.06
371.974	412.64
372.355	410.84
372.736	414.23
373.117	409.93
373.498	411.06
373.879	430.5
374.26	403.83
374.641	421.46
375.021	421.23
375.402	427.33
375.783	437.5
376.163	453.32
376.544	463.49
376.925	455.36
377.305	461.68
377.686	467.11
378.066	467.33
378.447	452.42
378.827	470.27
379.208	473.89
379.588	494.22
379.968	486.99
380.349	460.78
380.729	485.86
381.109	497.16
381.489	504.39
381.87	518.63
382.25	523.38
382.63	519.99
383.01	530.16
383.39	533.55
383.77	531.96
384.15	507.33
384.53	539.65
384.91	563.6
385.29	534.45
385.67	559.31
386.049	559.99
386.429	561.57
386.809	581
387.189	591.62
387.568	592.3
387.948	578.74
388.328	602.02
388.707	605.63
389.087	623.03
389.466	627.1
389.846	640.21
390.225	642.92
390.605	665.75
390.984	644.73
391.363	650.6
391.743	663.71
392.122	688.57
392.501	691.28
392.881	689.47
393.26	709.59
393.639	709.59
394.018	726.08
394.397	742.58
394.776	723.6
395.155	716.82
395.534	726.76
395.913	744.39
396.292	767.44
396.671	776.48
397.05	783.48
397.429	761.11
397.808	772.18
398.186	781.67
398.565	791.39
398.944	815.57
399.323	818.96
399.701	824.39
400.08	836.81
400.458	863.71
400.837	868.23
401.215	864.61
401.594	863.93
401.972	852.18
402.351	866.42
402.729	886.76
403.107	885.85
403.486	905.96
403.864	922.01
404.242	912.07
404.62	951.84
404.999	959.97
405.377	966.53
405.755	956.36
406.133	1008.56
406.511	1018.73
406.889	1012.4
407.267	1044.04
407.645	1011.72
408.023	1066.64
408.401	1085.62
408.779	1090.14
409.156	1091.95
409.534	1112.97
409.912	1108.9
410.29	1163.59
410.667	1178.27
411.045	1165.85
411.422	1198.84
411.8	1216.92
412.178	1227.09
412.555	1214.88
412.933	1276.12
413.31	1281.77
413.687	1311.83
414.065	1317.03
414.442	1319.06
414.819	1350.25
415.197	1355.44
415.574	1394.09
415.951	1407.65
416.328	1434.54
416.705	1401.09
417.082	1442.45
417.46	1444.48
417.837	1433.86
418.214	1510.69
418.591	1491.71
418.967	1523.35
419.344	1534.87
419.721	1559.73
420.098	1556.8
420.475	1569.45
420.852	1546.4
421.228	1611.71
421.605	1650.58
421.982	1663.01
422.358	1666.17
422.735	1700.07
423.111	1708.43
423.488	1715.21
423.864	1741.88
424.241	1790.24
424.617	1766.73
424.994	1816.22
425.37	1860.74
425.746	1834.98
426.123	1866.39
426.499	1852.15
426.875	1909.78
427.251	1930.34
427.627	1979.38
428.003	2010.57
428.379	2013.05
428.756	2060.74
429.132	2079.27
429.507	2096.44
429.883	2139.83
430.259	2142.77
430.635	2176.44
431.011	2218.02
431.387	2262.31
431.763	2287.62
432.138	2315.19
432.514	2391.8
432.89	2382.31
433.265	2407.85
433.641	2446.04
434.016	2464.57
434.392	2492.14
434.767	2569.88
435.143	2562.87
435.518	2596.77
435.894	2608.07
436.269	2647.16
436.644	2728.06
437.02	2747.05
437.395	2729.42
437.77	2791.11
438.145	2832.02
438.52	2850.77
438.895	2913.82
439.271	2917.89
439.646	2958.34
440.021	2991.56
440.395	2994.72
440.77	2970.09
441.145	2995.85
441.52	3038.11
441.895	3119.47
442.27	3123.99
442.645	3163.53
443.019	3170.09
443.394	3192.46
443.769	3220.93
444.143	3217.77
444.518	3285.11
444.892	3293.7
445.267	3301.38
445.641	3330.08
446.016	3332.57
446.39	3382.06
446.764	3420.25
447.139	3444.66
447.513	3481.49
447.887	3519
448.262	3500.92
448.636	3531.21
449.01	3622.96
449.384	3619.11
449.758	3662.28
450.132	3700.92
450.506	3715.38
450.88	3688.72
451.254	3730.98
451.628	3814.36
452.002	3829.05
452.376	3914.7
452.75	3913.12
453.123	3994.92
453.497	4081.7
453.871	4046.67
454.244	4121.02
454.618	4200.34
454.992	4276.27
455.365	4238.98
455.739	4346.55
456.112	4420
456.486	4426.32
456.859	4465.42
457.232	4539.09
457.606	4562.37
457.979	4642.14
458.352	4755.81
458.725	4791.29
459.099	4815.92
459.472	4913.09
459.845	4996.03
460.218	5017.04
460.591	5143.14
460.964	5118.74
461.337	5283.48
461.71	5306.3
462.083	5438.28
462.456	5403.25
462.829	5466.75
463.201	5556.01
463.574	5615.22
463.947	5645.73
464.32	5762.56
464.692	5818.38
465.065	5891.37
465.438	5953.97
465.81	6067.19
466.183	6122.78
466.555	6247.29
466.928	6306.95
467.3	6342.66
467.672	6424.24
468.045	6590.11
468.417	6597.79
468.789	6651.58
469.161	6755.3
469.534	6888.63
469.906	7045.69
470.278	7098.12
470.65	7155.52
471.022	7336.76
471.394	7450.43
471.766	7511.67
472.138	7581.72
472.51	7750.3
472.882	7926.8
473.253	7941.71
473.625	8071.43
473.997	8296.05
474.369	8340.57
474.74	8425.99
475.112	8602.03
475.484	8758.41
475.855	8862.37
476.227	8978.97
476.598	9206.76
476.97	9314.56
477.341	9574.66
477.713	9681.78
478.084	9747.99
478.455	10040.64
478.827	10131.94
479.198	10397.92
479.569	10442.44
479.94	10776.21
480.311	10824.57
480.682	11093.27
481.053	11381.17
481.424	11476.99
481.795	11598.11
482.166	11796.75
482.537	12008.5
482.908	12223.63
483.279	12385.21
483.65	12584.75
484.021	12877.63
484.391	12969.6
484.762	13120.56
485.133	13260.89
485.503	13501.11
485.874	13778.17
486.244	13896.58
486.615	14144.26
486.985	14274.88
487.356	14575.44
487.726	14731.36
488.097	15076.89
488.467	15103.78
488.837	15428.29
489.207	15630.55
489.578	15835.29
489.948	16134.27
490.318	16256.07
490.688	16335.84
491.058	16612.44
491.428	16774.7
491.798	16955.49
492.168	17308.02
492.538	17417.85
492.908	17554.11
493.278	17901
493.648	17892.41
494.017	18236.81
494.387	18282.23
494.757	18581.66
495.126	18679.28
495.496	18755.21
495.866	18909.79
496.235	19212.83
496.605	19291.24
496.974	19341.41
497.344	19636.55
497.713	19803.1
498.082	19917.67
498.452	20165.8
498.821	20237.43
499.19	20309.07
499.559	20511.78
499.928	20691.43
500.298	20778.21
500.667	21054.81
501.036	21117.41
501.405	21207.13
501.774	21363.51
502.143	21570.73
502.512	21662.93
502.88	22015.24
503.249	22034.22
503.618	22027.67
503.987	22307.66
504.356	22372.97
504.724	22534.55
505.093	22601.89
505.462	22824.94
505.83	22930.7
506.199	23214.76
506.567	23510.79
506.936	23461.08
507.304	23826.27
507.672	23910.11
508.041	23922.31
508.409	24174.73
508.777	24296.54
509.145	24594.83
509.514	24565.23
509.882	24910.98
510.25	24920.93
510.618	25133.12
510.986	25279.79
511.354	25480.69
511.722	25600.68
512.09	25975.36
512.458	26032.99
512.826	26159.09
513.193	26395.24
513.561	26394.33
513.929	26870.03
514.297	26959.74
514.664	27123.13
515.032	27255.1
515.4	27672.49
515.767	27611.7
516.135	27873.84
516.502	27763.79
516.869	28351.8
517.237	28436.31
517.604	28469.76
517.972	28901.16
518.339	29049.86
518.706	29061.16
519.073	29250.3
519.44	29418.21
519.808	29842.15
520.175	29880.8
520.542	30142.03
520.909	30386.77
521.276	30449.82
521.643	30902.01
522.009	31082.57
522.376	31422.45
522.743	31377.93
523.11	31883
523.477	32201.19
523.843	32228.76
524.21	32593.04
524.577	32791
524.943	32954.39
525.31	33210.2
525.676	33603.18
526.043	33730.41
526.409	33907.58
526.776	34315.71
527.142	34374.46
527.508	34546.89
527.874	34887.22
528.241	35176.02
528.607	35235.01
528.973	35545.28
529.339	35663.24
529.705	36066.62
530.071	36219.39
530.437	36529.66
530.803	36667.96
531.169	36928.29
531.535	36766.04
531.901	37041.51
532.267	37232.92
532.632	37441.73
532.998	37771.89
533.364	37933.69
533.73	38052.78
534.095	38355.6
534.461	38460.01
534.826	38652.32
535.192	38970.27
535.557	39191.96
535.923	39041.46
536.288	39318.06
536.653	39534.55
537.019	39510.37
537.384	39777.03
537.749	39726.41
538.114	39893.87
538.479	39968.67
538.845	40358.03
539.21	40225.61
539.575	40456.34
539.94	40686.16
540.305	40825.14
540.67	40828.76
541.034	41169.09
541.399	41262.87
541.764	41410.44
542.129	41413.37
542.494	41504.22
542.858	41868.96
543.223	41849.3
543.587	42022.17
543.952	42088.84
544.316	42365.67
544.681	42435.04
545.045	42584.42
545.41	42696.96
545.774	42804.52
546.138	42861.02
546.503	43083.16
546.867	43185.98
547.231	43471.85
547.595	43535.58
547.959	43762.92
548.324	43736.48
548.688	43851.95
549.052	43929.47
549.416	44148.22
549.779	44321.55
550.143	44280.64
550.507	44699.84
550.871	44662.1
551.235	44813.51
551.599	45232.71
551.962	45206.72
552.326	45298.02
552.689	45477.9
553.053	45476.54
553.417	45462.31
553.78	46110.65
554.143	45940.03
554.507	46189.75
554.87	46352.68
555.234	46722.61
555.597	46602.62
555.96	46689.62
556.323	47007.35
556.686	47081.7
557.05	47295.71
557.413	47497.51
557.776	47613.66
558.139	47707.22
558.502	47945.63
558.865	48016.14
559.228	48272.63
559.59	48459.29
559.953	48477.37
560.316	48982.21
560.679	48929.56
561.041	49129.56
561.404	49372.94
561.767	49486.16
562.129	49428.53
562.492	49844.79
562.854	49840.27
563.217	49867.39
563.579	50120.94
563.941	50324.33
564.304	50507.15
564.666	50714.15
565.028	50746.24
565.39	50887.48
565.753	51122.72
566.115	51123.4
566.477	51336.28
566.839	51334.92
567.201	51601.81
567.563	51625.54
567.925	51888.58
568.287	51856.72
568.648	52086.54
569.01	52118.86
569.372	52328.79
569.734	52294.44
570.095	52515.46
570.457	52712.29
570.819	52702.57
571.18	52655.34
571.542	52902.56
571.903	52975.78
572.265	53012.62
572.626	53116.57
572.987	53197.47
573.349	53352.5
573.71	53473.4
574.071	53561.76
574.432	53639.27
574.794	53872.71
575.155	53782.31
575.516	53779.83
575.877	53834.52
576.238	53881.07
576.599	54029.77
576.96	54086.04
577.32	54119.93
577.681	54137.79
578.042	54199.93
578.403	54276.31
578.763	54316.76
579.124	54367.61
579.485	54470.88
579.845	54590.43
580.206	54434.95
580.566	54602.63
580.927	54543.42
581.287	54648.51
581.648	54574.61
582.008	54705.91
582.368	54596.76
582.728	54716.08
583.089	54645.34
583.449	54682.4
583.809	54754.04
584.169	54852.12
584.529	54774.6
584.889	54862.51
585.249	54749.07
585.609	54702.29
585.969	54890.31
586.329	54805.79
586.688	54792.23
587.048	54794.49
587.408	54703.87
587.768	54788.84
588.127	54803.08
588.487	54703.42
588.846	55036.29
589.206	54763.98
589.565	54818.45
589.925	54926.24
590.284	54930.31
590.643	54955.39
591.003	54978.89
591.362	55009.85
591.721	54853.7
592.08	54941.15
592.44	55046.69
592.799	55107.7
593.158	55010.53
593.517	55059.8
593.876	55076.29
594.235	55032.45
594.593	55064.77
594.952	55180.47
595.311	55068.61
595.67	55161.26
596.029	55171.43
596.387	55182.73
596.746	55277.42
597.104	55116.97
597.463	55173.92
597.822	55221.37
598.18	55206.68
598.538	55223.86
598.897	55415.27
599.255	55206.68
599.613	55539.33
599.972	55297.76
600.33	55412.1
600.688	55345.89
601.046	55445.1
601.404	55548.82
601.762	55458.65
602.12	55647.12
602.478	55615.71
602.836	55630.4
603.194	55507.69
603.552	55609.16
603.91	55455.72
604.268	55678.76
604.625	55589.05
604.983	55727.12
605.341	55551.31
605.698	55750.4
606.056	55750.62
606.413	55806.22
606.771	55830.85
607.128	55897.74
607.485	55825.88
607.843	55847.57
608.2	55964.4
608.557	56027
608.914	55986.32
609.272	56107.68
609.629	56136.6
609.986	56212.31
610.343	56042.82
610.7	56272.42
611.057	56198.07
611.414	56171.4
611.771	56299.31
612.127	56382.47
612.484	56327.78
612.841	56340.89
613.198	56343.83
613.554	56379.08
613.911	56526.88
614.267	56411.17
614.624	56479.42
614.98	56550.15
615.337	56606.65
615.693	56562.13
616.05	56626.53
616.406	56708.57
616.762	56648.45
617.118	56588.79
617.475	56606.65
617.831	56661.56
618.187	56667.66
618.543	56751.28
618.899	56868.34
619.255	56852.97
619.611	56813.65
619.967	56840.99
620.323	56882.57
620.678	56810.26
621.034	56777.04
621.39	56830.82
621.746	56759.41
622.101	57080.99
622.457	56865.4
622.812	56824.04
623.168	56948.33
623.523	56894.32
623.879	56980.65
624.234	56812.29
624.589	56938.16
624.945	56937.03
625.3	56927.99
625.655	56913.31
626.01	56914.44
626.365	56985.17
626.72	56923.48
627.075	56892.97
627.43	56860.43
627.785	56793.31
628.14	56821.78
628.495	56901.78
628.85	56814.1
629.205	56706.53
629.559	56962.34
629.914	56774.78
630.269	56814.1
630.623	56746.08
630.978	56668.11
631.332	56718.06
631.687	56829.47
632.041	56735.23
632.396	56696.36
632.75	56535.24
633.104	56619.53
633.459	56462.24
633.813	56425.18
634.167	56489.59
634.521	56524.39
634.875	56522.58
635.229	56437.84
635.583	56318.07
635.937	56359.87
636.291	56269.93
636.645	56280.55
636.999	56199.65
637.352	56323.04
637.706	56125.08
638.06	56221.8
638.413	56156.04
638.767	56075.36
639.121	56191.74
639.474	55914.24
639.828	55931.41
640.181	55971.41
640.534	55961.92
640.888	55868.81
641.241	55807.8
641.594	55823.84
641.947	55947.23
642.301	55763.73
642.654	55797.18
643.007	55737.52
643.36	55720.34
643.713	55677.18
644.066	55737.07
644.419	55503.17
644.771	55384.53
645.124	55137.31
645.477	55103.18
645.83	54954.94
646.182	54774.83
646.535	54711.78
646.888	54675.4
647.24	54600.6
647.593	54776.19
647.945	54654.61
648.298	54481.96
648.65	54473.82
649.002	54282.87
649.355	54454.84
649.707	54410.55
650.059	54595.85
650.411	54903.87
650.763	54928.73
651.115	55153.35
651.467	55021.6
651.819	55013.69
652.171	54857.54
652.523	54890.99
652.875	54871.78
653.227	54687.38
653.578	54901.38
653.93	54806.24
654.282	54715.4
654.633	54585.91
654.985	54726.47
655.337	54721.05
655.688	54707.71
656.039	54770.31
656.391	54479.47
656.742	54631.11
657.094	54560.37
657.445	54723.08
657.796	54685.34
658.147	54553.82
658.498	54489.19
658.849	54565.12
659.2	54484.67
659.551	54451.9
659.902	54496.42
660.253	54457.78
660.604	54479.02
660.955	54348.18
661.306	54469.08
661.656	54276.09
662.007	54360.15
662.358	54293.71
662.708	54388.85
663.059	54255.07
663.409	54072.02
663.76	54312.7
664.11	54191.8
664.461	54299.36
664.811	54272.25
665.161	54225.47
665.511	54137.33
665.862	54256.43
666.212	54367.16
666.562	54247.61
666.912	54291.45
667.262	54246.94
667.612	54260.72
667.962	54248.74
668.312	54101.18
668.662	54267.5
669.011	54154.06
669.361	54129.2
669.711	54060.73
670.06	54023.89
670.41	54024.12
670.76	53875.87
671.109	53990.67
671.459	53904.8
671.808	53952.93
672.157	54056.88
672.507	53821.18
672.856	53794.52
673.205	53856.89
673.554	53908.64
673.904	53813.5
674.253	53930.33
674.602	53823.9
674.951	53452.15
675.3	53292.16
675.649	53807.62
675.998	53665.26
676.346	53665.03
676.695	53795.87
677.044	53538.48
677.393	53701.41
677.741	53698.02
678.09	53525.6
678.438	53519.5
678.787	53617.8
679.135	53549.33
679.484	53363.34
679.832	53478.14
680.181	53288.54
680.529	53376.9
680.877	53310.46
681.225	53159.05
681.573	53377.13
681.922	53150.47
682.27	53076.8
682.618	53087.19
682.966	53014.65
683.314	52971.26
683.661	52856.24
684.009	52808.55
684.357	52692.85
684.705	52659.63
685.053	52756.8
685.4	52819.18
685.748	52491.5
686.095	52542.57
686.443	52283.15
686.79	52276.37
687.138	52469.35
687.485	52404.5
687.832	52252.19
688.18	52310.04
688.527	52054.68
688.874	52072.08
689.221	51882.25
689.568	51884.74
689.915	51857.17
690.262	51790.05
690.609	51687.91
690.956	51551.86
691.303	51473.9
691.65	51363.17
691.997	51303.06
692.344	51208.6
692.69	51137.86
693.037	51160.01
693.383	50901.71
693.73	51100.58
694.077	50757.99
694.423	50875.95
694.769	50720.47
695.116	50630.31
695.462	50647.03
695.808	50451.33
696.155	50475.51
696.501	50341.5
696.847	50208.62
697.193	49837.33
697.539	50058.57
697.885	49802.98
698.231	49745.81
698.577	49837.56
698.923	49762.08
699.269	49401.86
699.614	49322.77
699.96	49131.82
700.306	49190.8
700.651	49235.09
700.997	48978.15
701.342	48935.89
701.688	48821.09
702.033	48644.14
702.379	48745.84
702.724	48456.35
703.069	48689.12
703.415	48205.96
703.76	48214.55
704.105	48209.35
704.45	48113.54
704.795	47802.58
705.14	47654.79
705.485	47698.86
705.83	47474.23
706.175	47619.54
706.52	47518.98
706.865	47352.43
707.209	47389.94
707.554	47151.08
707.899	47229.94
708.243	47095.71
708.588	46941.14
708.932	46713.8
709.277	46721.03
709.621	46709.28
709.966	46451.43
710.31	46594.93
710.654	46238.11
710.998	46312.68
711.342	46281.72
711.687	46185.23
712.031	45964.67
712.375	45925.8
712.719	45889.87
713.063	45758.57
713.407	45745.92
713.75	45592.47
714.094	45571.23
714.438	45514.96
714.782	45439.26
715.125	45162.2
715.469	45381.86
715.812	45128.76
716.156	44918.37
716.499	44831.82
716.843	44947.07
717.186	44637.92
717.53	44836.56
717.873	44796.56
718.216	44621.88
718.559	44729.67
718.902	44421.88
719.246	44558.83
719.589	44204.49
719.932	44051.95
720.275	44080.42
720.617	43951.84
720.96	43902.57
721.303	43878.62
721.646	44023.93
721.989	43710.94
722.331	43797.72
722.674	43700.09
723.016	43655.12
723.359	43508.91
723.701	43548.46
724.044	43336.26
724.386	43109.37
724.729	43336.04
725.071	43101.92
725.413	43079.09
725.755	42982.15
726.097	42955.03
726.439	42630.29
726.782	42699.67
727.124	42761.36
727.465	42639.56
727.807	42553.23
728.149	42540.8
728.491	42419.9
728.833	42461.48
729.175	42180.81
729.516	42219
729.858	42129.97
730.199	42211.09
730.541	42023.53
730.882	42063.07
731.224	42097.2
731.565	41789.41
731.906	41839.8
732.248	41875.96
732.589	41609.53
732.93	41540.15
733.271	41593.48
733.612	41577.21
733.953	41704.67
734.294	41420.38
734.635	41286.82
734.976	41448.63
735.317	41134.74
735.658	41150.1
735.999	41076.43
736.339	40981.52
736.68	41058.58
737.021	40908.98
737.361	40567.29
737.702	40849.1
738.042	40782.43
738.383	40643
738.723	40607.29
739.063	40430.12
739.404	40599.61
739.744	40379.28
740.084	40360.97
740.424	40408.88
740.764	40222.22
741.104	40481.42
741.444	40180.19
741.784	39987.65
742.124	40139.74
742.464	39979.29
742.804	39918.5
743.143	39844.6
743.483	39817.03
743.823	39767.09
744.162	39566.19
744.502	39674.21
744.841	39401.68
745.181	39628.11
745.52	39457.04
745.86	39453.2
746.199	39346.76
746.538	39341.56
746.877	39209.36
747.216	39158.07
747.556	38999.65
747.895	38982.93
748.234	38613.45
748.573	38774.35
748.911	38688.25
749.25	38679.21
749.589	38559.44
749.928	38518.54
750.267	38553.56
750.605	38385.43
750.944	38352.89
751.283	38084.42
751.621	38244.87
751.96	38103.86
752.298	37992.9
752.636	37977.31
