Data from plate_porcelain_FLMS001491_006.txt Node
Date: Tue Feb 07 11:18:39 GMT 2017
User: dcchb
Spectrometer: FLMS00149
Trigger mode: 0
Integration Time (sec): 2.000000E-2
Scans to average: 10
Electric dark correction enabled: true
Nonlinearity correction enabled: false
Boxcar width: 0
XAxis mode: Wavelengths
Number of Pixels in Spectrum: 2048
>>>>>Begin Spectral Data<<<<<
341.393	-9.65
341.776	-9.65
342.16	-9.65
342.543	-63.66
342.927	-71.79
343.31	-95.29
343.693	-64.11
344.077	-98.46
344.46	-57.78
344.843	-40.15
345.226	-46.71
345.61	-14.62
345.993	-22.75
346.376	9.56
346.759	36.91
347.142	38.94
347.525	21.76
347.908	61.31
348.291	68.54
348.674	83.23
349.057	119.62
349.44	120.97
349.823	141.99
350.206	203
350.588	235.54
350.971	241.87
351.354	245.04
351.737	285.49
352.119	282.32
352.502	300.85
352.884	307.63
353.267	323.45
353.65	343.56
354.032	337.69
354.414	353.51
354.797	344.47
355.179	352.83
355.562	373.85
355.944	383.56
356.326	382.66
356.709	383.34
357.091	381.3
357.473	370
357.855	380.4
358.238	378.59
358.62	402.77
359.002	398.7
359.384	398.03
359.766	385.37
360.148	411.81
360.53	388.76
360.912	407.74
361.294	393.05
361.676	392.6
362.057	391.92
362.439	403.68
362.821	389.66
363.203	392.15
363.584	416.78
363.966	385.37
364.348	387.41
364.729	379.5
365.111	388.08
365.493	415.65
365.874	388.99
366.256	389.21
366.637	384.02
367.019	385.6
367.4	402.32
367.781	407.07
368.163	401.42
368.544	410.68
368.925	402.77
369.306	423.11
369.688	399.16
370.069	408.2
370.45	403
370.831	425.37
371.212	412.72
371.593	411.36
371.974	412.04
372.355	427.63
372.736	416.33
373.117	423.11
373.498	421.53
373.879	424.92
374.26	420.62
374.641	419.95
375.021	444.13
375.402	433.96
375.783	459.04
376.163	469.89
376.544	463.11
376.925	442.09
377.305	452.49
377.686	492.49
378.066	463.34
378.447	445.03
378.827	474.63
379.208	453.62
379.588	488.42
379.968	479.15
380.349	504.92
380.729	501.53
381.109	490.23
381.489	508.53
381.87	515.76
382.25	511.47
382.63	507.18
383.01	533.39
383.39	526.61
383.77	542.88
384.15	554.63
384.53	542.2
384.91	542.88
385.29	545.59
385.67	541.98
386.049	572.48
386.429	573.39
386.809	573.16
387.189	578.59
387.568	579.94
387.948	587.4
388.328	605.48
388.707	596.67
389.087	630.79
389.466	630.11
389.846	616.33
390.225	635.53
390.605	645.7
390.984	651.13
391.363	666.95
391.743	678.47
392.122	664.69
392.501	679.15
392.881	678.02
393.26	701.3
393.639	713.5
394.018	715.53
394.397	712.37
394.776	732.25
395.155	732.93
395.534	732.71
395.913	740.39
396.292	760.28
396.671	764.8
397.05	807.51
397.429	802.99
397.808	774.74
398.186	786.04
398.565	801.41
398.944	796.43
399.323	838.24
399.701	822.2
400.08	822.65
400.458	833.27
400.837	836.88
401.215	858.58
401.594	867.62
401.972	896.54
402.351	887.96
402.729	896.77
403.107	916.66
403.486	920.72
403.864	940.38
404.242	929.09
404.62	961.4
404.999	953.49
405.377	973.15
405.755	964.57
406.133	996.88
406.511	1011.57
406.889	1003.43
407.267	1047.5
407.645	1033.72
408.023	1076.88
408.401	1101.28
408.779	1073.71
409.156	1100.61
409.534	1120.95
409.912	1127.95
410.29	1193.49
410.667	1196.65
411.045	1139.93
411.422	1190.55
411.8	1203.65
412.178	1248.4
412.555	1245.69
412.933	1252.24
413.31	1304.67
413.687	1299.92
414.065	1328.62
414.442	1315.06
414.819	1351.67
415.197	1386.02
415.574	1365.68
415.951	1400.94
416.328	1418.34
416.705	1435.29
417.082	1446.81
417.46	1487.49
417.837	1492.91
418.214	1476.87
418.591	1526.36
418.967	1541.27
419.344	1531.33
419.721	1583.31
420.098	1566.13
420.475	1600.71
420.852	1593.48
421.228	1619.01
421.605	1632.12
421.982	1649.97
422.358	1663.53
422.735	1696.52
423.111	1706.69
423.488	1735.84
423.864	1748.5
424.241	1773.36
424.617	1792.11
424.994	1780.14
425.37	1836.86
425.746	1832.56
426.123	1876.63
426.499	1872.11
426.875	1897.65
427.251	1941.49
427.627	1998.21
428.003	1988.94
428.379	2024.65
428.756	2028.94
429.132	2084.08
429.507	2145.32
429.883	2129.73
430.259	2180.13
430.635	2195.72
431.011	2228.26
431.387	2290.18
431.763	2300.35
432.138	2314.81
432.514	2374.25
432.89	2397.75
433.265	2405.21
433.641	2461.47
434.016	2515.71
434.392	2509.84
434.767	2552.55
435.143	2569.72
435.518	2601.58
435.894	2607.69
436.269	2668.7
436.644	2744.18
437.02	2746.89
437.395	2757.51
437.77	2825.53
438.145	2813.78
438.52	2849.26
438.895	2907.11
439.271	2900.11
439.646	2966.32
440.021	2978.98
440.395	2987.11
440.77	3005.42
441.145	3065.75
441.52	3087.67
441.895	3087.22
442.27	3170.38
442.645	3109.59
443.019	3183.26
443.394	3172.42
443.769	3248.57
444.143	3230.49
444.518	3319.53
444.892	3271.4
445.267	3321.34
445.641	3332.41
446.016	3380.09
446.39	3408.57
446.764	3467.78
447.139	3408.79
447.513	3479.08
447.887	3495.35
448.262	3560.43
448.636	3567.89
449.01	3612.63
449.384	3638.17
449.758	3669.58
450.132	3660.77
450.506	3751.38
450.88	3772.17
451.254	3742.8
451.628	3790.25
452.002	3823.7
452.376	3882.91
452.75	3939.4
453.123	3971.94
453.497	4063.01
453.871	4058.27
454.244	4159.96
454.618	4205.84
454.992	4252.61
455.365	4269.34
455.739	4349.56
456.112	4407.86
456.486	4507.97
456.859	4511.59
457.232	4609.21
457.606	4623.45
457.979	4663.22
458.352	4764.24
458.725	4847.85
459.099	4865.25
459.472	4995.65
459.845	5009.43
460.218	5088.52
460.591	5115.19
460.964	5122.87
461.337	5275.19
461.71	5319.7
462.083	5431.11
462.456	5420.72
462.829	5446.03
463.201	5521.96
463.574	5557.66
463.947	5680.15
464.32	5834.95
464.692	5776.87
465.065	5917.66
465.438	5972.34
465.81	6050.53
466.183	6192.45
466.555	6326.46
466.928	6302.28
467.3	6307.93
467.672	6441.26
468.045	6526.9
468.417	6640.57
468.789	6685.54
469.161	6798.31
469.534	6869.72
469.906	6995.14
470.278	7080.34
470.65	7206.89
471.022	7306.09
471.394	7492.98
471.766	7518.74
472.138	7704.05
472.51	7768.45
472.882	7883.48
473.253	8045.06
473.625	8128.9
473.997	8322.11
474.369	8390.13
474.74	8436.91
475.112	8632.84
475.484	8748.77
475.855	8917.58
476.227	8997.57
476.598	9256.55
476.97	9313.72
477.341	9563.21
477.713	9715.3
478.084	9761.4
478.455	10017.66
478.827	10169.07
479.198	10384.66
479.569	10473.69
479.94	10788.26
480.311	10901.48
480.682	11159.55
481.053	11383.05
481.424	11517.51
481.795	11639.09
482.166	11810.83
482.537	12045.86
482.908	12228.9
483.279	12423.25
483.65	12637.03
484.021	12943.91
484.391	12988.43
484.762	13121.08
485.133	13343
485.503	13437.01
485.874	13822.76
486.244	13941.4
486.615	14142.98
486.985	14420.71
487.356	14563.53
487.726	14730.76
488.097	15047.13
488.467	15082.16
488.837	15500.23
489.207	15603.5
489.578	15907.67
489.948	16129.14
490.318	16225.63
490.688	16295.46
491.058	16619.07
491.428	16831.04
491.798	16953.98
492.168	17319.16
492.538	17385.38
492.908	17639.61
493.278	17845.25
493.648	17867.62
494.017	18224.22
494.387	18353.71
494.757	18634.38
495.126	18700.82
495.496	18825.79
495.866	18970.87
496.235	19142.39
496.605	19391.2
496.974	19473.91
497.344	19661.7
497.713	19781.25
498.082	19915.93
498.452	20250.84
498.821	20332.42
499.19	20418.29
499.559	20597.5
499.928	20737.38
500.298	20851.73
500.667	21100.98
501.036	21094.88
501.405	21343.01
501.774	21384.59
502.143	21613.51
502.512	21770.12
502.88	22043.33
503.249	21960.17
503.618	22187.51
503.987	22312.25
504.356	22500.95
504.724	22483.77
505.093	22716.54
505.462	22878.34
505.83	23029.3
506.199	23118.78
506.567	23541.15
506.936	23557.87
507.304	23799.67
507.672	23827.01
508.041	24158.31
508.409	24231.98
508.777	24355.36
509.145	24582.25
509.514	24646.43
509.882	24911.05
510.25	24913.31
510.618	25132.74
510.986	25230.14
511.354	25587.87
511.722	25819.05
512.09	25928.65
512.458	25943.8
512.826	26177.91
513.193	26412.94
513.561	26603.44
513.929	26765.24
514.297	27136.76
514.664	27264.89
515.032	27381.95
515.4	27641.83
515.767	27740.36
516.135	27995.72
516.502	27887.25
516.869	28454.69
517.237	28437.06
517.604	28576.27
517.972	28807
518.339	29131.96
518.706	29167.44
519.073	29231.62
519.44	29496.7
519.808	29919.28
520.175	29940.98
520.542	30256
520.909	30477.69
521.276	30566.5
521.643	30900.5
522.009	31229.98
522.376	31300.04
522.743	31650.31
523.11	31901.6
523.477	32225.66
523.843	32359.67
524.21	32700.45
524.577	32976.6
524.943	33095.7
525.31	33298.63
525.676	33570.26
526.043	33802.57
526.409	33931.83
526.776	34366.85
527.142	34571.36
527.508	34736.56
527.874	35089.77
528.241	35159.82
528.607	35388.74
528.973	35566.14
529.339	35656.31
529.705	36030.99
530.071	36272.56
530.437	36563.4
530.803	36754.58
531.169	37039.77
531.535	37004.97
531.901	37145.31
532.267	37383.49
532.632	37538.07
532.998	37744.16
533.364	37990.94
533.73	38227.31
534.095	38606.29
534.461	38506.85
534.826	38762.44
535.192	38840.41
535.557	39219.83
535.923	39283.56
536.288	39425.7
536.653	39650.33
537.019	39506.6
537.384	39685.35
537.749	39919.7
538.114	40006.93
538.479	40182.29
538.845	40369.4
539.21	40394.04
539.575	40556.07
539.94	40781.37
540.305	40970.29
540.67	41025.88
541.034	41246.67
541.399	41494.35
541.764	41569.83
542.129	41612.99
542.494	41696.6
542.858	41878.07
543.223	41877.16
543.587	42267.43
543.952	42240.99
544.316	42446.19
544.681	42329.35
545.045	42737.03
545.41	42828.32
545.774	43111.48
546.138	42971.82
546.503	43198.03
546.867	43155.32
547.231	43694.74
547.595	43707.62
547.959	43768.86
548.324	43893.38
548.688	43911.23
549.052	44119.59
549.416	44159.81
549.779	44262.41
550.143	44438.68
550.507	44794.37
550.871	44822.17
551.235	44860.81
551.599	45240.24
551.962	45280.46
552.326	45374.92
552.689	45590.06
553.053	45527.01
553.417	45684.75
553.78	46208.57
554.143	46042.25
554.507	46297.38
554.87	46382.35
555.234	46839.52
555.597	46714.77
555.96	46875.22
556.323	47240.86
556.686	47234.99
557.05	47356.34
557.413	47543.68
557.776	47639.27
558.139	47952.48
558.502	47946.61
558.865	48063.89
559.228	48389.53
559.59	48486.03
559.953	48528.74
560.316	49000.36
560.679	48982.96
561.041	49274.26
561.404	49370.07
561.767	49602.38
562.129	49503.18
562.492	49882.15
562.854	49933.22
563.217	49967.34
563.579	50147.45
563.941	50446.2
564.304	50450.5
564.666	50808.45
565.028	50710.15
565.39	50898.85
565.753	51149.46
566.115	51293.41
566.477	51273.75
566.839	51408.89
567.201	51554.65
567.563	51647.98
567.925	51987.4
568.287	52051.58
568.648	52014.97
569.01	52180.39
569.372	52402.99
569.734	52291.13
570.095	52593.04
570.457	52758.23
570.819	52783.99
571.18	52727.05
571.542	52910.09
571.903	52961.62
572.265	53093.59
572.626	53288.16
572.987	53302.85
573.349	53390.98
573.71	53539.45
574.071	53637.08
574.432	53697.64
574.794	53845.21
575.155	53828.03
575.516	53798.2
575.877	53947.8
576.238	53972.89
576.599	54138.99
576.96	54055.37
577.32	54061.93
577.681	54244.29
578.042	54207.68
578.403	54342.82
578.763	54499.43
579.124	54437.06
579.485	54649.71
579.845	54604.51
580.206	54589.6
580.566	54580.78
580.927	54522.25
581.287	54817.84
581.648	54689.03
582.008	54797.27
582.368	54727.22
582.728	54793.66
583.089	54777.84
583.449	54817.61
583.809	54823.71
584.169	54829.36
584.529	54819.65
584.889	54930.38
585.249	54775.35
585.609	54689.03
585.969	54839.98
586.329	54851.51
586.688	54903.49
587.048	54929.25
587.408	54854.9
587.768	54863.26
588.127	54872.75
588.487	54823.94
588.846	55012.64
589.206	54859.42
589.565	54921.11
589.925	54956.37
590.284	54897.16
590.643	55040.43
591.003	55140.99
591.362	55055.12
591.721	54950.49
592.08	55046.53
592.44	55127.21
592.799	55127.89
593.158	55113.2
593.517	55094.89
593.876	55139.19
594.235	55066.19
594.593	55130.37
594.952	55275
595.311	55131.73
595.67	55218.73
596.029	55308.67
596.387	55236.13
596.746	55291.27
597.104	55167.43
597.463	55180.77
597.822	55389.8
598.18	55233.42
598.538	55311.84
598.897	55452.62
599.255	55231.16
599.613	55618.27
599.972	55410.82
600.33	55453.53
600.688	55441.78
601.046	55500.08
601.404	55612.17
601.762	55461.44
602.12	55640.87
602.478	55657.36
602.836	55706.18
603.194	55470.93
603.552	55622.11
603.91	55497.37
604.268	55683.35
604.625	55649.68
604.983	55790.24
605.341	55677.7
605.698	55797.7
606.056	55783.24
606.413	55838.38
606.771	55916.57
607.128	55974.42
607.485	55861.43
607.843	55854.42
608.2	56006.96
608.557	56107.97
608.914	56022.1
609.272	56116.34
609.629	56189.33
609.986	56204.69
610.343	56129.44
610.7	56291.92
611.057	56260.06
611.414	56248.76
611.771	56295.31
612.127	56368.53
612.484	56335.99
612.841	56475.2
613.198	56305.48
613.554	56387.29
613.911	56552.71
614.267	56493.95
614.624	56405.59
614.98	56583.22
615.337	56673.16
615.693	56639.49
616.05	56634.74
616.406	56757
616.762	56600.84
617.118	56623.89
617.475	56712.48
617.831	56641.07
618.187	56756.32
618.543	56767.17
618.899	56880.38
619.255	56853.04
619.611	56832.02
619.967	56815.07
620.323	56921.74
620.678	56893.72
621.034	56781.4
621.39	56814.4
621.746	56781.4
622.101	57120.15
622.457	56875.86
622.812	56912.02
623.168	57003.77
623.523	56944.56
623.879	57046.93
624.234	56882.64
624.589	57032.24
624.945	57008.06
625.3	57009.65
625.655	56906.37
626.01	56950.66
626.365	56987.72
626.72	56974.84
627.075	56957.9
627.43	56930.1
627.785	56960.83
628.14	56919.93
628.495	56877.22
628.85	56885.81
629.205	56686.04
629.559	56869.99
629.914	56709.54
630.269	56902.76
630.623	56815.53
630.978	56677.9
631.332	56802.87
631.687	56806.71
632.041	56730.56
632.396	56759.93
632.75	56590
633.104	56704.34
633.459	56580.73
633.813	56553.39
634.167	56595.19
634.521	56568.53
634.875	56575.53
635.229	56478.13
635.583	56339.61
635.937	56358.14
636.291	56318.82
636.645	56312.94
636.999	56245.37
637.352	56377.57
637.706	56201.76
638.06	56285.6
638.413	56223.23
638.767	56138.93
639.121	56042.66
639.474	56003.57
639.828	55983.23
640.181	56007.41
640.534	56003.12
640.888	55905.27
641.241	55846.29
641.594	55830.24
641.947	55899.17
642.301	55809.9
642.654	55838.83
643.007	55869.11
643.36	55722.9
643.713	55756.12
644.066	55822.78
644.419	55524.71
644.771	55423.25
645.124	55144.16
645.477	55147.32
645.83	54894.22
646.182	54798.18
646.535	54698.97
646.888	54760.66
647.24	54597.28
647.593	54747.56
647.945	54690.38
648.298	54461.24
648.65	54500.78
649.002	54423.5
649.355	54527.45
649.707	54566.32
650.059	54611.52
650.411	54905.97
650.763	54968.12
651.115	55152.07
651.467	55038.85
651.819	55035.91
652.171	54920.66
652.523	54945.52
652.875	54877.72
653.227	54790.72
653.578	54890.38
653.93	54822.58
654.282	54642.02
654.633	54597.51
654.985	54622.36
655.337	54743.49
655.688	54701.46
656.039	54829.14
656.391	54470.73
656.742	54564.96
657.094	54642.7
657.445	54767.22
657.796	54665.53
658.147	54532.42
658.498	54496.94
658.849	54569.26
659.2	54540.78
659.551	54477.06
659.902	54597.73
660.253	54470.95
660.604	54510.95
660.955	54374.23
661.306	54416.49
661.656	54340.56
662.007	54381.69
662.358	54339.21
662.708	54352.31
663.059	54250.4
663.409	54176.05
663.76	54296.5
664.11	54311.41
664.461	54303.5
664.811	54261.69
665.161	54224.41
665.511	54208.81
665.862	54209.04
666.212	54304.41
666.562	54350.51
666.912	54224.63
667.262	54210.4
667.612	54165.65
667.962	54211.53
668.312	54212.66
668.662	54315.93
669.011	54141.47
669.361	54052.66
669.711	54040.23
670.06	54063.51
670.41	54017.41
670.76	53956.17
671.109	54056.73
671.459	54037.52
671.808	53965.88
672.157	54028.25
672.507	53791.42
672.856	53824.64
673.205	53919.56
673.554	53961.59
673.904	53761.59
674.253	53992.78
674.602	53864.42
674.951	53410.87
675.3	53290.65
675.649	53840.69
675.998	53655.83
676.346	53736.06
676.695	53750.75
677.044	53615.61
677.393	53659
677.741	53774.02
678.09	53658.09
678.438	53627.36
678.787	53650.86
679.135	53671.43
679.484	53453.58
679.832	53616.97
680.181	53369.97
680.529	53456.29
680.877	53329.74
681.225	53264.66
681.573	53425.56
681.922	53247.26
682.27	53175.85
682.618	53163.19
682.966	53000.71
683.314	53132.68
683.661	52925.46
684.009	52815.41
684.357	52896.08
684.705	52704
685.053	52733.15
685.4	52694.73
685.748	52506.49
686.095	52435.53
686.443	52346.72
686.79	52273.05
687.138	52359.37
687.485	52429.2
687.832	52315.31
688.18	52343.33
688.527	52133.84
688.874	52020.17
689.221	51919.84
689.568	51866.73
689.915	51766.39
690.262	51782.21
690.609	51725.26
690.956	51596.91
691.303	51459.73
691.65	51410.02
691.997	51314.88
692.344	51191.72
692.69	51098.61
693.037	51328.44
693.383	50930.03
693.73	51012.97
694.077	50752.41
694.423	50718.29
694.769	50666.76
695.116	50673.54
695.462	50593.09
695.808	50436.26
696.155	50486.88
696.501	50277.84
696.847	50259.31
697.193	50024.29
697.539	50178.19
697.885	49846.44
698.231	49765.77
698.577	49833.11
698.923	49791.76
699.269	49493.01
699.614	49256.85
699.96	49201.26
700.306	49334.14
700.651	49221.15
700.997	49155.61
701.342	48945.68
701.688	48869.75
702.033	48620.71
702.379	48676.08
702.724	48572.8
703.069	48643.99
703.415	48154.96
703.76	48243.1
704.105	48212.59
704.45	48061.63
704.795	47866.38
705.14	47843.33
705.485	47736.67
705.83	47634.3
706.175	47659.83
706.52	47518.14
706.865	47404.02
707.209	47282.22
707.554	47167.19
707.899	47311.37
708.243	47024.6
708.588	46972.17
708.932	46644.72
709.277	46819.18
709.621	46714.32
709.966	46446.31
710.31	46643.14
710.654	46142.13
710.998	46451.5
711.342	46229.82
711.687	46125.86
712.031	45983.95
712.375	45796.38
712.719	45885.64
713.063	45849.03
713.407	45885.87
713.75	45606.33
714.094	45639.1
714.438	45525.65
714.782	45514.35
715.125	45239.11
715.469	45359.56
715.812	45034.14
716.156	44943.07
716.499	44867.82
716.843	44889.74
717.186	44610.42
717.53	44924.31
717.873	44898.33
718.216	44645.9
718.559	44628.5
718.902	44424.67
719.246	44531.56
719.589	44327.94
719.932	44063.77
720.275	44205.91
720.617	44049.53
720.96	43990.55
721.303	43972.47
721.646	43905.36
721.989	43737.45
722.331	43834.85
722.674	43715.76
723.016	43805.02
723.359	43602.99
723.701	43573.39
724.044	43251.14
724.386	43271.7
724.729	43359.61
725.071	43305.37
725.413	43146.73
725.755	43024.48
726.097	42906.97
726.439	42762.11
726.782	42752.17
727.124	42828.1
727.465	42508.78
727.807	42700.42
728.149	42458.39
728.491	42362.57
728.833	42530.48
729.175	42232.41
729.516	42173.2
729.858	42212.29
730.199	42130.04
730.541	42095.23
730.882	42013.66
731.224	42191.28
731.565	41775.7
731.906	41945.41
732.248	41794.9
732.589	41697.28
732.93	41431.75
733.271	41565.08
733.612	41635.13
733.953	41522.37
734.294	41303.84
734.635	41331.87
734.976	41570.05
735.317	41196.73
735.658	41098.43
735.999	40985.21
736.339	41030.18
736.68	41075.83
737.021	40905.89
737.361	40776.63
737.702	40964.42
738.042	40783.63
738.383	40638.1
738.723	40717.19
739.063	40626.57
739.404	40570.53
739.744	40530.76
740.084	40267.03
740.424	40382.29
740.764	40300.93
741.104	40501.6
741.444	40013.93
741.784	40029.07
742.124	40010.54
742.464	39984.1
742.804	39694.62
743.143	39779.36
743.483	39874.5
743.823	39538.47
744.162	39612.81
744.502	39560.16
744.841	39446.04
745.181	39572.82
745.52	39443.55
745.86	39412.37
746.199	39259.83
746.538	39245.59
746.877	39185.03
747.216	39227.97
747.556	39001.08
747.895	39058.48
748.234	38854.64
748.573	38855.77
748.911	38800.63
749.25	38736.23
749.589	38554.99
749.928	38582.78
750.267	38546.18
750.605	38333.98
750.944	38174.89
751.283	38238.16
751.621	38383.69
751.96	37995
752.298	37941.67
752.636	38037.04
