Data from plate_ceramic_FLMS001491_022.txt Node
Date: Tue Feb 07 11:16:31 GMT 2017
User: dcchb
Spectrometer: FLMS00149
Trigger mode: 0
Integration Time (sec): 2.000000E-2
Scans to average: 10
Electric dark correction enabled: true
Nonlinearity correction enabled: false
Boxcar width: 0
XAxis mode: Wavelengths
Number of Pixels in Spectrum: 2048
>>>>>Begin Spectral Data<<<<<
341.393	-5.16
341.776	-5.16
342.16	-5.16
342.543	-48.77
342.927	-84.48
343.31	-73.63
343.693	-73.85
344.077	-80.63
344.46	-61.42
344.843	-46.51
345.226	-48.32
345.61	-27.08
345.993	-5.38
346.376	-1.09
346.759	14.73
347.142	20.83
347.525	34.17
347.908	51.57
348.291	72.13
348.674	109.19
349.057	115.29
349.44	129.76
349.823	147.61
350.206	165.46
350.588	200.04
350.971	233.03
351.354	231.67
351.737	252.69
352.119	254.72
352.502	283.2
352.884	273.48
353.267	285.01
353.65	317.1
354.032	321.84
354.414	310.09
354.797	338.79
355.179	335.63
355.562	330.43
355.944	318.68
356.326	357.32
356.709	333.82
357.091	354.84
357.473	353.93
357.855	358.23
358.238	347.15
358.62	353.93
359.002	346.47
359.384	341.28
359.766	343.31
360.148	344.21
360.53	348.51
360.912	335.85
361.294	350.32
361.676	354.38
362.057	338.11
362.439	341.73
362.821	351.9
363.203	331.33
363.584	351.45
363.966	340.37
364.348	335.17
364.729	353.03
365.111	311.67
365.493	348.51
365.874	350.99
366.256	334.95
366.637	320.49
367.019	339.47
367.4	358.45
367.781	346.25
368.163	336.53
368.544	362.52
368.925	340.82
369.306	338.34
369.688	366.36
370.069	348.51
370.45	358
370.831	331.79
371.212	328.85
371.593	337.66
371.974	341.05
372.355	343.76
372.736	363.2
373.117	336.08
373.498	367.72
373.879	343.31
374.26	355.06
374.641	350.99
375.021	343.54
375.402	359.58
375.783	364.78
376.163	378.34
376.544	374.04
376.925	382.41
377.305	376.98
377.686	396.42
378.066	385.79
378.447	398.22
378.827	372.69
379.208	380.37
379.588	378.56
379.968	395.96
380.349	391.67
380.729	378.79
381.109	381.28
381.489	397.77
381.87	405.91
382.25	395.96
382.63	384.21
383.01	379.24
383.39	402.07
383.77	395.96
384.15	401.16
384.53	441.61
384.91	427.6
385.29	439.35
385.67	404.1
386.049	407.49
386.429	430.54
386.809	459.69
387.189	443.19
387.568	426.7
387.948	422.4
388.328	434.16
388.707	452.91
389.087	460.82
389.466	463.53
389.846	469.41
390.225	462.4
390.605	477.09
390.984	460.6
391.363	466.02
391.743	474.83
392.122	470.09
392.501	475.74
392.881	492.46
393.26	502.18
393.639	502.4
394.018	513.02
394.397	510.09
394.776	514.15
395.155	532.46
395.534	514.38
395.913	530.88
396.292	533.14
396.671	523.42
397.05	542.85
397.429	547.82
397.808	526.13
398.186	563.42
398.565	557.99
398.944	536.07
399.323	583.3
399.701	562.74
400.08	566.36
400.458	587.15
400.837	575.62
401.215	604.32
401.594	591.21
401.972	585.34
402.351	586.92
402.729	587.82
403.107	622.4
403.486	624.66
403.864	610.87
404.242	634.15
404.62	629.86
404.999	634.6
405.377	652.91
405.755	652.45
406.133	652.68
406.511	685.9
406.889	674.6
407.267	683.87
407.645	686.58
408.023	683.19
408.401	692.45
408.779	695.84
409.156	694.94
409.534	715.5
409.912	734.94
410.29	746.92
410.667	745.11
411.045	766.35
411.422	771.55
411.8	754.15
412.178	787.82
412.555	798.67
412.933	791.66
413.31	797.99
413.687	804.77
414.065	828.5
414.442	847.48
414.819	839.79
415.197	849.74
415.574	853.81
415.951	878.89
416.328	893.13
416.705	891.77
417.082	880.7
417.46	902.62
417.837	922.96
418.214	934.48
418.591	951.88
418.967	938.1
419.344	955.27
419.721	967.02
420.098	976.74
420.475	974.71
420.852	987.14
421.228	995.27
421.605	990.07
421.982	993.69
422.358	1026.68
422.735	1051.99
423.111	1042.5
423.488	1059.9
423.864	1071.65
424.241	1052.9
424.617	1062.16
424.994	1114.59
425.37	1104.19
425.746	1112.33
426.123	1147.13
426.499	1134.48
426.875	1137.19
427.251	1167.7
427.627	1202.27
428.003	1202.04
428.379	1211.54
428.756	1204.08
429.132	1236.39
429.507	1250.18
429.883	1248.37
430.259	1293.79
430.635	1269.39
431.011	1334.24
431.387	1321.14
431.763	1357.52
432.138	1392.32
432.514	1398.42
432.89	1377.63
433.265	1429.61
433.641	1465.54
434.016	1440.91
434.392	1454.47
434.767	1466.22
435.143	1482.94
435.518	1492.21
435.894	1518.65
436.269	1553.22
436.644	1565.65
437.02	1598.19
437.395	1601.36
437.77	1595.71
438.145	1621.24
438.52	1643.39
438.895	1651.3
439.271	1651.98
439.646	1705.99
440.021	1708.02
440.395	1680.68
440.77	1685.42
441.145	1715.03
441.52	1771.97
441.895	1773.33
442.27	1738.3
442.645	1799.32
443.019	1800.9
443.394	1818.75
443.769	1826.66
444.143	1807.45
444.518	1874.57
444.892	1861.46
445.267	1850.39
445.641	1879.54
446.016	1876.38
446.39	1882.48
446.764	1914.12
447.139	1977.84
447.513	1960.22
447.887	1942.82
448.262	1986.66
448.636	1971.29
449.01	2001.12
449.384	2010.16
449.758	2013.55
450.132	2057.16
450.506	2104.17
450.88	2059.42
451.254	2065.07
451.628	2079.54
452.002	2142.58
452.376	2179.19
452.75	2201.34
453.123	2221.45
453.497	2217.39
453.871	2258.51
454.244	2276.14
454.618	2330.38
454.992	2348.68
455.365	2381.22
455.739	2412.18
456.112	2470.26
456.486	2433.65
456.859	2497.83
457.232	2471.84
457.606	2493.99
457.979	2505.06
458.352	2634.1
458.725	2630.03
459.099	2651.95
459.472	2723.81
459.845	2752.29
460.218	2734.89
460.591	2734.21
460.964	2775.79
461.337	2872.96
461.71	2903.69
462.083	2928.1
462.456	2934.2
462.829	2954.09
463.201	3006.29
463.574	3023.92
463.947	3089.68
464.32	3140.75
464.692	3171.48
465.065	3161.32
465.438	3211.48
465.81	3262.56
466.183	3299.84
466.555	3372.61
466.928	3387.98
467.3	3417.35
467.672	3467.3
468.045	3567.18
468.417	3562.21
468.789	3577.35
469.161	3621.64
469.534	3730.79
469.906	3764.46
470.278	3846.27
470.65	3851.01
471.022	3907.51
471.394	3949.77
471.766	4015.98
472.138	4078.13
472.51	4150.22
472.882	4210.33
473.253	4286.71
473.625	4302.98
473.997	4414.16
474.369	4432.24
474.74	4533.48
475.112	4578.23
475.484	4620.03
475.855	4700.71
476.227	4785.23
476.598	4931.66
476.97	4956.07
477.341	5026.58
477.713	5117.2
478.084	5165.56
478.455	5332.33
478.827	5318.32
479.198	5484.87
479.569	5490.52
479.94	5659.55
480.311	5704.53
480.682	5881.7
481.053	5964.18
481.424	6068.36
481.795	6172.54
482.166	6234.45
482.537	6286.88
482.908	6464.96
483.279	6455.47
483.65	6648.68
484.021	6761.9
484.391	6795.8
484.762	6891.84
485.133	6935.91
485.503	7094.09
485.874	7235.78
486.244	7301.77
486.615	7365.05
486.985	7528.88
487.356	7654.3
487.726	7701.08
488.097	7919.38
488.467	7916.22
488.837	8109.43
489.207	8153.5
489.578	8276.43
489.948	8358.01
490.318	8539.93
490.688	8554.17
491.058	8682.3
491.428	8807.49
491.798	8865.57
492.168	9050.2
492.538	9099.01
492.908	9193.02
493.278	9331.32
493.648	9422.17
494.017	9530.64
494.387	9589.62
494.757	9613.57
495.126	9714.36
495.496	9846.11
495.866	9870.74
496.235	10006.11
496.605	10117.06
496.974	10216.95
497.344	10303.95
497.713	10371.75
498.082	10391.63
498.452	10505.53
498.821	10563.15
499.19	10624.62
499.559	10806.54
499.928	10838.63
500.298	10873.88
500.667	11039.3
501.036	11004.27
501.405	11158.17
501.774	11143.25
502.143	11189.8
502.512	11305.28
502.88	11538.5
503.249	11487.88
503.618	11581.43
503.987	11525.62
504.356	11721.54
504.724	11786.63
505.093	11836.57
505.462	11954.53
505.83	12087.63
506.199	12077.69
506.567	12279.04
506.936	12314.97
507.304	12342.09
507.672	12524.91
508.041	12504.35
508.409	12687.39
508.777	12769.42
509.145	12811.23
509.514	12858.46
509.882	12978.23
510.25	13086.93
510.618	13217.1
510.986	13220.26
511.354	13384.32
511.722	13520.14
512.09	13613.92
512.458	13522.4
512.826	13764.65
513.193	13810.75
513.561	13859.79
513.929	13976.17
514.297	14143.17
514.664	14221.59
515.032	14351.76
515.4	14425.43
515.767	14457.06
516.135	14644.18
516.502	14584.07
516.869	14773.89
517.237	14821.8
517.604	14892.08
517.972	15116.03
518.339	15265.18
518.706	15273.99
519.073	15350.83
519.44	15480.31
519.808	15724.6
520.175	15676.01
520.542	15876.91
520.909	15990.13
521.276	16111.94
521.643	16197.81
522.009	16290.69
522.376	16489.33
522.743	16515.99
523.11	16785.59
523.477	16918.24
523.843	17090.21
524.21	17231.23
524.577	17343.32
524.943	17335.18
525.31	17491.56
525.676	17645.45
526.043	17801.16
526.409	17892.45
526.776	17996.41
527.142	18098.78
527.508	18294.7
527.874	18508.03
528.241	18498.31
528.607	18529.95
528.973	18847.23
529.339	18797.97
529.705	19004.74
530.071	19135.81
530.437	19188.69
530.803	19406.09
531.169	19572.41
531.535	19528.57
531.901	19668.45
532.267	19766.3
532.632	19803.14
532.998	19854.89
533.364	20054.66
533.73	20157.48
534.095	20289.23
534.461	20357.93
534.826	20481.99
535.192	20695.77
535.557	20751.14
535.923	20729.44
536.288	20795.88
536.653	21041.52
537.019	20965.14
537.384	21035.42
537.749	21197
538.114	21239.48
538.479	21166.72
538.845	21356.77
539.21	21427.73
539.575	21452.59
539.94	21595.63
540.305	21736.42
540.67	21713.6
541.034	21888.96
541.399	21973.7
541.764	22086.24
542.129	22101.61
542.494	22201.04
542.858	22306.8
543.223	22330.53
543.587	22529.17
543.952	22497.3
544.316	22511.31
544.681	22684.87
545.045	22747.69
545.41	22877.63
545.774	22882.6
546.138	23052.09
546.503	23151.75
546.867	23159.43
547.231	23261.13
547.595	23211.41
547.959	23446.88
548.324	23477.39
548.688	23526.43
549.052	23513.1
549.416	23746.31
549.779	23874.89
550.143	23987.89
550.507	24064.04
550.871	24100.2
551.235	24198.5
551.599	24308.1
551.962	24330.48
552.326	24417.03
552.689	24621.09
553.053	24558.04
553.417	24636.46
553.78	24917.13
554.143	24860.18
554.507	25091.13
554.87	25131.36
555.234	25381.75
555.597	25198.02
555.96	25370.22
556.323	25536.32
556.686	25512.14
557.05	25762.3
557.413	25779.25
557.776	25978.12
558.139	26164.55
558.502	26136.3
558.865	26255.4
559.228	26459.01
559.59	26628.04
559.953	26562.28
560.316	26763.41
560.679	26901.26
561.041	27040.01
561.404	27174.7
561.767	27343.05
562.129	27284.97
562.492	27651.74
562.854	27545.08
563.217	27743.49
563.579	27858.97
563.941	27968.8
564.304	28117.72
564.666	28371.27
565.028	28424.83
565.39	28439.29
565.753	28653.3
566.115	28693.98
566.477	28912.28
566.839	28953.18
567.201	29114.53
567.563	29092.16
567.925	29381.87
568.287	29435.43
568.648	29476.1
569.01	29639.49
569.372	29877.67
569.734	29873.38
570.095	30050.33
570.457	30173.94
570.819	30278.12
571.18	30276.08
571.542	30496.64
571.903	30507.04
572.265	30560.14
572.626	30712.23
572.987	30761.27
573.349	30921.94
573.71	30936.63
574.071	31123.97
574.432	31059.34
574.794	31396.5
575.155	31444.41
575.516	31332.1
575.877	31386.11
576.238	31554.92
576.599	31619.32
576.96	31684.63
577.32	31636.5
577.681	31782.26
578.042	31967.11
578.403	31911.75
578.763	32016.15
579.124	32042.82
579.485	32228.8
579.845	32273.32
580.206	32291.85
580.566	32236.93
580.927	32403.03
581.287	32249.36
581.648	32285.52
582.008	32408.46
582.368	32424.5
582.728	32448.23
583.089	32461.11
583.449	32424.73
583.809	32423.6
584.169	32526.42
584.529	32485.29
584.889	32693.65
585.249	32618.62
585.609	32615.91
585.969	32810.48
586.329	32671.73
586.688	32741.1
587.048	32823.36
587.408	32756.47
587.768	32641.44
588.127	32616.13
588.487	32670.82
588.846	32844.38
589.206	32705.17
589.565	32638.05
589.925	32825.39
590.284	32643.03
590.643	32886.41
591.003	32771.84
591.362	32974.32
591.721	32801.67
592.08	32901.1
592.44	33080.75
592.799	33073.3
593.158	32920.76
593.517	32941.55
593.876	33047.08
594.235	33026.74
594.593	32958.72
594.952	33043.92
595.311	32981.1
595.67	33036.24
596.029	33160.53
596.387	33292.5
596.746	33134.99
597.104	33106.52
597.463	33130.7
597.822	33262.44
598.18	33234.2
598.538	33181.32
598.897	33425.38
599.255	33232.61
599.613	33709.21
599.972	33469.44
600.33	33539.73
600.688	33412.95
601.046	33577.69
601.404	33701.3
601.762	33594.64
602.12	33654.07
602.478	33699.04
602.836	33786.72
603.194	33530.91
603.552	33678.48
603.91	33574.3
604.268	33822.43
604.625	33641.42
604.983	33819.04
605.341	33617.24
605.698	33959.38
606.056	33969.09
606.413	33965.7
606.771	33988.08
607.128	34203.21
607.485	33912.82
607.843	34081.63
608.2	34115.08
608.557	34350.1
608.914	34120.5
609.272	34201.85
609.629	34286.15
609.986	34457.89
610.343	34316.88
610.7	34584.9
611.057	34545.35
611.414	34431.91
611.771	34521.17
612.127	34610.66
612.484	34771.11
612.841	34669.64
613.198	34577.66
613.554	34763.2
613.911	34866.92
614.267	34900.82
614.624	34804.78
614.98	34900.37
615.337	35060.36
615.693	34989.4
616.05	34988.95
616.406	35141.04
616.762	35021.04
617.118	35083.87
617.475	35101.72
617.831	35178.1
618.187	35268.04
618.543	35273.69
618.899	35397.3
619.255	35271.21
619.611	35162.96
619.967	35407.7
620.323	35493.57
620.678	35446.57
621.034	35313.01
621.39	35269.4
621.746	35253.13
622.101	35535.38
622.457	35226.23
622.812	35369.96
623.168	35408.38
623.523	35331.32
623.879	35482.95
624.234	35295.16
624.589	35373.58
624.945	35504.65
625.3	35454.48
625.655	35471.43
626.01	35507.13
626.365	35534.7
626.72	35506.45
627.075	35469.84
627.43	35445.89
627.785	35280.47
628.14	35432.33
628.495	35604.76
628.85	35380.13
629.205	35279.11
629.559	35480.69
629.914	35266.46
630.269	35185.33
630.623	35137.42
630.978	35134.03
631.332	35232.79
631.687	35214.03
632.041	35099.46
632.396	35210.64
632.75	35154.82
633.104	35099.91
633.459	35055.62
633.813	34848.62
634.167	34780.37
634.521	34909.63
634.875	34796.19
635.229	34847.26
635.583	34683.88
635.937	34672.13
636.291	34516.87
636.645	34754.61
636.999	34606.59
637.352	34704.89
637.706	34494.28
638.06	34648.85
638.413	34463.54
638.767	34321.85
639.121	34536.99
639.474	34304.45
639.828	34389.42
640.181	34243.66
640.534	34324.11
640.888	34113.04
641.241	34100.84
641.594	33994.85
641.947	34208.86
642.301	34057.45
642.654	34024.46
643.007	33880.73
643.36	33975.87
643.713	33952.37
644.066	33866.72
644.419	33664.47
644.771	33463.12
645.124	33133.18
645.477	33194.65
645.83	32868.1
646.182	32712.4
646.535	32757.37
646.888	32915.56
647.24	32638.28
647.593	32855
647.945	32709.69
648.298	32518.74
648.65	32465.86
649.002	32334.56
649.355	32611.39
649.707	32615.23
650.059	32442.13
650.411	32985.16
650.763	32978.61
651.115	33272.61
651.467	33132.96
651.819	33091.15
652.171	33073.07
652.523	32886.18
652.875	32960.98
653.227	32806.19
653.578	33010.93
653.93	32970.93
654.282	32855.45
654.633	32758.5
654.985	32884.15
655.337	32878.27
655.688	32812.96
656.039	32892.51
656.391	32609.81
656.742	32690.26
657.094	32784.72
657.445	32735.23
657.796	32724.61
658.147	32702.01
658.498	32666.3
658.849	32699.97
659.2	32699.75
659.551	32576.36
659.902	32664.72
660.253	32528.9
660.604	32682.57
660.955	32355.12
661.306	32339.98
661.656	32444.39
662.007	32411.85
662.358	32490.26
662.708	32386.99
663.059	32384.5
663.409	32262.47
663.76	32478.51
664.11	32368
664.461	32306.31
664.811	32344.73
665.161	32241.23
665.511	32113.55
665.862	32189.93
666.212	32374.11
666.562	32187.44
666.912	32141.57
667.262	32149.71
667.612	32142.02
667.962	32297.05
668.312	32017.28
668.662	32255.92
669.011	32123.49
669.361	32000.1
669.711	31953.78
670.06	31947
670.41	32040.33
670.76	31884.63
671.109	32099.09
671.459	32085.3
671.808	31968.24
672.157	31991.52
672.507	31778.64
672.856	31762.15
673.205	31868.81
673.554	31858.41
673.904	31828.81
674.253	32118.29
674.602	31809.38
674.951	31412.78
675.3	31258.2
675.649	31935.47
675.998	31778.19
676.346	31747.91
676.695	31745.65
677.044	31564.41
677.393	31635.59
677.741	31672.2
678.09	31629.95
678.438	31521.47
678.787	31528.93
679.135	31533.9
679.484	31355.6
679.832	31304.08
680.181	31303.4
680.529	31324.87
680.877	31189.5
681.225	31144.31
681.573	31370.74
681.922	31068.15
682.27	31109.51
682.618	31097.76
682.966	30921.26
683.314	31049.62
683.661	30949.51
684.009	30751.55
684.357	30619.35
684.705	30707.94
685.053	30802.62
685.4	30613.7
685.748	30514.04
686.095	30394.05
686.443	30387.49
686.79	30272.47
687.138	30365.8
687.485	30411.67
687.832	30260.04
688.18	30244.67
688.527	30144.11
688.874	29992.93
689.221	30002.64
689.568	29833.16
689.915	29793.61
690.262	29823.89
690.609	29748.86
690.956	29685.82
691.303	29687.4
691.65	29467.97
691.997	29474.52
692.344	29425.03
692.69	29428.42
693.037	29362.66
693.383	29201.08
693.73	29324.02
694.077	29101.88
694.423	29164.25
694.769	29017.36
695.116	29008.32
695.462	28785.95
695.808	28759.06
696.155	28769.91
696.501	28564.72
696.847	28380.99
697.193	28279.98
697.539	28331.95
697.885	28147.32
698.231	28073.65
698.577	28029.36
698.923	28015.58
699.269	27956.6
699.614	27846.32
699.96	27787.56
700.306	27815.13
700.651	27779.42
700.997	27569.71
701.342	27467.79
701.688	27461.02
702.033	27436.84
702.379	27378.98
702.724	27174.02
703.069	27308.25
703.415	27030.52
703.76	27020.12
704.105	26957.75
704.45	26987.58
704.795	26764.08
705.14	26625.33
705.485	26741.49
705.83	26533.81
706.175	26669.85
706.52	26452.45
706.865	26449.06
707.209	26438.67
707.554	26289.29
707.899	26424.66
708.243	26255.17
708.588	26185.12
708.932	26061.05
709.277	25885.24
709.621	26068.51
709.966	25913.71
710.31	25879.14
710.654	25618.58
710.998	25806.82
711.342	25723.89
711.687	25611.8
712.031	25503.1
712.375	25432.37
712.719	25525.92
713.063	25454.51
713.407	25509.2
713.75	25359.6
714.094	25219.94
714.438	25200.51
714.782	25160.28
715.125	25024.02
715.469	25103.56
715.812	24974.75
716.156	24951.02
716.499	24874.64
716.843	24850.24
717.186	24784.02
717.53	24889.33
717.873	24843
718.216	24715.1
718.559	24562.79
718.902	24431.72
719.246	24524.6
719.589	24388.1
719.932	24275.56
720.275	24307.65
720.617	24369.8
720.96	24233.53
721.303	24206.86
721.646	24212.29
721.989	24082.12
722.331	24075.34
722.674	24029.02
723.016	24023.14
723.359	23986.08
723.701	24009.13
724.044	23782.69
724.386	23749.25
724.729	23972.97
725.071	23678.29
725.413	23782.47
725.755	23677.84
726.097	23662.92
726.439	23504.96
726.782	23463.61
727.124	23680.55
727.465	23431.06
727.807	23502.7
728.149	23323.95
728.491	23352.2
728.833	23471.52
729.175	23213.22
729.516	23222.03
729.858	23198.53
730.199	23248.47
730.541	23114.24
730.882	23003.05
731.224	23210.28
731.565	23015.03
731.906	23042.15
732.248	23076.95
732.589	22921.02
732.93	22730.07
733.271	22849.16
733.612	22857.75
733.953	22886.67
734.294	22770.07
734.635	22728.94
734.976	22739.11
735.317	22599
735.658	22582.5
735.999	22608.04
736.339	22499.34
736.68	22562.61
737.021	22453.24
737.361	22326.23
737.702	22432.45
738.042	22413.24
738.383	22381.6
738.723	22420.02
739.063	22219.35
739.404	22333.69
739.744	22207.37
740.084	22102.96
740.424	22208.95
740.764	22113.81
741.104	22146.8
741.444	21966.7
741.784	22065.9
742.124	22128.73
742.464	21911.1
742.804	21967.6
743.143	21877.89
743.483	21891.44
743.823	21720.38
744.162	21666.37
744.502	21765.12
744.841	21687.16
745.181	21688.06
745.52	21575.29
745.86	21570.32
746.199	21582.98
746.538	21469.31
746.877	21518.57
747.216	21583.88
747.556	21418.91
747.895	21397.9
748.234	21370.78
748.573	21235.19
748.911	21257.34
749.25	21146.15
749.589	21112.71
749.928	21135.76
750.267	21098.47
750.605	21104.57
750.944	20973.28
751.283	21006.5
751.621	20936.89
751.96	20905.03
752.298	20806.05
752.636	20805.37
752.975	20752.04
753.313	20595.89
753.651	20707.97
753.989	20585.94
754.327	20635.21
754.666	20439.73
