Data from plate_ceramic_FLMS001491_089.txt Node
Date: Tue Feb 07 11:17:25 GMT 2017
User: dcchb
Spectrometer: FLMS00149
Trigger mode: 0
Integration Time (sec): 2.000000E-2
Scans to average: 10
Electric dark correction enabled: true
Nonlinearity correction enabled: false
Boxcar width: 0
XAxis mode: Wavelengths
Number of Pixels in Spectrum: 2048
>>>>>Begin Spectral Data<<<<<
341.393	-26.78
341.776	-26.78
342.16	-26.78
342.543	-75.59
342.927	-76.27
343.31	-61.81
343.693	-76.04
344.077	-74.24
344.46	-49.38
344.843	-59.32
345.226	-64.74
345.61	-30.17
345.993	-17.51
346.376	-12.54
346.759	8.47
347.142	39.89
347.525	26.1
347.908	64.07
348.291	94.12
348.674	96.16
349.057	116.95
349.44	114.69
349.823	147.68
350.206	151.75
350.588	186.1
350.971	216.38
351.354	217.73
351.737	247.11
352.119	268.81
352.502	294.34
352.884	298.86
353.267	290.95
353.65	310.39
354.032	326.43
354.414	324.17
354.797	309.26
355.179	303.83
355.562	342.93
355.944	329.6
356.326	343.83
356.709	356.49
357.091	365.08
357.473	370.5
357.855	351.29
358.238	364.17
358.62	371.4
359.002	366.88
359.384	368.24
359.766	376.83
360.148	356.49
360.53	367.33
360.912	358.52
361.294	349.93
361.676	352.87
362.057	366.21
362.439	362.36
362.821	330.05
363.203	340.89
363.584	350.16
363.966	355.36
364.348	351.97
364.729	354.91
365.111	356.49
365.493	345.41
365.874	347.45
366.256	336.38
366.637	366.88
367.019	353.78
367.4	362.14
367.781	345.19
368.163	345.19
368.544	340.22
368.925	356.04
369.306	363.95
369.688	356.71
370.069	357.39
370.45	348.35
370.831	346.32
371.212	361.23
371.593	358.75
371.974	353.32
372.355	356.49
372.736	358.07
373.117	360.78
373.498	362.59
373.879	370.72
374.26	361.69
374.641	348.13
375.021	372.08
375.402	364.17
375.783	374.57
376.163	379.99
376.544	389.48
376.925	381.12
377.305	384.51
377.686	371.63
378.066	401.91
378.447	397.62
378.827	398.75
379.208	371.85
379.588	411.4
379.968	422.02
380.349	413.66
380.729	414.57
381.109	407.79
381.489	413.66
381.87	413.21
382.25	408.01
382.63	398.52
383.01	424.73
383.39	420.21
383.77	427.67
384.15	440.78
384.53	430.38
384.91	437.39
385.29	449.37
385.67	428.35
386.049	450.27
386.429	453.66
386.809	439.65
387.189	455.02
387.568	456.6
387.948	447.56
388.328	475.13
388.707	468.8
389.087	475.35
389.466	470.16
389.846	484.39
390.225	488.91
390.605	481.91
390.984	505.86
391.363	502.7
391.743	511.96
392.122	501.34
392.501	518.07
392.881	533.88
393.26	532.98
393.639	537.73
394.018	533.88
394.397	534.79
394.776	530.72
395.155	545.41
395.534	549.7
395.913	562.81
396.292	545.18
396.671	550.61
397.05	565.75
397.429	579.53
397.808	565.75
398.186	591.28
398.565	579.76
398.944	607.78
399.323	592.64
399.701	591.28
400.08	596.26
400.458	619.53
400.837	617.72
401.215	631.51
401.594	622.24
401.972	634.22
402.351	648.46
402.729	646.2
403.107	653.66
403.486	650.04
403.864	654.33
404.242	672.86
404.62	660.89
404.999	664.28
405.377	708.79
405.755	702.69
406.133	715.57
406.511	713.77
406.889	715.12
407.267	754.22
407.645	758.74
408.023	705.63
408.401	734.56
408.779	773.88
409.156	761.22
409.534	755.12
409.912	779.98
410.29	806.42
410.667	841.22
411.045	818.4
411.422	806.19
411.8	835.35
412.178	849.13
412.555	854.33
412.933	874.89
413.31	880.32
413.687	881.9
414.065	899.98
414.442	895.91
414.819	930.03
415.197	916.25
415.574	953.31
415.951	959.64
416.328	935.91
416.705	966.87
417.082	953.76
417.46	963.03
417.837	987.21
418.214	1024.72
418.591	1008.67
418.967	1018.84
419.344	1024.94
419.721	1072.18
420.098	1062.46
420.475	1053.87
420.852	1069.92
421.228	1064.04
421.605	1089.12
421.982	1099.07
422.358	1111.5
422.735	1121.89
423.111	1125.96
423.488	1128.9
423.864	1161.89
424.241	1147.65
424.617	1192.4
424.994	1190.82
425.37	1175.9
425.746	1215.67
426.123	1220.65
426.499	1227.43
426.875	1262.68
427.251	1278.95
427.627	1302.23
428.003	1312.62
428.379	1309.91
428.756	1350.36
429.132	1331.38
429.507	1382.22
429.883	1370.25
430.259	1408.44
430.635	1418.61
431.011	1448.21
431.387	1449.11
431.763	1507.42
432.138	1473.07
432.514	1493.18
432.89	1544.93
433.265	1574.53
433.641	1577.92
434.016	1602.78
434.392	1591.71
434.767	1634.65
435.143	1608.43
435.518	1656.34
435.894	1657.02
436.269	1675.1
436.644	1711.71
437.02	1745.6
437.395	1757.81
437.77	1735.89
438.145	1784.25
438.52	1817.01
438.895	1838.71
439.271	1816.56
439.646	1861.08
440.021	1859.5
440.395	1868.76
440.77	1863.11
441.145	1874.19
441.52	1935.88
441.895	1936.79
442.27	1932.94
442.645	1940.63
443.019	1986.5
443.394	1964.81
443.769	2012.49
444.143	1966.61
444.518	2056.1
444.892	2031.25
445.267	2052.71
445.641	2072.15
446.016	2076.44
446.39	2121.19
446.764	2086.16
447.139	2086.84
447.513	2126.61
447.887	2149.66
448.262	2151.24
448.636	2178.13
449.01	2228.3
449.384	2232.37
449.758	2226.95
450.132	2249.77
450.506	2275.99
450.88	2338.13
451.254	2291.8
451.628	2337.23
452.002	2328.41
452.376	2402.99
452.75	2399.82
453.123	2419.48
453.497	2473.72
453.871	2483.66
454.244	2536.77
454.618	2552.36
454.992	2577.9
455.365	2607.73
455.739	2671.91
456.112	2680.27
456.486	2688.86
456.859	2723.88
457.232	2794.39
457.606	2789.64
457.979	2849.08
458.352	2868.74
458.725	2898.12
459.099	2954.84
459.472	2968.4
459.845	3022.41
460.218	3071.22
460.591	3038.45
460.964	3079.81
461.337	3143.08
461.71	3206.36
462.083	3249.29
462.456	3247.03
462.829	3240.03
463.201	3362.28
463.574	3328.16
463.947	3349.63
464.32	3437.31
464.692	3510.08
465.065	3529.29
465.438	3547.59
465.81	3662.16
466.183	3655.38
466.555	3763.63
466.928	3779.67
467.3	3736.29
467.672	3845.89
468.045	3987.58
468.417	3932.66
468.789	4013.34
469.161	4024.64
469.534	4044.07
469.906	4204.3
470.278	4159.33
470.65	4243.39
471.022	4340.79
471.394	4420.11
471.766	4475.48
472.138	4462.37
472.51	4623.49
472.882	4692.87
473.253	4689.71
473.625	4752.76
473.997	4875.92
474.369	4918.63
474.74	4949.81
475.112	5012.64
475.484	5167.21
475.855	5257.15
476.227	5322.23
476.598	5389.8
476.97	5439.52
477.341	5641.32
477.713	5638.38
478.084	5721.54
478.455	5900.75
478.827	5922.9
479.198	6099.61
479.569	6090.57
479.94	6295.09
480.311	6383
480.682	6420.96
481.053	6608.53
481.424	6754.96
481.795	6779.82
482.166	6901.85
482.537	6943.21
482.908	7145.91
483.279	7223.43
483.65	7397.21
484.021	7558.11
484.391	7566.69
484.762	7668.61
485.133	7769.4
485.503	7895.27
485.874	8004.65
486.244	8134.36
486.615	8250.07
486.985	8336.62
487.356	8486.22
487.726	8565.54
488.097	8750.17
488.467	8856.6
488.837	9010.27
489.207	9057.95
489.578	9257.5
489.948	9304.95
490.318	9424.72
490.688	9506.76
491.058	9636.7
491.428	9749.91
491.798	9870.59
492.168	10062.9
492.538	10127.3
492.908	10180.64
493.278	10365.04
493.648	10349.9
494.017	10561.64
494.387	10651.13
494.757	10729.55
495.126	10819.72
495.496	10822.88
495.866	10961.41
496.235	11079.37
496.605	11216.09
496.974	11213.6
497.344	11354.16
497.713	11386.25
498.082	11515.52
498.452	11671.22
498.821	11738.56
499.19	11719.8
499.559	11894.04
499.928	11941.72
500.298	12076.41
500.667	12159.57
501.036	12202.05
501.405	12313.91
501.774	12383.97
502.143	12460.12
502.512	12555.94
502.88	12569.05
503.249	12621.02
503.618	12841.13
503.987	12873.22
504.356	12921.36
504.724	13029.6
505.093	13108.24
505.462	13221.23
505.83	13218.75
506.199	13479.76
506.567	13549.59
506.936	13602.02
507.304	13799.3
507.672	13730.6
508.041	13838.39
508.409	14004.04
508.777	14116.35
509.145	14161.77
509.514	14247.87
509.882	14371.71
510.25	14445.61
510.618	14585.94
510.986	14555.21
511.354	14703.68
511.722	14831.14
512.09	14958.59
512.458	14967.4
512.826	15148.42
513.193	15230.67
513.561	15339.37
513.929	15473.6
514.297	15644.22
514.664	15667.5
515.032	15862.07
515.4	15867.94
515.767	16107.26
516.135	16144.1
516.502	16085.79
516.869	16392
517.237	16400.59
517.604	16484.65
517.972	16726.23
518.339	16833.34
518.706	16847.35
519.073	17011.87
519.44	17011.87
519.808	17302.71
520.175	17352.88
520.542	17570.27
520.909	17717.39
521.276	17720.55
521.643	17933.88
522.009	18031.28
522.376	18212.74
522.743	18234.44
523.11	18433.07
523.477	18595.56
523.843	18838.26
524.21	18963.91
524.577	19000.52
524.943	19237.8
525.31	19313.96
525.676	19435.08
526.043	19690.44
526.409	19728.41
526.776	19930.89
527.142	20026.03
527.508	20106.03
527.874	20384.66
528.241	20481.38
528.607	20474.15
528.973	20727.25
529.339	20765.22
529.705	20984.87
530.071	21043.63
530.437	21257.18
530.803	21362.04
531.169	21506.21
531.535	21440.23
531.901	21578.53
532.267	21703.05
532.632	21873.21
532.998	22035.92
533.364	22099.87
533.73	22211.96
534.095	22412.18
534.461	22485.17
534.826	22612.17
535.192	22767.88
535.557	22909.34
535.923	22915.89
536.288	22962.67
536.653	23039.96
537.019	23100.75
537.384	23159.05
537.749	23296
538.114	23413.51
538.479	23486.95
538.845	23530.34
539.21	23567.4
539.575	23744.35
539.94	23804.91
540.305	23985.92
540.67	23899.82
541.034	24032.7
541.399	24195.86
541.764	24260.72
542.129	24357.44
542.494	24498.9
542.858	24625.45
543.223	24641.05
543.587	24808.95
543.952	24839.01
544.316	24862.96
544.681	24914.94
545.045	25041.94
545.41	25176.85
545.774	25224.76
546.138	25229.96
546.503	25227.02
546.867	25483.28
547.231	25612.55
547.595	25725.99
547.959	25771.19
548.324	25789.94
548.688	25939.54
549.052	26072.87
549.416	26271.51
549.779	26241.23
550.143	26278.29
550.507	26501.11
550.871	26580.88
551.235	26566.19
551.599	26729.58
551.962	26775.45
552.326	26879.18
552.689	27068.78
553.053	27031.94
553.417	27108.1
553.78	27376.57
554.143	27336.12
554.507	27510.58
554.87	27729.33
555.234	27875.09
555.597	27877.57
555.96	27935.88
556.323	28126.83
556.686	28110.11
557.05	28402.08
557.413	28550.77
557.776	28544.45
558.139	28840.94
558.502	28875.06
558.865	28958
559.228	29162.96
559.59	29287.93
559.953	29324.54
560.316	29649.95
560.679	29629.16
561.041	29717.3
561.404	30053.11
561.767	30151.86
562.129	30181.69
562.492	30493.77
562.854	30444.06
563.217	30608.57
563.579	30746.65
563.941	30864.61
564.304	30938.28
564.666	31223.25
565.028	31231.83
565.39	31396.58
565.753	31475.22
566.115	31712.05
566.477	31822.1
566.839	31915.43
567.201	32123.11
567.563	32253.73
567.925	32439.71
568.287	32454.4
568.648	32607.84
569.01	32758.8
569.372	32931.45
569.734	32788.86
570.095	33075.4
570.457	33291.67
570.819	33288.28
571.18	33382.74
571.542	33538.21
571.903	33634.48
572.265	33766.91
572.626	33835.61
572.987	33872.22
573.349	34057.75
573.71	34297.06
574.071	34279.44
574.432	34328.7
574.794	34605.08
575.155	34575.02
575.516	34446.44
575.877	34727.56
576.238	34872.19
576.599	34867.9
576.96	34915.58
577.32	34930.72
577.681	35092.98
578.042	35375
578.403	35276.7
578.763	35241.45
579.124	35337.71
579.485	35539.07
579.845	35539.29
580.206	35529.35
580.566	35584.04
580.927	35492.74
581.287	35686.41
581.648	35567.77
582.008	35784.26
582.368	35633.53
582.728	35846.4
583.089	35709.68
583.449	35771.38
583.809	35743.58
584.169	36017.25
584.529	35860.86
584.889	36016.12
585.249	35900.64
585.609	35939.73
585.969	36184.02
586.329	35947.19
586.688	35895.21
587.048	36066.51
587.408	35897.02
587.768	35905.84
588.127	35941.09
588.487	35944.03
588.846	36311.7
589.206	35871.71
589.565	36068.54
589.925	36235.77
590.284	36067.64
590.643	36140.63
591.003	36130.01
591.362	36351.93
591.721	36212.49
592.08	36206.17
592.44	36444.13
592.799	36415.65
593.158	36254.75
593.517	36337.69
593.876	36499.04
594.235	36283.68
594.593	36470.11
594.952	36404.81
595.311	36326.16
595.67	36484.58
596.029	36624.23
596.387	36725.25
596.746	36729.32
597.104	36584.91
597.463	36564.58
597.822	36635.76
598.18	36534.29
598.538	36562.77
598.897	36882.08
599.255	36516.44
599.613	37158.23
599.972	36782.87
600.33	37042.53
600.688	36802.76
601.046	36940.61
601.404	37050.44
601.762	36889.99
602.12	37162.75
602.478	37164.11
602.836	37159.36
603.194	36886.6
603.552	37230.55
603.91	37010.21
604.268	37301.05
604.625	37065.35
604.983	37241.85
605.341	37059.03
605.698	37399.13
606.056	37370.66
606.413	37473.25
606.771	37432.12
607.128	37581.95
607.485	37398
607.843	37489.3
608.2	37680.7
608.557	37606.36
608.914	37612.91
609.272	37660.14
609.629	37818.1
609.986	37921.83
610.343	37836.86
610.7	38028.27
611.057	38150.3
611.414	38069.85
611.771	38078.43
612.127	38135.83
612.484	38152.78
612.841	38229.16
613.198	38080.47
613.554	38099
613.911	38491.08
614.267	38318.2
614.624	38517.29
614.98	38484.07
615.337	38603.84
615.693	38488.14
616.05	38439.33
616.406	38698.53
616.762	38554.58
617.118	38559.55
617.475	38670.28
617.831	38697.4
618.187	38701.69
618.543	38843.16
618.899	38961.8
619.255	38749.83
619.611	38738.3
619.967	38828.7
620.323	39055.81
620.678	38956.38
621.034	38823.5
621.39	38707.57
621.746	38829.83
622.101	39271.62
622.457	38918.41
622.812	39003.83
623.168	39105.3
623.523	39020.1
623.879	39063.27
624.234	38814.91
624.589	38950.73
624.945	39197.05
625.3	38989.37
625.655	39020.33
626.01	39056.26
626.365	38993.89
626.72	38982.36
627.075	39085.19
627.43	39050.16
627.785	38947.79
628.14	38951.63
628.495	39028.24
628.85	38971.74
629.205	38727.68
629.559	39051.06
629.914	38859.2
630.269	38863.27
630.623	38763.61
630.978	38681.81
631.332	38826.44
631.687	38812.2
632.041	38644.07
632.396	38711.86
632.75	38498.76
633.104	38584.64
633.459	38576.95
633.813	38391.42
634.167	38403.85
634.521	38505.54
634.875	38362.27
635.229	38356.17
635.583	38170.41
635.937	38176.74
636.291	38190.75
636.645	38158.43
636.999	38123.86
637.352	38258.54
637.706	37962.73
638.06	38217.64
638.413	37946.01
638.767	37885.22
639.121	37937.65
639.474	37768.16
639.828	37735.17
640.181	37662.4
640.534	37867.59
640.888	37633.47
641.241	37530.88
641.594	37666.02
641.947	37644.55
642.301	37555.96
642.654	37542.63
643.007	37433.25
643.36	37342.86
643.713	37413.82
644.066	37615.17
644.419	37230.32
644.771	36972.47
645.124	36539.04
645.477	36424.69
645.83	36292.94
646.182	36223.34
646.535	36087.75
646.888	36289.33
647.24	36061.09
647.593	36420.17
647.945	36218.6
648.298	36029.67
648.65	35842.56
649.002	35725.95
649.355	35963.24
649.707	35824.71
650.059	35937.7
650.411	36300.4
650.763	36381.53
651.115	36751.24
651.467	36583.78
651.819	36562.32
652.171	36533.16
652.523	36513.05
652.875	36414.75
653.227	36330.91
653.578	36637.34
653.93	36467.85
654.282	36223.34
654.633	36221.76
654.985	36337.46
655.337	36145.6
655.688	36225.15
656.039	36366.16
656.391	35996.23
656.742	36130.01
657.094	36061.31
657.445	36132.5
657.796	36011.82
658.147	35918.94
658.498	35852.5
658.849	36062.67
659.2	35928.89
659.551	35910.81
659.902	35920.98
660.253	35992.84
660.604	35929.56
660.955	35791.71
661.306	35891.37
661.656	35746.07
662.007	35715.56
662.358	35781.77
662.708	35755.11
663.059	35646.86
663.409	35450.03
663.76	35749.23
664.11	35784.03
664.461	35723.02
664.811	35739.29
665.161	35671.49
665.511	35685.5
665.862	35614.32
666.212	35630.36
666.562	35715.78
666.912	35687.54
667.262	35613.41
667.612	35643.92
667.962	35604.6
668.312	35471.72
668.662	35514.89
669.011	35440.99
669.361	35509.46
669.711	35437.83
670.06	35347.43
670.41	35203.03
670.76	35197.15
671.109	35447.99
671.459	35348.56
671.808	35216.36
672.157	35266.3
672.507	34968.91
672.856	34963.49
673.205	34993.32
673.554	35224.5
673.904	35068.34
674.253	35189.92
674.602	35215.23
674.951	34725.98
675.3	34558.98
675.649	35064.05
675.998	35036.93
676.346	35009.36
676.695	35118.96
677.044	34767.56
677.393	34918.52
677.741	35010.94
678.09	34784.96
678.438	34636.49
678.787	34866.54
679.135	34818.41
679.484	34644.17
679.832	34699.54
680.181	34531.86
680.529	34614.8
680.877	34436.5
681.225	34364.86
681.573	34636.72
681.922	34335.26
682.27	34200.8
682.618	34301.13
682.966	34176.16
683.314	34261.36
683.661	34051.87
684.009	34047.13
684.357	34041.25
684.705	33966
685.053	33969.62
685.4	33972.78
685.748	33728.94
686.095	33791.09
686.443	33627.7
686.79	33513.13
687.138	33527.14
687.485	33630.42
687.832	33322.85
688.18	33475.62
688.527	33318.33
688.874	33284.66
689.221	33125.12
689.568	32991.11
689.915	32992.47
690.262	33023.88
690.609	32878.12
690.956	32845.13
691.303	32770.32
691.65	32628.86
691.997	32561.29
692.344	32392.71
692.69	32494.17
693.037	32490.56
693.383	32207.18
693.73	32316.78
694.077	32052.6
694.423	32095.09
694.769	32090.34
695.116	31994.98
695.462	31872.95
695.808	31672.73
696.155	31808.54
696.501	31528.32
696.847	31564.48
697.193	31313.87
697.539	31426.63
697.885	31173.76
698.231	31107.32
698.577	31156.13
698.923	30931.05
699.269	30841.79
699.614	30752.07
699.96	30728.34
700.306	30749.81
700.651	30603.15
700.997	30548.01
701.342	30448.13
701.688	30451.06
702.033	30428.47
702.379	30332.2
702.724	30115.93
703.069	30200
703.415	29983.28
703.76	29842.49
704.105	29933.34
704.45	29789.16
704.795	29638.2
705.14	29575.15
705.485	29653.12
705.83	29314.82
706.175	29453.8
706.52	29437.31
706.865	29212.9
707.209	29217.65
707.554	29060.59
707.899	29197.09
708.243	29080.03
708.588	29054.04
708.932	28770.88
709.277	28643.88
709.621	28723.88
709.966	28710.32
710.31	28702.64
710.654	28396.65
710.998	28508.06
711.342	28600.72
711.687	28337.67
712.031	28261.52
712.375	28119.83
712.719	28215.87
713.063	28261.74
713.407	28193.72
713.75	28022.88
714.094	28011.13
714.438	27988.98
714.782	27983.11
715.125	27883.22
715.469	27789.44
715.812	27523.91
716.156	27495.89
716.499	27627.18
716.843	27588.31
717.186	27387.42
717.53	27483.46
717.873	27514.64
718.216	27418.38
718.559	27209.34
718.902	27229.68
719.246	27244.14
719.589	27069.68
719.932	26902.23
720.275	27046.18
720.617	27010.02
720.96	26948.56
721.303	26872.4
721.646	26864.94
721.989	26673.99
722.331	26835.79
722.674	26553.77
723.016	26609.58
723.359	26565.06
723.701	26628.79
724.044	26355.35
724.386	26282.81
724.729	26294.79
725.071	26344.96
725.413	26292.98
725.755	26234.9
726.097	26136.37
726.439	26109.26
726.782	26104.74
727.124	26149.71
727.465	25991.75
727.807	25881.24
728.149	25816.61
728.491	25814.12
728.833	25760.79
729.175	25717.18
729.516	25704.75
729.858	25705.88
730.199	25735.03
730.541	25583.62
730.882	25622.26
731.224	25655.71
731.565	25539.78
731.906	25526.22
732.248	25506.11
732.589	25394.47
732.93	25372.1
733.271	25317.41
733.612	25389.28
733.953	25419.56
734.294	25272.89
734.635	25152.9
734.976	25180.69
735.317	25087.36
735.658	25034.71
735.999	25049.62
736.339	24974.37
736.68	25127.81
737.021	24927.14
737.361	24897.54
737.702	24966.24
738.042	24871.55
738.383	24829.52
738.723	24772.34
739.063	24608.51
739.404	24852.34
739.744	24603.53
740.084	24626.81
740.424	24694.83
740.764	24425.23
741.104	24563.08
741.444	24504.1
741.784	24463.65
742.124	24532.12
742.464	24393.14
742.804	24375.97
743.143	24286.93
743.483	24129.42
743.823	24098.24
744.162	24105.02
744.502	24067.05
744.841	24102.3
745.181	24051.01
745.52	23982.08
745.86	24033.38
746.199	23910.22
746.538	23816.66
746.877	23876.55
747.216	23903.67
747.556	23728.3
747.895	23753.16
748.234	23703.44
748.573	23581.64
748.911	23577.12
749.25	23649.89
749.589	23572.37
749.928	23590.91
750.267	23453.28
750.605	23370.35
750.944	23250.58
751.283	23176.9
751.621	23321.99
751.96	23100.3
752.298	23028.43
752.636	23121.76
752.975	23009.45
753.313	22881.77
753.651	23042.22
753.989	22959.28
