Data from plate_porcelain_FLMS001491_098.txt Node
Date: Tue Feb 07 11:20:14 GMT 2017
User: dcchb
Spectrometer: FLMS00149
Trigger mode: 0
Integration Time (sec): 2.000000E-2
Scans to average: 10
Electric dark correction enabled: true
Nonlinearity correction enabled: false
Boxcar width: 0
XAxis mode: Wavelengths
Number of Pixels in Spectrum: 2048
>>>>>Begin Spectral Data<<<<<
341.393	1
341.776	1
342.16	1
342.543	-67.02
342.927	-65.21
343.31	-78.09
343.693	-74.48
344.077	-60.01
344.46	-47.58
344.843	-56.85
345.226	-51.65
345.61	-16.4
345.993	-24.53
346.376	-14.82
346.759	-5.55
347.142	11.62
347.525	50.94
347.908	47.78
348.291	101.11
348.674	99.08
349.057	119.42
349.44	120.1
349.823	141.11
350.206	185.4
350.588	219.3
350.971	246.19
351.354	239.41
351.737	279.64
352.119	280.54
352.502	294.55
352.884	288.68
353.267	329.58
353.65	320.77
354.032	319.64
354.414	334.78
354.797	347.43
355.179	360.32
355.562	352.63
355.944	386.76
356.326	376.59
356.709	396.47
357.091	414.78
357.473	384.04
357.855	377.49
358.238	402.35
358.62	368.9
359.002	393.53
359.384	409.81
359.766	402.57
360.148	407.55
360.53	408.68
360.912	386.08
361.294	393.76
361.676	392.63
362.057	381.11
362.439	382.69
362.821	409.35
363.203	389.69
363.584	414.1
363.966	390.82
364.348	391.05
364.729	381.56
365.111	400.54
365.493	392.4
365.874	390.82
366.256	377.04
366.637	413.42
367.019	414.78
367.4	402.57
367.781	402.57
368.163	392.63
368.544	419.97
368.925	410.71
369.306	439.64
369.688	412.52
370.069	407.55
370.45	393.31
370.831	400.31
371.212	418.62
371.593	436.25
371.974	404.38
372.355	436.25
372.736	448.45
373.117	427.66
373.498	440.99
373.879	444.38
374.26	436.02
374.641	414.55
375.021	423.36
375.402	444.83
375.783	467.21
376.163	486.41
376.544	481.89
376.925	474.44
377.305	496.81
377.686	455.23
378.066	465.85
378.447	478.73
378.827	486.64
379.208	496.36
379.588	505.17
379.968	492.74
380.349	487.77
380.729	492.29
381.109	502.23
381.489	492.97
381.87	494.32
382.25	507.66
382.63	525.96
383.01	534.55
383.39	524.15
383.77	545.4
384.15	558.95
384.53	566.19
384.91	552.4
385.29	555.56
385.67	531.61
386.049	573.64
386.429	567.32
386.809	583.59
387.189	619.97
387.568	611.83
387.948	601.44
388.328	624.04
388.707	630.59
389.087	626.3
389.466	637.37
389.846	625.85
390.225	647.99
390.605	680.31
390.984	659.52
391.363	664.04
391.743	676.01
392.122	688.89
392.501	721.44
392.881	704.26
393.26	723.92
393.639	735.67
394.018	724.37
394.397	728.67
394.776	738.16
395.155	766.63
395.534	778.16
395.913	779.06
396.292	793.07
396.671	786.07
397.05	788.55
397.429	822.68
397.808	789.91
398.186	824.26
398.565	830.36
398.944	811.38
399.323	829.68
399.701	843.69
400.08	849.12
400.458	861.09
400.837	872.84
401.215	855.44
401.594	881.66
401.972	883.92
402.351	931.37
402.729	921.43
403.107	928.21
403.486	931.83
403.864	923.24
404.242	967.98
404.62	968.89
404.999	990.58
405.377	994.42
405.755	996
406.133	1028.55
406.511	1037.36
406.889	1033.74
407.267	1067.42
407.645	1052.73
408.023	1080.07
408.401	1083.23
408.779	1135.21
409.156	1135.21
409.534	1139.96
409.912	1174.08
410.29	1177.7
410.667	1193.29
411.045	1204.14
411.422	1235.32
411.8	1262.89
412.178	1259.27
412.555	1273.74
412.933	1304.02
413.31	1285.49
413.687	1370.23
414.065	1362.32
414.442	1387.18
414.819	1397.58
415.197	1405.03
415.574	1445.94
415.951	1460.85
416.328	1464.69
416.705	1462.66
417.082	1518.48
417.46	1489.33
417.837	1530.23
418.214	1545.37
418.591	1533.17
418.967	1574.75
419.344	1610.23
419.721	1617.01
420.098	1633.5
420.475	1652.03
420.852	1647.51
421.228	1696.78
421.605	1687.29
421.982	1693.84
422.358	1760.96
422.735	1747.4
423.111	1784.23
423.488	1794.18
423.864	1819.71
424.241	1823.78
424.617	1866.26
424.994	1901.97
425.37	1900.84
425.746	1903.55
426.123	1931.12
426.499	1943.32
426.875	1973.38
427.251	2026.49
427.627	2078.46
428.003	2085.24
428.379	2096.77
428.756	2114.62
429.132	2167.05
429.507	2207.05
429.883	2200.27
430.259	2272.36
430.635	2296.54
431.011	2306.48
431.387	2409.53
431.763	2398
432.138	2411.79
432.514	2428.74
432.89	2474.38
433.265	2531.56
433.641	2555.74
434.016	2572.01
434.392	2624.89
434.767	2672.12
435.143	2672.34
435.518	2720.93
435.894	2757.99
436.269	2770.87
436.644	2817.88
437.02	2866.01
437.395	2882.73
437.77	2911.66
438.145	2951.21
438.52	3005.67
438.895	3016.97
439.271	3063.97
439.646	3125.67
440.021	3108.94
440.395	3157.53
440.77	3150.98
441.145	3188.26
441.52	3208.6
441.895	3198.21
442.27	3294.93
442.645	3287.92
443.019	3300.13
443.394	3310.75
443.769	3368.82
444.143	3357.75
444.518	3422.83
444.892	3455.15
445.267	3434.58
445.641	3499.44
446.016	3503.96
446.39	3602.94
446.764	3596.39
447.139	3601.81
447.513	3641.36
447.887	3635.94
448.262	3654.47
448.636	3718.87
449.01	3731.98
449.384	3783.28
449.758	3812.88
450.132	3924.74
450.506	3899.66
450.88	3948.24
451.254	3942.82
451.628	4037.96
452.002	4047.9
452.376	4111.4
452.75	4142.81
453.123	4159.99
453.497	4266.65
453.871	4282.7
454.244	4372.87
454.618	4356.37
454.992	4497.83
455.365	4421.9
455.739	4571.28
456.112	4620.32
456.486	4676.36
456.859	4720.2
457.232	4835.9
457.606	4787.32
457.979	4882.68
458.352	4964.71
458.725	5059.63
459.099	5066.86
459.472	5164.71
459.845	5212.62
460.218	5292.39
460.591	5379.84
460.964	5343.69
461.337	5502.78
461.71	5612.38
462.083	5671.59
462.456	5675.43
462.829	5711.81
463.201	5875.2
463.574	5854.18
463.947	5992.48
464.32	5989.09
464.692	6136.89
465.065	6193.16
465.438	6305.02
465.81	6380.27
466.183	6441.74
466.555	6577.1
466.928	6637.44
467.3	6673.14
467.672	6739.13
468.045	6919.46
468.417	6961.72
468.789	7042.63
469.161	7119.01
469.534	7303.64
469.906	7414.37
470.278	7475.83
470.65	7606.68
471.022	7714.7
471.394	7844.64
471.766	7951.75
472.138	8030.62
472.51	8242.14
472.882	8327.79
473.253	8465.41
473.625	8519.65
473.997	8675.8
474.369	8813.88
474.74	8926.42
475.112	9088.22
475.484	9228.78
475.855	9346.07
476.227	9497.7
476.598	9873.06
476.97	9824.25
477.341	10062.89
477.713	10256.33
478.084	10256.33
478.455	10649.99
478.827	10734.05
479.198	10961.39
479.569	10970.66
479.94	11373.13
480.311	11422.62
480.682	11730.64
481.053	11949.62
481.424	12164.75
481.795	12189.16
482.166	12486.1
482.537	12626.21
482.908	12933.09
483.279	13088.34
483.65	13296.92
484.021	13600.87
484.391	13758.38
484.762	13871.6
485.133	14119.5
485.503	14207.86
485.874	14635.65
486.244	14575.08
486.615	15004.45
486.985	15215.07
487.356	15441.05
487.726	15589.97
488.097	15954.03
488.467	15991.32
488.837	16287.35
489.207	16463.62
489.578	16705.65
489.948	16866.77
490.318	17175.69
490.688	17242.13
491.058	17582.91
491.428	17702.46
491.798	17937.25
492.168	18362.78
492.538	18511.93
492.908	18600.06
493.278	18891.13
493.648	18953.95
494.017	19249.08
494.387	19326.14
494.757	19544.67
495.126	19858.11
495.496	19862.63
495.866	20026.01
496.235	20282.96
496.605	20425.55
496.974	20538.77
497.344	20834.13
497.713	20905.99
498.082	21134.46
498.452	21385.98
498.821	21364.96
499.19	21583.94
499.559	21710.94
499.928	22006.3
500.298	22057.15
500.667	22301.89
501.036	22254.65
501.405	22562.67
501.774	22644.02
502.143	22824.36
502.512	22982.32
502.88	23232.93
503.249	23117.91
503.618	23516.77
503.987	23522.19
504.356	23623.88
504.724	23833.82
505.093	24027.26
505.462	24114.95
505.83	24344.77
506.199	24512
506.567	24807.13
506.936	24745.44
507.304	25079.44
507.672	25244.18
508.041	25415.02
508.409	25550.16
508.777	25864.96
509.145	26019.98
509.514	25998.74
509.882	26326.19
510.25	26452.96
510.618	26545.62
510.986	26739.28
511.354	26939.28
511.722	27275.99
512.09	27577.68
512.458	27446.83
512.826	27707.17
513.193	27941.74
513.561	28066.93
513.929	28358.45
514.297	28574.04
514.664	28814.48
515.032	28919.79
515.4	29176.96
515.767	29289.72
516.135	29440.45
516.502	29326.11
516.869	29972.42
517.237	30053.32
517.604	30117.95
517.972	30472.29
518.339	30767.2
518.706	30863.47
519.073	31103.46
519.44	31225.49
519.808	31609.66
520.175	31710.45
520.542	32020.5
520.909	32222.08
521.276	32417.55
521.643	32703.42
522.009	32912.68
522.376	33166.68
522.743	33399.45
523.11	33717.63
523.477	33925.53
523.843	34180.22
524.21	34573.2
524.577	34800.99
524.943	35002.79
525.31	35194.2
525.676	35520.07
526.043	35846.39
526.409	35929.78
526.776	36238.02
527.142	36446.82
527.508	36806.36
527.874	36936.53
528.241	37151.66
528.607	37291.32
528.973	37729.28
529.339	37698.77
529.705	38196.16
530.071	38405.87
530.437	38521.8
530.803	38716.82
531.169	39025.51
531.535	38971.28
531.901	39246.3
532.267	39431.83
532.632	39565.61
532.998	39934.42
533.364	40291.47
533.73	40272.03
534.095	40456.66
534.461	40747.28
534.826	40920.38
535.192	41106.14
535.557	41419.8
535.923	41378.22
536.288	41575.73
536.653	41748.61
537.019	41738.66
537.384	41883.52
537.749	42183.4
538.114	42271.53
538.479	42369.61
538.845	42559.88
539.21	42545.87
539.575	42714.23
539.94	42843.04
540.305	43263.59
540.67	43111.73
541.034	43375.91
541.399	43575
541.764	43525.28
542.129	43854.54
542.494	43872.62
542.858	43930.02
543.223	44183.34
543.587	44464.92
543.952	44436.9
544.316	44611.81
544.681	44695.65
545.045	44906.71
545.41	45165.01
545.774	45239.59
546.138	45237.33
546.503	45468.06
546.867	45499.02
547.231	45661.27
547.595	45853.58
547.959	45907.37
548.324	46089.28
548.688	46099.9
549.052	46295.38
549.416	46515.03
549.779	46567.46
550.143	46675.03
550.507	47040.44
550.871	47135.36
551.235	47134.45
551.599	47413.77
551.962	47401.11
552.326	47588.9
552.689	47905.96
553.053	47620.77
553.417	48035.9
553.78	48378.71
554.143	48093.07
554.507	48363.35
554.87	48665.49
555.234	49032.48
555.597	48704.81
555.96	48877.68
556.323	49254.4
556.686	49262.08
557.05	49529.42
557.413	49587.04
557.776	49689.87
558.139	49969.41
558.502	50087.6
558.865	50114.26
559.228	50445.1
559.59	50416.4
559.953	50617.53
560.316	50898.42
560.679	50967.35
561.041	51068.59
561.404	51270.16
561.767	51425.19
562.129	51433.77
562.492	51728.23
562.854	51852.07
563.217	51871.96
563.579	51984.95
563.941	52267.88
564.304	52403.24
564.666	52574.08
565.028	52512.16
565.39	52730.92
565.753	52942.66
566.115	53038.48
566.477	53177.68
566.839	53252.03
567.201	53435.3
567.563	53485.47
567.925	53704.22
568.287	53663.77
568.648	53748.74
569.01	53866.25
569.372	54084.33
569.734	54105.34
570.095	54202.97
570.457	54344.21
570.819	54407.48
571.18	54449.06
571.542	54682.05
571.903	54715.95
572.265	54834.59
572.626	54855.38
572.987	54911.42
573.349	55021.03
573.71	55064.19
574.071	55201.59
574.432	55211.98
574.794	55397.29
575.155	55445.42
575.516	55316.16
575.877	55476.38
576.238	55609.26
576.599	55651.29
576.96	55672.99
577.32	55699.2
577.681	55821
578.042	55874.79
578.403	55892.41
578.763	55960.89
579.124	55961.79
579.485	56082.01
579.845	56099.19
580.206	56052.86
580.566	56133.54
580.927	56174.22
581.287	56232.52
581.648	56153.65
582.008	56284.27
582.368	56296.7
582.728	56297.38
583.089	56322.01
583.449	56266.87
583.809	56307.77
584.169	56355
584.529	56280.43
584.889	56540.53
585.249	56348.9
585.609	56288.56
585.969	56405.17
586.329	56423.7
586.688	56363.14
587.048	56351.84
587.408	56318.39
587.768	56300.99
588.127	56389.35
588.487	56283.82
588.846	56552.28
589.206	56366.3
589.565	56416.47
589.925	56477.03
590.284	56403.14
590.643	56495.79
591.003	56536.69
591.362	56618.27
591.721	56510.25
592.08	56549.57
592.44	56656.69
592.799	56632.73
593.158	56583.24
593.517	56573.07
593.876	56552.06
594.235	56535.79
594.593	56631.83
594.952	56703.24
595.311	56623.69
595.67	56729.68
596.029	56761.54
596.387	56761.32
596.746	56793.18
597.104	56721.77
597.463	56736.01
597.822	56825.05
598.18	56788.44
598.538	56765.84
598.897	56929.68
599.255	56686.97
599.613	57136.22
599.972	56787.08
600.33	56970.35
600.688	56855.1
601.046	56942.56
601.404	57090.58
601.762	56982.78
602.12	57095.55
602.478	57069.78
602.836	57166.28
603.194	56974.65
603.552	57075.89
603.91	56990.69
604.268	57165.83
604.625	57114.3
604.983	57317.46
605.341	57077.92
605.698	57293.73
606.056	57302.77
606.413	57321.53
606.771	57375.54
607.128	57338.93
607.485	57259.38
607.843	57287.86
608.2	57435.42
608.557	57571.47
608.914	57482.88
609.272	57564.69
609.629	57597.45
609.986	57662.99
610.343	57590
610.7	57774.85
611.057	57744.34
611.414	57712.71
611.771	57750.67
612.127	57823.66
612.484	57834.96
612.841	57876.09
613.198	57763.33
613.554	57880.61
613.911	57888.97
614.267	57951.57
614.624	57956.09
614.98	57987.27
615.337	58141.17
615.693	58040.15
616.05	58011.45
616.406	58163.77
616.762	58074.28
617.118	58071.34
617.475	58114.95
617.831	58163.77
618.187	58132.36
618.543	58232.01
618.899	58366.47
619.255	58292.58
619.611	58264.1
619.967	58361.28
620.323	58341.39
620.678	58269.53
621.034	58281.73
621.39	58240.83
621.746	58269.53
622.101	58577.77
622.457	58297.78
622.812	58369.41
623.168	58425.46
623.523	58365.12
623.879	58503.65
624.234	58366.47
624.589	58442.18
624.945	58432.69
625.3	58411.22
625.655	58402.18
626.01	58366.47
626.365	58454.16
626.72	58349.98
627.075	58394.72
627.43	58296.42
627.785	58268.62
628.14	58313.14
628.495	58341.62
628.85	58284.67
629.205	58205.35
629.559	58301.84
629.914	58286.02
630.269	58266.59
630.623	58242.18
630.978	58121.06
631.332	58208.74
631.687	58266.59
632.041	58202.64
632.396	58149.76
632.75	58098.01
633.104	58077.22
633.459	57926.03
633.813	57972.13
634.167	57992.25
634.521	57933.72
634.875	57963.09
635.229	57896.88
635.583	57830.44
635.937	57769.65
636.291	57785.25
636.645	57734.85
636.999	57684.23
637.352	57780.27
637.706	57587.74
638.06	57727.17
638.413	57649.2
638.767	57608.53
639.121	57613.95
639.474	57439.04
639.828	57506.61
640.181	57470.9
640.534	57494.63
640.888	57404.01
641.241	57256.9
641.594	57334.86
641.947	57373.96
642.301	57335.09
642.654	57291.7
643.007	57314.75
643.36	57234.07
643.713	57158.37
644.066	57279.95
644.419	57077.69
644.771	56938.71
645.124	56625.05
645.477	56656.91
645.83	56490.82
646.182	56331.27
646.535	56249.02
646.888	56305.29
647.24	56157.27
647.593	56356.81
647.945	56199.53
648.298	56088.57
648.65	56028
649.002	55925.63
649.355	56022.81
649.707	56039.53
650.059	56085.4
650.411	56412.85
650.763	56435.68
651.115	56645.16
651.467	56606.97
651.819	56486.3
652.171	56508.9
652.523	56443.81
652.875	56429.8
653.227	56286.08
653.578	56464.15
653.93	56370.14
654.282	56314.78
654.633	56155.68
654.985	56216.47
655.337	56271.39
655.688	56192.97
656.039	56313.19
656.391	56077.04
656.742	56192.97
657.094	56189.13
657.445	56243.37
657.796	56145.29
658.147	56067.78
658.498	56066.65
658.849	56145.29
659.2	56084.27
659.551	56041.56
659.902	56204.95
660.253	56035.69
660.604	56036.14
660.955	55939.87
661.306	55959.31
661.656	55980.1
662.007	55982.58
662.358	55921.57
662.708	55887.44
663.059	55850.38
663.409	55667.11
663.76	55886.99
664.11	55863.49
664.461	55836.82
664.811	55830.72
665.161	55779.42
665.511	55715.02
665.862	55885.86
666.212	55864.84
666.562	55895.58
666.912	55791.4
667.262	55787.78
667.612	55706.66
667.962	55772.87
668.312	55755.47
668.662	55803.15
669.011	55682.7
669.361	55635.7
669.711	55621.01
670.06	55667.56
670.41	55528.13
670.76	55550.5
671.109	55716.6
671.459	55653.78
671.808	55468.47
672.157	55691.06
672.507	55384.18
672.856	55452.2
673.205	55500.33
673.554	55580.56
673.904	55377.17
674.253	55531.07
674.602	55437.29
674.951	55044.3
675.3	54989.39
675.649	55395.7
675.998	55317.74
676.346	55298.76
676.695	55354.35
677.044	55203.62
677.393	55279.1
677.741	55314.58
678.09	55217.63
678.438	55132.66
678.787	55234.58
679.135	55266.44
679.484	55042.95
679.832	55141.93
680.181	54925.89
680.529	54999.78
680.877	54895.38
681.225	54928.15
681.573	55066.67
681.922	54927.02
682.27	54809.96
682.618	54830.07
682.966	54650.64
683.314	54777.87
683.661	54611.09
684.009	54493.81
684.357	54480.25
684.705	54410.19
685.053	54501.04
685.4	54366.58
685.748	54263.53
686.095	54140.6
686.443	54132.46
686.79	54080.03
687.138	54115.06
687.485	54079.58
687.832	54002.07
688.18	54028.28
688.527	53864.22
688.874	53836.88
689.221	53577.9
689.568	53581.06
689.915	53540.16
690.262	53589.88
690.609	53469.65
690.956	53335.65
691.303	53277.57
691.65	53172.94
691.997	53226.04
692.344	52946.28
692.69	53004.35
693.037	52990.12
693.383	52724.36
693.73	52923.23
694.077	52629.22
694.423	52603.91
694.769	52579.73
695.116	52441.21
695.462	52437.82
695.808	52340.87
696.155	52370.47
696.501	52231.27
696.847	52204.6
697.193	51911.28
697.539	51968.22
697.885	51890.94
698.231	51715.58
698.577	51739.98
698.923	51629.48
699.269	51391.52
699.614	51240.11
699.96	51241.24
700.306	51238.53
700.651	51116.49
700.997	51105.65
701.342	50947.23
701.688	50792.66
702.033	50684.64
702.379	50666.79
702.724	50458.43
703.069	50641.25
703.415	50401.71
703.76	50262.05
704.105	50304.31
704.45	50140.02
704.795	49963.08
705.14	49831.11
705.485	49879.01
705.83	49653.03
706.175	49770.99
706.52	49707.04
706.865	49488.52
707.209	49544.11
707.554	49431.12
707.899	49415.97
708.243	49170.56
708.588	49194.29
708.932	48864.12
709.277	48932.37
709.621	48942.31
709.966	48611.93
710.31	48728.54
710.654	48334.2
710.998	48404.02
711.342	48359.28
711.687	48347.08
712.031	48267.3
712.375	47955.22
712.719	48144.37
713.063	48074.54
713.407	47997.48
713.75	47827.09
714.094	47680.88
714.438	47622.8
714.782	47635.46
715.125	47414.22
715.469	47471.17
715.812	47249.7
716.156	47076.83
716.499	47150.05
716.843	47127.45
717.186	46818.98
717.53	47018.98
717.873	47093.1
718.216	47039.99
718.559	46887.45
718.902	46571.08
719.246	46764.29
719.589	46433
719.932	46378.09
720.275	46368.82
720.617	46318.2
720.96	46197.98
721.303	46237.53
721.646	46215.83
721.989	45869.63
722.331	46121.82
722.674	45922.51
723.016	45982.84
723.359	45809.29
723.701	45812.45
724.044	45614.49
724.386	45378.57
724.729	45507.38
725.071	45262.19
725.413	45433.03
725.755	45318.23
726.097	45224.67
726.439	45024.45
726.782	45032.59
727.124	45124.11
727.465	44939.48
727.807	44747.85
728.149	44688.64
728.491	44777.45
728.833	44846.6
729.175	44617
729.516	44654.07
729.858	44573.84
730.199	44425.15
730.541	44352.6
730.882	44314.64
731.224	44501.3
731.565	44036
731.906	44126.85
732.248	44108.77
732.589	43927.76
732.93	43807.99
733.271	43845.5
733.612	43912.62
733.953	43802.34
734.294	43523.47
734.635	43534.1
734.976	43578.61
735.317	43445.28
735.658	43439.18
735.999	43427.43
736.339	43197.38
736.68	43258.85
737.021	43127.1
737.361	43056.82
737.702	43156.25
738.042	43032.64
738.383	42904.51
738.723	42916.26
739.063	42666.32
739.404	42758.97
739.744	42627.9
740.084	42626.55
740.424	42630.62
740.764	42514.01
741.104	42661.35
741.444	42282.15
741.784	41963.52
742.124	42101.36
742.464	42094.81
742.804	41989.05
743.143	41848.94
743.483	42023.63
743.823	41595.16
744.162	41909.51
744.502	41714.48
744.841	41596.29
745.181	41724.2
745.52	41616.18
745.86	41514.94
746.199	41601.72
746.538	41399.46
746.877	41412.34
747.216	41418.67
747.556	41140.26
747.895	41167.38
748.234	41039.92
748.573	40799.48
748.911	40871.79
749.25	40877.67
749.589	40642.65
749.928	40716.09
750.267	40695.75
750.605	40573.72
750.944	40491.92
751.283	40285.37
751.621	40423.44
751.96	40157.24
752.298	40142.09
752.636	40188.42
