Data from plate_ceramic_FLMS001491_045.txt Node
Date: Tue Feb 07 11:16:50 GMT 2017
User: dcchb
Spectrometer: FLMS00149
Trigger mode: 0
Integration Time (sec): 2.000000E-2
Scans to average: 10
Electric dark correction enabled: true
Nonlinearity correction enabled: false
Boxcar width: 0
XAxis mode: Wavelengths
Number of Pixels in Spectrum: 2048
>>>>>Begin Spectral Data<<<<<
341.393	-16.09
341.776	-16.09
342.16	-16.09
342.543	-64.9
342.927	-79.81
343.31	-56.76
343.693	-71.9
344.077	-77.55
344.46	-52.7
344.843	-44.56
345.226	-65.58
345.61	-26.93
345.993	-2.3
346.376	-27.16
346.759	20.3
347.142	35.44
347.525	45.38
347.908	56.23
348.291	84.7
348.674	86.96
349.057	96.45
349.44	131.25
349.823	142.55
350.206	163.57
350.588	195.43
350.971	212.83
351.354	231.59
351.737	241.76
352.119	244.7
352.502	255.77
352.884	277.46
353.267	279.95
353.65	308.42
354.032	299.16
354.414	305.71
354.797	326.73
355.179	325.15
355.562	340.97
355.944	340.97
356.326	359.5
356.709	341.64
357.091	342.55
357.473	343
357.855	345.71
358.238	346.16
358.62	368.54
359.002	360.17
359.384	368.99
359.766	335.09
360.148	368.54
360.53	349.55
360.912	354.07
361.294	364.24
361.676	345.71
362.057	367.63
362.439	340.29
362.821	353.85
363.203	364.92
363.584	330.57
363.966	357.91
364.348	334.19
364.729	344.36
365.111	330.57
365.493	364.92
365.874	349.55
366.256	353.85
366.637	341.64
367.019	347.75
367.4	343
367.781	330.57
368.163	347.52
368.544	342.32
368.925	338.48
369.306	335.77
369.688	354.52
370.069	344.13
370.45	328.54
370.831	354.3
371.212	369.67
371.593	344.81
371.974	350
372.355	342.55
372.736	343.45
373.117	348.65
373.498	363.56
373.879	347.07
374.26	350.91
374.641	354.07
375.021	360.4
375.402	349.33
375.783	365.6
376.163	363.11
376.544	388.42
376.925	387.52
377.305	378.48
377.686	374.64
378.066	380.51
378.447	390.23
378.827	374.19
379.208	399.72
379.588	390.23
379.968	398.14
380.349	379.83
380.729	400.4
381.109	408.99
381.489	424.81
381.87	393.39
382.25	404.92
382.63	411.25
383.01	410.79
383.39	417.35
383.77	414.18
384.15	423.22
384.53	412.6
384.91	416.44
385.29	431.81
385.67	431.58
386.049	422.32
386.429	441.3
386.809	435.65
387.189	445.14
387.568	446.73
387.948	455.54
388.328	458.7
388.707	448.31
389.087	454.41
389.466	460.51
389.846	475.2
390.225	470.68
390.605	492.6
390.984	488.98
391.363	453.51
391.743	490.57
392.122	500.06
392.501	504.13
392.881	490.11
393.26	500.28
393.639	498.48
394.018	529.21
394.397	520.62
394.776	531.47
395.155	515.65
395.534	522.2
395.913	533.28
396.292	535.54
396.671	551.81
397.05	545.71
397.429	545.71
397.808	553.62
398.186	552.49
398.565	576.21
398.944	581.64
399.323	587.74
399.701	581.64
400.08	586.38
400.458	591.35
400.837	585.7
401.215	599.26
401.594	591.81
401.972	625.25
402.351	619.38
402.729	604.24
403.107	625.03
403.486	637.23
403.864	638.81
404.242	627.74
404.62	648.53
404.999	676.32
405.377	669.09
405.755	648.3
406.133	696.44
406.511	693.72
406.889	701.18
407.267	721.75
407.645	701.41
408.023	705.48
408.401	732.82
408.779	724.91
409.156	754.29
409.534	755.42
409.912	754.74
410.29	772.59
410.667	784.34
411.045	793.38
411.422	820.95
411.8	802.87
412.178	838.58
412.555	813.04
412.933	846.49
413.31	845.59
413.687	858.01
414.065	863.44
414.442	864.34
414.819	886.94
415.197	892.59
415.574	898.92
415.951	894.4
416.328	936.66
416.705	930.78
417.082	938.24
417.46	922.87
417.837	950.89
418.214	958.12
418.591	969.65
418.967	975.75
419.344	1017.56
419.721	1014.62
420.098	1012.36
420.475	1032.7
420.852	1009.42
421.228	1036.99
421.605	1034.28
421.982	1058.69
422.358	1056.88
422.735	1049.65
423.111	1053.04
423.488	1115.63
423.864	1111.57
424.241	1120.61
424.617	1160.38
424.994	1169.42
425.37	1173.26
425.746	1157.22
426.123	1169.87
426.499	1185.46
426.875	1193.82
427.251	1221.17
427.627	1224.56
428.003	1251.68
428.379	1273.14
428.756	1291
429.132	1308.62
429.507	1295.06
429.883	1326.25
430.259	1342.3
430.635	1335.06
431.011	1369.41
431.387	1385.46
431.763	1436.3
432.138	1456.19
432.514	1445.12
432.89	1453.93
433.265	1495.51
433.641	1517.43
434.016	1498.22
434.392	1517.66
434.767	1565.57
435.143	1531.67
435.518	1599.69
435.894	1596.98
436.269	1608.95
436.644	1643.3
437.02	1660.48
437.395	1648.28
437.77	1711.78
438.145	1712
438.52	1741.61
438.895	1759.69
439.271	1738.89
439.646	1761.49
440.021	1782.51
440.395	1795.62
440.77	1798.33
441.145	1801.49
441.52	1829.06
441.895	1867.03
442.27	1871.09
442.645	1862.06
443.019	1902.96
443.394	1857.99
443.769	1923.75
444.143	1898.89
444.518	1942.96
444.892	1935.95
445.267	1956.74
445.641	1936.63
446.016	2008.27
446.39	1983.63
446.764	1997.42
447.139	2024.31
447.513	2049.4
447.887	2031.54
448.262	2022.73
448.636	2082.39
449.01	2113.12
449.384	2119.68
449.758	2140.47
450.132	2203.74
450.506	2192.44
450.88	2192.89
451.254	2186.34
451.628	2262.5
452.002	2253.23
452.376	2297.3
452.75	2320.35
453.123	2294.13
453.497	2400.35
453.871	2386.79
454.244	2409.84
454.618	2430.4
454.992	2488.71
455.365	2495.49
455.739	2515.37
456.112	2535.26
456.486	2582.71
456.859	2602.38
457.232	2684.41
457.606	2646.89
457.979	2692.54
458.352	2745.87
458.725	2753.33
459.099	2797.62
459.472	2834.91
459.845	2891.63
460.218	2880.11
460.591	2945.19
460.964	2972.53
461.337	2994
461.71	3038.07
462.083	3091.4
462.456	3098.63
462.829	3126.43
463.201	3171.17
463.574	3206.43
463.947	3245.52
464.32	3328.23
464.692	3368.91
465.065	3365.52
465.438	3376.59
465.81	3419.08
466.183	3480.77
466.555	3518.96
466.928	3563.48
467.3	3576.13
467.672	3662.69
468.045	3786.98
468.417	3773.64
468.789	3814.55
469.161	3862
469.534	3912.62
469.906	4001.43
470.278	3994.88
470.65	4107.65
471.022	4159.62
471.394	4231.94
471.766	4274.42
472.138	4317.81
472.51	4391.93
472.882	4480.07
473.253	4532.49
473.625	4589.22
473.997	4700.85
474.369	4687.29
474.74	4740.17
475.112	4880.51
475.484	4952.14
475.855	5000.96
476.227	5088.86
476.598	5206.6
476.97	5268.97
477.341	5353.49
477.713	5462.64
478.084	5477.1
478.455	5618.34
478.827	5632.58
479.198	5815.85
479.569	5882.06
479.94	6063.08
480.311	6081.61
480.682	6188.72
481.053	6330.19
481.424	6484.31
481.795	6513.91
482.166	6622.38
482.537	6678.43
482.908	6849.04
483.279	6897.63
483.65	7034.35
484.021	7141.01
484.391	7319.54
484.762	7338.97
485.133	7410.84
485.503	7451.74
485.874	7685.86
486.244	7767.21
486.615	7881.78
486.985	8053.08
487.356	8175.79
487.726	8240.42
488.097	8351.6
488.467	8392.96
488.837	8571.71
489.207	8654.65
489.578	8827.75
489.948	8888.99
490.318	8997.46
490.688	9099.15
491.058	9201.3
491.428	9377.34
491.798	9456.21
492.168	9619.14
492.538	9672.7
492.908	9780.49
493.278	9918.34
493.648	9978.23
494.017	10090.31
494.387	10174.83
494.757	10324.43
495.126	10478.55
495.496	10431.32
495.866	10559.91
496.235	10622.28
496.605	10811.2
496.974	10759
497.344	10925.09
497.713	11018.88
498.082	11113.79
498.452	11210.74
498.821	11200.34
499.19	11328.93
499.559	11447.57
499.928	11462.71
500.298	11563.27
500.667	11763.04
501.036	11674
501.405	11795.81
501.774	11838.29
502.143	11942.47
502.512	11968.23
502.88	12255.91
503.249	12208.45
503.618	12316.24
503.987	12315.11
504.356	12485.51
504.724	12490.25
505.093	12621.77
505.462	12688.44
505.83	12731.15
506.199	12861.99
506.567	13049.56
506.936	13097.69
507.304	13196.45
507.672	13297.69
508.041	13315.54
508.409	13481.41
508.777	13542.65
509.145	13701.52
509.514	13660.39
509.882	13799.59
510.25	13877.11
510.618	13960.04
510.986	14033.03
511.354	14142.18
511.722	14309.19
512.09	14451.56
512.458	14433.93
512.826	14574.04
513.193	14640.25
513.561	14744.43
513.929	14881.37
514.297	15005.44
514.664	15115.04
515.032	15227.13
515.4	15364.07
515.767	15374.02
516.135	15484.75
516.502	15478.65
516.869	15730.62
517.237	15847.68
517.604	15885.19
517.972	16049.93
518.339	16134.45
518.706	16188.46
519.073	16359.08
519.44	16457.15
519.808	16566.08
520.175	16691.5
520.542	16938.5
520.909	16996.12
521.276	17026.18
521.643	17137.59
522.009	17395.21
522.376	17479.72
522.743	17552.04
523.11	17790.68
523.477	17895.76
523.843	18016.21
524.21	18224.56
524.577	18354.5
524.943	18580.71
525.31	18536.87
525.676	18698.45
526.043	18821.84
526.409	18985
526.776	19199
527.142	19240.58
527.508	19387.47
527.874	19630.4
528.241	19715.37
528.607	19706.11
528.973	19913.78
529.339	19910.17
529.705	20076.94
530.071	20375.92
530.437	20397.39
530.803	20439.65
531.169	20669.24
531.535	20645.97
531.901	20779.98
532.267	20949.01
532.632	21030.37
532.998	21134.77
533.364	21216.12
533.73	21304.71
534.095	21465.83
534.461	21580.18
534.826	21725.71
535.192	21835.09
535.557	21993.73
535.923	21916.9
536.288	22054.29
536.653	22203.22
537.019	22151.24
537.384	22332.03
537.749	22453.83
538.114	22532.47
538.479	22452.7
538.845	22658.12
539.21	22608.63
539.575	22694.05
539.94	23032.12
540.305	22994.16
540.67	23096.53
541.034	23097.66
541.399	23250.42
541.764	23302.4
542.129	23463.07
542.494	23466.23
542.858	23627.58
543.223	23671.65
543.587	23798.65
543.952	23756.17
544.316	23923.85
544.681	24048.82
545.045	24037.07
545.41	24173.56
545.774	24238.64
546.138	24249.49
546.503	24343.72
546.867	24430.95
547.231	24634.11
547.595	24649.25
547.959	24700.55
548.324	24692.64
548.688	24839.76
549.052	24978.28
549.416	25075
549.779	25059.41
550.143	25197.26
550.507	25357.26
550.871	25584.6
551.235	25452.62
551.599	25819.17
551.962	25807.41
552.326	25924.7
552.689	26023
553.053	25976
553.417	26085.83
553.78	26400.62
554.143	26167.86
554.507	26415.31
554.87	26535.98
555.234	26862.08
555.597	26785.24
555.96	26805.81
556.323	26966.25
556.686	26911.57
557.05	27248.73
557.413	27361.05
557.776	27363.76
558.139	27433.13
558.502	27644.65
558.865	27798.55
559.228	27973.01
559.59	28059.78
559.953	28123.96
560.316	28361.47
560.679	28357.18
561.041	28529.83
561.404	28770.05
561.767	28852.31
562.129	28867.22
562.492	29121
562.854	29161.45
563.217	29130.94
563.579	29296.59
563.941	29539.07
564.304	29656.35
564.666	29870.58
565.028	30006.4
565.39	29996.68
565.753	30191.48
566.115	30325.04
566.477	30474.86
566.839	30553.28
567.201	30818.81
567.563	30768.19
567.925	31083.89
568.287	31015.87
568.648	31092.02
569.01	31394.84
569.372	31485.68
569.734	31546.47
570.095	31643.65
570.457	31722.74
570.819	31845.45
571.18	31868.27
571.542	32232.56
571.903	32080.24
572.265	32306.68
572.626	32463.28
572.987	32366.11
573.349	32561.36
573.71	32683.39
574.071	32751.19
574.432	32760.68
574.794	33034.8
575.155	33039.77
575.516	32997.96
575.877	33230.27
576.238	33209.93
576.599	33339.87
576.96	33197.28
577.32	33475.01
577.681	33463.26
578.042	33579.87
578.403	33705.51
578.763	33663.48
579.124	33900.08
579.485	33884.26
579.845	34019.63
580.206	33962.91
580.566	33917.94
580.927	33847.88
581.287	34021.89
581.648	34020.31
582.008	34049.68
582.368	34173.97
582.728	34216.69
583.089	34108.21
583.449	34070.93
583.809	34223.92
584.169	34380.3
584.529	34237.02
584.889	34499.84
585.249	34288.1
585.609	34235.89
585.969	34372.61
586.329	34351.6
586.688	34531.48
587.048	34437.24
587.408	34392.5
587.768	34391.37
588.127	34456
588.487	34320.64
588.846	34713.17
589.206	34358.6
589.565	34472.5
589.925	34507.3
590.284	34504.14
590.643	34371.26
591.003	34595.88
591.362	34655.77
591.721	34550.91
592.08	34595.66
592.44	34651.48
592.799	34666.39
593.158	34696.45
593.517	34613.96
593.876	34819.16
594.235	34630.23
594.593	34589.78
594.952	34688.31
595.311	34728.31
595.67	34845.14
596.029	34950.23
596.387	34980.73
596.746	35058.92
597.104	34831.36
597.463	34907.06
597.822	34978.25
598.18	34810.34
598.538	34841.98
598.897	35194.51
599.255	34817.8
599.613	35243.1
599.972	35180.73
600.33	35163.1
600.688	35131.01
601.046	35272.25
601.404	35400.61
601.762	35370.33
602.12	35495.75
602.478	35374.62
602.836	35398.57
603.194	35212.14
603.552	35417.33
603.91	35327.16
604.268	35505.69
604.625	35403.32
604.983	35448.07
605.341	35343.66
605.698	35587.5
606.056	35678.34
606.413	35688.51
606.771	35700.94
607.128	35846.92
607.485	35678.34
607.843	35751.11
608.2	35992.68
608.557	35862.52
608.914	35867.26
609.272	36001.95
609.629	36093.7
609.986	36218.44
610.343	36019.58
610.7	36277.2
611.057	36202.62
611.414	36192.68
611.771	36292.34
612.127	36371.2
612.484	36342.05
612.841	36383.41
613.198	36317.87
613.554	36445.33
613.911	36601.26
614.267	36559
614.624	36549.51
614.98	36578.43
615.337	36783.4
615.693	36779.1
616.05	36721.03
616.406	36933.9
616.762	36750.63
617.118	36725.09
617.475	36822.72
617.831	36936.39
618.187	36869.5
618.543	36895.71
618.899	37028.59
619.255	36993.34
619.611	36873.34
619.967	37025.88
620.323	37164.86
620.678	37012.54
621.034	36930.06
621.39	36952.43
621.746	36901.13
622.101	37343.38
622.457	37060.45
622.812	37050.06
623.168	37224.52
623.523	37014.58
623.879	37249.83
624.234	37110.39
624.589	37173.22
624.945	37147.46
625.3	37307
625.655	37233.33
626.01	37295.93
626.365	37331.18
626.72	37288.47
627.075	37065.65
627.43	37068.59
627.785	36968.48
628.14	37106.1
628.495	37163.73
628.85	37058.87
629.205	36899.33
629.559	37226.32
629.914	36899.1
630.269	36965.77
630.623	36860.23
630.978	36777.3
631.332	36992.21
631.687	36974.8
632.041	36688.94
632.396	36830.18
632.75	36662.72
633.104	36622.27
633.459	36595.61
633.813	36547.02
634.167	36429.06
634.521	36469.96
634.875	36507.25
635.229	36422.95
635.583	36341.6
635.937	36367.14
636.291	36415.05
636.645	36160.36
636.999	36162.85
637.352	36348.61
637.706	36045.79
638.06	36195.62
638.413	36083.08
638.767	35974.83
639.121	36086.47
639.474	35930.54
639.828	35814.84
640.181	35930.54
640.534	35986.13
640.888	35771.45
641.241	35575.52
641.594	35546.59
641.947	35723.09
642.301	35532.13
642.654	35683.09
643.007	35598.34
643.36	35599.93
643.713	35401.06
644.066	35609.64
644.419	35330.1
644.771	35046.27
645.124	34655.32
645.477	34641.53
645.83	34439.5
646.182	34317.93
646.535	34350.24
646.888	34307.08
647.24	34168.78
647.593	34387.75
647.945	34265.27
648.298	34128.33
648.65	34067.31
649.002	33819.41
649.355	34144.82
649.707	33989.12
650.059	34112.06
650.411	34451.48
650.763	34523.34
651.115	34755.65
651.467	34743
651.819	34672.04
652.171	34660.29
652.523	34583
652.875	34667.29
653.227	34411.48
653.578	34657.8
653.93	34522.67
654.282	34497.36
654.633	34249.45
654.985	34310.47
655.337	34284.71
655.688	34390.24
656.039	34486.51
656.391	34080.42
656.742	34249.23
657.094	34110.02
657.445	34277.47
657.796	34227.98
658.147	34016.92
658.498	34062.34
658.849	34140.53
659.2	34094.88
659.551	33990.02
659.902	34164.48
660.253	33985.05
660.604	34016.92
660.955	33931.49
661.306	34016.46
661.656	33796.13
662.007	33781.67
662.358	33973.98
662.708	33892.17
663.059	33761.56
663.409	33667.55
663.76	33888.11
664.11	33900.54
664.461	33849.01
664.811	33918.61
665.161	33871.61
665.511	33610.83
665.862	33709.81
666.212	33649.24
666.562	33800.42
666.912	33676.59
667.262	33566.08
667.612	33606.31
667.962	33654.67
668.312	33574.89
668.662	33682.91
669.011	33677.49
669.361	33597.94
669.711	33465.97
670.06	33378.06
670.41	33427.55
670.76	33383.26
671.109	33445.41
671.459	33492.41
671.808	33382.36
672.157	33480.43
672.507	33239.08
672.856	33268.69
673.205	33212.64
673.554	33315.69
673.904	33203.6
674.253	33411.28
674.602	33121.12
674.951	32888.13
675.3	32652.43
675.649	33200.21
675.998	33193.44
676.346	33159.54
676.695	33223.72
677.044	32922.48
677.393	33022.82
677.741	33164.96
678.09	32988.02
678.438	33043.16
678.787	33048.58
679.135	32948.92
679.484	32699.66
679.832	32803.84
680.181	32635.26
680.529	32858.53
680.877	32610.85
681.225	32491.08
681.573	32769.27
681.922	32497.86
682.27	32403.4
682.618	32519.78
682.966	32356.17
683.314	32414.47
683.661	32191.43
684.009	31973.81
684.357	32095.38
684.705	32007.48
685.053	32096.97
685.4	31923.64
685.748	31987.37
686.095	31914.15
686.443	31749.86
686.79	31630.99
687.138	31630.76
687.485	31627.83
687.832	31503.31
688.18	31620.6
688.527	31428.28
688.874	31439.58
689.221	31376.53
689.568	31303.99
689.915	31110.55
690.262	31187.84
690.609	31133.83
690.956	30954.85
691.303	30832.37
691.65	30830.33
691.997	30875.53
692.344	30714.63
692.69	30654.74
693.037	30674.86
693.383	30388.54
693.73	30570.68
694.077	30398.03
694.423	30511.92
694.769	30269.44
695.116	30168.2
695.462	30081.65
695.808	29962.33
696.155	30096.12
696.501	29752.85
696.847	29616.81
697.193	29502.91
697.539	29690.48
697.885	29409.58
698.231	29296.14
698.577	29280.32
698.923	29336.81
699.269	29115.8
699.614	28983.38
699.96	28926.88
700.306	28973.89
700.651	28821.35
700.997	28708.13
701.342	28682.59
701.688	28574.8
702.033	28518.08
702.379	28547.23
702.724	28382.26
703.069	28550.17
703.415	28009.39
703.76	28167.13
704.105	28322.15
704.45	28090.29
704.795	27931.2
705.14	27874.03
705.485	27731.88
705.83	27780.24
706.175	27772.56
706.52	27700.92
706.865	27581.15
707.209	27591.1
707.554	27426.13
707.899	27503.87
708.243	27360.37
708.588	27274.27
708.932	27096.87
709.277	27099.13
709.621	27140.26
709.966	26917.89
710.31	27014.39
710.654	26735.98
710.998	26844.9
711.342	26901.85
711.687	26768.29
712.031	26573.72
712.375	26510.9
712.719	26629.09
713.063	26524.46
713.407	26533.5
713.75	26460.5
714.094	26423.9
714.438	26303.22
714.782	26378.25
715.125	26147.07
715.469	26209.89
715.812	26135.54
716.156	25915.21
716.499	25932.61
716.843	25905.72
717.186	25828.66
717.53	25910.69
717.873	25947.52
718.216	25788.43
718.559	25604.48
718.902	25554.99
719.246	25592.73
719.589	25438.84
719.932	25442.9
720.275	25424.83
720.617	25274.32
720.96	25333.08
721.303	25227.32
721.646	25290.37
721.989	25049.02
722.331	25170.82
722.674	24989.36
723.016	25020.99
723.359	24929.02
723.701	25028
724.044	24763.83
724.386	24830.27
724.729	24846.08
725.071	24659.42
725.413	24776.03
725.755	24757.27
726.097	24688.35
726.439	24490.39
726.782	24471.18
727.124	24688.8
727.465	24432.76
727.807	24454.68
728.149	24470.73
728.491	24353.22
728.833	24272.77
729.175	24257.17
729.516	24280.68
729.858	24145.31
730.199	24220.34
730.541	24170.62
730.882	23997.52
731.224	24092.66
731.565	23946.9
731.906	24034.81
732.248	23986.45
732.589	23876.39
732.93	23848.82
733.271	23891.53
733.612	23794.59
733.953	23818.99
734.294	23739.45
734.635	23587.13
734.976	23639.34
735.317	23529.06
735.658	23580.58
735.999	23531.54
736.339	23435.5
736.68	23534.93
737.021	23443.18
737.361	23247.71
737.702	23457.19
738.042	23212.68
738.383	23220.59
738.723	23327.48
739.063	23136.98
739.404	23160.7
739.744	23142.4
740.084	23155.51
740.424	23161.16
740.764	23021.73
741.104	23102.18
741.444	22925.91
741.784	22844.78
742.124	22989.64
742.464	22768.85
742.804	22788.28
743.143	22776.53
743.483	22651.34
743.823	22634.39
744.162	22612.24
744.502	22575.86
744.841	22617.89
745.181	22676.88
745.52	22435.53
745.86	22506.48
746.199	22331.12
746.538	22422.64
746.877	22425.81
747.216	22507.16
747.556	22312.59
747.895	22424.68
748.234	22244.8
748.573	22201.86
748.911	22055.2
749.25	22125.25
749.589	21953.73
749.928	22070.11
750.267	21998.48
750.605	21952.15
750.944	21932.94
751.283	21766.39
751.621	21940.85
751.96	21709.67
752.298	21661.08
752.636	21655.89
752.975	21630.8
753.313	21509.67
753.651	21545.15
753.989	21481.65
754.327	21406.17
754.666	21417.47
