Data from plate_ceramic_FLMS001491_017.txt Node
Date: Tue Feb 07 11:16:23 GMT 2017
User: dcchb
Spectrometer: FLMS00149
Trigger mode: 0
Integration Time (sec): 2.000000E-2
Scans to average: 10
Electric dark correction enabled: true
Nonlinearity correction enabled: false
Boxcar width: 0
XAxis mode: Wavelengths
Number of Pixels in Spectrum: 2048
>>>>>Begin Spectral Data<<<<<
341.393	-11.2
341.776	-11.2
342.16	-11.2
342.543	-57.3
342.927	-78.32
343.31	-73.57
343.693	-56.4
344.077	-65.89
344.46	-59.79
344.843	-52.78
345.226	-43.97
345.61	-23.86
345.993	-13.01
346.376	14.56
346.759	3.26
347.142	38.29
347.525	37.39
347.908	59.53
348.291	51.17
348.674	81.45
349.057	103.6
349.44	119.87
349.823	163.48
350.206	170.72
350.588	223.6
350.971	238.96
351.354	252.07
351.737	261.56
352.119	258.85
352.502	288.9
352.884	280.32
353.267	321.67
353.65	308.79
354.032	336.36
354.414	330.26
354.797	338.62
355.179	341.11
355.562	316.02
355.944	346.3
356.326	363.48
356.709	342.24
357.091	358.06
357.473	359.41
357.855	354.67
358.238	366.19
358.62	383.37
359.002	383.37
359.384	366.42
359.766	380.88
360.148	365.06
360.53	368.68
360.912	360.77
361.294	380.65
361.676	369.13
362.057	371.39
362.439	356.02
362.821	346.53
363.203	354.21
363.584	355.34
363.966	358.96
364.348	365.96
364.729	358.51
365.111	386.76
365.493	373.65
365.874	346.53
366.256	344.04
366.637	352.41
367.019	363.25
367.4	368
367.781	358.51
368.163	353.54
368.544	362.12
368.925	362.8
369.306	373.87
369.688	363.03
370.069	366.42
370.45	376.59
370.831	372.52
371.212	373.2
371.593	374.1
371.974	366.64
372.355	359.86
372.736	388.11
373.117	371.39
373.498	382.01
373.879	364.16
374.26	368
374.641	380.2
375.021	379.52
375.402	406.64
375.783	397.6
376.163	393.76
376.544	415.91
376.925	392.63
377.305	399.64
377.686	404.38
378.066	394.44
378.447	388.11
378.827	421.1
379.208	410.71
379.588	399.86
379.968	417.26
380.349	442.8
380.729	420.43
381.109	405.74
381.489	431.27
381.87	426.08
382.25	440.54
382.63	422.23
383.01	439.18
383.39	462.23
383.77	457.04
384.15	449.8
384.53	443.03
384.91	463.82
385.29	450.93
385.67	471.72
386.049	456.13
386.429	479.86
386.809	472.85
387.189	497.94
387.568	478.5
387.948	492.52
388.328	515.34
388.707	523.25
389.087	518.96
389.466	528.45
389.846	506.75
390.225	530.71
390.605	530.03
390.984	538.62
391.363	513.76
391.743	548.56
392.122	551.72
392.501	551.5
392.881	540.65
393.26	575.22
393.639	577.26
394.018	566.86
394.397	563.93
394.776	580.2
395.155	590.82
395.534	587.2
395.913	593.76
396.292	628.33
396.671	610.25
397.05	633.53
397.429	617.03
397.808	610.93
398.186	607.09
398.565	638.5
398.944	623.36
399.323	622.91
399.701	654.54
400.08	668.78
400.458	662.45
400.837	667.2
401.215	673.53
401.594	679.18
401.972	686.41
402.351	675.56
402.729	700.42
403.107	694.77
403.486	726.63
403.864	701.55
404.242	733.41
404.62	716.24
404.999	738.38
405.377	737.03
405.755	737.48
406.133	784.26
406.511	766.63
406.889	804.15
407.267	784.71
407.645	825.61
408.023	820.42
408.401	817.25
408.779	834.43
409.156	849.57
409.534	846.18
409.912	870.81
410.29	879.62
410.667	873.75
411.045	904.71
411.422	888.21
411.8	897.48
412.178	910.81
412.555	948.77
412.933	925.05
413.31	979.96
413.687	972.05
414.065	971.6
414.442	984.93
414.819	1003.01
415.197	1022.9
415.574	1047.53
415.951	1039.62
416.328	1052.05
416.705	1050.24
417.082	1059.96
417.46	1070.81
417.837	1094.99
418.214	1124.59
418.591	1116.91
418.967	1104.48
419.344	1123.01
419.721	1147.87
420.098	1162.1
420.475	1186.06
420.852	1183.12
421.228	1195.77
421.605	1210.24
421.982	1247.52
422.358	1226.06
422.735	1201.65
423.111	1243.91
423.488	1270.12
423.864	1296.34
424.241	1299.27
424.617	1324.36
424.994	1347.18
425.37	1326.39
425.746	1370.91
426.123	1376.56
426.499	1364.36
426.875	1370.23
427.251	1444.35
427.627	1447.29
428.003	1474.86
428.379	1489.33
428.756	1494.3
429.132	1532.04
429.507	1543.56
429.883	1557.12
430.259	1547.18
430.635	1590.34
431.011	1590.34
431.387	1629.66
431.763	1657
432.138	1649.77
432.514	1666.04
432.89	1708.75
433.265	1750.11
433.641	1771.13
434.016	1769.77
434.392	1824.01
434.767	1849.32
435.143	1849.54
435.518	1849.32
435.894	1873.04
436.269	1895.64
436.644	1938.58
437.02	1919.82
437.395	1954.85
437.77	1962.31
438.145	2017.45
438.52	2052.47
438.895	2056.09
439.271	2077.33
439.646	2102.64
440.021	2108.52
440.395	2115.75
440.77	2127.5
441.145	2170.89
441.52	2194.17
441.895	2175.41
442.27	2196.43
442.645	2221.06
443.019	2229.87
443.394	2250.44
443.769	2267.84
444.143	2288.4
444.518	2316.65
444.892	2287.04
445.267	2304.22
445.641	2332.92
446.016	2347.61
446.39	2393.03
446.764	2435.06
447.139	2421.28
447.513	2480.94
447.887	2475.29
448.262	2460.37
448.636	2499.69
449.01	2536.3
449.384	2548.96
449.758	2544.66
450.132	2596.87
450.506	2624.66
450.88	2621.5
451.254	2633.25
451.628	2693.81
452.002	2668.5
452.376	2763.87
452.75	2765.68
453.123	2768.39
453.497	2820.14
453.871	2896.07
454.244	2883.86
454.618	2922.06
454.992	2972
455.365	2989.62
455.739	3045.89
456.112	3058.78
456.486	3079.79
456.859	3107.81
457.232	3170.86
457.606	3178.55
457.979	3216.74
458.352	3304.19
458.725	3346.9
459.099	3348.94
459.472	3447.69
459.845	3473.68
460.218	3527.46
460.591	3522.04
460.964	3525.2
461.337	3660.79
461.71	3694.47
462.083	3758.19
462.456	3730.17
462.829	3718.42
463.201	3864.63
463.574	3917.96
463.947	3907.57
464.32	4013.33
464.692	4012.2
465.065	4062.14
465.438	4107.34
465.81	4177.62
466.183	4229.37
466.555	4328.35
466.928	4357.05
467.3	4343.49
467.672	4453.77
468.045	4498.51
468.417	4540.32
468.789	4588.45
469.161	4633.88
469.534	4760.43
469.906	4861.44
470.278	4851.95
470.65	4901.21
471.022	5041.55
471.394	5075.22
471.766	5172.39
472.138	5194.09
472.51	5396.34
472.882	5419.17
473.253	5457.36
473.625	5562.21
473.997	5678.37
474.369	5714.07
474.74	5797.69
475.112	5931.47
475.484	5966.5
475.855	6072.71
476.227	6092.37
476.598	6351.12
476.97	6345.92
477.341	6460.04
477.713	6602.19
478.084	6612.58
478.455	6785.91
478.827	6892.57
479.198	7124.43
479.569	7147.71
479.94	7327.59
480.311	7339.57
480.682	7509.05
481.053	7768.71
481.424	7828.14
481.795	7982.94
482.166	8077.63
482.537	8179.09
482.908	8328.69
483.279	8405.98
483.65	8579.76
484.021	8753.32
484.391	8859.75
484.762	8923.03
485.133	9035.79
485.503	9124.83
485.874	9372.51
486.244	9449.12
486.615	9676.45
486.985	9695.66
487.356	9908.99
487.726	9998.48
488.097	10214.97
488.467	10322.31
488.837	10496.55
489.207	10613.38
489.578	10761.17
489.948	10820.15
490.318	10970.66
490.688	11069.64
491.058	11259.69
491.428	11413.13
491.798	11532
492.168	11735.38
492.538	11802.95
492.908	11907.13
493.278	12009.5
493.648	12100.12
494.017	12317.97
494.387	12430.96
494.757	12517.74
495.126	12654.46
495.496	12648.81
495.866	12815.13
496.235	12948.68
496.605	13061
496.974	13161.11
497.344	13225.97
497.713	13383.02
498.082	13479.74
498.452	13654.43
498.821	13783.24
499.19	13816.68
499.559	13949.34
499.928	14058.26
500.298	14177.81
500.667	14270.46
501.036	14276.56
501.405	14402.88
501.774	14447.63
502.143	14634.06
502.512	14663.22
502.88	14844.23
503.249	14881.52
503.618	15028.63
503.987	15076.54
504.356	15230.21
504.724	15203.09
505.093	15374.16
505.462	15490.77
505.83	15536.41
506.199	15706.58
506.567	15896.86
506.936	15938.21
507.304	16174.14
507.672	16194.93
508.041	16274.47
508.409	16430.18
508.777	16561.92
509.145	16662.03
509.514	16707.68
509.882	16785.87
510.25	16908.35
510.618	17055.7
510.986	17213.66
511.354	17369.59
511.722	17432.41
512.09	17610.71
512.458	17638.05
512.826	17769.8
513.193	17959.85
513.561	18023.58
513.929	18147.42
514.297	18354.42
514.664	18431.7
515.032	18589.67
515.4	18761.19
515.767	18930.22
516.135	18940.84
516.502	18897.23
516.869	19292.02
517.237	19372.7
517.604	19307.39
517.972	19612.69
518.339	19741.27
518.706	19683.42
519.073	19908.28
519.44	20212.45
519.808	20308.27
520.175	20341.71
520.542	20690.85
520.909	20790.51
521.276	20727.69
521.643	21053.33
522.009	21158.86
522.376	21356.15
522.743	21482.7
523.11	21694.44
523.477	21936.92
523.843	22039.97
524.21	22244.71
524.577	22475.67
524.943	22558.6
525.31	22701.87
525.676	22882.21
526.043	23095.54
526.409	23209.88
526.776	23469.54
527.142	23476.77
527.508	23778.46
527.874	23806.48
528.241	24024.55
528.607	24062.74
528.973	24373.92
529.339	24222.51
529.705	24529.4
530.071	24759.9
530.437	25071.53
530.803	25172.09
531.169	25332.99
531.535	25296.83
531.901	25317.63
532.267	25465.64
532.632	25649.37
532.998	25932.07
533.364	26000.32
533.73	26146.3
534.095	26378.39
534.461	26488.67
534.826	26547.2
535.192	26705.84
535.557	26785.16
535.923	26749.68
536.288	27056.79
536.653	27134.98
537.019	27199.38
537.384	27249.33
537.749	27517.12
538.114	27508.75
538.479	27556.44
538.845	27711.23
539.21	27793.04
539.575	27935.64
539.94	27994.62
540.305	28224.89
540.67	28116.2
541.034	28481.61
541.399	28421.27
541.764	28464.89
542.129	28693.13
542.494	28611.32
542.858	28879.57
543.223	28864.42
543.587	29131.76
543.952	29244.3
544.316	29318.65
544.681	29400.68
545.045	29573.33
545.41	29573.78
545.774	29746.66
546.138	29758.41
546.503	29886.77
546.867	29849.26
547.231	30100.78
547.595	30164.05
547.959	30234.11
548.324	30312.07
548.688	30420.54
549.052	30502.8
549.416	30768.1
549.779	30711.61
550.143	30926.07
550.507	31098.94
550.871	31195.21
551.235	31167.87
551.599	31547.29
551.962	31506.84
552.326	31707.97
552.689	31865.25
553.053	31797.91
553.417	31904.8
553.78	32331.9
554.143	32180.5
554.507	32324.67
554.87	32487.61
555.234	32792.01
555.597	32615.29
555.96	33006.24
556.323	33074.03
556.686	33071.32
557.05	33328.94
557.413	33548.82
557.776	33578.2
558.139	33786.78
558.502	33942.94
558.865	33951.52
559.228	34174.79
559.59	34218.63
559.953	34350.83
560.316	34794.89
560.679	34825.4
561.041	35020.42
561.404	35140.87
561.767	35356.01
562.129	35311.26
562.492	35634.64
562.854	35770.91
563.217	35856.11
563.579	36031.92
563.941	36234.63
564.304	36430.55
564.666	36570.21
565.028	36763.2
565.39	36840.71
565.753	37088.39
566.115	37211.55
566.477	37251.32
566.839	37337.65
567.201	37679.11
567.563	37670.29
567.925	37833.23
568.287	37918.88
568.648	38122.94
569.01	38150.51
569.372	38337.17
569.734	38421.01
570.095	38725.41
570.457	38908.91
570.819	38992.29
571.18	38911.17
571.542	39185.74
571.903	39333.98
572.265	39445.62
572.626	39482.68
572.987	39586.85
573.349	39818.71
573.71	39893.29
574.071	39930.12
574.432	40018.48
574.794	40365.14
575.155	40349.32
575.516	40211.24
575.877	40550.9
576.238	40602.42
576.599	40686.94
576.96	40806.03
577.32	40828.86
577.681	40937.78
578.042	41161.73
578.403	41060.49
578.763	41168.51
579.124	41157.66
579.485	41385.68
579.845	41409.41
580.206	41535.73
580.566	41466.81
580.927	41465.22
581.287	41528.95
581.648	41582.73
582.008	41667.25
582.368	41586.58
582.728	41593.81
583.089	41613.47
583.449	41570.08
583.809	41752.45
584.169	41775.05
584.529	41598.1
584.889	42143.62
585.249	41761.94
585.609	41622.28
585.969	41916.51
586.329	41808.72
586.688	41994.47
587.048	41935.95
587.408	42034.7
587.768	42016.85
588.127	41920.35
588.487	41879.22
588.846	42203.28
589.206	42057.07
589.565	41858.43
589.925	42147.47
590.284	41968.26
590.643	42272.43
591.003	42208.48
591.362	42352.43
591.721	42238.31
592.08	42046.45
592.44	42337.29
592.799	42290.06
593.158	42439.43
593.517	42345.65
593.876	42325.31
594.235	42347.46
594.593	42404.86
594.952	42427.23
595.311	42284.41
595.67	42413.9
596.029	42605.53
596.387	42718.3
596.746	42603.72
597.104	42386.78
597.463	42501.35
597.822	42695.93
598.18	42586.55
598.538	42531.18
598.897	42895.47
599.255	42430.4
599.613	43039.42
599.972	42789.93
600.33	42977.95
600.688	42755.13
601.046	42877.62
601.404	43030.38
601.762	43012.98
602.12	43231.5
602.478	43198.74
602.836	43147.89
603.194	42974.79
603.552	42965.52
603.91	42996.48
604.268	43332.52
604.625	43129.59
604.983	43305.4
605.341	43220.43
605.698	43442.35
606.056	43535
606.413	43314.44
606.771	43580.42
607.128	43592.62
607.485	43428.11
607.843	43478.28
608.2	43704.71
608.557	43824.71
608.914	43649.8
609.272	43845.95
609.629	43916.23
609.986	44038.94
610.343	43833.52
610.7	44148.09
611.057	44019.96
611.414	44058.83
611.771	44107.19
612.127	44286.84
612.484	44387.41
612.841	44442.32
613.198	44197.58
613.554	44240.97
613.911	44395.99
614.267	44509.89
614.624	44506.5
614.98	44581.98
615.337	44771.35
615.693	44760.28
616.05	44665.82
616.406	44899.71
616.762	44717.12
617.118	44737.45
617.475	44803.89
617.831	44801.86
618.187	44971.12
618.543	44941.06
618.899	45097.9
619.255	45094.51
619.611	44920.5
619.967	45188.06
620.323	45224.45
620.678	44979.26
621.034	44993.72
621.39	45109.65
621.746	45079.59
622.101	45508.73
622.457	45182.19
622.812	45279.36
623.168	45379.24
623.523	45275.29
623.879	45423.54
624.234	45275.97
624.589	45265.35
624.945	45241.85
625.3	45247.95
625.655	45252.24
626.01	45302.64
626.365	45337.66
626.72	45191.45
627.075	45305.8
627.43	45156.88
627.785	45105.35
628.14	45172.7
628.495	45261.06
628.85	45108.29
629.205	44963.21
629.559	45240.72
629.914	44943.55
630.269	45063.32
630.623	44882.31
630.978	44816.1
631.332	44884.57
631.687	45101.51
632.041	44902.42
632.396	44873.72
632.75	44757.11
633.104	44739.04
633.459	44491.81
633.813	44660.17
634.167	44649.77
634.521	44552.6
634.875	44672.6
635.229	44534.75
635.583	44181.08
635.937	44292.27
636.291	44411.59
636.645	44277.35
636.999	44173.4
637.352	44173.63
637.706	44181.08
638.06	44230.8
638.413	44076.45
638.767	43990.58
639.121	44067.64
639.474	43684.6
639.828	43726.18
640.181	43869
640.534	43844.6
640.888	43709.68
641.241	43538.62
641.594	43621.55
641.947	43747.65
642.301	43613.42
642.654	43645.5
643.007	43636.92
643.36	43555.79
643.713	43491.38
644.066	43632.85
644.419	43233.09
644.771	42966.43
645.124	42696.83
645.477	42546.1
645.83	42384.3
646.182	42125.32
646.535	42022.04
646.888	42146.56
647.24	41892.1
647.593	42224.3
647.945	42113.79
648.298	41904.76
648.65	41887.36
649.002	41755.61
649.355	41867.47
649.707	41832.45
650.059	41796.06
650.411	42357.18
650.763	42326.44
651.115	42699.09
651.467	42579.09
651.819	42523.05
652.171	42403.73
652.523	42339.78
652.875	42485.54
653.227	42252.32
653.578	42425.88
653.93	42324.86
654.282	42292.77
654.633	42082.38
654.985	42126.22
655.337	42143.62
655.688	42232.66
656.039	42176.84
656.391	41776.63
656.742	41973.68
657.094	41851.65
657.445	42063.63
657.796	41947.02
658.147	41859.34
658.498	41837.42
658.849	41882.16
659.2	41799
659.551	41832.9
659.902	41907.25
660.253	41975.94
660.604	41802.62
660.955	41680.58
661.306	41882.84
661.656	41702.51
662.007	41537.09
662.358	41512.91
662.708	41645.11
663.059	41573.47
663.409	41257.77
663.76	41462.29
664.11	41457.77
664.461	41536.41
664.811	41510.87
665.161	41518.33
665.511	41540.02
665.862	41478.56
666.212	41557.88
666.562	41531.21
666.912	41504.54
667.262	41569.85
667.612	41280.37
667.962	41529.4
668.312	41389.52
668.662	41483.3
669.011	41472.68
669.361	41267.71
669.711	41335.51
670.06	41231.56
670.41	41135.51
670.76	41098.68
671.109	41250.99
671.459	41331.44
671.808	40910.44
672.157	41236.53
672.507	40909.31
672.856	41000.38
673.205	41106.59
673.554	41096.42
673.904	40941.85
674.253	41159.24
674.602	41041.73
674.951	40374.18
675.3	40291.24
675.649	40788.86
675.998	40760.38
676.346	40777.11
676.695	40804
677.044	40553.61
677.393	40813.71
677.741	40758.8
678.09	40769.65
678.438	40465.7
678.787	40605.81
679.135	40605.58
679.484	40470.9
679.832	40563.33
680.181	40363.56
680.529	40467.51
680.877	40227.74
681.225	40158.82
681.573	40325.37
681.922	40063.23
682.27	40064.36
682.618	40216.22
682.966	40045.15
683.314	40047.86
683.661	39843.57
684.009	39687.42
684.357	39609
684.705	39574.2
685.053	39621.43
685.4	39600.64
685.748	39473.19
686.095	39354.77
686.443	39246.07
686.79	39003.14
687.138	39124.04
687.485	39137.83
687.832	38969.92
688.18	39200.88
688.527	38987.1
688.874	38799.3
689.221	38668.01
689.568	38638.4
689.915	38518.18
690.262	38549.59
690.609	38323.38
690.956	38370.16
691.303	38273.44
691.65	38104.41
691.997	38020.57
692.344	37871.42
692.69	37864.64
693.037	37936.28
693.383	37664.19
693.73	37606.12
694.077	37491.54
694.423	37472.79
694.769	37522.73
695.116	37409.28
695.462	37476.63
695.808	37073.7
696.155	37354.14
696.501	36974.04
696.847	36877.55
697.193	36513.04
697.539	36796.19
697.885	36515.07
698.231	36475.75
698.577	36426.26
698.923	36392.59
699.269	36217
699.614	35794.41
699.96	35888.87
700.306	36067.4
700.651	35881.19
700.997	35752.38
701.342	35628.77
701.688	35543.35
702.033	35351.94
702.379	35301.77
702.724	35233.3
703.069	35366.4
703.415	34976.35
703.76	34858.17
704.105	34911.95
704.45	34880.76
704.795	34542.69
705.14	34617.49
705.485	34570.72
705.83	34376.14
706.175	34484.16
706.52	34309.48
706.865	34172.76
707.209	34293.66
707.554	34123.95
707.899	34294.11
708.243	34050.05
708.588	34000.33
708.932	33786.78
709.277	33828.81
709.621	33665.88
709.966	33541.36
710.31	33621.14
710.654	33372.1
710.998	33448.48
711.342	33417.3
711.687	33389.05
712.031	33121.04
712.375	33054.82
712.719	33126.46
713.063	33007.37
713.407	33171.66
713.75	32914.71
714.094	32899.8
714.438	32557.66
714.782	32869.74
715.125	32616.64
715.469	32688.05
715.812	32521.96
716.156	32355.86
716.499	32311.11
716.843	32436.31
717.186	32160.84
717.53	32119.25
717.873	32267.27
718.216	32225.47
718.559	31994.29
718.902	31902.76
719.246	31923.33
719.589	31814.4
719.932	31607.18
720.275	31709.32
720.617	31683.33
720.96	31667.97
721.303	31614.63
721.646	31566.5
721.989	31399.05
722.331	31502.1
722.674	31329.44
723.016	31333.51
723.359	31268.88
723.701	31224.36
724.044	31021.88
724.386	30947.08
724.729	31010.81
725.071	30881.55
725.413	31011.03
725.755	30936.46
726.097	30762.68
726.439	30668.67
726.782	30562.46
727.124	30752.51
727.465	30645.39
727.807	30620.31
728.149	30422.58
728.491	30459.41
728.833	30477.49
729.175	30372.18
729.516	30191.17
729.858	30098.97
730.199	30284.95
730.541	30246.31
730.882	30188.91
731.224	30163.83
731.565	29985.75
731.906	30141.45
732.248	30069.36
732.589	29884.06
732.93	29753.44
733.271	29854.23
733.612	29908.69
733.953	29883.15
734.294	29607
734.635	29595.7
734.976	29722.26
735.317	29493.79
735.658	29449.04
735.999	29557.29
736.339	29461.7
736.68	29595.7
737.021	29441.58
737.361	29234.58
737.702	29369.5
738.042	29256.5
738.383	29178.31
738.723	29202.27
739.063	29118.43
739.404	29161.59
739.744	29015.16
740.084	28970.41
740.424	28972.44
740.764	29045.89
741.104	29076.4
741.444	28808.61
741.784	28720.47
742.124	28824.65
742.464	28732.22
742.804	28669.18
743.143	28602.74
743.483	28673.92
743.823	28407.26
744.162	28384.44
744.502	28474.15
744.841	28373.59
745.181	28440.03
745.52	28115.52
745.86	28253.82
746.199	28176.31
746.538	28139.92
746.877	28074.16
747.216	28096.31
747.556	27921.17
747.895	28002.07
748.234	27858.58
748.573	27809.54
748.911	27799.59
749.25	27841.4
749.589	27699.03
749.928	27594.18
750.267	27672.59
750.605	27594.63
750.944	27668.3
751.283	27520.73
751.621	27462.65
751.96	27336.1
752.298	27261.3
752.636	27263.79
752.975	27193.06
753.313	27019.28
753.651	27179.5
753.989	26984.02
