Data from plate_ceramic_FLMS001491_072.txt Node
Date: Tue Feb 07 11:17:15 GMT 2017
User: dcchb
Spectrometer: FLMS00149
Trigger mode: 0
Integration Time (sec): 2.000000E-2
Scans to average: 10
Electric dark correction enabled: true
Nonlinearity correction enabled: false
Boxcar width: 0
XAxis mode: Wavelengths
Number of Pixels in Spectrum: 2048
>>>>>Begin Spectral Data<<<<<
341.393	1.55
341.776	1.55
342.16	1.55
342.543	-70.31
342.927	-44.09
343.31	-72.79
343.693	-89.07
344.077	-69.63
344.46	-47.03
344.843	-49.97
345.226	-49.52
345.61	-28.28
345.993	-23.76
346.376	9.24
346.759	11.95
347.142	28.9
347.525	30.93
347.908	73.64
348.291	60.54
348.674	101.21
349.057	113.64
349.44	124.71
349.823	162.45
350.206	164.94
350.588	223.69
350.971	230.7
351.354	224.82
351.737	264.15
352.119	251.26
352.502	284.26
352.884	305.73
353.267	294.65
353.65	307.76
354.032	305.5
354.414	334.2
354.797	331.94
355.179	340.53
355.562	343.01
355.944	375.78
356.326	352.05
356.709	363.58
357.091	348.89
357.473	345.27
357.855	378.04
358.238	371.94
358.62	359.28
359.002	362.22
359.384	370.81
359.766	373.75
360.148	372.84
360.53	356.12
360.912	386.4
361.294	372.62
361.676	361.77
362.057	349.12
362.439	366.06
362.821	354.76
363.203	345.73
363.584	373.75
363.966	347.99
364.348	359.06
364.729	347.99
365.111	346.18
365.493	347.99
365.874	358.15
366.256	340.53
366.637	342.79
367.019	358.15
367.4	350.92
367.781	346.18
368.163	356.8
368.544	357.93
368.925	341.66
369.306	338.27
369.688	356.57
370.069	358.38
370.45	352.96
370.831	359.74
371.212	385.5
371.593	369.23
371.974	348.21
372.355	372.17
372.736	366.06
373.117	378.94
373.498	376.23
373.879	358.38
374.26	356.57
374.641	382.79
375.021	399.51
375.402	370.81
375.783	400.19
376.163	385.05
376.544	395.67
376.925	381.88
377.305	405.16
377.686	392.5
378.066	397.48
378.447	394.31
378.827	395.89
379.208	409.23
379.588	405.61
379.968	399.28
380.349	399.51
380.729	413.07
381.109	411.49
381.489	418.72
381.87	402
382.25	442.67
382.63	415.33
383.01	434.31
383.39	445.38
383.77	419.4
384.15	454.65
384.53	444.48
384.91	446.74
385.29	444.71
385.67	460.98
386.049	462.56
386.429	472.28
386.809	445.84
387.189	458.26
387.568	463.01
387.948	468.43
388.328	474.08
388.707	466.85
389.087	492.61
389.466	503.69
389.846	506.63
390.225	507.53
390.605	515.89
390.984	515.21
391.363	528.77
391.743	539.84
392.122	542.56
392.501	550.24
392.881	550.24
393.26	564.02
393.639	568.32
394.018	561.76
394.397	550.69
394.776	574.65
395.155	549.56
395.534	589.33
395.913	598.83
396.292	576.45
396.671	599.96
397.05	589.33
397.429	606.96
397.808	589.79
398.186	627.07
398.565	617.58
398.944	604.93
399.323	629.79
399.701	631.14
400.08	628.43
400.458	647.64
400.837	652.61
401.215	656.45
401.594	670.24
401.972	665.49
402.351	678.37
402.729	667.07
403.107	687.19
403.486	685.38
403.864	690.12
404.242	734.42
404.62	718.6
404.999	713.17
405.377	723.34
405.755	751.14
406.133	740.29
406.511	756.11
406.889	774.19
407.267	805.37
407.645	786.62
408.023	778.93
408.401	790.23
408.779	815.32
409.156	841.53
409.534	847.63
409.912	872.94
410.29	861.87
410.667	866.84
411.045	871.14
411.422	905.03
411.8	883.56
412.178	939.83
412.555	917.91
412.933	916.56
413.31	960.62
413.687	950
414.065	949.78
414.442	992.71
414.819	999.27
415.197	1008.53
415.574	1026.16
415.951	1041.75
416.328	1072.94
416.705	1048.08
417.082	1045.37
417.46	1077.01
417.837	1106.16
418.214	1119.49
418.591	1085.82
418.967	1083.79
419.344	1091.69
419.721	1127.63
420.098	1137.79
420.475	1166.27
420.852	1171.01
421.228	1162.65
421.605	1191.13
421.982	1207.85
422.358	1190
422.735	1239.94
423.111	1218.24
423.488	1254.4
423.864	1280.16
424.241	1279.26
424.617	1289.88
424.994	1279.03
425.37	1316.77
425.746	1330.78
426.123	1348.18
426.499	1323.1
426.875	1392.93
427.251	1400.16
427.627	1397.9
428.003	1443.55
428.379	1446.26
428.756	1476.32
429.132	1476.77
429.507	1535.98
429.883	1534.17
430.259	1556.09
430.635	1525.81
431.011	1555.41
431.387	1615.52
431.763	1605.35
432.138	1647.61
432.514	1663.88
432.89	1683.09
433.265	1730.1
433.641	1735.29
434.016	1750.43
434.392	1757.44
434.767	1821.17
435.143	1817.78
435.518	1856.87
435.894	1858
436.269	1836.08
436.644	1923.76
437.02	1931.22
437.395	1924.89
437.77	1950.65
438.145	1991.56
438.52	1994.95
438.895	2031.1
439.271	2014.16
439.646	2123.31
440.021	2077.88
440.395	2085.11
440.77	2088.28
441.145	2102.29
441.52	2172.57
441.895	2139.8
442.27	2179.58
442.645	2168.05
443.019	2260.03
443.394	2174.6
443.769	2265
444.143	2239.46
444.518	2287.82
444.892	2238.78
445.267	2269.52
445.641	2342.96
446.016	2288.73
446.39	2356.07
446.764	2377.99
447.139	2357.65
447.513	2385.22
447.887	2404.2
448.262	2435.16
448.636	2396.97
449.01	2465.44
449.384	2473.81
449.758	2535.5
450.132	2561.94
450.506	2549.74
450.88	2560.58
451.254	2575.5
451.628	2580.47
452.002	2607.36
452.376	2714.93
452.75	2704.08
453.123	2744.98
453.497	2769.62
453.871	2754.48
454.244	2821.59
454.618	2848.71
454.992	2917.41
455.365	2914.7
455.739	2966.22
456.112	2971.42
456.486	3060.23
456.859	3042.83
457.232	3103.17
457.606	3115.82
457.979	3120.79
458.352	3239.21
458.725	3266.1
459.099	3289.38
459.472	3365.53
459.845	3386.32
460.218	3405.53
460.591	3464.74
460.964	3473.78
461.337	3584.96
461.71	3603.27
462.083	3647.79
462.456	3650.95
462.829	3705.86
463.201	3767.1
463.574	3805.75
463.947	3834.22
464.32	3899.98
464.692	3961.22
465.065	3950.15
465.438	4094.33
465.81	4114.89
466.183	4136.81
466.555	4255.91
466.928	4265.17
467.3	4219.75
467.672	4345.17
468.045	4420.42
468.417	4486.41
468.789	4545.84
469.161	4525.95
469.534	4623.35
469.906	4762.78
470.278	4758.94
470.65	4804.59
471.022	4931.14
471.394	5004.36
471.766	5024.47
472.138	5122.32
472.51	5181.53
472.882	5307.63
473.253	5352.15
473.625	5463.56
473.997	5559.37
474.369	5560.28
474.74	5649.09
475.112	5779.25
475.484	5924.79
475.855	5974.5
476.227	6056.31
476.598	6181.73
476.97	6219.24
477.341	6374.04
477.713	6387.37
478.084	6505.34
478.455	6686.35
478.827	6745.33
479.198	6946.68
479.569	6952.78
479.94	7148.71
480.311	7195.94
480.682	7405.65
481.053	7530.62
481.424	7677.96
481.795	7724.29
482.166	7877.05
482.537	7935.13
482.908	8194.11
483.279	8257.38
483.65	8354.55
484.021	8535.57
484.391	8682
484.762	8714.32
485.133	8855.33
485.503	9014.65
485.874	9195.44
486.244	9265.94
486.615	9436.33
486.985	9492.83
487.356	9728.98
487.726	9765.59
488.097	10028.18
488.467	10087.39
488.837	10226.82
489.207	10412.58
489.578	10497.77
489.948	10598.34
490.318	10810.08
490.688	10761.5
491.058	10986.8
491.428	11129.62
491.798	11217.98
492.168	11497.52
492.538	11506.56
492.908	11655.48
493.278	11805.76
493.648	11867
494.017	12094.57
494.387	12104.51
494.757	12263.38
495.126	12445.97
495.496	12452.98
495.866	12578.62
496.235	12752.63
496.605	12800.77
496.974	12930.71
497.344	13021.1
497.713	13111.72
498.082	13156.01
498.452	13399.39
498.821	13408.43
499.19	13470.8
499.559	13702.44
499.928	13695.2
500.298	13768.42
500.667	13871.47
501.036	13910.34
501.405	14122.76
501.774	14105.82
502.143	14305.13
502.512	14355.07
502.88	14449.99
503.249	14446.15
503.618	14702.64
503.987	14750.32
504.356	14791.9
504.724	14907.6
505.093	15014.49
505.462	15075.06
505.83	15219.23
506.199	15368.16
506.567	15583.97
506.936	15538.09
507.304	15656.51
507.672	15748.71
508.041	15932.21
508.409	15853.57
508.777	16142.15
509.145	16279.54
509.514	16242.48
509.882	16408.13
510.25	16556.82
510.618	16690.83
510.986	16673.88
511.354	16925.4
511.722	16933.09
512.09	17107.77
512.458	17195.68
512.826	17371.27
513.193	17441.32
513.561	17535.33
513.929	17709.79
514.297	17853.06
514.664	17985.71
515.032	18023
515.4	18270.9
515.767	18248.53
516.135	18387.96
516.502	18369.43
516.869	18663.44
517.237	18985.24
517.604	18861.85
517.972	19121.73
518.339	19152.91
518.706	19394.94
519.073	19457.77
519.44	19520.36
519.808	19802.61
520.175	19827.47
520.542	20100.46
520.909	20118.76
521.276	20185.43
521.643	20486.21
522.009	20566.44
522.376	20734.57
522.743	20789.03
523.11	21127.78
523.477	21203.93
523.843	21302.46
524.21	21542.46
524.577	21822.45
524.943	21901.99
525.31	21972.73
525.676	22120.07
526.043	22332.72
526.409	22573.16
526.776	22639.83
527.142	22790.33
527.508	23008.86
527.874	23165.24
528.241	23252.47
528.607	23364.33
528.973	23624.66
529.339	23542.18
529.705	23821.72
530.071	23980.36
530.437	24169.96
530.803	24341.25
531.169	24491.76
531.535	24399.33
531.901	24654.01
532.267	24671.87
532.632	24927.23
532.998	25079.09
533.364	25154.79
533.73	25304.17
534.095	25523.59
534.461	25606.08
534.826	25644.27
535.192	25816.69
535.557	26036.58
535.923	25973.98
536.288	26152.96
536.653	26306.62
537.019	26313.86
537.384	26491.25
537.749	26570.8
538.114	26588.88
538.479	26624.58
538.845	26886.5
539.21	26695.77
539.575	26856.67
539.94	27100.5
540.305	27244.91
540.67	27141.18
541.034	27300.95
541.399	27505.69
541.764	27554.28
542.129	27693.71
542.494	27743.42
542.858	27894.83
543.223	27858.67
543.587	28189.06
543.952	28011.44
544.316	28237.2
544.681	28380.69
545.045	28336.18
545.41	28453.46
545.774	28622.5
546.138	28610.29
546.503	28731.65
546.867	28796.95
547.231	29017.06
547.595	29088.47
547.959	29109.26
548.324	29211.18
548.688	29394
549.052	29450.95
549.416	29624.73
549.779	29771.17
550.143	29905.4
550.507	30012.52
550.871	30078.73
551.235	30093.87
551.599	30291.38
551.962	30354.65
552.326	30335.9
552.689	30753.74
553.053	30458.83
553.417	30706.96
553.78	31155.08
554.143	31082.09
554.507	31170.68
554.87	31309.21
555.234	31508.97
555.597	31492.03
555.96	31445.7
556.323	31666.94
556.686	31876.87
557.05	32112.35
557.413	32128.17
557.776	32285.68
558.139	32518.44
558.502	32699
558.865	32706.46
559.228	32888.82
559.59	32986.9
559.953	33131.3
560.316	33522.25
560.679	33429.83
561.041	33496.04
561.404	33830.27
561.767	34036.36
562.129	33959.53
562.492	34329.69
562.854	34336.47
563.217	34428.9
563.579	34658.27
563.941	34834.54
564.304	34855.1
564.666	35232.04
565.028	35285.6
565.39	35308.42
565.753	35491.47
566.115	35652.37
566.477	35741.63
566.839	35804.45
567.201	36135.97
567.563	36209.42
567.925	36554.26
568.287	36541.84
568.648	36500.48
569.01	36771.21
569.372	36872.22
569.734	36992.67
570.095	37179.56
570.457	37299.56
570.819	37368.71
571.18	37468.37
571.542	37647.12
571.903	37650.28
572.265	37895.25
572.626	38096.15
572.987	38170.49
573.349	38235.58
573.71	38260.89
574.071	38488
574.432	38457.27
574.794	38841.44
575.155	38779.74
575.516	38717.37
575.877	38877.37
576.238	39076.23
576.599	39050.92
576.96	39123.24
577.32	39085.72
577.681	39310.8
578.042	39375.66
578.403	39455.21
578.763	39508.76
579.124	39757.34
579.485	39781.3
579.845	39889.32
580.206	39776.55
580.566	39917.11
580.927	39824.24
581.287	39761.41
581.648	39786.95
582.008	39916.66
582.368	39946.49
582.728	39985.36
583.089	39967.28
583.449	40121.4
583.809	40099.71
584.169	40275.75
584.529	40080.05
584.889	40427.16
585.249	40137.45
585.609	40154.17
585.969	40422.41
586.329	40267.39
586.688	40433.48
587.048	40225.81
587.408	40244.34
587.768	40186.26
588.127	40224
588.487	40249.31
588.846	40544.22
589.206	40230.33
589.565	40329.08
589.925	40412.02
590.284	40229.87
590.643	40445.24
591.003	40505.35
591.362	40546.02
591.721	40605.23
592.08	40522.3
592.44	40699.92
592.799	40746.47
593.158	40749.86
593.517	40553.26
593.876	40742.86
594.235	40656.98
594.593	40633.25
594.952	40839.8
595.311	40653.14
595.67	40894.04
596.029	40896.3
596.387	41018.78
596.746	40970.87
597.104	40822.63
597.463	40716.64
597.822	41069.17
598.18	40665.8
598.538	40835.73
598.897	41204.76
599.255	40986.46
599.613	41432.33
599.972	41272.11
600.33	41250.86
600.688	41119.34
601.046	41295.16
601.404	41444.31
601.762	41352.33
602.12	41424.42
602.478	41422.84
602.836	41519.33
603.194	41305.55
603.552	41480.24
603.91	41332.44
604.268	41616.73
604.625	41418.32
604.983	41674.58
605.341	41481.37
605.698	41676.62
606.056	41744.64
606.413	41772.88
606.771	41985.53
607.128	41850.17
607.485	41813.34
607.843	41807.91
608.2	42160.45
608.557	42136.26
608.914	41883.84
609.272	42240.89
609.629	42150.73
609.986	42375.13
610.343	42155.25
610.7	42519.08
611.057	42338.07
611.414	42358.41
611.771	42452.64
612.127	42627.55
612.484	42409.93
612.841	42581.68
613.198	42608.12
613.554	42565.63
613.911	42884.95
614.267	42787.77
614.624	42775.8
614.98	42819.18
615.337	43139.18
615.693	43084.71
616.05	42849.01
616.406	43183.92
616.762	43019.63
617.118	43037.26
617.475	42947.32
617.831	43237.93
618.187	43109.35
618.543	43191.38
618.899	43279.51
619.255	43215.11
619.611	43232.96
619.967	43328.1
620.323	43471.15
620.678	43259.4
621.034	43171.49
621.39	43357.93
621.746	43280.87
622.101	43747.97
622.457	43269.12
622.812	43389.11
623.168	43504.36
623.523	43460.07
623.879	43543.46
624.234	43281.32
624.589	43509.56
624.945	43579.84
625.3	43581.2
625.655	43523.57
626.01	43630.01
626.365	43650.12
626.72	43514.53
627.075	43501.43
627.43	43458.94
627.785	43489
628.14	43502.1
628.495	43484.93
628.85	43383.69
629.205	43170.36
629.559	43493.52
629.914	43372.39
630.269	43329
630.623	43216.01
630.978	43191.38
631.332	43319.06
631.687	43419.4
632.041	43023.02
632.396	43149.12
632.75	42888.34
633.104	42968.33
633.459	42805.85
633.813	42843.37
634.167	42691.28
634.521	42850.6
634.875	42792.52
635.229	42741.67
635.583	42504.16
635.937	42532.64
636.291	42487.44
636.645	42560.43
636.999	42476.37
637.352	42655.8
637.706	42315.02
638.06	42590.26
638.413	42307.33
638.767	42240.67
639.121	42236.38
639.474	41999.09
639.828	42078.87
640.181	41952.09
640.534	42274.79
640.888	42010.39
641.241	41929.26
641.594	41878.19
641.947	42075.02
642.301	41825.99
642.654	41898.98
643.007	41880.9
643.36	41712.32
643.713	41671.87
644.066	41809.49
644.419	41649.05
644.771	41108.5
645.124	40779.01
645.477	40747.6
645.83	40542.41
646.182	40471.9
646.535	40396.65
646.888	40484.56
647.24	40221.51
647.593	40546.02
647.945	40287.95
648.298	40099.03
648.65	40051.35
649.002	39909.88
649.355	40035.98
649.707	39906.04
650.059	40074.4
650.411	40429.87
650.763	40509.64
651.115	40958.89
651.467	40899.24
651.819	40841.16
652.171	40779.69
652.523	40775.4
652.875	40593.93
653.227	40477.55
653.578	40795.28
653.93	40606.36
654.282	40402.07
654.633	40515.74
654.985	40606.59
655.337	40490.66
655.688	40491.34
656.039	40574.5
656.391	40137.22
656.742	40252.47
657.094	40172.02
657.445	40310.78
657.796	40210.67
658.147	40090.67
658.498	40115.08
658.849	40193.04
659.2	40236.2
659.551	39977.68
659.902	40224
660.253	40091.35
660.604	40169.54
660.955	39953.72
661.306	40026.26
661.656	39930.22
662.007	39949.88
662.358	40038.24
662.708	39855.19
663.059	39850.9
663.409	39745.14
663.76	39950.33
664.11	40029.43
664.461	39765.71
664.811	39833.95
665.161	39771.81
665.511	39640.96
665.862	39845.03
666.212	39845.93
666.562	39840.05
666.912	39631.25
667.262	39661.53
667.612	39578.59
667.962	39666.27
668.312	39532.04
668.662	39744.69
669.011	39617.69
669.361	39531.14
669.711	39544.24
670.06	39513.96
670.41	39388.54
670.76	39452.72
671.109	39467.41
671.459	39360.29
671.808	39404.81
672.157	39333.63
672.507	39039.85
672.856	39097.93
673.205	39173.41
673.554	39339.05
673.904	39065.84
674.253	39301.99
674.602	39181.99
674.951	38726.86
675.3	38594.21
675.649	39191.71
675.998	39029.45
676.346	39132.5
676.695	39066.52
677.044	38842.11
677.393	38967.53
677.741	38912.39
678.09	38823.81
678.438	38873.98
678.787	38811.83
679.135	38985.16
679.484	38758.05
679.832	38760.76
680.181	38476.02
680.529	38618.39
680.877	38471.73
681.225	38510.82
681.573	38661.78
681.922	38353.77
682.27	38283.71
682.618	38307.44
682.966	38282.58
683.314	38252.98
683.661	38158.97
684.009	37937.73
684.357	37873.1
684.705	37857.51
685.053	37902.03
685.4	37807.57
685.748	37783.84
686.095	37677.4
686.443	37547.46
686.79	37477.18
687.138	37486.44
687.485	37527.8
687.832	37336.84
688.18	37397.18
688.527	37264.98
688.874	37010.3
689.221	37028.83
689.568	36881.04
689.915	37006.46
690.262	36857.08
690.609	36824.31
690.956	36617.54
691.303	36687.82
691.65	36513.59
691.997	36318.56
692.344	36305.68
692.69	36401.5
693.037	36352.69
693.383	36145.24
693.73	36213.03
694.077	35895.53
694.423	35824.57
694.769	35826.83
695.116	35699.82
695.462	35721.97
695.808	35536.21
696.155	35479.72
696.501	35205.83
696.847	35303.22
697.193	35054.87
697.539	35204.02
697.885	34800.19
698.231	34648.1
698.577	34794.54
698.923	34724.03
699.269	34473.64
699.614	34324.49
699.96	34263.48
700.306	34328.79
700.651	34146.87
700.997	34223.93
701.342	34088.79
701.688	33989.59
702.033	33959.76
702.379	33973.32
702.724	33786.88
703.069	33816.26
703.415	33300.11
703.76	33410.39
704.105	33466.89
704.45	33310.73
704.795	33105.32
705.14	32933.12
705.485	32983.29
705.83	32884.76
706.175	32999.1
706.52	32816.74
706.865	32706.23
707.209	32685.89
707.554	32648.83
707.899	32757.53
708.243	32454.94
708.588	32404.54
708.932	32172.46
709.277	32162.97
709.621	32261.27
709.966	32014.95
710.31	32185.34
710.654	31875.29
710.998	31863.99
711.342	31726.82
711.687	31649.54
712.031	31705.8
712.375	31518.01
712.719	31696.09
713.063	31391.24
713.407	31546.49
713.75	31287.51
714.094	31402.54
714.438	31201.64
714.782	31258.13
715.125	31161.64
715.469	31195.08
715.812	30927.29
716.156	30803.23
716.499	30850.69
716.843	30876.22
717.186	30732.95
717.53	30843
717.873	30692.5
718.216	30646.62
718.559	30530.92
718.902	30445.72
719.246	30378.83
719.589	30323.92
719.932	30138.16
720.275	30184.26
720.617	29932.52
720.96	30016.58
721.303	29997.15
721.646	30011.16
721.989	29758.51
722.331	29857.94
722.674	29848.9
723.016	29801.67
723.359	29766.19
723.701	29700.66
724.044	29528.46
724.386	29462.02
724.729	29568.01
725.071	29476.48
725.413	29412.53
725.755	29380.67
726.097	29235.36
726.439	29054.8
726.782	29159.88
727.124	29165.98
727.465	29035.14
727.807	29001.7
728.149	28885.31
728.491	28821.59
728.833	29038.98
729.175	28812.55
729.516	28849.16
729.858	28788.59
730.199	28834.24
730.541	28664.98
730.882	28628.6
731.224	28766
731.565	28543.4
731.906	28581.59
732.248	28581.82
732.589	28399
732.93	28359.45
733.271	28392.9
733.612	28325.55
733.953	28290.75
734.294	28153.36
734.635	28170.98
734.976	28316.06
735.317	28020.7
735.658	28156.75
735.999	27992.46
736.339	27839.24
736.68	27989.97
737.021	27901.39
737.361	27655.52
737.702	27829.97
738.042	27688.28
738.383	27740.94
738.723	27710.2
739.063	27698.9
739.404	27639.7
739.744	27606.93
740.084	27531.9
740.424	27477.67
740.764	27345.92
741.104	27496.65
741.444	27426.82
741.784	27272.25
742.124	27351.34
742.464	27312.47
742.804	27254.4
743.143	27113.84
743.483	27081.07
743.823	26943.9
744.162	26938.7
744.502	27078.13
744.841	26815.09
745.181	27056.21
745.52	26787.52
745.86	26866.38
746.199	26763.79
746.538	26796.1
746.877	26836.55
747.216	26740.06
747.556	26547.97
747.895	26564.25
748.234	26445.83
748.573	26295.55
748.911	26279.96
749.25	26366.96
749.589	26195.89
749.928	26309.56
750.267	26239.73
750.605	26145.27
750.944	25999.51
751.283	25857.14
751.621	25945.05
751.96	25845.17
752.298	25850.37
752.636	25848.56
752.975	25630.71
753.313	25666.19
753.651	25698.51
753.989	25469.81
