Data from plate_porcelain_FLMS001491_045.txt Node
Date: Tue Feb 07 11:19:22 GMT 2017
User: dcchb
Spectrometer: FLMS00149
Trigger mode: 0
Integration Time (sec): 2.000000E-2
Scans to average: 10
Electric dark correction enabled: true
Nonlinearity correction enabled: false
Boxcar width: 0
XAxis mode: Wavelengths
Number of Pixels in Spectrum: 2048
>>>>>Begin Spectral Data<<<<<
341.393	-20.41
341.776	-20.41
342.16	-20.41
342.543	-78.71
342.927	-42.1
343.31	-68.32
343.693	-69
344.077	-63.57
344.46	-64.02
344.843	-51.82
345.226	-38.94
345.61	-23.57
345.993	-38.94
346.376	4.45
346.759	9.87
347.142	21.62
347.525	46.03
347.908	55.3
348.291	69.53
348.674	100.49
349.057	110.89
349.44	108.18
349.823	146.37
350.206	164.67
350.588	231.56
350.971	248.51
351.354	255.52
351.737	267.94
352.119	283.09
352.502	314.72
352.884	304.33
353.267	303.2
353.65	332.35
354.032	335.97
354.414	348.62
354.797	350.2
355.179	356.08
355.562	365.57
355.944	371.9
356.326	381.16
356.709	402.18
357.091	371.67
357.473	388.17
357.855	389.75
358.238	398.34
358.62	404.44
359.002	387.72
359.384	378.68
359.766	392.24
360.148	387.04
360.53	375.74
360.912	408.51
361.294	403.76
361.676	392.01
362.057	388.62
362.439	404.89
362.821	395.63
363.203	387.04
363.584	387.04
363.966	379.35
364.348	394.04
364.729	376.64
365.111	378.68
365.493	394.72
365.874	386.13
366.256	387.94
366.637	410.31
367.019	393.59
367.4	378
367.781	369.41
368.163	394.5
368.544	396.53
368.925	405.12
369.306	412.12
369.688	405.79
370.069	397.21
370.45	400.37
370.831	409.18
371.212	401.27
371.593	400.6
371.974	421.84
372.355	433.36
372.736	406.92
373.117	413.93
373.498	414.16
373.879	417.77
374.26	429.3
374.641	433.14
375.021	421.39
375.402	441.73
375.783	427.49
376.163	460.71
376.544	454.61
376.925	455.06
377.305	451.44
377.686	461.84
378.066	448.51
378.447	456.64
378.827	479.92
379.208	492.35
379.588	480.37
379.968	490.99
380.349	473.14
380.729	475.4
381.109	493.02
381.489	507.71
381.87	508.16
382.25	512.46
382.63	510.2
383.01	502.97
383.39	538.67
383.77	508.62
384.15	523.53
384.53	553.14
384.91	535.28
385.29	559.46
385.67	573.7
386.049	545.45
386.429	576.41
386.809	566.02
387.189	571.21
387.568	576.64
387.948	579.12
388.328	599.01
388.707	606.24
389.087	615.96
389.466	631.55
389.846	635.17
390.225	624.77
390.605	646.24
390.984	648.73
391.363	654.15
391.743	642.62
392.122	655.05
392.501	673.13
392.881	664.32
393.26	698.22
393.639	680.82
394.018	705.22
394.397	721.49
394.776	684.88
395.155	710.87
395.534	738.89
395.913	742.73
396.292	745.67
396.671	740.93
397.05	768.5
397.429	745.9
397.808	762.85
398.186	766.46
398.565	792.45
398.944	805.56
399.323	792.68
399.701	808.04
400.08	815.28
400.458	843.75
400.837	846.91
401.215	855.05
401.594	863.86
401.972	873.13
402.351	862.05
402.729	885.1
403.107	886.23
403.486	905.44
403.864	932.56
404.242	953.12
404.62	960.36
404.999	955.16
405.377	956.29
405.755	976.4
406.133	976.4
406.511	986.34
406.889	1010.07
407.267	1049.62
407.645	1052.56
408.023	1075.83
408.401	1071.31
408.779	1091.43
409.156	1091.88
409.534	1132.1
409.912	1114.25
410.29	1132.1
410.667	1187.02
411.045	1190.41
411.422	1182.27
411.8	1205.77
412.178	1255.04
412.555	1263.62
412.933	1271.99
413.31	1297.97
413.687	1298.88
414.065	1332.55
414.442	1304.3
414.819	1350.63
415.197	1366.9
415.574	1364.41
415.951	1384.53
416.328	1398.08
416.705	1412.77
417.082	1432.21
417.46	1446.9
417.837	1473.11
418.214	1496.16
418.591	1510.85
418.967	1502.04
419.344	1544.97
419.721	1553.33
420.098	1564.41
420.475	1564.63
420.852	1610.28
421.228	1625.42
421.605	1617.97
421.982	1649.6
422.358	1676.27
422.735	1697.06
423.111	1715.36
423.488	1703.84
423.864	1739.09
424.241	1765.31
424.617	1787
424.994	1785.19
425.37	1836.04
425.746	1843.5
426.123	1859.99
426.499	1903.38
426.875	1881.24
427.251	1916.72
427.627	1977.28
428.003	1945.19
428.379	2012.53
428.756	2065.64
429.132	2060.44
429.507	2121.46
429.883	2138.18
430.259	2180.66
430.635	2155.58
431.011	2183.37
431.387	2271.73
431.763	2292.3
432.138	2295.46
432.514	2349.47
432.89	2370.49
433.265	2414.33
433.641	2433.99
434.016	2507.89
434.392	2555.57
434.767	2558.05
435.143	2522.57
435.518	2583.14
435.894	2608
436.269	2678.95
436.644	2718.5
437.02	2736.35
437.395	2742.91
437.77	2751.5
438.145	2819.97
438.52	2862.68
438.895	2878.72
439.271	2859.52
439.646	2989
440.021	2959.63
440.395	3037.59
440.77	2992.85
441.145	3051.6
441.52	3052.5
441.895	3102.22
442.27	3120.75
442.645	3105.61
443.019	3189.68
443.394	3219.51
443.769	3222.9
444.143	3169.34
444.518	3294.76
444.892	3274.19
445.267	3292.05
445.641	3357.36
446.016	3359.39
446.39	3407.75
446.764	3386.06
447.139	3429.67
447.513	3492.94
447.887	3478.93
448.262	3511.25
448.636	3517.13
449.01	3576.56
449.384	3610
449.758	3699.72
450.132	3714.18
450.506	3686.16
450.88	3737.01
451.254	3743.33
451.628	3784.46
452.002	3857.68
452.376	3904.91
452.75	3953.5
453.123	3971.58
453.497	4034.85
453.871	4081.4
454.244	4145.13
454.618	4177.9
454.992	4270.78
455.365	4268.07
455.739	4341.74
456.112	4395.07
456.486	4439.81
456.859	4555.97
457.232	4579.7
457.606	4553.71
457.979	4650.2
458.352	4758.9
458.725	4801.39
459.099	4846.58
459.472	4950.53
459.845	4955.51
460.218	5033.47
460.591	5095.61
460.964	5132
461.337	5248.6
461.71	5325.21
462.083	5405.89
462.456	5411.76
462.829	5393.01
463.201	5538.31
463.574	5534.25
463.947	5675.03
464.32	5812.21
464.692	5818.08
465.065	5886.33
465.438	5929.04
465.81	6070.73
466.183	6120.67
466.555	6306.88
466.928	6303.49
467.3	6305.07
467.672	6413.77
468.045	6573.32
468.417	6610.15
468.789	6695.8
469.161	6754.33
469.534	6849.92
469.906	6952.51
470.278	7127.43
470.65	7168.55
471.022	7305.05
471.394	7428.43
471.766	7443.35
472.138	7541.88
472.51	7835.2
472.882	7868.65
473.253	8016.22
473.625	8075.88
473.997	8342.31
474.369	8369.2
474.74	8468.86
475.112	8589.08
475.484	8754.5
475.855	8903.88
476.227	9062.29
476.598	9228.16
476.97	9313.58
477.341	9502.73
477.713	9700.69
478.084	9724.87
478.455	9987.24
478.827	10137.06
479.198	10404.63
479.569	10435.36
479.94	10770.27
480.311	10803.71
480.682	11065.4
481.053	11308.11
481.424	11503.13
481.795	11621.09
482.166	11820.64
482.537	12010.01
482.908	12335.65
483.279	12358.93
483.65	12598.24
484.021	12879.82
484.391	12981.73
484.762	13154.84
485.133	13336.75
485.503	13422.63
485.874	13771.09
486.244	13816.06
486.615	14181.7
486.985	14379.89
487.356	14604.74
487.726	14736.04
488.097	15014.68
488.467	15061.68
488.837	15388.9
489.207	15529.46
489.578	15810.81
489.948	15996.12
490.318	16176.68
490.688	16302.1
491.058	16601.53
491.428	16755.2
491.798	16947.05
492.168	17319.7
492.538	17434.95
492.908	17578.9
493.278	17904.54
493.648	17988.83
494.017	18096.85
494.387	18342.72
494.757	18528.93
495.126	18642.6
495.496	18664.75
495.866	18860.22
496.235	19244.4
496.605	19333.21
496.974	19394.9
497.344	19650.94
497.713	19875.34
498.082	19907.88
498.452	20168.44
498.821	20236.23
499.19	20417.7
499.559	20581.08
499.928	20666.5
500.298	20852.71
500.667	21053.39
501.036	21043.9
501.405	21400.5
501.774	21375.41
502.143	21550.1
502.512	21675.52
502.88	21885.46
503.249	22011.78
503.618	22114.38
503.987	22294.48
504.356	22477.3
504.724	22531.31
505.093	22668.71
505.462	22863.73
505.83	22977.18
506.199	23287.45
506.567	23601.57
506.936	23398.41
507.304	23780.55
507.672	23913.88
508.041	23931.05
508.409	24152.29
508.777	24462.56
509.145	24520.41
509.514	24553.41
509.882	24911.14
510.25	24866.17
510.618	25155.2
510.986	25286.27
511.354	25456.21
511.722	25690.55
512.09	25942.75
512.458	25958.12
512.826	26168.96
513.193	26343.64
513.561	26418.22
513.929	26827.92
514.297	26951.09
514.664	27166.45
515.032	27374.12
515.4	27547.68
515.767	27610.95
516.135	28026.09
516.502	27838.97
516.869	28299.75
517.237	28443.93
517.604	28429.69
517.972	28870.36
518.339	29004.82
518.706	29006.85
519.073	29272.83
519.44	29497.68
519.808	29810.44
520.175	29843.44
520.542	30219.47
520.909	30370.43
521.276	30485.46
521.643	30856.97
522.009	31112.78
522.376	31243.85
522.743	31461.02
523.11	31891.75
523.477	32075.92
523.843	32288.57
524.21	32633.42
524.577	32814.21
524.943	33034.99
525.31	33140.98
525.676	33520.86
526.043	33710.46
526.409	33848.53
526.776	34288.75
527.142	34337.78
527.508	34716.08
527.874	34923.3
528.241	35165.78
528.607	35368.49
528.973	35603.51
529.339	35605.55
529.705	36140.22
530.071	36235.59
530.437	36425.64
530.803	36639.19
531.169	36814.55
531.535	36786.76
531.901	36991.95
532.267	37330.47
532.632	37584.25
532.998	37681.42
533.364	37891.36
533.73	38051.58
534.095	38484.12
534.461	38522.98
534.826	38685.01
535.192	38825.58
535.557	39157.09
535.923	39122.06
536.288	39301.04
536.653	39447.25
537.019	39492.68
537.384	39750.3
537.749	39680.92
538.114	39920.46
538.479	40035.26
538.845	40279.55
539.21	40270.06
539.575	40539.88
539.94	40624.17
540.305	40868.23
540.67	40899.42
541.034	41139.86
541.399	41210.6
541.764	41299.18
542.129	41497.14
542.494	41592.28
542.858	41749.11
543.223	41974.64
543.587	42101.87
543.952	42116.34
544.316	42345.48
544.681	42402.43
545.045	42579.15
545.41	42787.5
545.774	42834.06
546.138	42815.75
546.503	43100.49
546.867	43147.95
547.231	43505.45
547.595	43553.81
547.959	43710.64
548.324	43665.45
548.688	43765.78
549.052	43945.44
549.416	44117.41
549.779	44170.29
550.143	44328.93
550.507	44726.21
550.871	44844.63
551.235	44866.77
551.599	45072.87
551.962	45138.86
552.326	45259.98
552.689	45557.6
553.053	45506.53
553.417	45650.25
553.78	46138.38
554.143	45937.93
554.507	46122.33
554.87	46323.91
555.234	46754.41
555.597	46606.16
555.96	46772.03
556.323	46973.16
556.686	47022.87
557.05	47253.15
557.413	47423.32
557.776	47577.89
558.139	47831.67
558.502	47902.85
558.865	47936.75
559.228	48316.85
559.59	48371.99
559.953	48449.73
560.316	48941.02
560.679	48877.06
561.041	49018.08
561.404	49254.91
561.767	49530.83
562.129	49351.17
562.492	49783.25
562.854	49738.51
563.217	49873.19
563.579	50080.19
563.941	50364.03
564.304	50474.99
564.666	50685.6
565.028	50754.98
565.39	50821.19
565.753	51121.3
566.115	51134.86
566.477	51188.64
566.839	51337.34
567.201	51596.99
567.563	51629.76
567.925	51897.32
568.287	51861.16
568.648	52030.88
569.01	52163.3
569.372	52389.74
569.734	52343.64
570.095	52505.22
570.457	52620.92
570.819	52723.29
571.18	52793.12
571.542	52854.58
571.903	52949.95
572.265	53039.66
572.626	53108.36
572.987	53157.85
573.349	53332.31
573.71	53465.19
574.071	53489.82
574.432	53567.33
574.794	53810.94
575.155	53752.87
575.516	53674.9
575.877	53795.58
576.238	53910.15
576.599	54104.04
576.96	54097.26
577.32	54151.5
577.681	54168.45
578.042	54243.25
578.403	54351.27
578.763	54367.77
579.124	54410.7
579.485	54402.57
579.845	54573.18
580.206	54448.44
580.566	54501.77
580.927	54594.65
581.287	54631.49
581.648	54548.78
582.008	54682.11
582.368	54707.19
582.728	54665.16
583.089	54711.71
583.449	54677.36
583.809	54717.59
584.169	54836.91
584.529	54696.57
584.889	54940.18
585.249	54705.84
585.609	54645.05
585.969	54888.88
586.329	54735.67
586.688	54827.41
587.048	54749.45
587.408	54767.08
587.768	54776.57
588.127	54751.26
588.487	54891.37
588.846	54956.45
589.206	54784.03
589.565	54826.51
589.925	54951.48
590.284	54852.5
590.643	54951.48
591.003	55066.73
591.362	55058.82
591.721	54935.89
592.08	55010.01
592.44	55101.08
592.799	55122.77
593.158	55043
593.517	55082.32
593.876	55062.66
594.235	55031.25
594.593	55116.9
594.952	55100.18
595.311	55092.49
595.67	55032.83
596.029	55292.94
596.387	55274.41
596.746	55299.72
597.104	55192.83
597.463	55178.37
597.822	55321.41
598.18	55140.85
598.538	55181.53
598.897	55386.95
599.255	55170.23
599.613	55525.02
599.972	55337.91
600.33	55417.91
600.688	55329.77
601.046	55509.88
601.404	55523.22
601.762	55516.21
602.12	55654.51
602.478	55552.59
602.836	55643.66
603.194	55431.92
603.552	55557.34
603.91	55472.14
604.268	55678.24
604.625	55633.04
604.983	55740.16
605.341	55611.35
605.698	55762.08
606.056	55742.64
606.413	55777.45
606.771	55889.53
607.128	55923.43
607.485	55726.37
607.843	55839.59
608.2	55963.2
608.557	56110.54
608.914	55991
609.272	56120.49
609.629	56094.95
609.986	56185.57
610.343	56061.28
610.7	56277.32
611.057	56218.34
611.414	56128.4
611.771	56255.4
612.127	56308.96
612.484	56348.96
612.841	56362.74
613.198	56310.31
613.554	56376.98
613.911	56499.01
614.267	56470.99
614.624	56379.01
614.98	56513.7
615.337	56610.42
615.693	56653.13
616.05	56545.79
616.406	56661.49
616.762	56546.69
617.118	56566.13
617.475	56615.62
617.831	56657.65
618.187	56665.56
618.543	56758.44
618.899	56862.39
619.255	56781.49
619.611	56836.18
619.967	56850.64
620.323	56900.58
620.678	56793.24
621.034	56750.08
621.39	56783.97
621.746	56760.24
622.101	57040.92
622.457	56827.59
622.812	56838.89
623.168	56924.76
623.523	56928.38
623.879	57014.02
624.234	56801.15
624.589	56936.06
624.945	56954.36
625.3	56942.39
625.655	56946.45
626.01	56895.61
626.365	56977.87
626.72	56934.48
627.075	56889.51
627.43	56838.66
627.785	56797.98
628.14	56894.93
628.495	56905.55
628.85	56789.17
629.205	56718.44
629.559	56935.83
629.914	56794.14
630.269	56785.1
630.623	56810.19
630.978	56591.44
631.332	56768.15
631.687	56742.17
632.041	56654.03
632.396	56732
632.75	56549.85
633.104	56585.33
633.459	56513.7
633.813	56497.43
634.167	56537.88
634.521	56494.49
634.875	56467.37
635.229	56409.75
635.583	56268.73
635.937	56424.21
636.291	56257.43
636.645	56260.37
636.999	56146.93
637.352	56348.73
637.706	56158.9
638.06	56230.99
638.413	56194.16
638.767	56165.91
639.121	56140.6
639.474	55906.93
639.828	56016.76
640.181	55974.05
640.534	55976.99
640.888	55936.99
641.241	55871.91
641.594	55811.34
641.947	55905.8
642.301	55845.92
642.654	55811.57
643.007	55842.75
643.36	55742.42
643.713	55642.99
644.066	55808.18
644.419	55548.98
644.771	55456.78
645.124	55111.25
645.477	55047.75
645.83	54861.31
646.182	54731.6
646.535	54660.87
646.888	54692.73
647.24	54587.65
647.593	54795.78
647.945	54623.35
648.298	54467.2
648.65	54451.15
649.002	54387.65
649.355	54424.94
649.707	54455.45
650.059	54593.07
650.411	54852.95
650.763	54916.68
651.115	55179.5
651.467	55016.34
651.819	55026.96
652.171	54970.24
652.523	54911.48
652.875	54862.67
653.227	54758.72
653.578	54849.33
653.93	54815.66
654.282	54665.61
654.633	54556.24
654.985	54707.87
655.337	54692.5
655.688	54728.66
656.039	54772.05
656.391	54523.92
656.742	54550.59
657.094	54600.3
657.445	54708.77
657.796	54641.43
658.147	54531.83
658.498	54469.23
658.849	54552.85
659.2	54460.64
659.551	54454.99
659.902	54481.21
660.253	54443.24
660.604	54470.14
660.955	54379.97
661.306	54485.95
661.656	54300.42
662.007	54393.98
662.358	54323.25
662.708	54314.21
663.059	54245.06
663.409	54071.95
663.76	54323.92
664.11	54268.33
664.461	54232.63
664.811	54243.93
665.161	54226.3
665.511	54177.49
665.862	54168.22
666.212	54271.04
666.562	54224.49
666.912	54153.31
667.262	54219.75
667.612	54179.07
667.962	54170.03
668.312	54214.32
668.662	54207.32
669.011	54076.02
669.361	54029.02
669.711	54100.65
670.06	54052.75
670.41	54003.26
670.76	53883.94
671.109	54083.48
671.459	54024.95
671.808	53911.05
672.157	53976.59
672.507	53836.71
672.856	53798.74
673.205	53861.56
673.554	53939.98
673.904	53841.23
674.253	53918.06
674.602	53761.68
674.951	53379.99
675.3	53304.97
675.649	53739.08
675.998	53647.33
676.346	53625.86
676.695	53806.42
677.044	53476.04
677.393	53615.69
677.741	53617.73
678.09	53578.18
678.438	53567.56
678.787	53516.26
679.135	53597.62
679.484	53355.36
679.832	53459.54
680.181	53343.39
680.529	53331.63
680.877	53224.97
681.225	53164.86
681.573	53392.88
681.922	53198.08
682.27	53035.6
682.618	53203.28
682.966	52951.08
683.314	53164.63
683.661	53016.61
684.009	52826.11
684.357	52716.28
684.705	52731.65
685.053	52722.84
685.4	52730.52
685.748	52477.65
686.095	52515.84
686.443	52308.38
686.79	52312.68
687.138	52330.98
687.485	52412.34
687.832	52232
688.18	52253.24
688.527	51959.69
688.874	52090.76
689.221	51933.25
689.568	51808.06
689.915	51766.25
690.262	51800.83
690.609	51695.97
690.956	51573.94
691.303	51464.79
691.65	51261.18
691.997	51263.21
692.344	51116.55
692.69	51255.76
693.037	51303.21
693.383	50923.79
693.73	51028.19
694.077	50799.5
694.423	50827.97
694.769	50656.68
695.116	50649.45
695.462	50707.52
695.808	50561.31
696.155	50457.13
696.501	50270.02
696.847	50265.73
697.193	49964.49
697.539	50178.5
697.885	49819.18
698.231	49848.11
698.577	49715.46
698.923	49555.91
699.269	49459.87
699.614	49249.03
699.96	49234.12
700.306	49211.29
700.651	49134.23
700.997	49054.68
701.342	49033.89
701.688	48960.68
702.033	48654.02
702.379	48632.32
702.724	48502.61
703.069	48650.18
703.415	48188.49
703.76	48237.53
704.105	48195.27
704.45	48041.15
704.795	47863.53
705.14	47725.91
705.485	47792.12
705.83	47630.99
706.175	47618.79
706.52	47589.86
706.865	47341.96
707.209	47308.06
707.554	47249.31
707.899	47270.1
708.243	47054.96
708.588	47042.31
708.932	46712.15
709.277	46664.01
709.621	46809.77
709.966	46526.39
710.31	46541.76
710.654	46180.18
710.998	46250.01
711.342	46283.68
711.687	46202.78
712.031	45955.78
712.375	45851.15
712.719	45893.64
713.063	45820.19
713.407	45953.3
713.75	45676.47
714.094	45589.92
714.438	45363.48
714.782	45446.19
715.125	45328.23
715.469	45387.66
715.812	45089.37
716.156	44816.83
716.499	44841.91
716.843	44762.59
717.186	44626.78
717.53	44790.16
717.873	44876.72
718.216	44688.92
718.559	44659.77
718.902	44220.69
719.246	44497.74
719.589	44313.79
719.932	44069.73
720.275	44129.39
720.617	43984.76
720.96	43855.05
721.303	43796.52
721.646	43907.7
721.989	43610.53
722.331	43801.94
722.674	43716.75
723.016	43649.18
723.359	43572.34
723.701	43600.82
724.044	43340.03
724.386	43064.56
724.729	43324.67
725.071	43194.05
725.413	43085.58
725.755	42910.21
726.097	42874.96
726.439	42780.95
726.782	42704.34
727.124	42751.57
727.465	42593.61
727.807	42601.75
728.149	42513.16
728.491	42368.53
728.833	42489.89
729.175	42289.66
729.516	42240.17
729.858	42165.15
730.199	42116.56
730.541	42089.9
730.882	42038.6
731.224	42091.7
731.565	41773.75
731.906	41767.64
732.248	41882.22
732.589	41586.63
732.93	41583.69
733.271	41549.57
733.612	41854.2
733.953	41607.87
734.294	41467.09
734.635	41143.25
734.976	41438.61
735.317	41183.03
735.658	41213.99
735.999	41120.66
736.339	41026.42
736.68	41142.12
737.021	40952.07
737.361	40776.48
737.702	40857.16
738.042	40706.43
738.383	40658.75
738.723	40688.58
739.063	40463.72
739.404	40582.59
739.744	40398.19
740.084	40226.67
740.424	40292.66
740.764	40098.76
741.104	40321.58
741.444	40272.99
741.784	40011.76
742.124	39975.83
742.464	39889.28
742.804	39979.22
743.143	39884.76
743.483	39924.08
743.823	39632.11
744.162	39636.4
744.502	39668.49
744.841	39442.06
745.181	39503.75
745.52	39361.83
745.86	39494.26
746.199	39319.57
746.538	39328.61
746.877	39176.98
747.216	39159.35
747.556	38997.1
747.895	38908.06
748.234	38707.84
748.573	38736.54
748.911	38682.08
749.25	38635.52
749.589	38398.02
749.928	38482.99
750.267	38576.54
750.605	38322.76
750.944	38406.6
751.283	38326.61
751.621	38309.66
751.96	38077.8
752.298	38038.48
752.636	38038.48
