Data from plate_porcelain_FLMS001491_037.txt Node
Date: Tue Feb 07 11:19:13 GMT 2017
User: dcchb
Spectrometer: FLMS00149
Trigger mode: 0
Integration Time (sec): 2.000000E-2
Scans to average: 10
Electric dark correction enabled: true
Nonlinearity correction enabled: false
Boxcar width: 0
XAxis mode: Wavelengths
Number of Pixels in Spectrum: 2048
>>>>>Begin Spectral Data<<<<<
341.393	-23.9
341.776	-23.9
342.16	-23.9
342.543	-66.16
342.927	-76.55
343.31	-57.12
343.693	-83.78
344.077	-80.39
344.46	-49.21
344.843	-25.48
345.226	-30
345.61	-28.42
345.993	-2.2
346.376	-15.76
346.759	3.9
347.142	28.3
347.525	25.82
347.908	52.94
348.291	71.92
348.674	72.14
349.057	117.34
349.44	141.07
349.823	162.54
350.206	170
350.588	237.34
350.971	236.66
351.354	260.39
351.737	261.07
352.119	300.61
352.502	304.46
352.884	315.75
353.267	348.97
353.65	348.75
354.032	337.22
354.414	357.34
354.797	367.73
355.179	349.2
355.562	356.43
355.944	379.26
356.326	379.03
356.709	367.73
357.091	384.45
357.473	400.27
357.855	371.57
358.238	383.78
358.62	390.33
359.002	390.55
359.384	382.87
359.766	371.57
360.148	369.54
360.53	389.42
360.912	375.41
361.294	367.96
361.676	383.32
362.057	379.26
362.439	387.62
362.821	395.75
363.203	383.78
363.584	388.07
363.966	396.43
364.348	379.93
364.729	391.46
365.111	389.2
365.493	381.29
365.874	389.65
366.256	379.93
366.637	389.42
367.019	391.91
367.4	372.48
367.781	383.78
368.163	379.48
368.544	384.91
368.925	391.23
369.306	405.7
369.688	377.67
370.069	372.25
370.45	408.86
370.831	410.22
371.212	409.76
371.593	414.51
371.974	391.91
372.355	429.65
372.736	410.67
373.117	439.59
373.498	426.26
373.879	428.52
374.26	429.88
374.641	408.41
375.021	432.14
375.402	453.38
375.783	443.21
376.163	473.94
376.544	466.26
376.925	466.71
377.305	449.99
377.686	424.9
378.066	461.06
378.447	459.71
378.827	480.04
379.208	482.76
379.588	492.25
379.968	460.84
380.349	482.08
380.729	516.65
381.109	491.57
381.489	501.51
381.87	490.67
382.25	515.98
382.63	516.43
383.01	512.81
383.39	508.52
383.77	508.97
384.15	529.31
384.53	528.63
384.91	540.83
385.29	537.9
385.67	543.77
386.049	553.04
386.429	547.16
386.809	543.09
387.189	536.54
387.568	563.21
387.948	570.44
388.328	567.95
388.707	609.08
389.087	602.53
389.466	588.97
389.846	614.28
390.225	604.56
390.605	633.71
390.984	617.89
391.363	656.31
391.743	665.58
392.122	678.23
392.501	633.03
392.881	670.55
393.26	690.89
393.639	696.08
394.018	703.09
394.397	670.32
394.776	718.46
395.155	725.69
395.534	711.68
395.913	722.52
396.292	736.53
396.671	735.18
397.05	760.49
397.429	779.7
397.808	762.75
398.186	761.84
398.565	768.17
398.944	786.02
399.323	778.34
399.701	801.17
400.08	818.34
400.458	807.49
400.837	839.13
401.215	834.38
401.594	852.46
401.972	874.38
402.351	863.76
402.729	865.8
403.107	877.55
403.486	894.5
403.864	906.93
404.242	918.9
404.62	910.32
404.999	937.43
405.377	948.28
405.755	957.09
406.133	959.58
406.511	993.48
406.889	989.63
407.267	1024.44
407.645	1019.92
408.023	1056.3
408.401	1061.5
408.779	1063.76
409.156	1073.47
409.534	1099.46
409.912	1089.07
410.29	1136.75
410.667	1149.86
411.045	1142.85
411.422	1152.57
411.8	1163.87
412.178	1191.89
412.555	1227.82
412.933	1225.79
413.31	1295.62
413.687	1267.37
414.065	1274.83
414.442	1300.81
414.819	1319.8
415.197	1333.35
415.574	1360.25
415.951	1360.25
416.328	1404.99
416.705	1389.85
417.082	1424.2
417.46	1419.68
417.837	1448.61
418.214	1457.19
418.591	1483.86
418.967	1474.14
419.344	1506.91
419.721	1529.51
420.098	1510.07
420.475	1576.74
420.852	1555.5
421.228	1579.68
421.605	1590.75
421.982	1629.62
422.358	1643.18
422.735	1635.49
423.111	1643.4
423.488	1731.31
423.864	1714.14
424.241	1718.66
424.617	1765.66
424.994	1762.95
425.37	1789.61
425.746	1797.75
426.123	1821.48
426.499	1821.48
426.875	1855.83
427.251	1884.07
427.627	1940.34
428.003	1958.42
428.379	1978.54
428.756	2018.76
429.132	2015.14
429.507	2070.96
429.883	2080.45
430.259	2164.52
430.635	2139.89
431.011	2155.93
431.387	2220.79
431.763	2217.4
432.138	2275.7
432.514	2299.88
432.89	2327.23
433.265	2357.96
433.641	2378.75
434.016	2417.62
434.392	2439.54
434.767	2486.54
435.143	2520.44
435.518	2544.85
435.894	2586.2
436.269	2600.21
436.644	2641.79
437.02	2658.74
437.395	2695.8
437.77	2760.44
438.145	2752.75
438.52	2768.57
438.895	2811.96
439.271	2793.2
439.646	2891.05
440.021	2947.55
440.395	2934.22
440.77	2966.76
441.145	2985.74
441.52	3056.7
441.895	3026.64
442.27	3047.66
442.645	3047.43
443.019	3119.75
443.394	3122.01
443.769	3121.78
444.143	3146.41
444.518	3202.91
444.892	3230.93
445.267	3245.39
445.641	3308.22
446.016	3289.69
446.39	3336.47
446.764	3351.38
447.139	3354.54
447.513	3389.57
447.887	3436.35
448.262	3440.42
448.636	3486.52
449.01	3517.03
449.384	3542.79
449.758	3561.09
450.132	3676.12
450.506	3647.87
450.88	3681.09
451.254	3674.54
451.628	3744.82
452.002	3797.24
452.376	3839.5
452.75	3803.8
453.123	3895.77
453.497	3951.59
453.871	4013.51
454.244	4063.23
454.618	4110.91
454.992	4166.95
455.365	4150.23
455.739	4321.52
456.112	4305.93
456.486	4376.44
456.859	4418.7
457.232	4486.94
457.606	4486.94
457.979	4618.69
458.352	4656.21
458.725	4729.2
459.099	4801.96
459.472	4852.58
459.845	4867.95
460.218	4935.97
460.591	4975.29
460.964	5005.35
461.337	5154.72
461.71	5206.25
462.083	5298
462.456	5296.87
462.829	5336.64
463.201	5493.92
463.574	5455.96
463.947	5615.28
464.32	5700.47
464.692	5750.64
465.065	5786.57
465.438	5910.64
465.81	5963.52
466.183	6029.5
466.555	6144.3
466.928	6172.1
467.3	6195.83
467.672	6325.09
468.045	6476.72
468.417	6493.67
468.789	6561.01
469.161	6646.21
469.534	6765.08
469.906	6908.35
470.278	6946.54
470.65	7077.16
471.022	7209.13
471.394	7307.66
471.766	7354.44
472.138	7525.51
472.51	7633.3
472.882	7795.56
473.253	7869.23
473.625	7973.63
473.997	8113.74
474.369	8200.74
474.74	8337.92
475.112	8480.06
475.484	8667.4
475.855	8784.46
476.227	8807.96
476.598	9073.72
476.97	9174.05
477.341	9407.72
477.713	9520.48
478.084	9620.37
478.455	9855.84
478.827	9980.13
479.198	10261.26
479.569	10271.88
479.94	10517.97
480.311	10657.86
480.682	10935.59
481.053	11140.1
481.424	11337.39
481.795	11445.63
482.166	11700.09
482.537	11778.05
482.908	12022.79
483.279	12112.05
483.65	12374.19
484.021	12623
484.391	12743
484.762	12945.25
485.133	13032.93
485.503	13175.76
485.874	13528.97
486.244	13693.48
486.615	13933.93
486.985	14199.01
487.356	14346.35
487.726	14508.83
488.097	14830.4
488.467	14800.8
488.837	15208.92
489.207	15327.79
489.578	15633.32
489.948	15767.1
490.318	15916.93
490.688	16046.19
491.058	16316.46
491.428	16495.22
491.798	16660.86
492.168	17101.98
492.538	17228.98
492.908	17419.03
493.278	17611.8
493.648	17624.68
494.017	17825.8
494.387	18011.56
494.757	18253.81
495.126	18435.96
495.496	18460.36
495.866	18697.87
496.235	18969.5
496.605	18988.71
496.974	19156.16
497.344	19389.15
497.713	19468.47
498.082	19605.87
498.452	19836.15
498.821	19918.4
499.19	20016.03
499.559	20360.43
499.928	20406.3
500.298	20591.61
500.667	20763.58
501.036	20712.05
501.405	20914.31
501.774	21134.19
502.143	21284.47
502.512	21335.77
502.88	21607.62
503.249	21690.33
503.618	21817.79
503.987	21920.16
504.356	22096.42
504.724	22264.33
505.093	22323.99
505.462	22481.5
505.83	22646.01
506.199	22846.46
506.567	23128.04
506.936	23156.74
507.304	23476.73
507.672	23567.8
508.041	23592.88
508.409	23852.31
508.777	24012.98
509.145	24315.12
509.514	24253.43
509.882	24501.11
510.25	24622.01
510.618	24795.11
510.986	24913.98
511.354	25158.27
511.722	25294.53
512.09	25546.28
512.458	25601.87
512.826	25824.01
513.193	26101.74
513.561	26214.96
513.929	26417.67
514.297	26628.06
514.664	26770.2
515.032	26900.59
515.4	27264.2
515.767	27333.12
516.135	27498.09
516.502	27522.04
516.869	27965.87
517.237	28028.7
517.604	27995.93
517.972	28464.84
518.339	28609.02
518.706	28553.2
519.073	28812.18
519.44	29103.7
519.808	29389.57
520.175	29397.25
520.542	29858.93
520.909	29908.2
521.276	30003.79
521.643	30426.6
522.009	30664.79
522.376	30868.62
522.743	31085.11
523.11	31310.65
523.477	31704.76
523.843	31821.82
524.21	32193.56
524.577	32349.26
524.943	32549.71
525.31	32732.3
525.676	33066.53
526.043	33191.5
526.409	33357.82
526.776	33662.45
527.142	33993.51
527.508	34167.52
527.874	34443.67
528.241	34649.31
528.607	34729.09
528.973	35076.42
529.339	35121.84
529.705	35503.76
530.071	35701.26
530.437	35983.52
530.803	36090.41
531.169	36420.79
531.535	36247.24
531.901	36488.59
532.267	36730.62
532.632	36946.88
532.998	37280.21
533.364	37405.63
533.73	37535.79
534.095	37834.54
534.461	37980.07
534.826	38207.64
535.192	38240.63
535.557	38536.67
535.923	38579.61
536.288	38805.82
536.653	39035.64
537.019	38905.7
537.384	39054.62
537.749	39249.19
538.114	39388.63
538.479	39556.76
538.845	39820.93
539.21	39770.31
539.575	39916.97
539.94	39951.1
540.305	40380.69
540.67	40270.64
541.034	40416.39
541.399	40613.45
541.764	40673.79
542.129	40864.74
542.494	41082.82
542.858	41237.62
543.223	41208.24
543.587	41422.92
543.952	41519.87
544.316	41630.83
544.681	41787.43
545.045	42067.42
545.41	42198.95
545.774	42220.19
546.138	42197.14
546.503	42261.54
546.867	42425.16
547.231	42908.08
547.595	42906.05
547.959	43114.4
548.324	43214.51
548.688	43192.82
549.052	43407.95
549.416	43509.87
549.779	43622.41
550.143	43759.81
550.507	44101.72
550.871	44255.84
551.235	44272.79
551.599	44505.78
551.962	44625.1
552.326	44713.01
552.689	44903.06
553.053	44816.73
553.417	44931.3
553.78	45604.96
554.143	45352.99
554.507	45477.05
554.87	45716.59
555.234	46062.12
555.597	45862.81
555.96	46096.02
556.323	46354.09
556.686	46451.94
557.05	46693.74
557.413	46812.61
557.776	46892.61
558.139	47139.83
558.502	47207.18
558.865	47331.02
559.228	47626.37
559.59	47741.63
559.953	47903.88
560.316	48250.09
560.679	48360.82
561.041	48586.8
561.404	48675.39
561.767	48899.11
562.129	48835.16
562.492	49178.65
562.854	49172.55
563.217	49281.92
563.579	49389.27
563.941	49684.4
564.304	49853.66
564.666	50025.18
565.028	50217.27
565.39	50302.24
565.753	50487.32
566.115	50713.75
566.477	50812.28
566.839	50856.12
567.201	51010.92
567.563	51080.07
567.925	51309.22
568.287	51322.55
568.648	51474.86
569.01	51587.4
569.372	51901.97
569.734	51671.92
570.095	52068.52
570.457	52148.52
570.819	52104.9
571.18	52268.74
571.542	52273.94
571.903	52447.27
572.265	52640.93
572.626	52575.85
572.987	52655.85
573.349	52825.56
573.71	52931.77
574.071	52896.52
574.432	53103.52
574.794	53283.18
575.155	53248.6
575.516	53094.93
575.877	53359.33
576.238	53444.75
576.599	53563.62
576.96	53469.16
577.32	53518.2
577.681	53691.75
578.042	53737.17
578.403	53794.12
578.763	53853.1
579.124	53883.39
579.485	53908.47
579.845	53996.6
580.206	53917.96
580.566	54044.74
580.927	54044.96
581.287	54213.55
581.648	53992.99
582.008	54220.33
582.368	54253.09
582.728	54252.42
583.089	54209.25
583.449	54209.7
583.809	54218.52
584.169	54366.99
584.529	54262.13
584.889	54418.96
585.249	54165.64
585.609	54163.38
585.969	54343.03
586.329	54261
586.688	54409.47
587.048	54365.41
587.408	54318.63
587.768	54342.36
588.127	54283.6
588.487	54259.19
588.846	54477.72
589.206	54346.2
589.565	54372.19
589.925	54479.08
590.284	54422.35
590.643	54499.41
591.003	54560.66
591.362	54630.03
591.721	54538.74
592.08	54514.33
592.44	54629.58
592.799	54642.91
593.158	54491.05
593.517	54541.22
593.876	54622.8
594.235	54515.69
594.593	54584.61
594.952	54655.57
595.311	54571.5
595.67	54593.2
596.029	54763.81
596.387	54777.15
596.746	54768.56
597.104	54734.21
597.463	54705.51
597.822	54882.23
598.18	54662.8
598.538	54734.66
598.897	54917.71
599.255	54660.54
599.613	55046.29
599.972	54808.33
600.33	54892.17
600.688	54823.25
601.046	54988.67
601.404	55128.78
601.762	54964.71
602.12	55080.87
602.478	55030.02
602.836	55149.11
603.194	55024.37
603.552	54996.58
603.91	54928.1
604.268	55162
604.625	55082.45
604.983	55225.5
605.341	55156.35
605.698	55305.95
606.056	55256.46
606.413	55302.33
606.771	55368.77
607.128	55447.64
607.485	55282.9
607.843	55285.83
608.2	55489.44
608.557	55533.29
608.914	55427.3
609.272	55606.96
609.629	55645.15
609.986	55675.88
610.343	55634.53
610.7	55772.15
611.057	55808.76
611.414	55718.82
611.771	55790.23
612.127	55838.81
612.484	55835.42
612.841	55907.74
613.198	55836.55
613.554	55853.28
613.911	56012.82
614.267	55961.52
614.624	55944.8
614.98	56087.17
615.337	56170.78
615.693	56125.81
616.05	56095.53
616.406	56167.62
616.762	56189.77
617.118	56178.47
617.475	56157
617.831	56220.95
618.187	56251.68
618.543	56280.61
618.899	56366.48
619.255	56343.66
619.611	56332.13
619.967	56404.68
620.323	56422.08
620.678	56342.08
621.034	56284.68
621.39	56337.33
621.746	56355.86
622.101	56561.51
622.457	56395.64
622.812	56475.63
623.168	56497.1
623.523	56495.07
623.879	56566.48
624.234	56396.31
624.589	56467.05
624.945	56467.05
625.3	56533.94
625.655	56491.23
626.01	56363.32
626.365	56483.77
626.72	56404.45
627.075	56401.51
627.43	56379.59
627.785	56361.29
628.14	56357.67
628.495	56361.51
628.85	56309.76
629.205	56279.93
629.559	56338.24
629.914	56204.45
630.269	56253.94
630.623	56230.89
630.978	56139.37
631.332	56280.61
631.687	56324.45
632.041	56174.4
632.396	56260.27
632.75	56120.61
633.104	56082.88
633.459	56010.11
633.813	56002.88
634.167	56048.75
634.521	56022.99
634.875	56079.71
635.229	55981.64
635.583	55830.23
635.937	55862.99
636.291	55824.58
636.645	55800.17
636.999	55750.46
637.352	55827.06
637.706	55527.64
638.06	55742.09
638.413	55710.46
638.767	55568.31
639.121	55664.58
639.474	55444.02
639.828	55516.56
640.181	55442.21
640.534	55505.49
640.888	55503.46
641.241	55279.28
641.594	55284.7
641.947	55440.63
642.301	55356.57
642.654	55317.47
643.007	55295.55
643.36	55290.58
643.713	55201.54
644.066	55243.58
644.419	55066.86
644.771	54930.59
645.124	54634.33
645.477	54588.45
645.83	54479.75
646.182	54302.81
646.535	54177.62
646.888	54325.18
647.24	54085.19
647.593	54298.06
647.945	54136.49
648.298	54004.06
648.65	53883.39
649.002	53795.48
649.355	53988.02
649.707	53873.89
650.059	53984.17
650.411	54334.67
650.763	54339.42
651.115	54593.88
651.467	54577.38
651.819	54526.08
652.171	54404.95
652.523	54331.96
652.875	54335.35
653.227	54255.58
653.578	54314.33
653.93	54247.9
654.282	54186.65
654.633	54024.85
654.985	54136.26
655.337	54193.21
655.688	54159.31
656.039	54243.83
656.391	53924.29
656.742	54007.9
657.094	54115.02
657.445	54094.91
657.796	54002.93
658.147	53987.79
658.498	53958.41
658.849	53990.95
659.2	53956.15
659.551	53885.19
659.902	53979.2
660.253	53891.52
660.604	53986.43
660.955	53716.84
661.306	53849.04
661.656	53870.05
662.007	53762.03
662.358	53814.46
662.708	53753.22
663.059	53772.88
663.409	53542.38
663.76	53753.67
664.11	53676.39
664.461	53729.27
664.811	53654.24
665.161	53731.3
665.511	53699.89
665.862	53640.45
666.212	53774.91
666.562	53713.22
666.912	53602.71
667.262	53682.26
667.612	53571.53
667.962	53731.98
668.312	53553.45
668.662	53740.79
669.011	53531.76
669.361	53526.11
669.711	53528.59
670.06	53440.69
670.41	53437.52
670.76	53482.04
671.109	53470.74
671.459	53489.72
671.808	53387.81
672.157	53494.92
672.507	53249.73
672.856	53215.61
673.205	53337.86
673.554	53420.35
673.904	53275.27
674.253	53414.47
674.602	53216.51
674.951	52837.54
675.3	52659.69
675.649	53268.26
675.998	53165.21
676.346	53159.56
676.695	53195.04
677.044	53009.51
677.393	53061.49
677.741	53199.34
678.09	53085.21
678.438	53008.83
678.787	53019.91
679.135	53027.59
679.484	52701.72
679.832	52967.03
680.181	52748.95
680.529	52796.86
680.877	52745.11
681.225	52661.04
681.573	52783.3
681.922	52734.72
682.27	52569.07
682.618	52605.9
682.966	52458.34
683.314	52558.9
683.661	52395.06
684.009	52282.98
684.357	52122.08
684.705	52091.12
685.053	52244.11
685.4	52095.18
685.748	52021.97
686.095	51848.41
686.443	51776.32
686.79	51731.35
687.138	51779.26
687.485	51793.5
687.832	51697
688.18	51734.06
688.527	51470.79
688.874	51395.54
689.221	51313.06
689.568	51313.51
689.915	51168.65
690.262	51113.51
690.609	51084.59
690.956	50977.93
691.303	50964.37
691.65	50760.76
691.997	50712.17
692.344	50541.78
692.69	50457.03
693.037	50545.39
693.383	50269.92
693.73	50442.35
694.077	50086.2
694.423	50164.16
694.769	49920.1
695.116	49951.29
695.462	49967.56
695.808	49703.16
696.155	49907.9
696.501	49547.68
696.847	49611.63
697.193	49264.75
697.539	49300
697.885	49203.06
698.231	49134.36
698.577	49190.63
698.923	49035.6
699.269	48758.77
699.614	48451.21
699.96	48527.59
700.306	48655.95
700.651	48400.59
700.997	48392.23
701.342	48231.33
701.688	48172.35
702.033	48027.72
702.379	47982.75
702.724	47799.25
703.069	47804
703.415	47517
703.76	47419.83
704.105	47555.87
704.45	47383.44
704.795	47023.45
705.14	47037.01
705.485	46973.74
705.83	46821.2
706.175	46929.44
706.52	46921.53
706.865	46396.12
707.209	46587.76
707.554	46462.56
707.899	46534.65
708.243	46326.97
708.588	46360.65
708.932	45911.39
709.277	46010.15
709.621	45935.8
709.966	45776.03
710.31	45864.84
710.654	45458.75
710.998	45570.61
711.342	45512.31
711.687	45313.67
712.031	45189.6
712.375	44985.99
712.719	45089.94
713.063	44955.48
713.407	45161.13
713.75	44948.93
714.094	44907.12
714.438	44661.26
714.782	44891.53
715.125	44538.77
715.469	44619.67
715.812	44299.91
716.156	44126.13
716.499	44198.67
716.843	44094.72
717.186	43845.23
717.53	44022.18
717.873	44054.27
718.216	43986.92
718.559	43779.47
718.902	43485.01
719.246	43875.51
719.589	43523.88
719.932	43402.08
720.275	43393.72
720.617	43296.09
720.96	43186.04
721.303	43216.55
721.646	43192.59
721.989	42920.51
722.331	43085.03
722.674	42899.27
723.016	43002.32
723.359	42718.03
723.701	42834.64
724.044	42720.06
724.386	42423.8
724.729	42594.42
725.071	42446.62
725.413	42385.61
725.755	42405.04
726.097	42133.19
726.439	41844.15
726.782	41967.09
727.124	42088.22
727.465	41840.54
727.807	41858.84
728.149	41691.16
728.491	41677.6
728.833	41753.99
729.175	41527.1
729.516	41589.7
729.858	41392.87
730.199	41465.18
730.541	41337.73
730.882	41273.1
731.224	41364.39
731.565	41074
731.906	41287.11
732.248	41068.58
732.589	40968.92
732.93	40756.27
733.271	40831.07
733.612	40917.17
733.953	40776.84
734.294	40547.69
734.635	40535.26
734.976	40629.04
735.317	40274.93
735.658	40336.85
735.999	40420.91
736.339	40323.06
736.68	40340.69
737.021	39940.93
737.361	39898.22
737.702	40171.2
738.042	40059.34
738.383	39974.6
738.723	39900.02
739.063	39761.04
739.404	39905.45
739.744	39616.87
740.084	39493.48
740.424	39682.85
740.764	39545.91
741.104	39553.14
741.444	39488.51
741.784	39239.7
742.124	39172.81
742.464	39180.95
742.804	39210.1
743.143	39125.36
743.483	39145.47
743.823	38917.68
744.162	38975.98
744.502	38889.88
744.841	38661.64
745.181	38849.66
745.52	38617.35
745.86	38869.99
746.199	38751.13
746.538	38529.66
746.877	38610.11
747.216	38407.86
747.556	38285.6
747.895	38377.58
748.234	38122.44
748.573	38217.36
748.911	38110.24
749.25	37994.31
749.589	37797.71
749.928	37921.55
750.267	37870.93
750.605	37626.64
750.944	37554.55
751.283	37581.89
751.621	37566.75
751.96	37262.13
752.298	37264.84
752.636	37325.4
752.975	37157.95
