Data from plate_ceramic_FLMS001491_058.txt Node
Date: Tue Feb 07 11:16:59 GMT 2017
User: dcchb
Spectrometer: FLMS00149
Trigger mode: 0
Integration Time (sec): 2.000000E-2
Scans to average: 10
Electric dark correction enabled: true
Nonlinearity correction enabled: false
Boxcar width: 0
XAxis mode: Wavelengths
Number of Pixels in Spectrum: 2048
>>>>>Begin Spectral Data<<<<<
341.393	-16.81
341.776	-16.81
342.16	-16.81
342.543	-40.99
342.927	-70.37
343.31	-61.55
343.693	-71.95
344.077	-61.78
344.46	-64.04
344.843	-55.9
345.226	-43.25
345.61	-32.85
345.993	-6.86
346.376	21.38
346.759	21.61
347.142	5.56
347.525	41.72
347.908	53.7
348.291	73.36
348.674	80.82
349.057	100.03
349.44	119.69
349.823	128.27
350.206	157.2
350.588	213.47
350.971	211.66
351.354	235.84
351.737	234.03
352.119	251.43
352.502	272.9
352.884	270.42
353.267	277.2
353.65	294.6
354.032	327.14
354.414	311.55
354.797	338.89
355.179	342.28
355.562	348.61
355.944	337.08
356.326	354.26
356.709	355.16
357.091	337.31
357.473	360.81
357.855	364.88
358.238	351.54
358.62	371.2
359.002	356.74
359.384	362.17
359.766	365.56
360.148	351.32
360.53	337.99
360.912	356.97
361.294	346.8
361.676	343.86
362.057	369.62
362.439	355.39
362.821	342.51
363.203	353.8
363.584	356.29
363.966	346.57
364.348	328.95
364.729	373.01
365.111	355.39
365.493	362.17
365.874	324.2
366.256	351.32
366.637	363.52
367.019	341.6
367.4	351.54
367.781	361.71
368.163	346.8
368.544	357.42
368.925	376.63
369.306	359.23
369.688	369.62
370.069	331.21
370.45	360.58
370.831	347.02
371.212	350.64
371.593	366.01
371.974	370.53
372.355	366.46
372.736	379.11
373.117	380.02
373.498	367.14
373.879	383.86
374.26	392.67
374.641	383.18
375.021	386.8
375.402	368.04
375.783	389.28
376.163	386.8
376.544	405.1
376.925	389.06
377.305	413.01
377.686	398.32
378.066	371.88
378.447	415.95
378.827	411.66
379.208	414.82
379.588	392.22
379.968	385.44
380.349	415.27
380.729	422.5
381.109	437.87
381.489	398.1
381.87	419.11
382.25	424.99
382.63	427.02
383.01	437.19
383.39	443.97
383.77	434.03
384.15	449.39
384.53	443.29
384.91	449.17
385.29	465.21
385.67	448.72
386.049	461.82
386.429	450.98
386.809	482.84
387.189	463.86
387.568	471.77
387.948	482.39
388.328	478.55
388.707	477.64
389.087	489.39
389.466	491.2
389.846	500.69
390.225	506.79
390.605	503.63
390.984	493.91
391.363	527.81
391.743	510.18
392.122	537.53
392.501	499.34
392.881	539.79
393.26	550.18
393.639	528.71
394.018	548.15
394.397	559.45
394.776	550.18
395.155	559.22
395.534	564.19
395.913	573.01
396.292	600.13
396.671	612.1
397.05	586.57
397.429	584.53
397.808	604.65
398.186	619.56
398.565	613.01
398.944	619.79
399.323	633.12
399.701	631.99
400.08	636.96
400.458	648.71
400.837	648.03
401.215	651.88
401.594	655.72
401.972	681.48
402.351	668.6
402.729	672.67
403.107	699.33
403.486	699.33
403.864	693.46
404.242	719.22
404.62	724.19
404.999	724.87
405.377	751.08
405.755	734.13
406.133	751.76
406.511	747.01
406.889	741.59
407.267	782.04
407.645	777.75
408.023	790.4
408.401	805.32
408.779	813.68
409.156	808.71
409.534	828.37
409.912	834.92
410.29	841.48
410.667	894.81
411.045	859.33
411.422	908.14
411.8	895.71
412.178	910.63
412.555	888.03
412.933	917.86
413.31	915.82
413.687	944.3
414.065	953.56
414.442	981.36
414.819	979.32
415.197	982.26
415.574	1006.89
415.951	1022.26
416.328	1021.81
416.705	1015.26
417.082	1046.44
417.46	998.53
417.837	1076.95
418.214	1075.14
418.591	1083.05
418.967	1122.15
419.344	1123.95
419.721	1117.85
420.098	1102.71
420.475	1135.48
420.852	1154.01
421.228	1175.48
421.605	1166.66
421.982	1164.86
422.358	1171.41
422.735	1240.56
423.111	1215.93
423.488	1259.32
423.864	1225.87
424.241	1250.96
424.617	1246.66
424.994	1282.37
425.37	1265.64
425.746	1310.84
426.123	1334.34
426.499	1311.75
426.875	1350.39
427.251	1389.26
427.627	1382.48
428.003	1408.24
428.379	1448.46
428.756	1450.5
429.132	1480.1
429.507	1474.68
429.883	1467.45
430.259	1538.86
430.635	1574.11
431.011	1559.87
431.387	1574.11
431.763	1591.51
432.138	1611.85
432.514	1666.54
432.89	1645.52
433.265	1678.52
433.641	1713.09
434.016	1729.14
434.392	1756.25
434.767	1789.7
435.143	1784.05
435.518	1824.27
435.894	1850.94
436.269	1852.97
436.644	1845.29
437.02	1895.23
437.395	1917.6
437.77	1926.64
438.145	1931.84
438.52	1983.14
438.895	2002.57
439.271	1996.02
439.646	2045.96
440.021	2021.33
440.395	2076.24
440.77	2071.05
441.145	2066.53
441.52	2121.22
441.895	2093.87
442.27	2141.78
442.645	2135
443.019	2182.23
443.394	2178.62
443.769	2217.94
444.143	2227.43
444.518	2238.73
444.892	2198.95
445.267	2258.84
445.641	2299.52
446.016	2312.17
446.39	2346.52
446.764	2325.28
447.139	2328.89
447.513	2383.58
447.887	2412.51
448.262	2428.1
448.636	2396.01
449.01	2427.65
449.384	2472.62
449.758	2454.31
450.132	2505.84
450.506	2533.41
450.88	2506.29
451.254	2560.53
451.628	2597.14
452.002	2615.21
452.376	2666.51
452.75	2675.55
453.123	2699.51
453.497	2761.2
453.871	2739.05
454.244	2798.71
454.618	2822.44
454.992	2868.99
455.365	2852.27
455.739	2944.02
456.112	2964.36
456.486	3011.14
456.859	2995.32
457.232	3087.97
457.606	3081.19
457.979	3158.7
458.352	3164.13
458.725	3219.04
459.099	3231.02
459.472	3302.88
459.845	3347.17
460.218	3397.79
460.591	3395.31
460.964	3429.66
461.337	3522.76
461.71	3540.84
462.083	3609.99
462.456	3578.35
462.829	3619.93
463.201	3715.75
463.574	3759.59
463.947	3775.64
464.32	3872.36
464.692	3856.31
465.065	3924.56
465.438	3965.69
465.81	3998
466.183	4081.84
466.555	4206.58
466.928	4172.46
467.3	4229.86
467.672	4292.23
468.045	4377.43
468.417	4416.07
468.789	4403.64
469.161	4493.58
469.534	4546.01
469.906	4678.21
470.278	4672.33
470.65	4747.81
471.022	4833.69
471.394	4964.76
471.766	4958.43
472.138	5058.54
472.51	5164.3
472.882	5215.15
473.253	5254.69
473.625	5324.75
473.997	5544.85
474.369	5550.96
474.74	5543.27
475.112	5682.48
475.484	5783.04
475.855	5905.97
476.227	5932.64
476.598	6164.27
476.97	6150.94
477.341	6289.02
477.713	6386.41
478.084	6450.14
478.455	6614.66
478.827	6672.96
479.198	6853.07
479.569	6901.88
479.94	7088.54
480.311	7119.05
480.682	7307.07
481.053	7502.99
481.424	7564.91
481.795	7589.77
482.166	7760.39
482.537	7843.55
482.908	8086.71
483.279	8110.21
483.65	8302.3
484.021	8413.03
484.391	8577.54
484.762	8630.87
485.133	8654.6
485.503	8846.46
485.874	9111.77
486.244	9153.57
486.615	9252.33
486.985	9431.53
487.356	9568.25
487.726	9702.48
488.097	9816.83
488.467	9915.36
488.837	10126.88
489.207	10244.62
489.578	10459.08
489.948	10490.26
490.318	10630.37
490.688	10674.66
491.058	10913.3
491.428	11004.37
491.798	11107.42
492.168	11329.79
492.538	11367.3
492.908	11484.81
493.278	11672.15
493.648	11694.07
494.017	11875.31
494.387	11991.46
494.757	12123.44
495.126	12205.02
495.496	12336.99
495.866	12369.31
496.235	12553.48
496.605	12640.49
496.974	12706.47
497.344	12894.27
497.713	12919.8
498.082	13046.35
498.452	13154.15
498.821	13350.98
499.19	13348.26
499.559	13408.6
499.928	13553.23
500.298	13663.51
500.667	13809.72
501.036	13771.3
501.405	13892.21
501.774	13997.29
502.143	14160.9
502.512	14214.46
502.88	14366.09
503.249	14388.92
503.618	14559.76
503.987	14689.7
504.356	14691.51
504.724	14866.19
505.093	14861.9
505.462	15009.69
505.83	15128.56
506.199	15210.36
506.567	15390.7
506.936	15395.67
507.304	15585.95
507.672	15671.82
508.041	15724.93
508.409	15768.31
508.777	15967.63
509.145	16140.73
509.514	16202.88
509.882	16354.74
510.25	16427.05
510.618	16540.05
510.986	16556.77
511.354	16837.66
511.722	16862.3
512.09	17042.18
512.458	17049.18
512.826	17212.57
513.193	17293.92
513.561	17437.2
513.929	17621.37
514.297	17803.74
514.664	17928.03
515.032	18028.82
515.4	18205.99
515.767	18234.92
516.135	18368.02
516.502	18280.34
516.869	18612.53
517.237	18715.36
517.604	18738.18
517.972	19029.25
518.339	19068.57
518.706	19211.16
519.073	19264.95
519.44	19464.94
519.808	19559.63
520.175	19797.36
520.542	19953.74
520.909	20136.79
521.276	20053.63
521.643	20340.4
522.009	20426.27
522.376	20692.25
522.743	20792.14
523.11	20974.96
523.477	21261.73
523.843	21373.36
524.21	21537.2
524.577	21635.28
524.943	21925.44
525.31	22048.38
525.676	22143.06
526.043	22306.67
526.409	22362.94
526.776	22696.95
527.142	22691.97
527.508	22974.23
527.874	23115.24
528.241	23279.3
528.607	23317.95
528.973	23598.84
529.339	23518.39
529.705	23864.37
530.071	23983.24
530.437	24196.34
530.803	24463.68
531.169	24511.81
531.535	24481.53
531.901	24585.94
532.267	24618.48
532.632	24902.99
532.998	25005.59
533.364	25286.03
533.73	25232.47
534.095	25481.51
534.461	25619.13
534.826	25743.65
535.192	25925.34
535.557	26037.42
535.923	26011.66
536.288	26214.59
536.653	26311.77
537.019	26363.06
537.384	26491.42
537.749	26644.19
538.114	26573.45
538.479	26766.22
538.845	26922.15
539.21	26889.38
539.575	27078.07
539.94	27228.8
540.305	27337.95
540.67	27433.09
541.034	27551.96
541.399	27584.73
541.764	27830.6
542.129	27808.9
542.494	27825.62
542.858	28023.59
543.223	28063.81
543.587	28250.25
543.952	28223.81
544.316	28388.77
544.681	28440.75
545.045	28600.97
545.41	28764.13
545.774	28825.15
546.138	28872.6
546.503	28968.19
546.867	28980.85
547.231	29287.28
547.595	29301.74
547.959	29426.71
548.324	29452.02
548.688	29559.14
549.052	29608.18
549.416	29785.8
549.779	29856.98
550.143	29977.66
550.507	30258.55
550.871	30272.57
551.235	30327.25
551.599	30511.43
551.962	30568.6
552.326	30503.52
552.689	30907.8
553.053	30777.64
553.417	30819.22
553.78	31291.97
554.143	31198.19
554.507	31452.42
554.87	31438.86
555.234	31716.82
555.597	31800.66
555.96	31829.81
556.323	32095.57
556.686	32106.42
557.05	32287.65
557.413	32459.85
557.776	32576.23
558.139	32781.2
558.502	32810.35
558.865	32957.01
559.228	33252.6
559.59	33278.36
559.953	33412.37
560.316	33560.61
560.679	33631.12
561.041	33798.12
561.404	34175.97
561.767	34419.8
562.129	34292.12
562.492	34554.94
562.854	34642.62
563.217	34806.46
563.579	34939.34
563.941	35165.54
564.304	35171.42
564.666	35462.26
565.028	35540.22
565.39	35652.76
565.753	35889.82
566.115	35964.62
566.477	36244.61
566.839	36371.16
567.201	36450.93
567.563	36425.85
567.925	36797.82
568.287	36719.63
568.648	36781.55
569.01	37098.83
569.372	37228.09
569.734	37268.09
570.095	37621.07
570.457	37731.58
570.819	37737.68
571.18	37750.79
571.542	38118.01
571.903	38186.93
572.265	38249.08
572.626	38325.24
572.987	38452.24
573.349	38493.37
573.71	38595.51
574.071	38797.99
574.432	38800.48
574.794	39033.47
575.155	39070.07
575.516	38855.39
575.877	39337.19
576.238	39346
576.599	39630.51
576.96	39507.13
577.32	39586.22
577.681	39687.23
578.042	39869.83
578.403	40011.07
578.763	39888.58
579.124	40013.33
579.485	40080.67
579.845	40240.21
580.206	39976.94
580.566	40174.45
580.927	40214.9
581.287	40396.37
581.648	40211.74
582.008	40455.8
582.368	40367.89
582.728	40508.68
583.089	40298.06
583.449	40391.4
583.809	40427.78
584.169	40630.49
584.529	40505.97
584.889	40747.32
585.249	40428
585.609	40493.99
585.969	40698.73
586.329	40660.99
586.688	40657.15
587.048	40693.76
587.408	40618.96
587.768	40717.04
588.127	40606.98
588.487	40518.4
588.846	40916.35
589.206	40707.09
589.565	40633.2
589.925	40822.8
590.284	40743.25
590.643	40891.95
591.003	40887.88
591.362	40916.81
591.721	40966.52
592.08	40914.77
592.44	41020.53
592.799	41060.08
593.158	41076.8
593.517	41081.09
593.876	41080.19
594.235	40983.47
594.593	41123.35
594.952	41178.49
595.311	41008.1
595.67	41139.4
596.029	41266.63
596.387	41307.98
596.746	41444.7
597.104	41226.63
597.463	41337.13
597.822	41405.38
598.18	41259.4
598.538	41340.98
598.897	41525.6
599.255	41231.37
599.613	41764.24
599.972	41630.69
600.33	41676.33
600.688	41439.28
601.046	41670.01
601.404	41762.43
601.762	41666.39
602.12	41699.84
602.478	41900.06
602.836	41902.32
603.194	41605.83
603.552	41820.06
603.91	41704.13
604.268	41793.39
604.625	41859.83
604.983	42128.75
605.341	41874.75
605.698	42170.56
606.056	42187.51
606.413	42224.57
606.771	42209.43
607.128	42258.69
607.485	42210.1
607.843	42216.88
608.2	42416.65
608.557	42433.6
608.914	42371.68
609.272	42596.08
609.629	42630.88
609.986	42656.87
610.343	42446.93
610.7	42825.46
611.057	42759.47
611.414	42788.39
611.771	42878.11
612.127	43071.33
612.484	42872.91
612.841	43057.09
613.198	42926.7
613.554	42927.83
613.911	43275.61
614.267	43091.66
614.624	43139.12
614.98	43321.94
615.337	43398.1
615.693	43353.58
616.05	43332.79
616.406	43544.76
616.762	43347.7
617.118	43348.83
617.475	43331.43
617.831	43476.74
618.187	43629.05
618.543	43553.8
618.899	43799.89
619.255	43707.01
619.611	43634.25
619.967	43819.78
620.323	43870.85
620.678	43737.52
621.034	43686
621.39	43738.2
621.746	43705.21
622.101	44075.59
622.457	43684.42
622.812	43895.48
623.168	43930.06
623.523	43892.77
623.879	44033.56
624.234	43880.57
624.589	43974.8
624.945	43996.72
625.3	44034.01
625.655	43951.08
626.01	43879.89
626.365	43969.83
626.72	43889.83
627.075	43953.34
627.43	43796.73
627.785	43681.03
628.14	43812.77
628.495	43918.08
628.85	43754.7
629.205	43627.92
629.559	43816.84
629.914	43513.8
630.269	43818.42
630.623	43571.65
630.978	43460.92
631.332	43648.03
631.687	43815.03
632.041	43527.13
632.396	43599.9
632.75	43328.27
633.104	43380.7
633.459	43285.78
633.813	43259.12
634.167	43234.94
634.521	43179.12
634.875	43287.59
635.229	43177.99
635.583	43011.21
635.937	42990.88
636.291	42844.66
636.645	42962.85
636.999	42869.75
637.352	43023.87
637.706	42683.99
638.06	42992.91
638.413	42688.74
638.767	42708.85
639.121	42763.99
639.474	42414.39
639.828	42566.71
640.181	42501.62
640.534	42528.97
640.888	42373.04
641.241	42071.13
641.594	42357.67
641.947	42384.56
642.301	42268.18
642.654	42264.11
643.007	42241.06
643.36	41986.83
643.713	42149.54
644.066	42181.63
644.419	41791.81
644.771	41652.15
645.124	41251.94
645.477	41249.45
645.83	40948.22
646.182	40708.68
646.535	40651.05
646.888	40892.17
647.24	40628.9
647.593	40898.5
647.945	40785.51
648.298	40632.75
648.65	40437.04
649.002	40330.83
649.355	40429.59
649.707	40377.84
650.059	40540.77
650.411	41079.97
650.763	40979.4
651.115	41419.62
651.467	41064.82
651.819	41177.82
652.171	41073.86
652.523	40960.42
652.875	41123.35
653.227	40848.11
653.578	41176.46
653.93	41118.83
654.282	40939.4
654.633	40782.57
654.985	40956.8
655.337	40819.41
655.688	40811.5
656.039	40845.62
656.391	40525.86
656.742	40675
657.094	40545.97
657.445	40710.71
657.796	40613.76
658.147	40582.35
658.498	40597.72
658.849	40565.85
659.2	40460.09
659.551	40466.2
659.902	40630.71
660.253	40448.57
660.604	40428.46
660.955	40352.53
661.306	40481.11
661.656	40467.55
662.007	40267.78
662.358	40195.69
662.708	40240.89
663.059	40169.48
663.409	39916.61
663.76	40147.56
664.11	40079.99
664.461	39998.41
664.811	40128.58
665.161	40110.95
665.511	40075.47
665.862	40190.72
666.212	40322.92
666.562	40280.89
666.912	40248.57
667.262	40146.2
667.612	40086.32
667.962	40219.65
668.312	40047.9
668.662	40169.48
669.011	40149.82
669.361	40020.33
669.711	39962.03
670.06	39987.34
670.41	39896.04
670.76	39776.72
671.109	39920.9
671.459	39773.11
671.808	39789.6
672.157	39919.77
672.507	39588.93
672.856	39546.22
673.205	39736.5
673.554	39746.89
673.904	39439.33
674.253	39717.51
674.602	39646.33
674.951	39182.16
675.3	38934.71
675.649	39531.08
675.998	39349.62
676.346	39459.67
676.695	39552.1
677.044	39286.57
677.393	39416.73
677.741	39430.97
678.09	39434.36
678.438	39189.85
678.787	39223.74
679.135	39199.79
679.484	39214.48
679.832	39334.25
680.181	38993.92
680.529	39010.19
680.877	38972.68
681.225	38877.31
681.573	39148.49
681.922	38858.55
682.27	38725.45
682.618	38783.08
682.966	38586.47
683.314	38642.97
683.661	38535.63
684.009	38376.08
684.357	38375.18
684.705	38328.62
685.053	38318
685.4	38141.74
685.748	38040.5
686.095	38040.95
686.443	37879.37
686.79	37688.87
687.138	37741.07
687.485	37850.45
687.832	37736.55
688.18	37875.98
688.527	37581.3
688.874	37562.32
689.221	37316.45
689.568	37251.14
689.915	37213.4
690.262	37293.62
690.609	37128.88
690.956	36953.75
691.303	36978.15
691.65	36774.77
691.997	36692.51
692.344	36530.48
692.69	36625.62
693.037	36695.67
693.383	36479.18
693.73	36496.58
694.077	36235.57
694.423	36276.93
694.769	36265.85
695.116	36160.32
695.462	36127.1
695.808	35906.99
696.155	35857.73
696.501	35518.76
696.847	35487.34
697.193	35318.53
697.539	35551.52
697.885	35275.15
698.231	35380.91
698.577	35201.48
698.923	35099.56
699.269	34794.25
699.614	34609.63
699.96	34603.53
700.306	34651.66
700.651	34549.06
700.997	34447.15
701.342	34343.19
701.688	34423.42
702.033	34280.37
702.379	34262.29
702.724	34043.54
703.069	34261.39
703.415	33716.54
703.76	33705.47
704.105	33685.36
704.45	33652.14
704.795	33417.34
705.14	33197.91
705.485	33230.45
705.83	33084.7
706.175	33300.06
706.52	33170.34
706.865	32994.75
707.209	33108.42
707.554	32869.33
707.899	33116.11
708.243	32808.09
708.588	32782.33
708.932	32524.48
709.277	32551.83
709.621	32441.1
709.966	32342.57
710.31	32386.18
710.654	32094.44
710.998	32217.15
711.342	32219.18
711.687	32044.04
712.031	31957.27
712.375	31765.63
712.719	31880.43
713.063	31848.57
713.407	31928.57
713.75	31651.96
714.094	31556.15
714.438	31486.54
714.782	31534
715.125	31383.95
715.469	31505.75
715.812	31277.96
716.156	31143.73
716.499	31095.14
716.843	30991.19
717.186	30846.11
717.53	31153.22
717.873	30997.74
718.216	30977.18
718.559	30795.72
718.902	30591.43
719.246	30816.05
719.589	30676.17
719.932	30438.66
720.275	30544.65
720.617	30533.58
720.96	30548.04
721.303	30504.65
721.646	30502.16
721.989	30257.65
722.331	30245.9
722.674	30141.5
723.016	30096.98
723.359	30020.14
723.701	29987.6
724.044	29965.46
724.386	29784.67
724.729	29870.09
725.071	29863.76
725.413	29728.17
725.755	29763.2
726.097	29662.86
726.439	29348.3
726.782	29497.67
727.124	29589.42
727.465	29418.8
727.807	29342.19
728.149	29338.13
728.491	29306.72
728.833	29341.74
729.175	29240.95
729.516	29097.23
729.858	29064.69
730.199	28986.27
730.541	29057.46
730.882	28921.87
731.224	29073.28
731.565	28800.97
731.906	28825.37
732.248	28856.11
732.589	28661.76
732.93	28490.01
733.271	28633.51
733.612	28704.02
733.953	28645.26
734.294	28421.99
734.635	28420.18
734.976	28502.22
735.317	28235.11
735.658	28374.76
735.999	28332.28
736.339	28286.18
736.68	28447.08
737.021	28138.61
737.361	28043.02
737.702	28222.68
738.042	28094.54
738.383	28043.92
738.723	28179.74
739.063	27978.16
739.404	28108.78
739.744	27825.85
740.084	27715.8
740.424	27799.86
740.764	27671.73
741.104	27769.35
741.444	27716.47
741.784	27511.96
742.124	27551.73
742.464	27466.99
742.804	27385.18
743.143	27391.06
743.483	27381.79
743.823	27276.03
744.162	27244.85
744.502	27191.74
744.841	27195.13
745.181	27184.96
745.52	27093.21
745.86	27020.22
746.199	27000.79
746.538	26994.69
746.877	27055.7
747.216	26971.86
747.556	26770.06
747.895	26705.43
748.234	26666.33
748.573	26665.65
748.911	26603.74
749.25	26731.19
749.589	26423.85
749.928	26475.6
750.267	26561.25
750.605	26456.39
750.944	26323.97
751.283	26331.2
751.621	26229.96
751.96	26136.4
752.298	26088.27
752.636	26261.15
752.975	25989.29
753.313	25930.53
753.651	26034.26
