Data from plate_ceramic_FLMS001491_014.txt Node
Date: Tue Feb 07 11:16:22 GMT 2017
User: dcchb
Spectrometer: FLMS00149
Trigger mode: 0
Integration Time (sec): 2.000000E-2
Scans to average: 10
Electric dark correction enabled: true
Nonlinearity correction enabled: false
Boxcar width: 0
XAxis mode: Wavelengths
Number of Pixels in Spectrum: 2048
>>>>>Begin Spectral Data<<<<<
341.393	-13.8
341.776	-13.8
342.16	-13.8
342.543	-50.41
342.927	-55.15
343.31	-74.59
343.693	-78.2
344.077	-64.19
344.46	-49.5
344.843	-55.61
345.226	-49.28
345.61	-54.02
345.993	-5.44
346.376	-1.14
346.759	27.56
347.142	42.7
347.525	35.69
347.908	51.96
348.291	76.59
348.674	82.47
349.057	115.01
349.44	122.47
349.823	130.38
350.206	180.09
350.588	206.08
350.971	231.84
351.354	229.36
351.737	261.9
352.119	264.16
352.502	252.63
352.884	312.97
353.267	305.06
353.65	318.62
354.032	322.24
354.414	333.99
354.797	333.31
355.179	347.32
355.562	332.86
355.944	339.19
356.326	360.65
356.709	350.71
357.091	376.7
357.473	362.24
357.855	368.56
358.238	382.8
358.62	362.91
359.002	369.69
359.384	381.22
359.766	359.3
360.148	349.58
360.53	354.55
360.912	372.18
361.294	368.34
361.676	361.33
362.057	360.65
362.439	356.81
362.821	383.7
363.203	360.43
363.584	349.58
363.966	343.71
364.348	357.94
364.729	370.82
365.111	358.62
365.493	380.99
365.874	339.19
366.256	358.62
366.637	349.13
367.019	369.02
367.4	348.23
367.781	371.73
368.163	370.15
368.544	351.39
368.925	356.59
369.306	380.77
369.688	365.85
370.069	380.54
370.45	391.16
370.831	385.29
371.212	370.82
371.593	370.37
371.974	373.31
372.355	368.11
372.736	380.77
373.117	402.69
373.498	378.73
373.879	371.5
374.26	394.55
374.641	358.85
375.021	363.14
375.402	365.17
375.783	414.89
376.163	395
376.544	404.72
376.925	409.47
377.305	405.17
377.686	420.09
378.066	414.89
378.447	416.7
378.827	434.78
379.208	414.89
379.588	409.69
379.968	432.06
380.349	402.46
380.729	432.97
381.109	446.98
381.489	439.3
381.87	416.92
382.25	452.63
382.63	422.57
383.01	443.36
383.39	458.05
383.77	460.54
384.15	462.8
384.53	446.3
384.91	486.53
385.29	480.88
385.67	467.54
386.049	478.17
386.429	466.41
386.809	493.31
387.189	486.98
387.568	470.93
387.948	491.5
388.328	493.08
388.707	494.21
389.087	503.25
389.466	511.16
389.846	501.44
390.225	531.72
390.605	534.44
390.984	528.79
391.363	538.05
391.743	522.01
392.122	539.18
392.501	549.58
392.881	574.43
393.26	550.25
393.639	569.01
394.018	589.8
394.397	582.8
394.776	578.05
395.155	578.05
395.534	589.57
395.913	578.5
396.292	616.01
396.671	624.38
397.05	590.03
397.429	629.57
397.808	606.98
398.186	624.6
398.565	616.92
398.944	646.52
399.323	644.71
399.701	653.08
400.08	655.11
400.458	656.69
400.837	679.06
401.215	700.53
401.594	677.26
401.972	703.7
402.351	676.13
402.729	699.63
403.107	711.83
403.486	710.93
403.864	704.15
404.242	712.74
404.62	718.16
404.999	746.18
405.377	754.09
405.755	757.03
406.133	759.06
406.511	779.85
406.889	763.36
407.267	792.51
407.645	792.06
408.023	815.33
408.401	820.3
408.779	833.64
409.156	881.54
409.534	860.3
409.912	856.69
410.29	884.26
410.667	874.54
411.045	894.2
411.422	899.4
411.8	916.12
412.178	938.72
412.555	948.66
412.933	961.77
413.31	983.46
413.687	988.21
414.065	1016.46
414.442	985.04
414.819	1000.64
415.197	1029.56
415.574	1043.12
415.951	1054.87
416.328	1048.55
416.705	1052.84
417.082	1054.42
417.46	1084.93
417.837	1107.08
418.214	1109.11
418.591	1123.57
418.967	1125.61
419.344	1114.08
419.721	1144.14
420.098	1154.76
420.475	1197.92
420.852	1203.12
421.228	1209.9
421.605	1216.68
421.982	1204.25
422.358	1225.72
422.735	1254.42
423.111	1277.47
423.488	1290.8
423.864	1265.26
424.241	1312.04
424.617	1309.33
424.994	1327.18
425.37	1362.66
425.746	1343.91
426.123	1368.54
426.499	1385.71
426.875	1400.4
427.251	1432.72
427.627	1454.86
428.003	1441.98
428.379	1459.16
428.756	1519.72
429.132	1509.32
429.507	1541.64
429.883	1559.49
430.259	1577.12
430.635	1603.11
431.011	1597.01
431.387	1631.13
431.763	1671.35
432.138	1673.61
432.514	1711.35
432.89	1744.12
433.265	1726.04
433.641	1741.41
434.016	1756.1
434.392	1798.58
434.767	1811.01
435.143	1858.92
435.518	1866.6
435.894	1888.75
436.269	1950.67
436.644	1917
437.02	1964
437.395	1961.52
437.77	1998.35
438.145	2028.86
438.52	2048.75
438.895	2027.96
439.271	2056.88
439.646	2103.66
440.021	2108.86
440.395	2171
440.77	2135.3
441.145	2151.79
441.52	2192.92
441.895	2217.1
442.27	2253.71
442.645	2209.42
443.019	2228.18
443.394	2272.24
443.769	2278.12
444.143	2255.75
444.518	2364.22
444.892	2291.23
445.267	2338.23
445.641	2345.23
446.016	2383.65
446.39	2429.07
446.764	2421.62
447.139	2419.58
447.513	2439.7
447.887	2476.98
448.262	2459.13
448.636	2491.45
449.01	2502.97
449.384	2547.72
449.758	2553.37
450.132	2621.84
450.506	2620.71
450.88	2640.14
451.254	2644.21
451.628	2687.37
452.002	2705
452.376	2704.1
452.75	2750.42
453.123	2763.76
453.497	2834.49
453.871	2869.06
454.244	2888.72
454.618	2937.31
454.992	2971.66
455.365	2953.81
455.739	3063.63
456.112	3023.41
456.486	3092.11
456.859	3126.46
457.232	3170.75
457.606	3156.06
457.979	3241.48
458.352	3297.07
458.725	3333.91
459.099	3373.91
459.472	3418.43
459.845	3479.89
460.218	3483.51
460.591	3548.59
460.964	3539.55
461.337	3655.03
461.71	3706.78
462.083	3756.95
462.456	3778.64
462.829	3771.41
463.201	3842.14
463.574	3867.45
463.947	3935.02
464.32	4005.53
464.692	4014.34
465.065	4056.38
465.438	4092.99
465.81	4157.39
466.183	4218.86
466.555	4325.52
466.928	4341.34
467.3	4312.19
467.672	4458.4
468.045	4547.66
468.417	4543.82
468.789	4618.17
469.161	4648.45
469.534	4687.55
469.906	4817.49
470.278	4857.26
470.65	4949.23
471.022	5047.54
471.394	5139.96
471.766	5179.28
472.138	5192.17
472.51	5313.52
472.882	5444.81
473.253	5539.05
473.625	5559.39
473.997	5669.22
474.369	5714.86
474.74	5758.7
475.112	5875.99
475.484	5977
475.855	6105.14
476.227	6150.56
476.598	6288.41
476.97	6339.93
477.341	6526.82
477.713	6626.7
478.084	6665.12
478.455	6851.78
478.827	6925.45
479.198	7079.12
479.569	7154.83
479.94	7302.39
480.311	7366.12
480.682	7569.05
481.053	7696.73
481.424	7831.42
481.795	7900.8
482.166	8075.03
482.537	8202.26
482.908	8345.98
483.279	8441.12
483.65	8580.55
484.021	8748
484.391	8868.68
484.762	8929.02
485.133	9010.6
485.503	9129.46
485.874	9332.85
486.244	9468.44
486.615	9626.85
486.985	9786.85
487.356	9954.98
487.726	9996.33
488.097	10198.59
488.467	10240.17
488.837	10487.17
489.207	10572.59
489.578	10739.82
489.948	10900.04
490.318	10998.11
490.688	11012.35
491.058	11241.72
491.428	11397.2
491.798	11516.52
492.168	11749.06
492.538	11756.96
492.908	11832.44
493.278	12123.51
493.648	12089.61
494.017	12354.69
494.387	12353.11
494.757	12537.74
495.126	12672.87
495.496	12714
495.866	12774.57
496.235	12982.7
496.605	13070.38
496.974	13135.46
497.344	13328.67
497.713	13349.01
498.082	13461.1
498.452	13611.61
498.821	13730.7
499.19	13765.05
499.559	13911.94
499.928	13966.4
500.298	14124.13
500.667	14311.02
501.036	14257.69
501.405	14441.41
501.774	14445.71
502.143	14633.5
502.512	14683.44
502.88	14908.75
503.249	14882.31
503.618	15038.01
503.987	15137.67
504.356	15229.64
504.724	15310.54
505.093	15328.62
505.462	15507.6
505.83	15576.3
506.199	15765.22
506.567	15835.5
506.936	15892.68
507.304	16106
507.672	16205.44
508.041	16322.04
508.409	16411.53
508.777	16550.96
509.145	16719.77
509.514	16739.88
509.882	16779.66
510.25	16826.44
510.618	17028.01
510.986	17156.82
511.354	17375.12
511.722	17549.13
512.09	17682.01
512.458	17675.68
512.826	17808.78
513.193	17936.92
513.561	18095.33
513.929	18174.42
514.297	18359.28
514.664	18439.95
515.032	18681.53
515.4	18767.85
515.767	18843.11
516.135	18954.97
516.502	18962.2
516.869	19261.17
517.237	19385.24
517.604	19351.57
517.972	19587.27
518.339	19814.15
518.706	19823.42
519.073	19964.43
519.44	20023.87
519.808	20388.6
520.175	20301.37
520.542	20640.35
520.909	20764.41
521.276	20778.2
521.643	21019.32
522.009	21147
522.376	21361.91
522.743	21470.83
523.11	21686.2
523.477	21916.7
523.843	22040.54
524.21	22322.56
524.577	22446.85
524.943	22569.79
525.31	22751.03
525.676	22940.63
526.043	22970
526.409	23072.37
526.776	23433.95
527.142	23456.77
527.508	23696.99
527.874	23950.77
528.241	24074.61
528.607	24148.5
528.973	24316.41
529.339	24337.43
529.705	24684.31
530.071	24818.54
530.437	24983.06
530.803	25102.15
531.169	25247.68
531.535	25206.33
531.901	25280
532.267	25409.94
532.632	25741.68
532.998	25744.39
533.364	26016.02
533.73	26231.84
534.095	26446.52
534.461	26389.35
534.826	26632.28
535.192	26643.81
535.557	26837.7
535.923	26897.58
536.288	27002.21
536.653	27241.3
537.019	27093.51
537.384	27310.23
537.749	27418.25
538.114	27542.31
538.479	27632.03
538.845	27698.92
539.21	27745.02
539.575	27874.96
539.94	28062.3
540.305	28133.03
540.67	28213.26
541.034	28323.99
541.399	28562.4
541.764	28530.99
542.129	28646.69
542.494	28652.34
542.858	28859.34
543.223	28907.93
543.587	29093.46
543.952	29062.27
544.316	29226.79
544.681	29255.26
545.045	29369.38
545.41	29596.72
545.774	29759.88
546.138	29667.91
546.503	29935.92
546.867	29876.71
547.231	30221.79
547.595	30243.48
547.959	30348.57
548.324	30266.08
548.688	30456.81
549.052	30546.53
549.416	30762.57
549.779	30718.27
550.143	30899.06
550.507	31050.02
550.871	31109.45
551.235	31201.88
551.599	31576.56
551.962	31506.5
552.326	31701.53
552.689	31924.12
553.053	31774.29
553.417	31938.81
553.78	32181.06
554.143	32083.89
554.507	32340.15
554.87	32587.83
555.234	32885.67
555.597	32720.26
555.96	32799.12
556.323	32983.53
556.686	33006.12
557.05	33355.94
557.413	33516.62
557.776	33584.87
558.139	33726.56
558.502	33794.8
558.865	33932.88
559.228	34244.06
559.59	34391.85
559.953	34467.1
560.316	34672.75
560.679	34599.75
561.041	34991.38
561.404	35131.72
561.767	35284.71
562.129	35402.44
562.492	35827.29
562.854	35702.1
563.217	35829.55
563.579	36003.56
563.941	36351.35
564.304	36443.55
564.666	36727.38
565.028	36585.69
565.39	36854.38
565.753	37030.2
566.115	37240.59
566.477	37270.19
566.839	37401.04
567.201	37567.81
567.563	37774.81
567.925	37964.64
568.287	37993.34
568.648	38015.71
569.01	38283.27
569.372	38489.14
569.734	38424.96
570.095	38622.47
570.457	38852.75
570.819	38961.9
571.18	39062.01
571.542	39201.67
571.903	39193.31
572.265	39432.85
572.626	39504.26
572.987	39630.36
573.349	39744.48
573.71	39989.44
574.071	39847.53
574.432	39978.6
574.794	40344.01
575.155	40314.86
575.516	40285.71
575.877	40341.07
576.238	40579.94
576.599	40665.13
576.96	40805.24
577.32	40798.01
577.681	41095.18
578.042	41125.46
578.403	41148.06
578.763	41085.01
579.124	41126.36
579.485	41299.69
579.845	41560.48
580.206	41454.04
580.566	41405.68
580.927	41569.06
581.287	41658.78
581.648	41313.48
582.008	41669.17
582.368	41603.86
582.728	41604.54
583.089	41631.89
583.449	41514.15
583.809	41802.5
584.169	41772.67
584.529	41716.18
584.889	42120.01
585.249	41732.45
585.609	41728.83
585.969	41906.45
586.329	41759.57
586.688	41971.54
587.048	41851.54
587.408	41877.08
587.768	41861.94
588.127	41973.57
588.487	41915.49
588.846	42285.88
589.206	41876.4
589.565	41901.26
589.925	42119.33
590.284	42063.29
590.643	42182.38
591.003	42301.47
591.362	42403.16
591.721	42112.78
592.08	42273.45
592.44	42346.9
592.799	42352.54
593.158	42312.09
593.517	42284.98
593.876	42343.05
594.235	42189.61
594.593	42399.32
594.952	42508.47
595.311	42301.25
595.67	42323.62
596.029	42573.33
596.387	42606.32
596.746	42660.11
597.104	42595.93
597.463	42599.32
597.822	42719.99
598.18	42587.57
598.538	42561.13
598.897	42802.93
599.255	42536.27
599.613	43145.52
599.972	42786.21
600.33	42863.72
600.688	42776.04
601.046	42891.29
601.404	43016.71
601.762	42948.46
602.12	43286.08
602.478	43323.14
602.836	43133.32
603.194	42901.91
603.552	43058.97
603.91	43054.45
604.268	43264.84
604.625	43116.82
604.983	43344.83
605.341	43207.21
605.698	43419.64
606.056	43510.48
606.413	43348.68
606.771	43482.91
607.128	43625.28
607.485	43422.12
607.843	43616.92
608.2	43744.15
608.557	43857.14
608.914	43627.09
609.272	43749.57
609.629	43954.76
609.986	44110.69
610.343	43882.67
610.7	44180.97
611.057	44094.19
611.414	44081.31
611.771	44244.02
612.127	44279.5
612.484	44315.2
612.841	44369.67
613.198	44201.99
613.554	44240.18
613.911	44382.77
614.267	44422.32
614.624	44474.75
614.98	44483.79
615.337	44682.88
615.693	44681.07
616.05	44734.18
616.406	44904.34
616.762	44758.36
617.118	44665.93
617.475	44637.46
617.831	44871.57
618.187	44941.4
618.543	45005.13
618.899	45077.44
619.255	44954.51
619.611	44994.28
619.967	45015.75
620.323	45239.25
620.678	45038.35
621.034	45030.89
621.39	45098.46
621.746	45074.96
622.101	45423.65
622.457	45279.7
622.812	45233.82
623.168	45202.19
623.523	45276.76
623.879	45330.77
624.234	45181.62
624.589	45324.9
624.945	45252.58
625.3	45212.13
625.655	45264.56
626.01	45109.99
626.365	45344.1
626.72	45184.56
627.075	45345.69
627.43	45225.92
627.785	45004.23
628.14	45193.37
628.495	45190.44
628.85	45135.75
629.205	44884.46
629.559	45266.14
629.914	44935.3
630.269	45013.94
630.623	44923.32
630.978	44837.23
631.332	45001.97
631.687	45047.61
632.041	44858.24
632.396	44827.06
632.75	44688.08
633.104	44730.79
633.459	44650.79
633.813	44543.22
634.167	44645.59
634.521	44624.35
634.875	44659.38
635.229	44510.23
635.583	44287.63
635.937	44392.49
636.291	44276.11
636.645	44288.09
636.999	44079.96
637.352	44347.07
637.706	44067.75
638.06	44281.08
638.413	44059.62
638.767	43900.75
639.121	44039.73
639.474	43740.76
639.828	43699.85
640.181	43780.53
640.534	43870.24
640.888	43635.9
641.241	43490.37
641.594	43687.65
641.947	43708.44
642.301	43684.94
642.654	43683.36
643.007	43649.69
643.36	43380.99
643.713	43475.68
644.066	43594.77
644.419	43290.6
644.771	42934.22
645.124	42548.47
645.477	42447.46
645.83	42199.55
646.182	42045.89
646.535	41976.06
646.888	42065.32
647.24	42042.95
647.593	42221.93
647.945	42145.09
648.298	42033.91
648.65	41784.42
649.002	41724.54
649.355	41773.8
649.707	41819.68
650.059	41817.87
650.411	42364.3
650.763	42358.65
651.115	42767.45
651.467	42517.51
651.819	42435.25
652.171	42303.96
652.523	42302.15
652.875	42420.57
653.227	42253.56
653.578	42536.95
653.93	42355.03
654.282	42194.13
654.633	42047.69
654.985	42113
655.337	42244.75
655.688	42130.63
656.039	42265.99
656.391	41767.48
656.742	41905.55
657.094	41987.36
657.445	42069.84
657.796	42017.64
658.147	41972.89
658.498	41858.09
658.849	41744.88
659.2	41877.3
659.551	41813.8
659.902	42080.46
660.253	41683.18
660.604	41719.34
660.955	41628.95
661.306	41791.2
661.656	41726.8
662.007	41594.6
662.358	41684.54
662.708	41578.78
663.059	41533.36
663.409	41299.92
663.76	41547.14
664.11	41524.32
664.461	41511.21
664.811	41357.77
665.161	41528.84
665.511	41418.11
665.862	41457.43
666.212	41568.84
666.562	41556.63
666.912	41529.06
667.262	41583.53
667.612	41485.67
667.962	41433.7
668.312	41287.49
668.662	41564.99
669.011	41522.96
669.361	41405.68
669.711	41266.7
670.06	41287.94
670.41	41084.78
670.76	41231.22
671.109	41312.8
671.459	41148.28
671.808	41018.57
672.157	41254.72
672.507	40933.15
672.856	41097.21
673.205	41052.01
673.554	41093.37
673.904	40888.63
674.253	41060.83
674.602	40968.63
674.951	40382.88
675.3	40318.93
675.649	40935.41
675.998	40803.88
676.346	40775.18
676.695	40875.97
677.044	40600.73
677.393	40778.57
677.741	40739.25
678.09	40677.33
678.438	40500.39
678.787	40545.81
679.135	40716.43
679.484	40381.07
679.832	40579.48
680.181	40343.33
680.529	40536.77
680.877	40206.61
681.225	40205.26
681.573	40373.84
681.922	40098.59
682.27	40080.29
682.618	40097.91
682.966	39983.79
683.314	39943.12
683.661	39840.97
684.009	39697.7
684.357	39464.94
684.705	39608.66
685.053	39694.08
685.4	39625.84
685.748	39436.46
686.095	39348.33
686.443	39187.66
686.79	39052.29
687.138	39088.22
687.485	39149.92
687.832	39042.35
688.18	39174.78
688.527	39040.77
688.874	38979.07
689.221	38694.79
689.568	38449.14
689.915	38463.83
690.262	38555.13
690.609	38512.42
690.956	38255.03
691.303	38189.94
691.65	38070.4
691.997	38032.88
692.344	37906.79
692.69	37718.32
693.037	37890.97
693.383	37663.63
693.73	37842.61
694.077	37460.47
694.423	37619.79
694.769	37538.21
695.116	37480.36
695.462	37365.33
695.808	37173.47
696.155	37268.38
696.501	36906.59
696.847	36852.8
697.193	36641.28
697.539	36757.44
697.885	36451.91
698.231	36456.43
698.577	36531
698.923	36333.04
699.269	36105.25
699.614	35920.62
699.96	35886.27
700.306	36025.25
700.651	35926.72
700.997	35672.27
701.342	35739.61
701.688	35571.25
702.033	35416.91
702.379	35410.81
702.724	35452.16
703.069	35377.59
703.415	35020.08
703.76	34941.89
704.105	34967.2
704.45	34777.6
704.795	34649.7
705.14	34553.2
705.485	34498.06
705.83	34428.46
706.175	34514.33
706.52	34406.76
706.865	34332.64
707.209	34178.75
707.554	34038.64
707.899	34254.9
708.243	33945.99
708.588	34028.24
708.932	33685.43
709.277	33789.61
709.621	33633.45
709.966	33321.37
710.31	33572.21
710.654	33185.55
710.998	33399.56
711.342	33462.16
711.687	33350.07
712.031	33137.87
712.375	33024.43
712.719	33075.73
713.063	32992.34
713.407	32982.85
713.75	32956.86
714.094	32909.4
714.438	32616.98
714.782	32721.61
715.125	32634.38
715.469	32796.86
715.812	32604.78
716.156	32446.14
716.499	32371.11
716.843	32353.03
717.186	32178.35
717.53	32262.41
717.873	32226.03
718.216	32090.44
718.559	32135.19
718.902	31824.46
719.246	31930.45
719.589	31815.19
719.932	31724.58
720.275	31800.28
720.617	31612.71
720.96	31636.22
721.303	31559.83
721.646	31598.03
721.989	31361.65
722.331	31475.54
722.674	31313.29
723.016	31359.16
723.359	31259.95
723.701	31274.87
724.044	30903.13
724.386	30911.72
724.729	31010.02
725.071	31026.74
725.413	30945.61
725.755	30925.05
726.097	30776.35
726.439	30559.86
726.782	30658.16
727.124	30684.38
727.465	30553.31
727.807	30578.62
728.149	30388.79
728.491	30467.21
728.833	30565.06
729.175	30441.9
729.516	30229.02
729.858	30268.79
730.199	30228.34
730.541	30122.36
730.882	30303.37
731.224	30255.91
731.565	30014.11
731.906	30028.35
732.248	30080.1
732.589	29773.44
732.93	29768.69
733.271	29679.66
733.612	29937.73
733.953	29764.85
734.294	29654.12
734.635	29705.65
734.976	29627
735.317	29550.4
735.658	29472.66
735.999	29410.06
736.339	29470.85
736.68	29571.41
737.021	29377.74
737.361	29218.88
737.702	29364.41
738.042	29210.07
738.383	29192.21
738.723	29230.86
739.063	29134.36
739.404	29156.96
739.744	29119.22
740.084	28850.53
740.424	29128.03
740.764	28986.79
741.104	28978.88
741.444	28719.46
741.784	28684.66
742.124	28780.47
742.464	28749.51
742.804	28775.05
743.143	28665.67
743.483	28659.12
743.823	28453.02
744.162	28423.87
744.502	28462.29
744.841	28255.74
745.181	28389.3
745.52	28339.13
745.86	28238.79
746.199	28123.77
746.538	28111.11
746.877	28088.29
747.216	28005.58
747.556	27908.4
747.895	28058.46
748.234	27884.45
748.573	27851.91
748.911	27879.03
749.25	27765.81
749.589	27711.8
749.928	27737.34
750.267	27724.91
750.605	27580.28
750.944	27461.86
751.283	27470.68
751.621	27479.49
751.96	27268.65
752.298	27312.94
752.636	27243.79
752.975	27149.78
753.313	27011.03
753.651	27168.76
753.989	26907.53
