Data from plate_ceramic_FLMS001491_054.txt Node
Date: Tue Feb 07 11:16:59 GMT 2017
User: dcchb
Spectrometer: FLMS00149
Trigger mode: 0
Integration Time (sec): 2.000000E-2
Scans to average: 10
Electric dark correction enabled: true
Nonlinearity correction enabled: false
Boxcar width: 0
XAxis mode: Wavelengths
Number of Pixels in Spectrum: 2048
>>>>>Begin Spectral Data<<<<<
341.393	-19.66
341.776	-19.66
342.16	-19.66
342.543	-69.83
342.927	-72.77
343.31	-65.76
343.693	-70.28
344.077	-59.66
344.46	-58.53
344.843	-52.65
345.226	-54.46
345.61	-31.19
345.993	-20.11
346.376	-4.75
346.759	12.2
347.142	15.14
347.525	47
347.908	55.82
348.291	83.84
348.674	107.12
349.057	96.27
349.44	125.87
349.823	155.48
350.206	184.18
350.588	203.16
350.971	225.53
351.354	250.61
351.737	258.98
352.119	277.51
352.502	281.57
352.884	289.71
353.267	286.09
353.65	313.44
354.032	314.79
354.414	338.52
354.797	312.31
355.179	357.96
355.562	359.31
355.944	349.6
356.326	357.28
356.709	372.87
357.091	356.6
357.473	344.62
357.855	359.31
358.238	395.02
358.62	350.05
359.002	340.33
359.384	381.01
359.766	371.97
360.148	370.84
360.53	372.42
360.912	339.2
361.294	368.35
361.676	350.27
362.057	365.87
362.439	360.89
362.821	367.45
363.203	356.83
363.584	355.02
363.966	338.97
364.348	348.24
364.729	352.31
365.111	333.55
365.493	358.18
365.874	360.67
366.256	338.52
366.637	357.5
367.019	351.63
367.4	358.41
367.781	345.75
368.163	343.27
368.544	364.96
368.925	378.75
369.306	378.52
369.688	348.24
370.069	377.84
370.45	365.19
370.831	350.5
371.212	363.83
371.593	354.34
371.974	352.08
372.355	357.96
372.736	376.04
373.117	376.94
373.498	372.87
373.879	382.36
374.26	367.67
374.641	380.1
375.021	361.8
375.402	374.68
375.783	385.98
376.163	390.95
376.544	393.89
376.925	408.35
377.305	374.68
377.686	395.92
378.066	421.68
378.447	403.61
378.827	401.12
379.208	412.19
379.588	410.38
379.968	402.7
380.349	425.98
380.729	403.61
381.109	424.85
381.489	441.57
381.87	429.82
382.25	412.19
382.63	439.08
383.01	406.32
383.39	425.07
383.77	435.92
384.15	453.32
384.53	444.51
384.91	463.04
385.29	451.29
385.67	481.8
386.049	452.64
386.429	479.31
386.809	464.17
387.189	462.13
387.568	461.46
387.948	470.95
388.328	483.38
388.707	487.9
389.087	499.87
389.466	503.04
389.846	504.62
390.225	506.2
390.605	515.69
390.984	519.08
391.363	516.6
391.743	519.08
392.122	520.66
392.501	522.02
392.881	552.3
393.26	542.81
393.639	543.49
394.018	577.39
394.397	565.86
394.776	562.25
395.155	550.95
395.534	584.39
395.913	570.61
396.292	592.98
396.671	585.75
397.05	568.35
397.429	612.41
397.808	595.46
398.186	592.53
398.565	639.98
398.944	610.15
399.323	623.26
399.701	621
400.08	632.53
400.458	645.18
400.837	658.97
401.215	626.2
401.594	658.51
401.972	674.56
402.351	665.07
402.729	699.64
403.107	702.58
403.486	679.53
403.864	687.44
404.242	692.19
404.62	716.37
404.999	717.27
405.377	734.44
405.755	715.91
406.133	757.72
406.511	739.64
406.889	761.56
407.267	770.83
407.645	785.06
408.023	787.78
408.401	811.96
408.779	778.51
409.156	826.64
409.534	833.88
409.912	842.69
410.29	844.5
410.667	856.47
411.045	883.59
411.422	884.5
411.8	877.72
412.178	919.3
412.555	908
412.933	920.88
413.31	916.13
413.687	950.71
414.065	958.62
414.442	969.69
414.819	983.25
415.197	1007.43
415.574	999.75
415.951	1012.63
416.328	1036.36
416.705	1013.31
417.082	1053.31
417.46	1057.6
417.837	1068.22
418.214	1058.05
418.591	1083.59
418.967	1086.07
419.344	1091.72
419.721	1109.35
420.098	1135.79
420.475	1111.38
420.852	1147.99
421.228	1158.61
421.605	1190.48
421.982	1180.76
422.358	1200.65
422.735	1218.73
423.111	1222.11
423.488	1216.69
423.864	1252.62
424.241	1267.76
424.617	1257.37
424.994	1287.2
425.37	1281.77
425.746	1324.71
426.123	1314.54
426.499	1329.91
426.875	1339.85
427.251	1366.97
427.627	1363.81
428.003	1400.64
428.379	1452.17
428.756	1446.52
429.132	1482.22
429.507	1465.5
429.883	1488.32
430.259	1554.08
430.635	1538.94
431.011	1552.73
431.387	1573.97
431.763	1607.87
432.138	1609.45
432.514	1652.84
432.89	1642.44
433.265	1697.81
433.641	1712.5
434.016	1678.6
434.392	1748.43
434.767	1781.87
435.143	1793.17
435.518	1806.51
435.894	1821.42
436.269	1834.3
436.644	1872.27
437.02	1882.44
437.395	1915.2
437.77	1925.15
438.145	1948.2
438.52	1943
438.895	1982.09
439.271	1965.37
439.646	2044.24
440.021	2034.97
440.395	2054.41
440.77	2055.77
441.145	2066.61
441.52	2108.65
441.895	2135.99
442.27	2146.84
442.645	2148.19
443.019	2184.12
443.394	2183.67
443.769	2218.92
444.143	2210.34
444.518	2246.27
444.892	2245.59
445.267	2269.32
445.641	2253.95
446.016	2293.73
446.39	2320.62
446.764	2331.92
447.139	2357.45
447.513	2363.78
447.887	2387.28
448.262	2366.04
448.636	2435.64
449.01	2414.63
449.384	2440.16
449.758	2446.49
450.132	2517.22
450.506	2519.48
450.88	2534.4
451.254	2533.49
451.628	2572.81
452.002	2607.62
452.376	2639.03
452.75	2647.39
453.123	2692.36
453.497	2717.44
453.871	2735.75
454.244	2791.57
454.618	2813.26
454.992	2835.86
455.365	2856.87
455.739	2947.49
456.112	2951.11
456.486	2977.1
456.859	3039.47
457.232	3094.38
457.606	3073.37
457.979	3125.34
458.352	3205.34
458.725	3192.91
459.099	3222.74
459.472	3315.17
459.845	3306.58
460.218	3369.85
460.591	3436.97
460.964	3424.99
461.337	3496.63
461.71	3536.86
462.083	3588.83
462.456	3621.37
462.829	3629.28
463.201	3730.75
463.574	3690.52
463.947	3806.45
464.32	3853.46
464.692	3892.33
465.065	3935.49
465.438	3998.09
465.81	4054.58
466.183	4095.26
466.555	4211.64
466.928	4174.58
467.3	4196.27
467.672	4295.48
468.045	4364.86
468.417	4355.82
468.789	4392.43
469.161	4511.07
469.534	4559.2
469.906	4610.95
470.278	4679.88
470.65	4770.5
471.022	4875.58
471.394	4953.09
471.766	4968.91
472.138	5047.1
472.51	5121
472.882	5186.98
473.253	5289.13
473.625	5347.2
473.997	5500.42
474.369	5523.7
474.74	5552.62
475.112	5702.67
475.484	5777.25
475.855	5855.44
476.227	5957.81
476.598	6094.3
476.97	6164.13
477.341	6293.39
477.713	6372.26
478.084	6385.14
478.455	6567.74
478.827	6680.28
479.198	6913.49
479.569	6860.16
479.94	7076.42
480.311	7157.1
480.682	7318.45
481.053	7424.21
481.424	7546.24
481.795	7672.79
482.166	7842.28
482.537	7878.21
482.908	8032.11
483.279	8110.3
483.65	8250.63
484.021	8470.29
484.391	8502.15
484.762	8666.21
485.133	8659.66
485.503	8842.03
485.874	9056.94
486.244	9122.92
486.615	9340.77
486.985	9395.23
487.356	9544.16
487.726	9627.32
488.097	9867.09
488.467	9930.59
488.837	10055.78
489.207	10169.45
489.578	10379.39
489.948	10513.17
490.318	10679.95
490.688	10632.26
491.058	10812.82
491.428	11033.38
491.798	11116.54
492.168	11406.93
492.538	11319.93
492.908	11457.55
493.278	11646.7
493.648	11649.86
494.017	11831.78
494.387	11924.21
494.757	12098.89
495.126	12249.4
495.496	12304.31
495.866	12430.41
496.235	12492.78
496.605	12698.88
496.974	12796.5
497.344	12859.32
497.713	12941.58
498.082	12941.58
498.452	13141.12
498.821	13261.8
499.19	13357.39
499.559	13451.85
499.928	13612.07
500.298	13624.27
500.667	13726.19
501.036	13847.09
501.405	13951.05
501.774	13996.02
502.143	14139.29
502.512	14149.68
502.88	14393.07
503.249	14346.74
503.618	14456.12
503.987	14622.21
504.356	14713.51
504.724	14748.09
505.093	14883.22
505.462	14984.01
505.83	15076.21
506.199	15214.06
506.567	15381.97
506.936	15377.9
507.304	15609.08
507.672	15690.66
508.041	15699.02
508.409	15880.94
508.777	16038
509.145	16140.59
509.514	16161.38
509.882	16306.46
510.25	16337.88
510.618	16491.09
510.986	16594.14
511.354	16745.32
511.722	16927.92
512.09	17117.29
512.458	17061.02
512.826	17234.8
513.193	17361.13
513.561	17439.32
513.929	17641.57
514.297	17738.29
514.664	17929.7
515.032	17979.87
515.4	18094.44
515.767	18330.82
516.135	18394.77
516.502	18331.95
516.869	18688.1
517.237	18772.39
517.604	18820.52
517.972	19014.64
518.339	19074.07
518.706	19190.68
519.073	19226.84
519.44	19446.04
519.808	19620.95
520.175	19749.76
520.542	20102.75
520.909	20057.78
521.276	20167.83
521.643	20368.73
522.009	20459.12
522.376	20661.38
522.743	20672.45
523.11	21038.32
523.477	21243.28
523.843	21313.11
524.21	21537.51
524.577	21699.99
524.943	21806.66
525.31	22023.15
525.676	22196.03
526.043	22277.15
526.409	22429.47
526.776	22668.78
527.142	22828.1
527.508	22876.69
527.874	23113.06
528.241	23174.98
528.607	23391.48
528.973	23603.22
529.339	23588.53
529.705	23737
530.071	23970.9
530.437	24170.21
530.803	24445.91
531.169	24467.38
531.535	24450.66
531.901	24641.84
532.267	24613.82
532.632	24893.13
532.998	24953.92
533.364	25293.57
533.73	25391.2
534.095	25542.83
534.461	25515.26
534.826	25639.55
535.192	25825.31
535.557	26160.89
535.923	25992.08
536.288	26251.29
536.653	26475.69
537.019	26413.99
537.384	26490.15
537.749	26707.32
538.114	26635.91
538.479	26656.02
538.845	26973.08
539.21	26914.77
539.575	27090.14
539.94	27143.47
540.305	27312.73
540.67	27341.65
541.034	27492.84
541.399	27633.62
541.764	27673.85
542.129	27737.58
542.494	27891.47
542.858	27979.15
543.223	28108.19
543.587	28364.68
543.952	28242.42
544.316	28356.09
544.681	28308.18
545.045	28551.79
545.41	28798.56
545.774	28708.62
546.138	28867.04
546.503	28955.62
546.867	29007.6
547.231	29377.76
547.595	29255.5
547.959	29426.57
548.324	29456.63
548.688	29579.56
549.052	29546.34
549.416	29695.49
549.779	29950.85
550.143	29865.66
550.507	30212.76
550.871	30361.46
551.235	30326.43
551.599	30542.93
551.962	30546.32
552.326	30509.71
552.689	30794.67
553.053	30818.4
553.417	30961.45
553.78	31261.55
554.143	31299.74
554.507	31471.49
554.87	31459.29
555.234	31924.58
555.597	31799.62
555.96	31912.83
556.323	31962.78
556.686	31992.38
557.05	32275.31
557.413	32425.59
557.776	32565.25
558.139	32816.99
558.502	32803.43
558.865	32961.17
559.228	33157.77
559.59	33395.05
559.953	33475.73
560.316	33728.15
560.679	33722.96
561.041	33870.75
561.404	34099.67
561.767	34337.63
562.129	34140.12
562.492	34615.81
562.854	34673.21
563.217	34773.1
563.579	34872.76
563.941	35060.55
564.304	35078.63
564.666	35531.04
565.028	35535.34
565.39	35707.99
565.753	35863.69
566.115	36073.85
566.477	36178.94
566.839	36278.82
567.201	36570.34
567.563	36566.27
567.925	36686.27
568.287	36742.54
568.648	36915.87
569.01	37088.29
569.372	37140.72
569.734	37203.54
570.095	37595.85
570.457	37692.57
570.819	37783.64
571.18	37780.48
571.542	38015.05
571.903	38075.38
572.265	38186.11
572.626	38265.43
572.987	38410.06
573.349	38501.36
573.71	38667.01
574.071	38695.25
574.432	38802.14
574.794	38983.16
575.155	39115.58
575.516	39032.19
575.877	39260.21
576.238	39410.04
576.599	39550.37
576.96	39582.01
577.32	39467.89
577.681	39725.74
578.042	39847.09
578.403	39862.91
578.763	39826.52
579.124	39965.28
579.485	40095.89
579.845	40240.07
580.206	40197.59
580.566	40024.71
580.927	40198.04
581.287	40385.15
581.648	40172.28
582.008	40559.39
582.368	40367.98
582.728	40418.6
583.089	40507.41
583.449	40378.6
583.809	40502.44
584.169	40624.69
584.529	40480.52
584.889	40811.13
585.249	40472.16
585.609	40398.94
585.969	40676.67
586.329	40653.85
586.688	40793.96
587.048	40663.56
587.408	40650
587.768	40624.47
588.127	40723.9
588.487	40654.98
588.846	40917.79
589.206	40633.06
589.565	40634.64
589.925	40944.69
590.284	40751.02
590.643	40893.39
591.003	40960.73
591.362	40994.4
591.721	40907.17
592.08	40970
592.44	41069.43
592.799	41094.51
593.158	40970.9
593.517	41177.9
593.876	40984.01
594.235	40939.04
594.593	41031.69
594.952	41187.62
595.311	41057.68
595.67	41107.17
596.029	41258.35
596.387	41238.69
596.746	41387.84
597.104	41144.23
597.463	41231.01
597.822	41421.06
598.18	41209.31
598.538	41382.19
598.897	41517.33
599.255	41197.33
599.613	41577.44
599.972	41479.36
600.33	41635.52
600.688	41539.47
601.046	41651.33
601.404	41852.91
601.762	41714.38
602.12	41858.56
602.478	41775.85
602.836	41891.1
603.194	41710.77
603.552	41787.83
603.91	41705.34
604.268	41986.01
604.625	41800.48
604.983	41965.68
605.341	41815.4
605.698	42109.4
606.056	42150.3
606.413	42075.96
606.771	42236.63
607.128	42336.29
607.485	42224.43
607.843	42304.42
608.2	42464.19
608.557	42475.27
608.914	42323.18
609.272	42604.98
609.629	42604.08
609.986	42740.35
610.343	42461.03
610.7	42892.88
611.057	42682.27
611.414	42816.73
611.771	42909.15
612.127	43051.07
612.484	42982.37
612.841	42946.22
613.198	42964.97
613.554	42922.94
613.911	43022.82
614.267	43115.93
614.624	43223.5
614.98	43224.85
615.337	43480.66
615.693	43413.1
616.05	43397.28
616.406	43654.9
616.762	43330.61
617.118	43378.07
617.475	43377.39
617.831	43644.05
618.187	43441.8
618.543	43595.24
618.899	43708.91
619.255	43662.13
619.611	43649.93
619.967	43724.5
620.323	43880.65
620.678	43869.13
621.034	43586.42
621.39	43567.44
621.746	43694.44
622.101	44194.54
622.457	43771.5
622.812	43957.26
623.168	43969.47
623.523	43981.89
623.879	44071.38
624.234	43898.73
624.589	44069.12
624.945	43937.6
625.3	43860.09
625.655	43940.31
626.01	43898.96
626.365	44010.14
626.72	43967.88
627.075	43938.51
627.43	43859.64
627.785	43671.85
628.14	43806.53
628.495	43955
628.85	43860.32
629.205	43629.14
629.559	43717.95
629.914	43630.72
630.269	43737.83
630.623	43624.39
630.978	43459.2
631.332	43651.51
631.687	43565.63
632.041	43527.67
632.396	43547.78
632.75	43418.97
633.104	43301.23
633.459	43125.65
633.813	43295.81
634.167	43260.78
634.521	43311.4
634.875	43202.71
635.229	43187.11
635.583	42893.34
635.937	42979.21
636.291	42773.11
636.645	42920
636.999	42781.47
637.352	42877.74
637.706	42707.13
638.06	42938.76
638.413	42754.58
638.767	42615.6
639.121	42793
639.474	42468.04
639.828	42455.61
640.181	42470.97
640.534	42623.74
640.888	42346.46
641.241	42109.63
641.594	42227.82
641.947	42337.64
642.301	42194.14
642.654	42224.43
643.007	42323.86
643.36	42020.14
643.713	42029.4
644.066	42275.05
644.419	41975.85
644.771	41607.27
645.124	41331.57
645.477	41119.37
645.83	41080.05
646.182	40638.25
646.535	40655.43
646.888	40805.48
647.24	40488.88
647.593	40871.24
647.945	40753.5
648.298	40541.98
648.65	40503.12
649.002	40273.97
649.355	40511.48
649.707	40417.69
650.059	40683.68
650.411	40986.72
650.763	41022.88
651.115	41367.95
651.467	41256.99
651.819	41208.41
652.171	41047.06
652.523	41053.84
652.875	41003.89
653.227	40953.05
653.578	41159.37
653.93	41052.48
654.282	41051.8
654.633	40778.36
654.985	40757.57
655.337	40903.11
655.688	40765.03
656.039	40842.09
656.391	40518.48
656.742	40579.27
657.094	40606.62
657.445	40835.99
657.796	40672.6
658.147	40522.1
658.498	40572.49
658.849	40633.51
659.2	40405.72
659.551	40621.08
659.902	40592.38
660.253	40508.54
660.604	40504.02
660.955	40386.28
661.306	40362.55
661.656	40308.32
662.007	40344.48
662.358	40284.14
662.708	40301.99
663.059	40244.82
663.409	39955.79
663.76	40125.95
664.11	40161.2
664.461	40223.58
664.811	40072.17
665.161	40297.92
665.511	39982.45
665.862	40050.47
666.212	40290.47
666.562	40398.26
666.912	40124.82
667.262	40039.4
667.612	40127.31
667.962	40163.69
668.312	40050.02
668.662	40184.25
669.011	40181.09
669.361	40059.51
669.711	39938.61
670.06	39890.25
670.41	39820.42
670.76	39804.38
671.109	39841.44
671.459	39833.3
671.808	39655.45
672.157	39927.76
672.507	39647.32
672.856	39628.11
673.205	39596.47
673.554	39814.09
673.904	39550.37
674.253	39746.75
674.602	39678.73
674.951	39189.25
675.3	38987.22
675.649	39598.05
675.998	39363.71
676.346	39321.9
676.695	39523.25
677.044	39212.08
677.393	39431.05
677.741	39431.51
678.09	39203.04
678.438	39274
678.787	39292.53
679.135	39307.22
679.484	39104.73
679.832	39216.14
680.181	39013.44
680.529	39078.07
680.877	38939.09
681.225	38881.24
681.573	39125.3
681.922	38941.12
682.27	38858.87
682.618	38721.69
682.966	38566.9
683.314	38672.2
683.661	38481.25
684.009	38302.04
684.357	38321.48
684.705	38260.46
685.053	38196.28
685.4	38077.19
685.748	38053.69
686.095	38042.62
686.443	37856.41
686.79	37690.99
687.138	37801.27
687.485	37851.66
687.832	37624.77
688.18	37817.31
688.527	37532.12
688.874	37462.74
689.221	37394.95
689.568	37328.51
689.915	37251.22
690.262	37226.59
690.609	37254.61
690.956	37047.16
691.303	36983.89
691.65	36798.13
691.997	36737.11
692.344	36514.07
692.69	36586.16
693.037	36653.73
693.383	36557.91
693.73	36390
694.077	36138.48
694.423	36344.58
694.769	36263
695.116	36218.48
695.462	36110.46
695.808	36017.81
696.155	35967.87
696.501	35611.94
696.847	35574.88
697.193	35379.18
697.539	35533.98
697.885	35242.24
698.231	35228.68
698.577	35257.15
698.923	35011.51
699.269	34855.13
699.614	34567.68
699.96	34731.52
700.306	34839.76
700.651	34533.1
700.997	34609.26
701.342	34558.19
701.688	34305.54
702.033	34072.32
702.379	34313.67
702.724	34198.42
703.069	34116.17
703.415	33751.2
703.76	33872.33
704.105	33741.94
704.45	33666.01
704.795	33418.56
705.14	33323.64
705.485	33220.37
705.83	33115.97
706.175	33215.62
706.52	33121.16
706.865	32972.92
707.209	33001.39
707.554	32920.94
707.899	32917.55
708.243	32890.21
708.588	32771.79
708.932	32536.55
709.277	32492.48
709.621	32543.78
709.966	32337.23
710.31	32321.86
710.654	32246.84
710.998	32136.33
711.342	32238.47
711.687	31981.08
712.031	31909.44
712.375	31819.73
712.719	31884.13
713.063	31822.44
713.407	31927.52
713.75	31739.28
714.094	31670.35
714.438	31473.75
714.782	31522.33
715.125	31278.73
715.469	31426.74
715.812	31367.31
716.156	31102.46
716.499	31083.02
716.843	31031.5
717.186	30788.12
717.53	31001.67
717.873	31074.21
718.216	30938.4
718.559	30913.31
718.902	30707.67
719.246	30770.26
719.589	30772.52
719.932	30482.14
720.275	30619.08
720.617	30379.99
720.96	30425.19
721.303	30439.2
721.646	30407.56
721.989	30110.85
722.331	30150.62
722.674	30162.14
723.016	30172.31
723.359	30090.51
723.701	30085.99
724.044	29813.68
724.386	29749.73
724.729	29933.45
725.071	29817.97
725.413	29657.3
725.755	29776.17
726.097	29537.53
726.439	29485.78
726.782	29388.61
727.124	29598.09
727.465	29402.62
727.807	29403.29
728.149	29287.14
728.491	29163.07
728.833	29322.17
729.175	29185.22
729.516	28982.51
729.858	29032.68
730.199	29032.91
730.541	29055.06
730.882	28956.07
731.224	29025.9
731.565	28862.29
731.906	28924.89
732.248	28878.56
732.589	28714.05
732.93	28541.4
733.271	28472.92
733.612	28682.86
733.953	28515.18
734.294	28399.03
734.635	28348.18
734.976	28444
735.317	28416.2
735.658	28465.24
735.999	28213.5
736.339	28326.71
736.68	28246.71
737.021	28091.69
737.361	28034.74
737.702	28152.48
738.042	28109.77
738.383	27954.75
738.723	28025.25
739.063	28005.37
739.404	27893.96
739.744	27935.08
740.084	27866.84
740.424	27889.21
740.764	27730.57
741.104	27761.08
741.444	27677.01
741.784	27527.19
742.124	27640.18
742.464	27475.21
742.804	27520.63
743.143	27457.81
743.483	27447.87
743.823	27284.25
744.162	27218.04
744.502	27315.21
744.841	27057.37
745.181	27235.22
745.52	27152.73
745.86	27252.62
746.199	26983.92
746.538	26925.85
746.877	26983.92
747.216	26900.31
747.556	26881.78
747.895	26803.59
748.234	26757.94
748.573	26600.43
748.911	26563.6
749.25	26511.39
749.589	26503.94
749.928	26514.33
750.267	26594.78
750.605	26582.58
750.944	26463.26
751.283	26331.06
751.621	26248.58
751.96	26207.45
752.298	26206.77
752.636	26099.2
752.975	26020.33
753.313	25956.83
753.651	25967.23
753.989	25873.67
