Data from plate_porcelain_FLMS001491_054.txt Node
Date: Tue Feb 07 11:19:32 GMT 2017
User: dcchb
Spectrometer: FLMS00149
Trigger mode: 0
Integration Time (sec): 2.000000E-2
Scans to average: 10
Electric dark correction enabled: true
Nonlinearity correction enabled: false
Boxcar width: 0
XAxis mode: Wavelengths
Number of Pixels in Spectrum: 2048
>>>>>Begin Spectral Data<<<<<
341.393	-10.68
341.776	-10.68
342.16	-10.68
342.543	-43.67
342.927	-72.82
343.31	-69.66
343.693	-87.51
344.077	-60.39
344.46	-49.77
344.843	-54.74
345.226	-41.64
345.61	-36.67
345.993	1.53
346.376	-2.77
346.759	-12.03
347.142	15.99
347.525	50.79
347.908	76.33
348.291	69.55
348.674	77.68
349.057	123.33
349.44	123.78
349.823	141.63
350.206	168.53
350.588	226.38
350.971	240.16
351.354	261.63
351.737	267.06
352.119	297.56
352.502	298.24
352.884	317
353.267	319.48
353.65	337.56
354.032	343.66
354.414	361.06
354.797	363.1
355.179	355.64
355.562	349.09
355.944	371.01
356.326	369.2
356.709	384.57
357.091	380.5
357.473	401.06
357.855	392.48
358.238	403.55
358.62	404.23
359.002	409.2
359.384	394.28
359.766	409.2
360.148	393.38
360.53	390.67
360.912	385.7
361.294	386.37
361.676	415.75
362.057	416.43
362.439	412.81
362.821	390.22
363.203	385.92
363.584	399.03
363.966	384.11
364.348	389.99
364.729	407.84
365.111	400.84
365.493	394.28
365.874	385.47
366.256	405.36
366.637	400.61
367.019	397
367.4	383.89
367.781	377.79
368.163	427.73
368.544	387.05
368.925	403.77
369.306	407.84
369.688	409.42
370.069	412.14
370.45	397.9
370.831	393.61
371.212	423.89
371.593	426.15
371.974	393.15
372.355	442.42
372.736	443.1
373.117	448.75
373.498	422.76
373.879	435.64
374.26	417.11
374.641	400.16
375.021	437.67
375.402	434.73
375.783	455.98
376.163	474.06
376.544	462.53
376.925	467.05
377.305	460.5
377.686	465.24
378.066	458.24
378.447	465.47
378.827	474.28
379.208	482.42
379.588	492.36
379.968	476.77
380.349	492.81
380.729	482.42
381.109	478.57
381.489	505.47
381.87	510.66
382.25	517.9
382.63	495.52
383.01	522.64
383.39	538.23
383.77	520.38
384.15	533.26
384.53	552.25
384.91	539.14
385.29	545.47
385.67	579.14
386.049	544.79
386.429	578.01
386.809	556.09
387.189	602.64
387.568	574.39
387.948	582.53
388.328	597.44
388.707	618.46
389.087	606.71
389.466	638.8
389.846	650.1
390.225	645.8
390.605	632.92
390.984	662.75
391.363	638.12
391.743	643.32
392.122	652.81
392.501	679.25
392.881	681.73
393.26	711.79
393.639	706.59
394.018	692.81
394.397	687.38
394.776	710.21
395.155	758.57
395.534	745.01
395.913	743.2
396.292	747.95
396.671	763.77
397.05	760.6
397.429	777.32
397.808	795.85
398.186	771.22
398.565	784.56
398.944	822.29
399.323	849.41
399.701	815.97
400.08	828.17
400.458	855.29
400.837	836.76
401.215	857.55
401.594	875.85
401.972	844.22
402.351	889.86
402.729	881.05
403.107	892.8
403.486	928.28
403.864	916.08
404.242	927.6
404.62	936.42
404.999	956.75
405.377	973.48
405.755	965.12
406.133	996.3
406.511	1000.6
406.889	1003.98
407.267	1033.14
407.645	1012.12
408.023	1064.77
408.401	1072.23
408.779	1091.21
409.156	1102.97
409.534	1102.06
409.912	1146.13
410.29	1160.59
410.667	1171.89
411.045	1185.45
411.422	1187.71
411.8	1235.39
412.178	1223.41
412.555	1242.17
412.933	1269.29
413.31	1274.26
413.687	1296.18
414.065	1320.13
414.442	1354.48
414.819	1374.6
415.197	1320.36
415.574	1371.66
415.951	1407.36
416.328	1424.09
416.705	1421.83
417.082	1399.45
417.46	1420.92
417.837	1443.3
418.214	1455.27
418.591	1500.47
418.967	1507.25
419.344	1525.55
419.721	1544.54
420.098	1568.72
420.475	1573.91
420.852	1571.43
421.228	1623.63
421.605	1610.3
421.982	1639.22
422.358	1663.18
422.735	1667.24
423.111	1698.43
423.488	1723.74
423.864	1737.98
424.241	1770.29
424.617	1777.52
424.994	1798.54
425.37	1811.42
425.746	1846
426.123	1837.64
426.499	1880.12
426.875	1901.14
427.251	1929.38
427.627	1989.5
428.003	1972.77
428.379	2027.69
428.756	2042.15
429.132	2096.61
429.507	2131.41
429.883	2130.96
430.259	2186.33
430.635	2192.43
431.011	2205.31
431.387	2250.51
431.763	2288.92
432.138	2301.8
432.514	2362.59
432.89	2375.25
433.265	2426.77
433.641	2422.25
434.016	2459.54
434.392	2509.71
434.767	2544.28
435.143	2551.06
435.518	2588.58
435.894	2620.67
436.269	2617.73
436.644	2666.99
437.02	2707.67
437.395	2723.71
437.77	2770.94
438.145	2787.67
438.52	2851.39
438.895	2875.12
439.271	2859.53
439.646	2942.92
440.021	2954.44
440.395	3016.36
440.77	2981.33
441.145	3024.72
441.52	3099.97
441.895	3088.9
442.27	3092.29
442.645	3103.59
443.019	3179.29
443.394	3155.57
443.769	3231.04
444.143	3226.3
444.518	3307.43
444.892	3259.07
445.267	3287.09
445.641	3358.95
446.016	3379.06
446.39	3384.04
446.764	3380.65
447.139	3408.22
447.513	3466.75
447.887	3479.17
448.262	3465.62
448.636	3532.28
449.01	3527.76
449.384	3590.81
449.758	3637.59
450.132	3679.17
450.506	3717.81
450.88	3723.01
451.254	3762.78
451.628	3791.71
452.002	3877.58
452.376	3838.26
452.75	3889.33
453.123	3942.21
453.497	4027.41
453.871	4074.19
454.244	4115.54
454.618	4152.15
454.992	4255.88
455.365	4225.37
455.739	4378.36
456.112	4401.41
456.486	4422.65
456.859	4439.83
457.232	4516.43
457.606	4580.39
457.979	4619.71
458.352	4730.44
458.725	4765.24
459.099	4809.08
459.472	4927.95
459.845	4948.97
460.218	5029.19
460.591	5052.24
460.964	5077.55
461.337	5206.81
461.71	5295.62
462.083	5321.61
462.456	5363.42
462.829	5395.28
463.201	5511.89
463.574	5606.35
463.947	5661.72
464.32	5776.74
464.692	5766.12
465.065	5826.01
465.438	5971.76
465.81	6007.24
466.183	6093.12
466.555	6270.97
466.928	6258.08
467.3	6254.02
467.672	6373.34
468.045	6492.43
468.417	6548.25
468.789	6638.64
469.161	6749.6
469.534	6842.93
469.906	6952.08
470.278	7050.38
470.65	7124.73
471.022	7274.78
471.394	7400.2
471.766	7470.48
472.138	7507.54
472.51	7689.91
472.882	7898.49
473.253	7982.11
473.625	8060.75
473.997	8268.2
474.369	8234.98
474.74	8427.97
475.112	8531.92
475.484	8625.03
475.855	8841.29
476.227	8938.47
476.598	9193.15
476.97	9233.37
477.341	9505
477.713	9641.05
478.084	9681.95
478.455	9992
478.827	10081.03
479.198	10376.85
479.569	10356.51
479.94	10611.42
480.311	10735.25
480.682	10985.64
481.053	11190.84
481.424	11440.32
481.795	11614.1
482.166	11790.59
482.537	11857.26
482.908	12221.09
483.279	12275.78
483.65	12577.92
484.021	12751.25
484.391	12884.12
484.762	13013.16
485.133	13236.21
485.503	13376.31
485.874	13657.21
486.244	13834.16
486.615	14014.49
486.985	14193.02
487.356	14555.94
487.726	14645.43
488.097	14930.62
488.467	15051.53
488.837	15271.18
489.207	15498.07
489.578	15770.15
489.948	15885.18
490.318	16135.34
490.688	16140.99
491.058	16393.86
491.428	16589.79
491.798	16841.53
492.168	17173.96
492.538	17314.52
492.908	17533.72
493.278	17724.9
493.648	17704.56
494.017	18112.24
494.387	18198.11
494.757	18362.62
495.126	18621.37
495.496	18574.6
495.866	18812.78
496.235	19125.54
496.605	19137.07
496.974	19316.95
497.344	19570.95
497.713	19622.7
498.082	19778.41
498.452	20031.28
498.821	20169.36
499.19	20239.41
499.559	20431.95
499.928	20597.59
500.298	20698.38
500.667	20899.73
501.036	20887.08
501.405	21127.3
501.774	21261.08
502.143	21468.98
502.512	21589.66
502.88	21849.54
503.249	21857.45
503.618	21967.5
503.987	21963.43
504.356	22272.8
504.724	22348.28
505.093	22448.17
505.462	22551.21
505.83	22758.22
506.199	22980.81
506.567	23319.1
506.936	23263.51
507.304	23609.94
507.672	23708.25
508.041	23709.6
508.409	23994.34
508.777	24157.73
509.145	24423.71
509.514	24366.08
509.882	24654.66
510.25	24697.15
510.618	24830.25
510.986	24983.47
511.354	25347.98
511.722	25546.62
512.09	25683.11
512.458	25727.4
512.826	26119.93
513.193	26137.56
513.561	26327.16
513.929	26600.15
514.297	26863.42
514.664	27131.66
515.032	27189.96
515.4	27440.35
515.767	27481.93
516.135	27678.09
516.502	27458.2
516.869	28089.15
517.237	28167.56
517.604	28198.52
517.972	28636.03
518.339	28820.65
518.706	28892.07
519.073	28987.66
519.44	29348.1
519.808	29618.37
520.175	29623.35
520.542	29975.2
520.909	30224.69
521.276	30180.39
521.643	30585.13
522.009	30853.82
522.376	31113.93
522.743	31104.89
523.11	31471.88
523.477	31939.89
523.843	32080.68
524.21	32426.89
524.577	32557.73
524.943	32857.84
525.31	33075.01
525.676	33307.32
526.043	33517.03
526.409	33613.3
526.776	34144.13
527.142	34157.92
527.508	34539.83
527.874	34816.43
528.241	34868.63
528.607	35017.78
528.973	35323.76
529.339	35402.85
529.705	35675.39
530.071	35973.46
530.437	36188.82
530.803	36556.95
531.169	36582.48
531.535	36658.41
531.901	36742.25
532.267	36954.23
532.632	37220.43
532.998	37403.71
533.364	37768.22
533.73	37896.35
534.095	38059.96
534.461	38198.94
534.826	38316.22
535.192	38518.93
535.557	38929.32
535.923	38836.89
536.288	38976.09
536.653	39272.58
537.019	39172.7
537.384	39365.91
537.749	39511
538.114	39567.26
538.479	39738.33
538.845	39960.47
539.21	40210.86
539.575	40371.54
539.94	40462.83
540.305	40768.14
540.67	40585.09
541.034	40849.94
541.399	41002.48
541.764	41207.45
542.129	41204.96
542.494	41363.15
542.858	41490.15
543.223	41631.39
543.587	41776.7
543.952	41811.5
544.316	42018.27
544.681	42018.73
545.045	42322.22
545.41	42437.25
545.774	42454.42
546.138	42613.29
546.503	42754.75
546.867	42813.28
547.231	43146.61
547.595	43237.45
547.959	43436.99
548.324	43410.55
548.688	43597.89
549.052	43684.22
549.416	43739.36
549.779	44003.08
550.143	44205.33
550.507	44385.9
550.871	44468.38
551.235	44578.21
551.599	44875.37
551.962	44822.49
552.326	44925.09
552.689	45349.26
553.053	45275.36
553.417	45312.88
553.78	45844.39
554.143	45763.03
554.507	46035.34
554.87	46012.07
555.234	46532.73
555.597	46339.29
555.96	46597.36
556.323	46729.79
556.686	46743.57
557.05	47089.1
557.413	47068.08
557.776	47227.18
558.139	47576.32
558.502	47642.98
558.865	47628.07
559.228	47962.3
559.59	48096.08
559.953	48225.57
560.316	48610.19
560.679	48514.83
561.041	48752.33
561.404	48933.12
561.767	49226.22
562.129	49183.51
562.492	49626.66
562.854	49461.92
563.217	49578.07
563.579	49822.36
563.941	50043.15
564.304	50225.29
564.666	50432.06
565.028	50454.44
565.39	50630.93
565.753	50803.81
566.115	50885.16
566.477	51106.17
566.839	51164.02
567.201	51375.09
567.563	51396.56
567.925	51635.87
568.287	51660.05
568.648	51697.12
569.01	51890.1
569.372	51989.08
569.734	52025.02
570.095	52204.45
570.457	52377.32
570.819	52481.28
571.18	52422.29
571.542	52669.97
571.903	52660.93
572.265	52794.71
572.626	52859.34
572.987	53080.81
573.349	53104.54
573.71	53191.31
574.071	53302.27
574.432	53386.11
574.794	53623.17
575.155	53583.39
575.516	53503.62
575.877	53663.84
576.238	53666.78
576.599	53837.85
576.96	53822.71
577.32	53905.64
577.681	53987.68
578.042	54050.5
578.403	54095.02
578.763	54159.88
579.124	54197.61
579.485	54291.4
579.845	54314
580.206	54271.28
580.566	54292.08
580.927	54389.25
581.287	54465.4
581.648	54351.96
582.008	54499.98
582.368	54493.65
582.728	54574.33
583.089	54512.18
583.449	54526.65
583.809	54591.28
584.169	54688.22
584.529	54446.87
584.889	54775.45
585.249	54525.52
585.609	54488.91
585.969	54650.94
586.329	54560.54
586.688	54702.46
587.048	54612.29
587.408	54675.57
587.768	54661.33
588.127	54561.45
588.487	54496.14
588.846	54742.01
589.206	54633.08
589.565	54657.49
589.925	54728.67
590.284	54719.86
590.643	54756.24
591.003	54773.42
591.362	54799.63
591.721	54768.67
592.08	54764.61
592.44	54907.88
592.799	54879.86
593.158	54922.12
593.517	54838.95
593.876	54912.4
594.235	54837.37
594.593	54864.94
594.952	54939.52
595.311	54842.8
595.67	54960.08
596.029	55034.43
596.387	55054.09
596.746	55086.86
597.104	54917.37
597.463	54912.17
597.822	55087.76
598.18	55003.47
598.538	54949.46
598.897	55143.13
599.255	54937.71
599.613	55320.97
599.972	55180.41
600.33	55179.06
600.688	55156.23
601.046	55303.35
601.404	55434.42
601.762	55229
602.12	55477.81
602.478	55435.77
602.836	55434.64
603.194	55287.3
603.552	55358.94
603.91	55226.29
604.268	55449.78
604.625	55383.8
604.983	55487.98
605.341	55440.52
605.698	55560.29
606.056	55646.39
606.413	55483.68
606.771	55684.36
607.128	55692.49
607.485	55607.29
607.843	55574.08
608.2	55730.68
608.557	55870.11
608.914	55718.93
609.272	55897.91
609.629	55842.77
609.986	56026.72
610.343	55810.68
610.7	56005.93
611.057	55969.09
611.414	55998.7
611.771	56113.04
612.127	56134.96
612.484	56080.95
612.841	56217
613.198	56104.23
613.554	56178.35
613.911	56319.82
614.267	56243.89
614.624	56194.17
614.98	56342.64
615.337	56509.64
615.693	56423.09
616.05	56371.79
616.406	56477.55
616.762	56384.9
617.118	56397.33
617.475	56416.09
617.831	56527.95
618.187	56498.57
618.543	56502.64
618.899	56693.59
619.255	56615.18
619.611	56625.57
619.967	56664.89
620.323	56696.08
620.678	56563.2
621.034	56540.6
621.39	56635.29
621.746	56552.58
622.101	56788.73
622.457	56647.27
622.812	56712.12
623.168	56769.75
623.523	56669.64
623.879	56792.12
624.234	56673.48
624.589	56730.2
624.945	56747.38
625.3	56726.81
625.655	56684.55
626.01	56758.45
626.365	56741.5
626.72	56800.71
627.075	56646.36
627.43	56710.99
627.785	56600.94
628.14	56685.68
628.495	56672.13
628.85	56693.82
629.205	56471.23
629.559	56661.96
629.914	56473.26
630.269	56558.91
630.623	56538.8
630.978	56421.28
631.332	56518.68
631.687	56615.63
632.041	56395.97
632.396	56498.57
632.75	56348.07
633.104	56427.61
633.459	56273.04
633.813	56299.03
634.167	56360.95
634.521	56284.34
634.875	56320.95
635.229	56237.11
635.583	56131.12
635.937	56167.28
636.291	56101.75
636.645	56104.68
636.999	56068.98
637.352	56016.1
637.706	55880.28
638.06	56010.9
638.413	55921.18
638.767	55939.04
639.121	55911.02
639.474	55747.4
639.828	55718.48
640.181	55815.43
640.534	55745.14
640.888	55646.16
641.241	55553.06
641.594	55613.4
641.947	55692.04
642.301	55583.34
642.654	55529.33
643.007	55575.66
643.36	55474.87
643.713	55483
644.066	55521.2
644.419	55416.34
644.771	55232.84
645.124	54950.82
645.477	54767.77
645.83	54670.14
646.182	54506.31
646.535	54380.66
646.888	54500.88
647.24	54376.37
647.593	54470.6
647.945	54530.94
648.298	54330.04
648.65	54239.2
649.002	54104.74
649.355	54191.06
649.707	54216.82
650.059	54246.88
650.411	54637.83
650.763	54715.79
651.115	54935.22
651.467	54746.53
651.819	54771.38
652.171	54659.75
652.523	54632.18
652.875	54621.56
653.227	54459.75
653.578	54681.22
653.93	54541.33
654.282	54441.45
654.633	54266.54
654.985	54475.35
655.337	54441.22
655.688	54493.43
656.039	54542.24
656.391	54245.97
656.742	54316.93
657.094	54365.52
657.445	54503.82
657.796	54475.35
658.147	54284.62
658.498	54237.39
658.849	54289.36
659.2	54255.24
659.551	54164.17
659.902	54228.57
660.253	54189.93
660.604	54243.04
660.955	54013.89
661.306	54206.88
661.656	54081.23
662.007	54056.83
662.358	53983.16
662.708	54065.19
663.059	54002.59
663.409	53775.93
663.76	54098.18
664.11	53941.35
664.461	53970.05
664.811	54006.43
665.161	54021.57
665.511	53863.39
665.862	53925.08
666.212	53954.23
666.562	53948.81
666.912	53961.24
667.262	53851.86
667.612	53946.55
667.962	53996.26
668.312	53897.74
668.662	54018.64
669.011	53878.75
669.361	53766.44
669.711	53826.55
670.06	53732.09
670.41	53718.76
670.76	53647.12
671.109	53773.44
671.459	53743.39
671.808	53693.9
672.157	53749.49
672.507	53582.49
672.856	53652.77
673.205	53728.47
673.554	53676.95
673.904	53588.82
674.253	53633.56
674.602	53595.6
674.951	53205.32
675.3	52998.55
675.649	53565.09
675.998	53441.7
676.346	53396.51
676.695	53528.25
677.044	53301.59
677.393	53429.27
677.741	53462.49
678.09	53314.7
678.438	53224.53
678.787	53382.95
679.135	53324.19
679.484	53187.7
679.832	53263.4
680.181	53040.13
680.529	53164.87
680.877	52978.44
681.225	52916.29
681.573	53100.47
681.922	52976.4
682.27	52849.85
682.618	52798.1
682.966	52833.13
683.314	52861.83
683.661	52716.52
684.009	52444.21
684.357	52473.59
684.705	52522.18
685.053	52520.14
685.4	52473.14
685.748	52292.13
686.095	52249.64
686.443	52045.35
686.79	52023.66
687.138	52035.64
687.485	52107.5
687.832	51942.53
688.18	51968.75
688.527	51898.69
688.874	51808.07
689.221	51642.43
689.568	51485.14
689.915	51465.48
690.262	51536.89
690.609	51443.34
690.956	51210.8
691.303	51251.93
691.65	51006.96
691.997	51004.93
692.344	50901.43
692.69	50913.63
693.037	50950.69
693.383	50666.86
693.73	50738.5
694.077	50439.75
694.423	50515
694.769	50287.43
695.116	50303.71
695.462	50368.79
695.808	50056.25
696.155	50185.06
696.501	49941.68
696.847	49974.9
697.193	49710.95
697.539	49760.22
697.885	49586.44
698.231	49574.69
698.577	49505.99
698.923	49258.76
699.269	49083.85
699.614	48911.2
699.96	48809.06
700.306	48909.39
700.651	48862.61
700.997	48673.24
701.342	48704.2
701.688	48508.95
702.033	48311.22
702.379	48262.4
702.724	48212.24
703.069	48345.34
703.415	47882.07
703.76	48000.04
704.105	47847.95
704.45	47584.91
704.795	47441.63
705.14	47346.5
705.485	47421.52
705.83	47177.46
706.175	47341.52
706.52	47104.92
706.865	46959.84
707.209	46960.29
707.554	46912.38
707.899	46825.15
708.243	46614.76
708.588	46691.6
708.932	46379.06
709.277	46270.82
709.621	46404.83
709.966	46160.54
710.31	46231.5
710.654	45834.67
710.998	46007.77
711.342	46038.06
711.687	45768.68
712.031	45577.95
712.375	45523.27
712.719	45546.32
713.063	45400.78
713.407	45398.07
713.75	45090.51
714.094	45222.71
714.438	45135.93
714.782	45194.24
715.125	44898.42
715.469	44820.69
715.812	44779.78
716.156	44422.28
716.499	44545.44
716.843	44585.21
717.186	44189.97
717.53	44430.41
717.873	44497.98
718.216	44412.34
718.559	44397.19
718.902	44022.97
719.246	44206.01
719.589	44036.53
719.932	43872.46
720.275	43833.59
720.617	43760.83
720.96	43547.05
721.303	43687.83
721.646	43642.86
721.989	43260.05
722.331	43453.72
722.674	43456.88
723.016	43305.92
723.359	43089.21
723.701	43210.11
724.044	42858.25
724.386	42790.68
724.729	42952.26
725.071	42785.71
725.413	42810.8
725.755	42679.73
726.097	42476.57
726.439	42343.01
726.782	42294.42
727.124	42522.44
727.465	42365.61
727.807	42197.93
728.149	42012.62
728.491	41936.69
728.833	41948.22
729.175	42006.75
729.516	41950.25
729.858	41897.37
730.199	41786.42
730.541	41748.45
730.882	41578.06
731.224	41630.26
731.565	41396.82
731.906	41536.03
732.248	41606.08
732.589	41318.63
732.93	41195.7
733.271	41138.97
733.612	41171.97
733.953	41149.37
734.294	40998.64
734.635	40926.33
734.976	40992.09
735.317	40844.97
735.658	40865.08
735.999	40779.21
736.339	40583.74
736.68	40763.39
737.021	40565.43
737.361	40398.43
737.702	40626.22
738.042	40408.82
738.383	40209.51
738.723	40285.44
739.063	40103.97
739.404	40272.1
739.744	40171.54
740.084	40008.61
740.424	40086.8
740.764	39844.77
741.104	39981.27
741.444	39668.05
741.784	39637.32
742.124	39596.64
742.464	39572.01
742.804	39545.8
743.143	39404.11
743.483	39387.16
743.823	39195.07
744.162	39334.28
744.502	39137.67
744.841	39157.56
745.181	39323.66
745.52	39108.97
745.86	39145.81
746.199	38885.93
746.538	38829.21
746.877	38985.59
747.216	38701.98
747.556	38661.3
747.895	38654.97
748.234	38460.63
748.573	38365.04
748.911	38360.97
749.25	38306.96
749.589	38152.84
749.928	38183.8
750.267	38144.48
750.605	37929.57
750.944	37997.36
751.283	37773.19
751.621	37912.62
751.96	37627.2
752.298	37621.33
752.636	37781.1
