Data from plate_porcelain_FLMS001491_076.txt Node
Date: Tue Feb 07 11:19:52 GMT 2017
User: dcchb
Spectrometer: FLMS00149
Trigger mode: 0
Integration Time (sec): 2.000000E-2
Scans to average: 10
Electric dark correction enabled: true
Nonlinearity correction enabled: false
Boxcar width: 0
XAxis mode: Wavelengths
Number of Pixels in Spectrum: 2048
>>>>>Begin Spectral Data<<<<<
341.393	2.63
341.776	2.63
342.16	2.63
342.543	-47.99
342.927	-73.76
343.31	-63.81
343.693	-61.55
344.077	-76.24
344.46	-56.13
344.843	-53.42
345.226	-44.6
345.61	-11.84
345.993	-23.36
346.376	3.53
346.759	-5.06
347.142	4.21
347.525	46.02
347.908	56.41
348.291	75.85
348.674	93.02
349.057	116.97
349.44	128.95
349.823	152.45
350.206	168.72
350.588	227.03
350.971	264.54
351.354	262.73
351.737	279.91
352.119	297.99
352.502	317.65
352.884	312.9
353.267	332.34
353.65	331.43
354.032	352.67
354.414	345.67
354.797	374.59
355.179	380.7
355.562	384.31
355.944	362.62
356.326	379.34
356.709	373.69
357.091	383.86
357.473	394.71
357.855	415.72
358.238	387.25
358.62	382.28
359.002	400.13
359.384	404.65
359.766	399.23
360.148	415.05
360.53	418.66
360.912	401.26
361.294	395.16
361.676	421.37
362.057	407.14
362.439	389.28
362.821	411.2
363.203	408.94
363.584	408.27
363.966	413.01
364.348	409.4
364.729	396.51
365.111	388.15
365.493	397.42
365.874	398.32
366.256	359
366.637	407.14
367.019	413.01
367.4	413.46
367.781	421.15
368.163	403.52
368.544	415.95
368.925	439.45
369.306	443.75
369.688	424.99
370.069	433.58
370.45	428.6
370.831	427.7
371.212	445.1
371.593	425.44
371.974	419.11
372.355	440.81
372.736	453.46
373.117	445.33
373.498	455.72
373.879	434.71
374.26	451.65
374.641	425.21
375.021	440.13
375.402	463.18
375.783	494.37
376.163	499.56
376.544	498.21
376.925	476.74
377.305	502.95
377.686	488.26
378.066	476.96
378.447	477.42
378.827	503.4
379.208	518.09
379.588	502.5
379.968	498.21
380.349	516.29
380.729	522.39
381.109	546.12
381.489	524.87
381.87	525.78
382.25	558.09
382.63	560.58
383.01	554.93
383.39	546.57
383.77	547.7
384.15	557.87
384.53	582.5
384.91	598.77
385.29	596.28
385.67	608.26
386.049	603.06
386.429	606.9
386.809	632.67
387.189	622.27
387.568	644.19
387.948	657.07
388.328	623.63
388.707	667.69
389.087	656.85
389.466	664.08
389.846	680.8
390.225	684.64
390.605	699.56
390.984	691.65
391.363	725.77
391.743	733.91
392.122	730.29
392.501	731.65
392.881	754.25
393.26	732.33
393.639	759.9
394.018	772.1
394.397	771.42
394.776	773.23
395.155	787.01
395.534	787.24
395.913	800.35
396.292	812.78
396.671	843.96
397.05	847.12
397.429	836.96
397.808	872.66
398.186	860.68
398.565	856.39
398.944	864.98
399.323	884.64
399.701	896.84
400.08	918.99
400.458	934.13
400.837	939.78
401.215	955.14
401.594	960.34
401.972	968.03
402.351	974.35
402.729	973.45
403.107	988.82
403.486	1035.59
403.864	1005.76
404.242	1012.09
404.62	1045.54
404.999	1047.57
405.377	1059.77
405.755	1076.95
406.133	1104.07
406.511	1116.04
406.889	1138.64
407.267	1140.45
407.645	1154.01
408.023	1188.58
408.401	1192.2
408.779	1196.27
409.156	1222.26
409.534	1225.42
409.912	1257.06
410.29	1279.88
410.667	1312.88
411.045	1324.4
411.422	1318.98
411.8	1344.51
412.178	1399.2
412.555	1403.72
412.933	1425.19
413.31	1422.25
413.687	1463.38
414.065	1462.02
414.442	1467.67
414.819	1518.97
415.197	1505.41
415.574	1546.09
415.951	1577.95
416.328	1574.56
416.705	1567.33
417.082	1581.34
417.46	1611.62
417.837	1658.63
418.214	1638.29
418.591	1673.09
418.967	1677.61
419.344	1739.3
419.721	1722.81
420.098	1768.68
420.475	1790.6
420.852	1762.58
421.228	1829.02
421.605	1803.94
421.982	1847.78
422.358	1885.06
422.735	1883.71
423.111	1903.82
423.488	1952.63
423.864	1979.52
424.241	2021.11
424.617	2003.7
424.994	2004.61
425.37	2073.99
425.746	2084.61
426.123	2071.05
426.499	2104.94
426.875	2121.22
427.251	2194.89
427.627	2230.37
428.003	2264.04
428.379	2301.78
428.756	2307.2
429.132	2378.38
429.507	2369.57
429.883	2415.22
430.259	2459.51
430.635	2496.8
431.011	2511.94
431.387	2534.31
431.763	2607.76
432.138	2612.95
432.514	2660.18
432.89	2658.15
433.265	2766.4
433.641	2753.97
434.016	2796.9
434.392	2861.53
434.767	2909.22
435.143	2875.09
435.518	2965.94
435.894	2983.79
436.269	3046.84
436.644	3060.63
437.02	3092.04
437.395	3101.98
437.77	3139.95
438.145	3222.66
438.52	3233.73
438.895	3250.45
439.271	3282.77
439.646	3362.54
440.021	3399.6
440.395	3411.8
440.77	3401.41
441.145	3407.28
441.52	3517.56
441.895	3522.99
442.27	3564.79
442.645	3556.43
443.019	3612.93
443.394	3574.28
443.769	3682.76
444.143	3660.61
444.518	3738.8
444.892	3667.62
445.267	3762.98
445.641	3778.57
446.016	3795.07
446.39	3857.67
446.764	3899.47
447.139	3894.05
447.513	3967.04
447.887	3986.48
448.262	3986.93
448.636	4026.93
449.01	4069.19
449.384	4099.92
449.758	4116.64
450.132	4207.94
450.506	4218.11
450.88	4252.23
451.254	4259.46
451.628	4348.5
452.002	4388.5
452.376	4434.6
452.75	4483.19
453.123	4546.69
453.497	4626.23
453.871	4622.39
454.244	4736.74
454.618	4777.19
454.992	4804.31
455.365	4830.75
455.739	4990.29
456.112	5047.47
456.486	5083.17
456.859	5075.94
457.232	5204.52
457.606	5171.53
457.979	5272.09
458.352	5445.87
458.725	5442.03
459.099	5503.73
459.472	5612.2
459.845	5707.34
460.218	5745.3
460.591	5776.03
460.964	5886.54
461.337	5972.41
461.71	6111.62
462.083	6186.65
462.456	6124.95
462.829	6241.79
463.201	6334.66
463.574	6415.79
463.947	6535.79
464.32	6605.17
464.692	6656.92
465.065	6695.33
465.438	6805.16
465.81	6892.39
466.183	7017.81
466.555	7174.19
466.928	7173.96
467.3	7233.17
467.672	7345.48
468.045	7579.15
468.417	7613.73
468.789	7622.77
469.161	7797.22
469.534	7869.99
469.906	8092.36
470.278	8169.42
470.65	8258.68
471.022	8409.41
471.394	8580.48
471.766	8550.2
472.138	8735.5
472.51	8907.25
472.882	9051.88
473.253	9113.12
473.625	9351.99
473.997	9479.67
474.369	9554.47
474.74	9734.8
475.112	9832.65
475.484	10079.2
475.855	10235.8
476.227	10324.16
476.598	10583.37
476.97	10693.42
477.341	10946.07
477.713	11078.27
478.084	11166.4
478.455	11567.97
478.827	11588.54
479.198	11937.68
479.569	11939.04
479.94	12359.59
480.311	12500.38
480.682	12747.83
481.053	12971.55
481.424	13241.15
481.795	13328.6
482.166	13556.17
482.537	13781.7
482.908	14029.6
483.279	14277.28
483.65	14425.52
484.021	14779.19
484.391	14916.59
484.762	15011.95
485.133	15233.86
485.503	15468.66
485.874	15711.37
486.244	15995.88
486.615	16311.12
486.985	16413.27
487.356	16729.42
487.726	16900.49
488.097	17215.96
488.467	17431.1
488.837	17726
489.207	17957.64
489.578	18213.9
489.948	18403.73
490.318	18723.94
490.688	18718.75
491.058	19058.62
491.428	19339.07
491.798	19396.02
492.168	19834.42
492.538	19973.63
492.908	20287.74
493.278	20521.64
493.648	20525.48
494.017	20876.65
494.387	21084.33
494.757	21094.73
495.126	21423.31
495.496	21428.28
495.866	21727.03
496.235	21944.87
496.605	22212.66
496.974	22258.31
497.344	22533.33
497.713	22700.11
498.082	22866.66
498.452	23176.26
498.821	23376.7
499.19	23281.34
499.559	23575.57
499.928	23742.57
500.298	23790.48
500.667	24199.28
501.036	24172.16
501.405	24387.52
501.774	24370.57
502.143	24652.6
502.512	24788.19
502.88	25054.62
503.249	25146.82
503.618	25323.77
503.987	25433.14
504.356	25547.94
504.724	25827.48
505.093	25923.3
505.462	26187.02
505.83	26340.01
506.199	26411.65
506.567	26980.9
506.936	26907.46
507.304	27233.55
507.672	27346.54
508.041	27373.66
508.409	27658.4
508.777	27993.08
509.145	28146.52
509.514	28177.48
509.882	28427.42
510.25	28616.79
510.618	28706.05
510.986	28950.57
511.354	29216.32
511.722	29433.94
512.09	29723.88
512.458	29678.23
512.826	30044.32
513.193	30142.85
513.561	30279.57
513.929	30530.86
514.297	30970.4
514.664	31168.81
515.032	31166.55
515.4	31598.18
515.767	31724.05
516.135	31905.07
516.502	31752.98
516.869	32448.33
517.237	32577.36
517.604	32480.87
517.972	32931.7
518.339	33290.34
518.706	33186.84
519.073	33562.87
519.44	33792.02
519.808	34010.77
520.175	34236.98
520.542	34641.04
520.909	34791.32
521.276	34862.5
521.643	35291.64
522.009	35397.85
522.376	35708.58
522.743	35910.38
523.11	36235.8
523.477	36730.93
523.843	36748.33
524.21	37325.71
524.577	37482.77
524.943	37674.86
525.31	37779.71
525.676	38280.49
526.043	38467.6
526.409	38645.68
526.776	39136.29
527.142	39155.04
527.508	39534.02
527.874	39879.32
528.241	39950.05
528.607	40105.53
528.973	40525.63
529.339	40542.8
529.705	40906.86
530.071	41439.05
530.437	41396.57
530.803	41852.6
531.169	41964.69
531.535	41946.16
531.901	42053.27
532.267	42328.29
532.632	42634.27
532.998	42798.11
533.364	43058.67
533.73	43170.98
534.095	43542.5
534.461	43665.43
534.826	43764.64
535.192	43998.98
535.557	44380.22
535.923	44294.12
536.288	44416.15
536.653	44798.74
537.019	44751.05
537.384	44958.73
537.749	45012.29
538.114	45049.8
538.479	45429
538.845	45599.17
539.21	45559.17
539.575	45779.28
539.94	45899.95
540.305	46192.6
540.67	46178.14
541.034	46448.19
541.399	46626.71
541.764	46578.58
542.129	46867.16
542.494	46856.08
542.858	47019.7
543.223	47173.14
543.587	47391.21
543.952	47421.95
544.316	47561.83
544.681	47617.87
545.045	47843.85
545.41	48023.96
545.774	48130.63
546.138	48153
546.503	48328.14
546.867	48304.18
547.231	48743.27
547.595	48773.55
547.959	48703.27
548.324	48902.58
548.688	49093.31
549.052	49178.06
549.416	49411.5
549.779	49398.16
550.143	49507.54
550.507	49761.77
550.871	49859.17
551.235	49932.84
551.599	50197.24
551.962	50278.14
552.326	50439.49
552.689	50572.14
553.053	50545.03
553.417	50634.06
553.78	51101.85
554.143	50882.87
554.507	51181.17
554.87	51251.22
555.234	51563.08
555.597	51420.94
555.96	51614.6
556.323	51749.97
556.686	51904.09
557.05	52084.87
557.413	52158.77
557.776	52269.28
558.139	52490.51
558.502	52478.76
558.865	52656.84
559.228	52834.91
559.59	52945.42
559.953	53029.26
560.316	53366.42
560.679	53348.12
561.041	53575
561.404	53636.02
561.767	53852.28
562.129	53776.13
562.492	54116.46
562.854	54083.01
563.217	54126.18
563.579	54288.21
563.941	54513.51
564.304	54665.14
564.666	54844.8
565.028	54875.76
565.39	54946.72
565.753	55167.96
566.115	55211.57
566.477	55303.55
566.839	55439.81
567.201	55583.76
567.563	55623.31
567.925	55743.76
568.287	55813.36
568.648	55858.11
569.01	56061.27
569.372	56204.54
569.734	56193.69
570.095	56366.12
570.457	56474.14
570.819	56523.17
571.18	56525.43
571.542	56695.15
571.903	56665.54
572.265	56828.7
572.626	56939.44
572.987	56904.63
573.349	57044.52
573.71	57115.93
574.071	57184.63
574.432	57206.09
574.794	57399.54
575.155	57365.64
575.516	57315.02
575.877	57547.33
576.238	57549.81
576.599	57639.08
576.96	57644.95
577.32	57702.35
577.681	57779.64
578.042	57878.62
578.403	57910.26
578.763	57957.04
579.124	57988
579.485	58056.92
579.845	58098.05
580.206	58012.63
580.566	58049.91
580.927	58065.96
581.287	58230.7
581.648	58038.62
582.008	58225.73
582.368	58217.59
582.728	58362.22
583.089	58179.18
583.449	58182.57
583.809	58302.34
584.169	58338.27
584.529	58291.94
584.889	58404.48
585.249	58237.48
585.609	58201.55
585.969	58418.04
586.329	58255.78
586.688	58342.79
587.048	58342.11
587.408	58297.59
587.768	58406.74
588.127	58246.07
588.487	58384.82
588.846	58521.54
589.206	58271.83
589.565	58340.75
589.925	58486.06
590.284	58417.14
590.643	58443.8
591.003	58497.13
591.362	58524.93
591.721	58439.96
592.08	58455.55
592.44	58543.69
592.799	58563.12
593.158	58523.8
593.517	58477.7
593.876	58550.47
594.235	58494.2
594.593	58509.11
594.952	58611.93
595.311	58491.48
595.67	58556.12
596.029	58747.75
596.387	58706.39
596.746	58747.52
597.104	58606.96
597.463	58679.95
597.822	58782.1
598.18	58703
598.538	58687.86
598.897	58808.76
599.255	58588.66
599.613	58957.91
599.972	58787.75
600.33	58812.38
600.688	58815.54
601.046	58942.77
601.404	58966.27
601.762	58923.79
602.12	58995.43
602.478	59028.42
602.836	59093.73
603.194	58937.35
603.552	59046.72
603.91	58894.64
604.268	59067.29
604.625	59118.81
604.983	59148.64
605.341	59032.04
605.698	59169.43
606.056	59177.12
606.413	59130.11
606.771	59272.71
607.128	59300.28
607.485	59142.31
607.843	59206.49
608.2	59329.65
608.557	59411.46
608.914	59289.88
609.272	59457.79
609.629	59423.89
609.986	59493.49
610.343	59422.53
610.7	59545.69
611.057	59544.56
611.414	59562.64
611.771	59612.81
612.127	59670.21
612.484	59649.87
612.841	59696.2
613.198	59631.12
613.554	59674.05
613.911	59919.02
614.267	59763.09
614.624	59752.47
614.98	59834.73
615.337	59963.76
615.693	59932.8
616.05	59829.08
616.406	59986.59
616.762	59839.25
617.118	59949.07
617.475	59925.12
617.831	59944.55
618.187	59969.64
618.543	59992.01
618.899	60070.43
619.255	60070.43
619.611	60064.32
619.967	60070.88
620.323	60144.55
620.678	60063.87
621.034	60062.06
621.39	60086.47
621.746	60072.69
622.101	60354.26
622.457	60116.75
622.812	60150.65
623.168	60179.8
623.523	60138.22
623.879	60278.56
624.234	60113.14
624.589	60219.12
624.945	60220.25
625.3	60225.9
625.655	60182.97
626.01	60251.44
626.365	60208.28
626.72	60215.73
627.075	60196.52
627.43	60168.5
627.785	60097.09
628.14	60083.08
628.495	60141.84
628.85	60122.63
629.205	60008.28
629.559	60134.83
629.914	60046.25
630.269	60040.6
630.623	59990.2
630.978	59914.95
631.332	60068.84
631.687	60079.01
632.041	59945.46
632.396	59943.42
632.75	59879.7
633.104	59931.9
633.459	59802.86
633.813	59789.3
634.167	59787.95
634.521	59753.82
634.875	59855.06
635.229	59763.54
635.583	59623.66
635.937	59667.72
636.291	59558.35
636.645	59571.68
636.999	59595.64
637.352	59625.92
637.706	59422.76
638.06	59505.24
638.413	59522.19
638.767	59428.86
639.121	59455.53
639.474	59268.87
639.828	59242.65
640.181	59297.34
640.534	59370.33
640.888	59238.81
641.241	59177.34
641.594	59197.68
641.947	59226.83
642.301	59082.2
642.654	59141.86
643.007	59122.65
643.36	59078.81
643.713	59042.43
644.066	59155.2
644.419	58964.47
644.771	58770.8
645.124	58590.47
645.477	58477.47
645.83	58343.47
646.182	58206.29
646.535	58104.15
646.888	58247.65
647.24	58102.34
647.593	58232.28
647.945	58146.41
648.298	57976.7
648.65	57997.03
649.002	57906.64
649.355	57993.64
649.707	57951.84
650.059	58070.7
650.411	58315.67
650.763	58395.22
651.115	58661.42
651.467	58459.17
651.819	58455.55
652.171	58323.58
652.523	58380.08
652.875	58324.71
653.227	58199.06
653.578	58360.87
653.93	58225.5
654.282	58174.88
654.633	58078.61
654.985	58135.56
655.337	58179.63
655.688	58126.07
656.039	58214.2
656.391	58015.11
656.742	58041.78
657.094	58006.53
657.445	58172.62
657.796	58069.12
658.147	58093.3
658.498	57985.51
658.849	58041.1
659.2	57921.1
659.551	57944.15
659.902	58072.96
660.253	57937.15
660.604	57960.43
660.955	57884.04
661.306	58013.76
661.656	57836.59
662.007	57885.85
662.358	57822.58
662.708	57841.33
663.059	57906.64
663.409	57612.64
663.76	57750.04
664.11	57816.93
664.461	57798.62
664.811	57787.32
665.161	57813.99
665.511	57682.92
665.862	57808.79
666.212	57802.01
666.562	57792.52
666.912	57722.92
667.262	57694.22
667.612	57695.57
667.962	57743.48
668.312	57694.9
668.662	57775.8
669.011	57727.66
669.361	57607.67
669.711	57618.06
670.06	57637.5
670.41	57526.54
670.76	57489.25
671.109	57550.94
671.459	57543.94
671.808	57487.67
672.157	57621.45
672.507	57374.68
672.856	57389.14
673.205	57434.11
673.554	57491.28
673.904	57324.96
674.253	57545.97
674.602	57410.61
674.951	56987.34
675.3	56937.18
675.649	57350.27
675.998	57280.22
676.346	57286.54
676.695	57331.97
677.044	57108.7
677.393	57227.56
677.741	57310.95
678.09	57283.38
678.438	57106.89
678.787	57169.03
679.135	57184.85
679.484	57034.35
679.832	57141.69
680.181	57007.68
680.529	57085.65
680.877	56897.4
681.225	56886.33
681.573	57030.96
681.922	56857.63
682.27	56774.47
682.618	56826.22
682.966	56695.6
683.314	56708.03
683.661	56615.15
684.009	56475.04
684.357	56418.32
684.705	56432.78
685.053	56496.96
685.4	56420.13
685.748	56257.87
686.095	56278.89
686.443	56146.91
686.79	56076.41
687.138	56104.65
687.485	56137.2
687.832	56039.8
688.18	56125.45
688.527	55883.64
688.874	55881.38
689.221	55712.57
689.568	55659.24
689.915	55651.79
690.262	55560.26
690.609	55604.78
690.956	55435.52
691.303	55460.83
691.65	55281.4
691.997	55207.28
692.344	55131.12
692.69	55119.37
693.037	55173.38
693.383	54866.95
693.73	54979.26
694.077	54820.62
694.423	54802.54
694.769	54637.12
695.116	54589.67
695.462	54638.25
695.808	54514.87
696.155	54559.61
696.501	54342.44
696.847	54352.84
697.193	54182.45
697.539	54147.87
697.885	53967.99
698.231	53964.15
698.577	53897.26
698.923	53895.22
699.269	53739.07
699.614	53480.77
699.96	53510.82
700.306	53570.48
700.651	53433.31
700.997	53301.11
701.342	53279.19
701.688	53222.92
702.033	53064.73
702.379	53042.36
702.724	52882.37
703.069	53041.23
703.415	52638.08
703.76	52634.46
704.105	52671.07
704.45	52530.51
704.795	52303.62
705.14	52308.14
705.485	52260.24
705.83	52171.88
706.175	52214.59
706.52	52174.59
706.865	51996.51
707.209	52002.62
707.554	51885.1
707.899	51847.37
708.243	51762.4
708.588	51639.01
708.932	51460.26
709.277	51442.18
709.621	51431.11
709.966	51332.12
710.31	51297.55
710.654	51014.39
710.998	51158.8
711.342	51093.26
711.687	50860.27
712.031	50786.15
712.375	50637.45
712.719	50604.01
713.063	50580.51
713.407	50706.38
713.75	50475.2
714.094	50525.59
714.438	50364.92
714.782	50412.38
715.125	50197.01
715.469	50297.12
715.812	50041.99
716.156	49844.93
716.499	49778.95
716.843	49887.42
717.186	49573.08
717.53	49844.48
717.873	49812.16
718.216	49583.47
718.559	49596.35
718.902	49341.67
719.246	49484.49
719.589	49347.77
719.932	49242.01
720.275	49210.6
720.617	49138.74
720.96	49054.44
721.303	48929.93
721.646	48953.2
721.989	48770.61
722.331	48957.5
722.674	48739.65
723.016	48803.83
723.359	48671.63
723.701	48643.83
724.044	48343.95
724.386	48156.62
724.729	48264.86
725.071	48241.58
725.413	48162.26
725.755	48099.67
726.097	47917.53
726.439	47679.79
726.782	47828.94
727.124	47907.13
727.465	47684.09
727.807	47621.49
728.149	47487.48
728.491	47453.36
728.833	47550.98
729.175	47485.22
729.516	47357.54
729.858	47244.1
730.199	47307.6
730.541	47174.72
730.882	47086.59
731.224	47218.79
731.565	46858.8
731.906	47020.6
732.248	46973.6
732.589	46762.08
732.93	46639.59
733.271	46663.1
733.612	46683.21
733.953	46647.73
734.294	46355.53
734.635	46407.06
734.976	46511.69
735.317	46270.56
735.658	46230.11
735.999	46260.85
736.339	46174.75
736.68	46179.27
737.021	45948.76
737.361	45810.91
737.702	46082.55
738.042	45872.61
738.383	45745.15
738.723	45819.73
739.063	45637.36
739.404	45664.93
739.744	45553.07
740.084	45373.86
740.424	45431.26
740.764	45368.44
741.104	45452.73
741.444	45041.67
741.784	45200.53
742.124	45067.88
742.464	45012.29
742.804	45021.33
743.143	44842.13
743.483	45031.73
743.823	44631.28
744.162	44686.65
744.502	44653.2
744.841	44416.6
745.181	44610.04
745.52	44290.73
745.86	44436.26
746.199	44249.15
746.538	44209.83
746.877	44327.34
747.216	44124.18
747.556	43957.4
747.895	43933
748.234	43837.41
748.573	43767.35
748.911	43630.18
749.25	43742.95
749.589	43429.73
749.928	43438.55
750.267	43485.78
750.605	43360.13
750.944	43147.48
751.283	43034.04
751.621	43155.62
751.96	43007.15
752.298	42904.78
752.636	42959.24
