Data from plate_ceramic_FLMS001491_062.txt Node
Date: Tue Feb 07 11:17:07 GMT 2017
User: dcchb
Spectrometer: FLMS00149
Trigger mode: 0
Integration Time (sec): 2.000000E-2
Scans to average: 10
Electric dark correction enabled: true
Nonlinearity correction enabled: false
Boxcar width: 0
XAxis mode: Wavelengths
Number of Pixels in Spectrum: 2048
>>>>>Begin Spectral Data<<<<<
341.393	-14.99
341.776	-14.99
342.16	-14.99
342.543	-69.67
342.927	-67.87
343.31	-64.7
343.693	-73.06
344.077	-64.02
344.46	-64.93
344.843	-62.44
345.226	-45.95
345.61	-42.33
345.993	-9.56
346.376	9.19
346.759	25.92
347.142	33.37
347.525	29.99
347.908	66.82
348.291	73.15
348.674	82.64
349.057	105.92
349.44	121.28
349.823	116.08
350.206	176.65
350.588	209.42
350.971	215.06
351.354	249.87
351.737	251.9
352.119	266.82
352.502	263.2
352.884	304.33
353.267	298.9
353.65	331.22
354.032	309.53
354.414	322.18
354.797	319.92
355.179	351.56
355.562	340.26
355.944	343.42
356.326	348.62
356.709	361.05
357.091	349.98
357.473	378.9
357.855	378
358.238	340.71
358.62	379.35
359.002	352.91
359.384	379.13
359.766	362.41
360.148	367.83
360.53	368.51
360.912	381.61
361.294	365.57
361.676	362.41
362.057	387.04
362.439	359.02
362.821	367.6
363.203	348.39
363.584	351.56
363.966	362.86
364.348	380.03
364.729	372.12
365.111	370.09
365.493	368.06
365.874	348.85
366.256	374.83
366.637	368.06
367.019	358.79
367.4	368.51
367.781	331.67
368.163	359.47
368.544	359.24
368.925	368.06
369.306	406.92
369.688	364.67
370.069	377.09
370.45	347.94
370.831	355.4
371.212	367.6
371.593	371.67
371.974	380.26
372.355	345.91
372.736	373.25
373.117	390.65
373.498	355.63
373.879	360.82
374.26	363.99
374.641	366.25
375.021	350.65
375.402	374.16
375.783	404.89
376.163	397.89
376.544	400.6
376.925	381.16
377.305	387.49
377.686	393.14
378.066	408.05
378.447	415.74
378.827	417.77
379.208	407.38
379.588	424.33
379.968	441.73
380.349	418.45
380.729	436.53
381.109	420.94
381.489	417.09
381.87	420.03
382.25	435.4
382.63	435.17
383.01	445.79
383.39	443.99
383.77	430.88
384.15	436.3
384.53	430.88
384.91	473.36
385.29	453.48
385.67	452.35
386.049	482.85
386.429	462.06
386.809	470.2
387.189	484.21
387.568	490.54
387.948	464.1
388.328	498
388.707	497.77
389.087	504.32
389.466	509.29
389.846	495.74
390.225	491.89
390.605	511.55
390.984	545.45
391.363	527.83
391.743	552.23
392.122	552.01
392.501	550.88
392.881	560.82
393.26	562.63
393.639	597.88
394.018	580.03
394.397	573.02
394.776	552.68
395.155	588.16
395.534	576.19
395.913	587.94
396.292	602.63
396.671	620.25
397.05	601.95
397.429	628.61
397.808	611.89
398.186	639.69
398.565	630.65
398.944	648.05
399.323	631.33
399.701	640.59
400.08	643.08
400.458	674.94
400.837	679.69
401.215	685.11
401.594	679.01
401.972	684.21
402.351	703.41
402.729	710.87
403.107	700.02
403.486	704.09
403.864	708.16
404.242	717.65
404.62	742.51
404.999	754.49
405.377	760.59
405.755	746.8
406.133	769.85
406.511	774.82
406.889	770.76
407.267	765.11
407.645	811.89
408.023	817.54
408.401	828.83
408.779	817.76
409.156	881.49
409.534	816.18
409.912	857.31
410.29	861.83
410.667	881.04
411.045	902.73
411.422	920.58
411.8	926.68
412.178	949.06
412.555	966.23
412.933	953.58
413.31	951.99
413.687	968.04
414.065	982.73
414.442	988.83
414.819	999.9
415.197	997.87
415.574	1045.1
415.951	1045.78
416.328	1051.43
416.705	1061.6
417.082	1077.42
417.46	1071.77
417.837	1101.37
418.214	1126.91
418.591	1138.2
418.967	1114.7
419.344	1164.87
419.721	1167.36
420.098	1152.89
420.475	1182.05
420.852	1186.34
421.228	1192.44
421.605	1191.54
421.982	1208.94
422.358	1237.18
422.735	1249.84
423.111	1274.7
423.488	1276.51
423.864	1271.08
424.241	1311.31
424.617	1328.48
424.994	1323.51
425.37	1338.65
425.746	1345.43
426.123	1384.3
426.499	1380.01
426.875	1396.95
427.251	1424.3
427.627	1447.57
428.003	1478.08
428.379	1480.79
428.756	1502.71
429.132	1507.23
429.507	1541.81
429.883	1570.96
430.259	1565.99
430.635	1599.44
431.011	1615.25
431.387	1650.28
431.763	1678.98
432.138	1646.44
432.514	1704.29
432.89	1726.44
433.265	1743.61
433.641	1790.39
434.016	1803.95
434.392	1805.76
434.767	1833.33
435.143	1852.08
435.518	1890.28
435.894	1901.57
436.269	1884.85
436.644	1930.73
437.02	1986.77
437.395	1949.48
437.77	1979.99
438.145	2026.99
438.52	2052.3
438.895	2074.68
439.271	2071.74
439.646	2128.91
440.021	2130.49
440.395	2133.66
440.77	2115.81
441.145	2164.39
441.52	2186.99
441.895	2196.26
442.27	2223.37
442.645	2223.83
443.019	2251.17
443.394	2258.63
443.769	2293.2
444.143	2282.36
444.518	2331.85
444.892	2318.29
445.267	2340.43
445.641	2364.61
446.016	2369.58
446.39	2406.65
446.764	2426.31
447.139	2439.41
447.513	2454.1
447.887	2485.06
448.262	2463.37
448.636	2478.51
449.01	2532.29
449.384	2530.03
449.758	2557.6
450.132	2569.81
450.506	2560.54
450.88	2623.82
451.254	2642.35
451.628	2654.32
452.002	2686.19
452.376	2685.06
452.75	2765.51
453.123	2783.81
453.497	2853.41
453.871	2825.84
454.244	2902.68
454.618	2905.84
454.992	2971.83
455.365	2974.54
455.739	3057.02
456.112	3057.02
456.486	3104.03
456.859	3117.59
457.232	3168.89
457.606	3196
457.979	3230.13
458.352	3314.19
458.725	3333.4
459.099	3358.26
459.472	3431.93
459.845	3480.29
460.218	3488.2
460.591	3538.14
460.964	3550.57
461.337	3611.59
461.71	3708.53
462.083	3755.08
462.456	3772.49
462.829	3769.77
463.201	3777.46
463.574	3874.18
463.947	3954.4
464.32	3989.65
464.692	4044.79
465.065	4063.55
465.438	4125.7
465.81	4212.93
466.183	4202.3
466.555	4341.74
466.928	4352.36
467.3	4344.45
467.672	4470.09
468.045	4557.1
468.417	4558.23
468.789	4600.49
469.161	4651.78
469.534	4740.6
469.906	4817.88
470.278	4907.14
470.65	4909.63
471.022	4991.66
471.394	5100.59
471.766	5174.93
472.138	5255.16
472.51	5346.46
472.882	5388.04
473.253	5473.91
473.625	5547.35
473.997	5649.05
474.369	5705.09
474.74	5812.66
475.112	5874.8
475.484	5987.79
475.855	6096.04
476.227	6120.9
476.598	6309.82
476.97	6370.16
477.341	6494.45
477.713	6688.34
478.084	6648.34
478.455	6875.23
478.827	6923.59
479.198	7097.82
479.569	7141.44
479.94	7300.98
480.311	7422.56
480.682	7586.17
481.053	7785.26
481.424	7824.81
481.795	7889.67
482.166	8097.57
482.537	8163.56
482.908	8380.73
483.279	8445.58
483.65	8606.48
484.021	8790.21
484.391	8898
484.762	8958.11
485.133	9051.22
485.503	9134.83
485.874	9341.38
486.244	9527.14
486.615	9667.7
486.985	9783.4
487.356	10009.38
487.726	10028.14
488.097	10210.28
488.467	10210.51
488.837	10492.31
489.207	10681
489.578	10765.75
489.948	10926.42
490.318	11062.69
490.688	11093.2
491.058	11255.9
491.428	11392.17
491.798	11562.11
492.168	11759.62
492.538	11821.99
492.908	11920.52
493.278	12102.44
493.648	12147.41
494.017	12313.73
494.387	12480.96
494.757	12559.15
495.126	12681.63
495.496	12799.59
495.866	12823.32
496.235	13019.02
496.605	13170.2
496.974	13226.7
497.344	13345.79
497.713	13443.87
498.082	13520.7
498.452	13643.64
498.821	13730.87
499.19	13801.15
499.559	13981.93
499.928	14036.4
500.298	14079.33
500.667	14246.33
501.036	14265.77
501.405	14531.3
501.774	14466.89
502.143	14670.28
502.512	14735.14
502.88	14763.83
503.249	14945.53
503.618	15025.97
503.987	15112.98
504.356	15173.09
504.724	15355.46
505.093	15373.31
505.462	15475.23
505.83	15656.24
506.199	15708.22
506.567	15935.78
506.936	16018.94
507.304	16097.36
507.672	16123.12
508.041	16234.53
508.409	16414.19
508.777	16597.01
509.145	16688.53
509.514	16719.04
509.882	16903.44
510.25	16921.97
510.618	17098.24
510.986	17164.68
511.354	17387.49
511.722	17543.65
512.09	17719.01
512.458	17666.13
512.826	17860.7
513.193	17927.14
513.561	17994.71
513.929	18199
514.297	18342.05
514.664	18472.21
515.032	18586.79
515.4	18775.48
515.767	18921.24
516.135	18984.29
516.502	18908.81
516.869	19285.52
517.237	19375.47
517.604	19397.61
517.972	19680.32
518.339	19805.28
518.706	19843.93
519.073	19974.09
519.44	20080.76
519.808	20360.3
520.175	20334.54
520.542	20659.5
520.909	20848.87
521.276	20833.05
521.643	21041.64
522.009	21223.1
522.376	21314.17
522.743	21521.4
523.11	21785.12
523.477	21878.22
523.843	22143.3
524.21	22349.85
524.577	22355.5
524.943	22566.12
525.31	22655.83
525.676	22919.78
526.043	23016.5
526.409	23221.01
526.776	23392.53
527.142	23521.12
527.508	23672.3
527.874	24037.49
528.241	24112.52
528.607	24223.25
528.973	24342.34
529.339	24386.18
529.705	24682.9
530.071	24763.12
530.437	24991.59
530.803	25089.21
531.169	25301.19
531.535	25250.34
531.901	25380.05
532.267	25517.68
532.632	25864.56
532.998	25932.13
533.364	26067.04
533.73	26182.52
534.095	26339.8
534.461	26498.44
534.826	26592.68
535.192	26818.89
535.557	26894.36
535.923	26941.14
536.288	27073.34
536.653	27265.65
537.019	27139.78
537.384	27324.18
537.749	27488.02
538.114	27540.9
538.479	27699.77
538.845	27925.07
539.21	27758.07
539.575	27941.12
539.94	27945.64
540.305	28229.24
540.67	28136.14
541.034	28359.64
541.399	28469.46
541.764	28590.14
542.129	28631.04
542.494	28794.88
542.858	28862.22
543.223	29004.36
543.587	29116
543.952	29184.25
544.316	29228.09
544.681	29178.15
545.045	29467.86
545.41	29724.35
545.774	29697.23
546.138	29658.13
546.503	29926.83
546.867	29895.19
547.231	30228.51
547.595	30225.12
547.959	30317.55
548.324	30338.34
548.688	30595.96
549.052	30701.04
549.416	30734.26
549.779	30931.32
550.143	31008.15
550.507	31051.77
550.871	31282.27
551.235	31189.17
551.599	31487.24
551.962	31641.36
552.326	31592.32
552.689	31817.62
553.053	31759.77
553.417	31819.66
553.78	32355.91
554.143	32218.29
554.507	32348.01
554.87	32529.24
555.234	32881.32
555.597	32714.55
555.96	32970.59
556.323	33113.63
556.686	33111.15
557.05	33438.82
557.413	33450.35
557.776	33593.17
558.139	33882.65
558.502	33826.16
558.865	34067.06
559.228	34270.44
559.59	34312.93
559.953	34568.74
560.316	34757.89
560.679	34869.52
561.041	35106.35
561.404	35210.75
561.767	35450.3
562.129	35461.37
562.492	35789.27
562.854	35895.26
563.217	35990.4
563.579	36112.88
563.941	36352.19
564.304	36502.02
564.666	36571.85
565.028	36799.87
565.39	36939.98
565.753	37070.37
566.115	37208.89
566.477	37408.89
566.839	37513.29
567.201	37697.92
567.563	37689.79
567.925	37921.64
568.287	37998.7
568.648	38063.79
569.01	38357.11
569.372	38575.19
569.734	38420.61
570.095	38871
570.457	38829.64
570.819	38847.95
571.18	38971.79
571.542	39356.18
571.903	39466.01
572.265	39574.03
572.626	39680.92
572.987	39797.53
573.349	39943.74
573.71	39943.29
574.071	40034.13
574.432	40165.43
574.794	40318.87
575.155	40494.23
575.516	40333.56
575.877	40738.52
576.238	40621.46
576.599	40822.13
576.96	40792.3
577.32	40849.7
577.681	41130.83
578.042	41311.39
578.403	41136.93
578.763	41256.47
579.124	41420.76
579.485	41474.55
579.845	41607.2
580.206	41514.54
580.566	41319.29
580.927	41412.4
581.287	41708.21
581.648	41610.36
582.008	41803.35
582.368	41694.43
582.728	41865.5
583.089	41893.52
583.449	41854.65
583.809	41929.9
584.169	41987.3
584.529	41860.98
584.889	42102.78
585.249	42000.63
585.609	41770.13
585.969	42033.4
586.329	41914.08
586.688	42102.33
587.048	41985.72
587.408	42092.38
587.768	41958.15
588.127	41929.45
588.487	42066.39
588.846	42335.99
589.206	42119.73
589.565	42081.53
589.925	42334.64
590.284	42144.13
590.643	42358.36
591.003	42328.53
591.362	42416.22
591.721	42198.37
592.08	42254.41
592.44	42419.15
592.799	42421.64
593.158	42390.45
593.517	42326.95
593.876	42351.58
594.235	42387.29
594.593	42388.87
594.952	42459.6
595.311	42451.02
595.67	42499.15
596.029	42648.53
596.387	42752.48
596.746	42775.75
597.104	42354.07
597.463	42693.72
597.822	42845.36
598.18	42729.2
598.538	42708.18
598.897	42875.41
599.255	42599.49
599.613	43178
599.972	42880.16
600.33	42987.05
600.688	43015.3
601.046	43254.39
601.404	43121.06
601.762	43080.38
602.12	43239.02
602.478	43210.09
602.836	43408.05
603.194	43062.75
603.552	43226.82
603.91	43068.18
604.268	43420.26
604.625	43272.01
604.983	43371.22
605.341	43258.9
605.698	43486.24
606.056	43570.76
606.413	43525.11
606.771	43603.53
607.128	43794.48
607.485	43692.11
607.843	43732.34
608.2	43894.14
608.557	43908.83
608.914	43704.99
609.272	43845.78
609.629	44189.5
609.986	44201.71
610.343	44009.62
610.7	44220.24
611.057	44182.72
611.414	44198.09
611.771	44245.09
612.127	44515.37
612.484	44396.95
612.841	44427.91
613.198	44400.57
613.554	44342.27
613.911	44710.39
614.267	44520.34
614.624	44628.59
614.98	44767.11
615.337	44925.53
615.693	44825.42
616.05	44911.06
616.406	45066.54
616.762	44817.06
617.118	44822.71
617.475	44912.19
617.831	45050.04
618.187	45022.25
618.543	45040.55
618.899	45282.35
619.255	45110.61
619.611	45080.78
619.967	45327.1
620.323	45393.54
620.678	45121.68
621.034	45230.83
621.39	45231.73
621.746	45158.97
622.101	45641.67
622.457	45189.93
622.812	45367.55
623.168	45358.96
623.523	45349.47
623.879	45586.3
624.234	45280.09
624.589	45346.76
624.945	45498.17
625.3	45329.58
625.655	45267.21
626.01	45361.22
626.365	45455.01
626.72	45423.82
627.075	45335.46
627.43	45352.41
627.785	45278.29
628.14	45351.51
628.495	45314.67
628.85	45311.73
629.205	45187.44
629.559	45398.28
629.914	45159.42
630.269	45150.15
630.623	45148.8
630.978	44890.27
631.332	45163.49
631.687	45295.91
632.041	44953.1
632.396	45043.26
632.75	44907.22
633.104	44998.75
633.459	44824.51
633.813	44773.89
634.167	44700
634.521	44717.17
634.875	44796.49
635.229	44775.7
635.583	44356.73
635.937	44528.7
636.291	44474.92
636.645	44408.71
636.999	44261.82
637.352	44356.28
637.706	44249.61
638.06	44300.46
638.413	44257.3
638.767	44145.89
639.121	44121.03
639.474	43827.25
639.828	43932.79
640.181	43980.24
640.534	43914.25
640.888	43822.96
641.241	43647.14
641.594	43810.3
641.947	43755.62
642.301	43658.22
642.654	43681.49
643.007	43738.21
643.36	43691.21
643.713	43552.91
644.066	43628.84
644.419	43368.28
644.771	43109.08
645.124	42708.18
645.477	42533.05
645.83	42232.27
646.182	42243.34
646.535	42207.86
646.888	42284.47
647.24	42151.82
647.593	42318.59
647.945	42283.34
648.298	42166.73
648.65	41954.98
649.002	41934.19
649.355	42138.93
649.707	41891.26
650.059	42139.61
650.411	42436.33
650.763	42462.32
651.115	42707.96
651.467	42664.34
651.819	42853.94
652.171	42413.5
652.523	42497.8
652.875	42552.48
653.227	42451.69
653.578	42535.31
653.93	42545.03
654.282	42421.19
654.633	42338.48
654.985	42438.36
655.337	42347.74
655.688	42387.29
656.039	42394.75
656.391	42007.19
656.742	42139.61
657.094	42069.11
657.445	42219.38
657.796	42127.86
658.147	42115.43
658.498	41947.08
658.849	42098.03
659.2	41996.79
659.551	41978.71
659.902	42147.75
660.253	41969.67
660.604	42030.01
660.955	41758.15
661.306	41983.01
661.656	41860.75
662.007	41880.64
662.358	41795.21
662.708	41846.51
663.059	41711.15
663.409	41456.01
663.76	41752.28
664.11	41745.95
664.461	41660.75
664.811	41637.48
665.161	41618.04
665.511	41535.56
665.862	41625.28
666.212	41719.28
666.562	41655.78
666.912	41720.19
667.262	41471.83
667.612	41464.15
667.962	41627.76
668.312	41420.54
668.662	41644.03
669.011	41554.77
669.361	41444.49
669.711	41446.52
670.06	41384.83
670.41	41260.09
670.76	41150.94
671.109	41385.73
671.459	41187.77
671.808	41144.16
672.157	41325.4
672.507	40960.21
672.856	40932.64
673.205	41002.24
673.554	41193.87
673.904	40951.62
674.253	41302.8
674.602	41165.85
674.951	40578.52
675.3	40412.43
675.649	41063.03
675.998	40866.88
676.346	40868.46
676.695	41053.54
677.044	40811.51
677.393	40790.27
677.741	40876.14
678.09	40741.01
678.438	40529.94
678.787	40786.2
679.135	40695.81
679.484	40717.5
679.832	40753.43
680.181	40517.51
680.529	40567.9
680.877	40209.04
681.225	40311.64
681.573	40432.76
681.922	40253.79
682.27	40220.34
682.618	40220.11
682.966	40021.02
683.314	40182.6
683.661	40079.78
684.009	39849.28
684.357	39671.2
684.705	39582.39
685.053	39620.13
685.4	39750.07
685.748	39565.44
686.095	39508.04
686.443	39366.13
686.79	39290.2
687.138	39271.21
687.485	39319.35
687.832	39068.05
688.18	39222.85
688.527	38955.97
688.874	38969.98
689.221	38735.18
689.568	38682.3
689.915	38613.6
690.262	38616.54
690.609	38713.49
690.956	38581.74
691.303	38503.55
691.65	38151.24
691.997	38181.3
692.344	38057.91
692.69	38037.35
693.037	38125.25
693.383	37756
693.73	37923
694.077	37710.8
694.423	37589.45
694.769	37611.14
695.116	37608.21
695.462	37510.13
695.808	37202.57
696.155	37198.05
696.501	37038.5
696.847	37008.22
697.193	36753.54
697.539	37010.71
697.885	36732.3
698.231	36485.75
698.577	36563.26
698.923	36585.18
699.269	36205.53
699.614	36022.94
699.96	36075.37
700.306	36110.17
700.651	36079.43
700.997	35835.37
701.342	35817.74
701.688	35728.71
702.033	35594.7
702.379	35514.48
702.724	35416.4
703.069	35522.84
703.415	35063.87
703.76	35145.45
704.105	34955.62
704.45	34951.33
704.795	34877.88
705.14	34715.63
705.485	34618.45
705.83	34542.07
706.175	34647.61
706.52	34467.5
706.865	34436.54
707.209	34258.24
707.554	34166.26
707.899	34310.89
708.243	34160.39
708.588	34203.32
708.932	33877.46
709.277	33891.92
709.621	33840.62
709.966	33557.01
710.31	33717.46
710.654	33408.32
710.998	33591.36
711.342	33445.15
711.687	33430.01
712.031	33246.96
712.375	33156.57
712.719	33306.62
713.063	33105.27
713.407	33147.98
713.75	32998.16
714.094	32877.71
714.438	32798.39
714.782	32832.74
715.125	32614.44
715.469	32691.05
715.812	32556.59
716.156	32351.62
716.499	32351.17
716.843	32394.11
717.186	32293.54
717.53	32379.19
717.873	32363.82
718.216	32134.9
718.559	32076.37
718.902	31884.97
719.246	32051.97
719.589	31943.95
719.932	31649.04
720.275	31692.66
720.617	31691.07
720.96	31553.45
721.303	31647.23
721.646	31584.86
721.989	31322.72
722.331	31490.63
722.674	31389.61
723.016	31432.55
723.359	31321.14
723.701	31245.89
724.044	31087.02
724.386	30951.66
724.729	31134.7
725.071	30993.46
725.413	31099.22
725.755	30997.08
726.097	30870.53
726.439	30582.85
726.782	30666.02
727.124	30797.31
727.465	30616.98
727.807	30557.32
728.149	30495.62
728.491	30462.63
728.833	30444.1
729.175	30395.97
729.516	30340.6
729.858	30346.48
730.199	30347.61
730.541	30174.5
730.882	30212.92
731.224	30304.22
731.565	30054.51
731.906	29978.12
732.248	29971.12
732.589	29849.54
732.93	29785.13
733.271	29758.92
733.612	29858.13
733.953	29872.82
734.294	29593.05
734.635	29645.7
734.976	29826.26
735.317	29554.63
735.658	29602.09
735.999	29451.58
736.339	29407.74
736.68	29524.35
737.021	29390.8
737.361	29294.07
737.702	29388.99
738.042	29185.38
738.383	29105.38
738.723	29236.22
739.063	29133.85
739.404	29287.07
739.744	28908.55
740.084	28933.63
740.424	28927.53
740.764	28897.93
741.104	29002.1
741.444	28769.79
741.784	28730.47
742.124	28709.68
742.464	28565.05
742.804	28658.16
743.143	28550.37
743.483	28549.69
743.823	28382.01
744.162	28283.03
744.502	28472.63
744.841	28265.63
745.181	28379.97
745.52	28128.68
745.86	28168
746.199	28129.81
746.538	28063.82
746.877	28231.96
747.216	28057.95
747.556	28024.96
747.895	27991.28
748.234	27882.81
748.573	27883.26
748.911	27736.6
749.25	27866.54
749.589	27698.64
749.928	27746.09
750.267	27720.78
750.605	27503.16
750.944	27461.81
751.283	27455.48
751.621	27499.09
751.96	27344.07
752.298	27302.04
752.636	27282.15
752.975	26993.57
753.313	27049.61
753.651	27229.72
753.989	27016.85
