Data from plate_porcelain_FLMS001491_066.txt Node
Date: Tue Feb 07 11:19:41 GMT 2017
User: dcchb
Spectrometer: FLMS00149
Trigger mode: 0
Integration Time (sec): 2.000000E-2
Scans to average: 10
Electric dark correction enabled: true
Nonlinearity correction enabled: false
Boxcar width: 0
XAxis mode: Wavelengths
Number of Pixels in Spectrum: 2048
>>>>>Begin Spectral Data<<<<<
341.393	-31.17
341.776	-31.17
342.16	-31.17
342.543	-67.78
342.927	-64.39
343.31	-69.59
343.693	-58.74
344.077	-70.49
344.46	-68.46
344.843	-42.92
345.226	-49.48
345.61	-23.49
345.993	-25.07
346.376	-17.84
346.759	-6.54
347.142	30.75
347.525	47.02
347.908	56.06
348.291	68.94
348.674	99.45
349.057	130.41
349.44	107.13
349.823	139.67
350.206	162.04
350.588	226.45
350.971	250.18
351.354	268.48
351.737	284.98
352.119	292.66
352.502	287.01
352.884	317.29
353.267	301.7
353.65	344.41
354.032	320.91
354.414	343.06
354.797	356.84
355.179	368.82
355.562	343.06
355.944	368.37
356.326	380.12
356.709	385.09
357.091	371.76
357.473	382.38
357.855	395.03
358.238	388.48
358.62	366.78
359.002	383.96
359.384	402.26
359.766	411.75
360.148	385.99
360.53	378.08
360.912	383.05
361.294	373.79
361.676	408.82
362.057	387.12
362.439	409.72
362.821	405.88
363.203	405.43
363.584	402.49
363.966	397.07
364.348	386.9
364.729	378.99
365.111	402.49
365.493	419.89
365.874	397.52
366.256	395.71
366.637	384.41
367.019	395.03
367.4	392.77
367.781	393.22
368.163	395.48
368.544	400.91
368.925	413.11
369.306	403.17
369.688	390.29
370.069	402.94
370.45	397.52
370.831	402.72
371.212	416.27
371.593	438.87
371.974	400.23
372.355	412.66
372.736	422.83
373.117	422.38
373.498	430.96
373.879	431.87
374.26	411.53
374.641	413.34
375.021	422.6
375.402	451.08
375.783	466.44
376.163	465.54
376.544	455.82
376.925	477.52
377.305	442.71
377.686	460.79
378.066	448.36
378.447	462.83
378.827	485.43
379.208	494.01
379.588	474.13
379.968	469.61
380.349	480
380.729	502.37
381.109	491.3
381.489	486.1
381.87	511.19
382.25	513.22
382.63	509.15
383.01	503.28
383.39	493.56
383.77	510.28
384.15	540.56
384.53	545.76
384.91	550.96
385.29	550.96
385.67	536.95
386.049	564.75
386.429	566.78
386.809	579.89
387.189	573.56
387.568	562.94
387.948	607.23
388.328	599.09
388.707	612.2
389.087	606.1
389.466	622.14
389.846	626.44
390.225	647.68
390.605	630.96
390.984	650.17
391.363	650.84
391.743	655.82
392.122	644.97
392.501	657.62
392.881	672.09
393.26	677.74
393.639	689.94
394.018	709.15
394.397	716.83
394.776	703.95
395.155	717.06
395.534	702.37
395.913	747.57
396.292	742.14
396.671	746.66
397.05	760.9
397.429	752.99
397.808	744.18
398.186	760.22
398.565	777.17
398.944	798.64
399.323	812.65
399.701	835.47
400.08	823.27
400.458	814
400.837	812.42
401.215	866.21
401.594	818.98
401.972	852.42
402.351	862.59
402.729	867.79
403.107	921.35
403.486	905.75
403.864	924.51
404.242	927.45
404.62	931.97
404.999	937.62
405.377	945.53
405.755	955.24
406.133	988.46
406.511	1009.25
406.889	1010.16
407.267	1037.27
407.645	1024.85
408.023	1043.38
408.401	1057.61
408.779	1059.65
409.156	1096.71
409.534	1100.78
409.912	1089.03
410.29	1135.8
410.667	1156.82
411.045	1156.37
411.422	1181.9
411.8	1193.66
412.178	1214.45
412.555	1232.98
412.933	1251.28
413.31	1264.84
413.687	1286.08
414.065	1280.43
414.442	1317.04
414.819	1299.19
415.197	1311.62
415.574	1337.61
415.951	1383.48
416.328	1381.22
416.705	1371.05
417.082	1416.25
417.46	1426.19
417.837	1473.87
418.214	1436.59
418.591	1480.2
418.967	1495.34
419.344	1495.34
419.721	1529.69
420.098	1538.5
420.475	1540.31
420.852	1546.41
421.228	1574.21
421.605	1600.42
421.982	1627.99
422.358	1652.4
422.735	1658.28
423.111	1679.29
423.488	1694.66
423.864	1730.59
424.241	1725.17
424.617	1755.67
424.994	1772.85
425.37	1777.14
425.746	1779.85
426.123	1859.85
426.499	1808.55
426.875	1868.89
427.251	1886.52
427.627	1932.84
428.003	1941.21
428.379	1985.5
428.756	2005.39
429.132	2023.69
429.507	2046.29
429.883	2093.74
430.259	2154.99
430.635	2165.15
431.011	2176.45
431.387	2221.42
431.763	2300.07
432.138	2271.37
432.514	2317.69
432.89	2301.2
433.265	2364.7
433.641	2368.54
434.016	2434.75
434.392	2479.5
434.767	2524.69
435.143	2528.99
435.518	2553.39
435.894	2574.64
436.269	2637.91
436.644	2672.26
437.02	2669.77
437.395	2661.64
437.77	2748.42
438.145	2761.52
438.52	2829.77
438.895	2846.72
439.271	2807.85
439.646	2928.07
440.021	2973.04
440.395	2951.57
440.77	2930.78
441.145	2962.65
441.52	3008.75
441.895	3005.13
442.27	3057.11
442.645	3032.48
443.019	3110.89
443.394	3117.67
443.769	3174.62
444.143	3098.69
444.518	3215.97
444.892	3205.13
445.267	3260.95
445.641	3280.38
446.016	3255.52
446.39	3309.08
446.764	3372.81
447.139	3360.38
447.513	3392.02
447.887	3409.19
448.262	3425.46
448.636	3486.7
449.01	3526.48
449.384	3563.99
449.758	3593.14
450.132	3634.72
450.506	3586.13
450.88	3651.44
451.254	3710.43
451.628	3741.16
452.002	3762.18
452.376	3797.2
452.75	3862.96
453.123	3902.74
453.497	3955.84
453.871	3985.45
454.244	4097.99
454.618	4062.73
454.992	4131.88
455.365	4138.89
455.739	4298.66
456.112	4307.7
456.486	4353.57
456.859	4441.48
457.232	4479.9
457.606	4386.34
457.979	4544.08
458.352	4643.51
458.725	4705.2
459.099	4734.13
459.472	4845.99
459.845	4906.78
460.218	4939.77
460.591	4971.41
460.964	5029.03
461.337	5097.51
461.71	5271.51
462.083	5289.59
462.456	5279.65
462.829	5293.89
463.201	5399.42
463.574	5456.14
463.947	5527.78
464.32	5630.83
464.692	5674.67
465.065	5752.41
465.438	5875.34
465.81	5901.78
466.183	5972.06
466.555	6141.1
466.928	6189.23
467.3	6182
467.672	6279.85
468.045	6481.43
468.417	6451.14
468.789	6483.46
469.161	6508.32
469.534	6685.71
469.906	6823.56
470.278	6922.77
470.65	6977.23
471.022	7176.32
471.394	7268.3
471.766	7330.44
472.138	7399.59
472.51	7553.94
472.882	7731.34
473.253	7794.84
473.625	7891.56
473.997	8076.19
474.369	8179.46
474.74	8255.84
475.112	8372
475.484	8551.2
475.855	8640.46
476.227	8822.38
476.598	9024.86
476.97	9052.43
477.341	9286.55
477.713	9520.44
478.084	9512.08
478.455	9789.81
478.827	9844.5
479.198	10205.85
479.569	10227.99
479.94	10473.86
480.311	10616.46
480.682	10799.96
481.053	11113.62
481.424	11285.59
481.795	11341.86
482.166	11491.46
482.537	11660.95
482.908	11974.16
483.279	12040.38
483.65	12227.04
484.021	12568.05
484.391	12646.91
484.762	12737.08
485.133	12917.19
485.503	13143.85
485.874	13382.71
486.244	13582.71
486.615	13796.71
486.985	13920.78
487.356	14219.08
487.726	14360.77
488.097	14656.8
488.467	14666.3
488.837	15026.51
489.207	15208.2
489.578	15474.86
489.948	15530.68
490.318	15865.13
490.688	15859.03
491.058	16132.25
491.428	16349.41
491.798	16555.96
492.168	16910.53
492.538	16961.6
492.908	17194.59
493.278	17400.69
493.648	17415.6
494.017	17723.84
494.387	17866.66
494.757	18044.29
495.126	18184.85
495.496	18242.02
495.866	18496.48
496.235	18676.13
496.605	18896.24
496.974	18914.09
497.344	19134.65
497.713	19298.26
498.082	19433.63
498.452	19710.68
498.821	19787.29
499.19	19780.51
499.559	20055.53
499.928	20117.68
500.298	20348.63
500.667	20573.03
501.036	20545.69
501.405	20849.64
501.774	20709.07
502.143	21025.22
502.512	21186.58
502.88	21286.01
503.249	21356.51
503.618	21576.4
503.987	21771.19
504.356	21809.38
504.724	22003.5
505.093	22017.29
505.462	22240.79
505.83	22419.76
506.199	22570.27
506.567	22862.69
506.936	22880.09
507.304	23236.92
507.672	23344.26
508.041	23409.34
508.409	23567.08
508.777	23729.79
509.145	23997.8
509.514	24019.27
509.882	24226.5
510.25	24295.19
510.618	24509.2
510.986	24661.06
511.354	24850.66
511.722	25102.18
512.09	25301.95
512.458	25263.76
512.826	25509.63
513.193	25689.28
513.561	25844.31
513.929	26198.42
514.297	26304.41
514.664	26534.68
515.032	26607.22
515.4	26873.66
515.767	27063.26
516.135	27315.68
516.502	27096.7
516.869	27687.65
517.237	27705.73
517.604	27694.65
517.972	28023.01
518.339	28287.41
518.706	28353.39
519.073	28541.64
519.44	28710.9
519.808	28964.9
520.175	29156.99
520.542	29550.65
520.909	29715.39
521.276	29643.3
521.643	30078.77
522.009	30237.64
522.376	30533.67
522.743	30644.18
523.11	31107.44
523.477	31290.49
523.843	31459.98
524.21	31858.61
524.577	31956.69
524.943	32162.78
525.31	32370.46
525.676	32662.43
526.043	32786.27
526.409	33044.79
526.776	33374.96
527.142	33589.19
527.508	33762.97
527.874	33980.82
528.241	34239.57
528.607	34408.83
528.973	34792.32
529.339	34782.6
529.705	35136.72
530.071	35381.68
530.437	35652.64
530.803	35741.67
531.169	36047.88
531.535	35886.98
531.901	36218.95
532.267	36303.92
532.632	36604.93
532.998	36759.95
533.364	37175.08
533.73	37166.95
534.095	37583.66
534.461	37594.73
534.826	37813.71
535.192	37842.18
535.557	38161.04
535.923	38295.5
536.288	38440.81
536.653	38505.44
537.019	38534.14
537.384	38706.79
537.749	38927.35
538.114	38891.42
538.479	39047.8
538.845	39392.88
539.21	39412.99
539.575	39586.32
539.94	39854.56
540.305	40005.29
540.67	40074.44
541.034	40123.93
541.399	40350.59
541.764	40446.86
542.129	40563.02
542.494	40679.62
542.858	40810.92
543.223	40958.26
543.587	41200.06
543.952	41149.44
544.316	41419.49
544.681	41342.43
545.045	41678.69
545.41	41774.73
545.774	41856.09
546.138	41853.38
546.503	42146.7
546.867	42278.45
547.231	42521.16
547.595	42567.93
547.959	42712.56
548.324	42806.12
548.688	42898.55
549.052	43065.77
549.416	43269.61
549.779	43294.92
550.143	43393.68
550.507	43801.57
550.871	43907.56
551.235	43778.75
551.599	44234.33
551.962	44244.05
552.326	44277.27
552.689	44650.82
553.053	44428.9
553.417	44659.86
553.78	45236.79
554.143	45092.61
554.507	45376.67
554.87	45426.16
555.234	45837
555.597	45722.88
555.96	45857.79
556.323	46103.66
556.686	46098.24
557.05	46404.67
557.413	46443.99
557.776	46626.81
558.139	46946.58
558.502	46963.07
558.865	47112
559.228	47377.98
559.59	47428.37
559.953	47524.19
560.316	48019.77
560.679	48054.8
561.041	48183.83
561.404	48354.45
561.767	48562.81
562.129	48467.89
562.492	48934.55
562.854	49030.82
563.217	49031.27
563.579	49153.3
563.941	49446.17
564.304	49663.57
564.666	49797.57
565.028	50000.73
565.39	49998.93
565.753	50322.76
566.115	50294.96
566.477	50467.39
566.839	50554.17
567.201	50720.04
567.563	50801.84
567.925	51058.33
568.287	51072.34
568.648	51214.26
569.01	51417.42
569.372	51631.2
569.734	51469.17
570.095	51726.11
570.457	51877.07
570.819	51975.14
571.18	51973.79
571.542	52224.86
571.903	52237.96
572.265	52490.61
572.626	52403.61
572.987	52439.99
573.349	52621.23
573.71	52775.35
574.071	52777.61
574.432	52947.77
574.794	53132.4
575.155	53118.62
575.516	53061.9
575.877	53148.45
576.238	53234.77
576.599	53294.88
576.96	53294.43
577.32	53393.86
577.681	53441.55
578.042	53484.94
578.403	53615.1
578.763	53594.54
579.124	53709.11
579.485	53853.51
579.845	53859.39
580.206	53823.68
580.566	53797.47
580.927	53962.66
581.287	54012.38
581.648	53891.48
582.008	54050.34
582.368	53979.16
582.728	54057.12
583.089	54065.03
583.449	54024.36
583.809	54068.2
584.169	54101.87
584.529	54021.64
584.889	54297.12
585.249	54127.18
585.609	53995.88
585.969	54282.88
586.329	54075.43
586.688	54193.84
587.048	54272.71
587.408	54167.18
587.768	54127.63
588.127	54104.81
588.487	54105.03
588.846	54309.55
589.206	54204.24
589.565	54143
589.925	54407.85
590.284	54236.78
590.643	54272.94
591.003	54297.34
591.362	54433.16
591.721	54273.84
592.08	54338.47
592.44	54461.63
592.799	54447.4
593.158	54387.06
593.517	54408.3
593.876	54423.44
594.235	54416.21
594.593	54521.29
594.952	54446.94
595.311	54316.1
595.67	54407.17
596.029	54533.27
596.387	54533.27
596.746	54653.94
597.104	54469.32
597.463	54558.81
597.822	54698.69
598.18	54561.07
598.538	54568.97
598.897	54739.37
599.255	54485.81
599.613	54920.83
599.972	54707.05
600.33	54846.26
600.688	54677.22
601.046	54826.14
601.404	54955.63
601.762	54876.09
602.12	55059.81
602.478	54979.13
602.836	55027.95
603.194	54882.64
603.552	54884.45
603.91	54796.09
604.268	54975.29
604.625	54961.51
604.983	55141.62
605.341	54993.37
605.698	55139.58
606.056	55134.61
606.413	55137.1
606.771	55394.94
607.128	55271.78
607.485	55151.11
607.843	55148.39
608.2	55299.35
608.557	55414.38
608.914	55317.88
609.272	55480.82
609.629	55458.67
609.986	55565.78
610.343	55509.29
610.7	55622.28
611.057	55581.6
611.414	55651.43
611.771	55606.46
612.127	55675.61
612.484	55796.06
612.841	55752.67
613.198	55725.33
613.554	55745.67
613.911	55877.87
614.267	55894.36
614.624	55789.06
614.98	55875.61
615.337	56041.25
615.693	55922.61
616.05	55919.67
616.406	56078.09
616.762	56057.07
617.118	55999.45
617.475	55973.91
617.831	56127.8
618.187	56083.74
618.543	56132.55
618.899	56236.05
619.255	56198.76
619.611	56178.2
619.967	56330.96
620.323	56306.1
620.678	56210.06
621.034	56117.63
621.39	56140.46
621.746	56251.87
622.101	56500.45
622.457	56213
622.812	56259.55
623.168	56295.26
623.523	56349.72
623.879	56374.13
624.234	56233.56
624.589	56343.84
624.945	56316.27
625.3	56347.91
625.655	56349.27
626.01	56351.98
626.365	56369.38
626.72	56351.07
627.075	56270.17
627.43	56279.89
627.785	56220.68
628.14	56303.62
628.495	56294.13
628.85	56237.86
629.205	56142.72
629.559	56188.37
629.914	56151.53
630.269	56171.64
630.623	56058.88
630.978	55974.81
631.332	56186.56
631.687	56196.05
632.041	56037.86
632.396	56077.41
632.75	55982.5
633.104	56080.12
633.459	55893.01
633.813	55911.09
634.167	55785.67
634.521	55907.92
634.875	55908.37
635.229	55838.77
635.583	55654.14
635.937	55682.39
636.291	55702.05
636.645	55736.63
636.999	55578.89
637.352	55665.67
637.706	55574.37
638.06	55593.35
638.413	55514.03
638.767	55468.16
639.121	55514.26
639.474	55353.13
639.828	55335.96
640.181	55373.47
640.534	55366.69
640.888	55224.78
641.241	55123.31
641.594	55202.4
641.947	55321.05
642.301	55105.68
642.654	55174.83
643.007	55257.77
643.36	55091.45
643.713	55033.37
644.066	55161.05
644.419	54918.34
644.771	54785.24
645.124	54512.93
645.477	54406.49
645.83	54238.36
646.182	54074.52
646.535	53998.37
646.888	54039.5
647.24	53848.77
647.593	54102.09
647.945	53998.59
648.298	53761.09
648.65	53782.78
649.002	53579.62
649.355	53762.22
649.707	53734.87
650.059	53851.03
650.411	54227.51
650.763	54213.96
651.115	54491.24
651.467	54386.61
651.819	54295.76
652.171	54238.36
652.523	54171.92
652.875	54209.89
653.227	54013.96
653.578	54190
653.93	54082.43
654.282	54001.53
654.633	53855.1
654.985	54027.52
655.337	53943.45
655.688	53950.69
656.039	54099.16
656.391	53773.06
656.742	53891.25
657.094	53861.65
657.445	54031.36
657.796	53860.74
658.147	53789.79
658.498	53782.33
658.849	53831.82
659.2	53782.33
659.551	53725.38
659.902	53860.29
660.253	53815.32
660.604	53877.24
660.955	53719.73
661.306	53707.75
661.656	53620.07
662.007	53642.45
662.358	53587.08
662.708	53637.93
663.059	53614.42
663.409	53360.42
663.76	53503.24
664.11	53553.18
664.461	53583.24
664.811	53532.17
665.161	53641.99
665.511	53494.65
665.862	53521.09
666.212	53705.49
666.562	53595.67
666.912	53456.24
667.262	53453.3
667.612	53583.01
667.962	53470.47
668.312	53444.71
668.662	53566.74
669.011	53427.99
669.361	53339.85
669.711	53378.72
670.06	53335.33
670.41	53248.78
670.76	53258.95
671.109	53345.5
671.459	53238.16
671.808	53154.77
672.157	53371.49
672.507	53023.48
672.856	53176.47
673.205	53175.34
673.554	53170.59
673.904	53155.68
674.253	53223.93
674.602	53107.32
674.951	52711.17
675.3	52492.42
675.649	53049.01
675.998	53101.22
676.346	52944.38
676.695	53075.45
677.044	52907.78
677.393	52922.69
677.741	52978.28
678.09	52838.4
678.438	52754.11
678.787	52892.18
679.135	52841.11
679.484	52690.61
679.832	52772.86
680.181	52560.21
680.529	52680.89
680.877	52498.75
681.225	52565.41
681.573	52695.35
681.922	52428.47
682.27	52420.56
682.618	52414.91
682.966	52257.17
683.314	52304.85
683.661	52177.4
684.009	52078.42
684.357	52023.96
684.705	51931.53
685.053	52031.87
685.4	51952.77
685.748	51776.73
686.095	51782.83
686.443	51568.83
686.79	51528.38
687.138	51503.74
687.485	51553.69
687.832	51445.44
688.18	51529.05
688.527	51382.17
688.874	51403.86
689.221	51238.21
689.568	51056.75
689.915	50965.45
690.262	51014.72
690.609	50903.76
690.956	50812.92
691.303	50716.87
691.65	50619.25
691.997	50534.28
692.344	50301.29
692.69	50391.68
693.037	50351.23
693.383	50164.57
693.73	50250.67
694.077	49942.66
694.423	49949.89
694.769	49789.89
695.116	49856.33
695.462	49752.83
695.808	49764.81
696.155	49767.29
696.501	49444.36
696.847	49505.61
697.193	49165.95
697.539	49318.27
697.885	48993.98
698.231	49022
698.577	48890.48
698.923	48840.09
699.269	48691.62
699.614	48382.02
699.96	48443.49
700.306	48422.7
700.651	48334.34
700.997	48175.92
701.342	48144.06
701.688	47945.19
702.033	47894.12
702.379	47704.52
702.724	47715.14
703.069	47718.31
703.415	47279.67
703.76	47344.53
704.105	47374.14
704.45	47110.64
704.795	46951.55
705.14	46808.05
705.485	46862.74
705.83	46714.27
706.175	46817.31
706.52	46450.77
706.865	46442.86
707.209	46451.9
707.554	46338.23
707.899	46335.29
708.243	46142.08
708.588	46145.92
708.932	45882.65
709.277	45792.93
709.621	45824.8
709.966	45546.39
710.31	45583.22
710.654	45307.52
710.998	45339.16
711.342	45440.4
711.687	45242.21
712.031	45124.48
712.375	44975.1
712.719	45040.19
713.063	44956.12
713.407	44948.66
713.75	44783.92
714.094	44694.88
714.438	44487.43
714.782	44600.42
715.125	44369.24
715.469	44401.33
715.812	44218.96
716.156	43926.54
716.499	43894.45
716.843	44122.7
717.186	43616.49
717.53	43882.48
717.873	43863.95
718.216	43804.06
718.559	43673.44
718.902	43396.61
719.246	43474.58
719.589	43430.96
719.932	43315.94
720.275	43212.66
720.617	43145.55
720.96	43050.63
721.303	43077.98
721.646	42931.99
721.989	42786.69
722.331	42818.55
722.674	42674.6
723.016	42655.62
723.359	42636.41
723.701	42656.52
724.044	42371.33
724.386	42207.49
724.729	42433.47
725.071	42209.53
725.413	42200.03
725.755	42091.79
726.097	41907.61
726.439	41838.24
726.782	41752.36
727.124	41855.18
727.465	41730.89
727.807	41700.16
728.149	41642.76
728.491	41495.65
728.833	41546.72
729.175	41442.09
729.516	41230.79
729.858	41222.21
730.199	41301.08
730.541	41114.19
730.882	41106.5
731.224	41108.31
731.565	40928.43
731.906	40904.48
732.248	41061.08
732.589	40765.72
732.93	40626.74
733.271	40635.56
733.612	40661.77
733.953	40632.17
734.294	40524.37
734.635	40267.2
734.976	40457.71
735.317	40145.85
735.658	40203.93
735.999	40199.18
736.339	40124.61
736.68	40125.29
737.021	39878.97
737.361	39895.24
737.702	40096.36
738.042	39799.42
738.383	39721.68
738.723	39777.95
739.063	39645.3
739.404	39521.91
739.744	39528.92
740.084	39410.73
740.424	39302.94
740.764	39329.6
741.104	39514.68
741.444	39158.53
741.784	39022.94
742.124	38994.47
742.464	39075.37
742.804	38983.4
743.143	38941.59
743.483	38956.5
743.823	38722.84
744.162	38706.12
744.502	38751.54
744.841	38540.92
745.181	38699.79
745.52	38413.24
745.86	38599.9
746.199	38349.29
746.538	38435.84
746.877	38329.18
747.216	38235.17
747.556	38084.66
747.895	38058.67
748.234	37894.84
748.573	37860.49
748.911	37731.45
749.25	37858.45
749.589	37666.59
749.928	37715.86
750.267	37701.62
750.605	37504.79
750.944	37302.76
751.283	37326.04
751.621	37413.04
751.96	37186.38
752.298	37201.75
