Data from plate_porcelain_FLMS001491_093.txt Node
Date: Tue Feb 07 11:20:13 GMT 2017
User: dcchb
Spectrometer: FLMS00149
Trigger mode: 0
Integration Time (sec): 2.000000E-2
Scans to average: 10
Electric dark correction enabled: true
Nonlinearity correction enabled: false
Boxcar width: 0
XAxis mode: Wavelengths
Number of Pixels in Spectrum: 2048
>>>>>Begin Spectral Data<<<<<
341.393	-11.48
341.776	-11.48
342.16	-11.48
342.543	-43.12
342.927	-65.94
343.31	-62.1
343.693	-70.24
344.077	-63.23
344.46	-69.11
344.843	-41.76
345.226	-42.67
345.61	-18.04
345.993	-20.97
346.376	-9.45
346.759	22.64
347.142	15.86
347.525	41.17
347.908	62.19
348.291	71.68
348.674	84.11
349.057	99.93
349.44	122.3
349.823	136.76
350.206	169.76
350.588	245.01
350.971	256.76
351.354	271.45
351.737	267.83
352.119	264.44
352.502	289.3
352.884	313.93
353.267	333.14
353.65	332.46
354.032	347.15
354.414	353.93
354.797	357.77
355.179	379.69
355.562	383.99
355.944	362.52
356.326	368.62
356.709	369.52
357.091	376.98
357.473	385.34
357.855	396.42
358.238	420.6
358.62	416.08
359.002	391.67
359.384	395.29
359.766	396.42
360.148	395.74
360.53	402.74
360.912	389.41
361.294	417.21
361.676	386.47
362.057	391.67
362.439	387.6
362.821	398.68
363.203	401.84
363.584	388.73
363.966	374.5
364.348	407.94
364.729	400.26
365.111	416.3
365.493	390.54
365.874	404.1
366.256	399.81
366.637	383.99
367.019	391.44
367.4	409.75
367.781	396.42
368.163	397.55
368.544	405.91
368.925	405.68
369.306	408.39
369.688	422.86
370.069	400.48
370.45	426.25
370.831	406.13
371.212	428.96
371.593	435.51
371.974	441.84
372.355	434.61
372.736	433.25
373.117	436.42
373.498	443.19
373.879	430.09
374.26	405.68
374.641	416.53
375.021	432.8
375.402	439.8
375.783	439.35
376.163	468.5
376.544	468.5
376.925	464.89
377.305	457.66
377.686	456.53
378.066	474.38
378.447	482.52
378.827	491.1
379.208	465.11
379.588	510.31
379.968	502.85
380.349	487.71
380.729	490.65
381.109	522.06
381.489	538.33
381.87	506.7
382.25	525.68
382.63	521.16
383.01	540.59
383.39	528.39
383.77	544.43
384.15	547.6
384.53	574.04
384.91	546.24
385.29	566.13
385.67	566.81
386.049	590.08
386.429	583.98
386.809	571.33
387.189	598.67
387.568	599.12
387.948	623.98
388.328	595.28
388.707	605.22
389.087	618.56
389.466	636.18
389.846	634.6
390.225	642.06
390.605	673.02
390.984	656.75
391.363	681.61
391.743	677.54
392.122	678.22
392.501	698.56
392.881	706.46
393.26	708.72
393.639	727.25
394.018	728.61
394.397	728.16
394.776	740.14
395.155	766.12
395.534	765.67
395.913	759.12
396.292	786.69
396.671	760.02
397.05	786.69
397.429	786.91
397.808	810.19
398.186	805.9
398.565	827.14
398.944	837.31
399.323	844.31
399.701	833.69
400.08	841.15
400.458	849.06
400.837	881.15
401.215	908.04
401.594	902.39
401.972	915.5
402.351	911.66
402.729	908.95
403.107	945.78
403.486	945.55
403.864	964.54
404.242	945.1
404.62	963.41
404.999	995.04
405.377	1001.15
405.755	1021.71
406.133	1028.26
406.511	1041.6
406.889	1056.74
407.267	1068.49
407.645	1106
408.023	1113.01
408.401	1119.33
408.779	1122.5
409.156	1146.68
409.534	1124.98
409.912	1184.19
410.29	1195.94
410.667	1186.45
411.045	1218.77
411.422	1266.45
411.8	1280.01
412.178	1294.02
412.555	1301.03
412.933	1294.7
413.31	1329.5
413.687	1339.67
414.065	1357.29
414.442	1417.63
414.819	1416.73
415.197	1397.75
415.574	1417.41
415.951	1470.06
416.328	1489.04
416.705	1487.69
417.082	1482.72
417.46	1503.05
417.837	1542.37
418.214	1545.54
418.591	1541.7
418.967	1570.62
419.344	1601.58
419.721	1623.95
420.098	1609.04
420.475	1640.45
420.852	1663.5
421.228	1669.38
421.605	1694.69
421.982	1705.99
422.358	1717.29
422.735	1751.86
423.111	1783.72
423.488	1779.2
423.864	1784.18
424.241	1850.84
424.617	1836.38
424.994	1861.91
425.37	1915.92
425.746	1898.3
426.123	1934.91
426.499	1955.25
426.875	2000.67
427.251	2048.12
427.627	2072.3
428.003	2078.18
428.379	2119.76
428.756	2165.86
429.132	2166.09
429.507	2215.8
429.883	2242.24
430.259	2236.37
430.635	2253.99
431.011	2327.44
431.387	2384.16
431.763	2403.59
432.138	2392.07
432.514	2445.4
432.89	2505.97
433.265	2494.44
433.641	2588
434.016	2583.48
434.392	2652.85
434.767	2686.53
435.143	2686.3
435.518	2674.1
435.894	2720.42
436.269	2787.09
436.644	2799.29
437.02	2853.3
437.395	2881.55
437.77	2934.88
438.145	2999.74
438.52	2957.93
438.895	3058.27
439.271	3049.68
439.646	3111.37
440.021	3150.69
440.395	3150.24
440.77	3153.18
441.145	3198.83
441.52	3228.66
441.895	3284.25
442.27	3301.42
442.645	3243.12
443.019	3318.37
443.394	3335.77
443.769	3422.78
444.143	3366.28
444.518	3397.02
444.892	3406.05
445.267	3501.87
445.641	3534.86
446.016	3515.43
446.39	3559.72
446.764	3619.38
447.139	3568.31
447.513	3639.95
447.887	3649.44
448.262	3683.79
448.636	3695.09
449.01	3777.8
449.384	3787.74
449.758	3830.22
450.132	3871.13
450.506	3872.03
450.88	3900.05
451.254	3961.75
451.628	4032.03
452.002	4098.69
452.376	4103.44
452.75	4127.17
453.123	4182.98
453.497	4284.68
453.871	4267.95
454.244	4322.64
454.618	4418.46
454.992	4426.59
455.365	4436.08
455.739	4581.39
456.112	4648.28
456.486	4655.06
456.859	4771.89
457.232	4819.35
457.606	4831.55
457.979	4891.21
458.352	5009.85
458.725	5057.76
459.099	5077.2
459.472	5161.71
459.845	5229.74
460.218	5295.5
460.591	5342.05
460.964	5386.34
461.337	5532.33
461.71	5605.77
462.083	5690.97
462.456	5676.73
462.829	5718.76
463.201	5832.21
463.574	5838.08
463.947	5947.68
464.32	6053.89
464.692	6168.69
465.065	6210.27
465.438	6298.86
465.81	6338.63
466.183	6473.54
466.555	6642.81
466.928	6635.12
467.3	6674.44
467.672	6737.94
468.045	6900.43
468.417	6977.03
468.789	7023.59
469.161	7120.99
469.534	7231.04
469.906	7423.35
470.278	7446.63
470.65	7591.03
471.022	7728.2
471.394	7868.99
471.766	7962.77
472.138	8069.66
472.51	8169.09
472.882	8312.82
473.253	8406.6
473.625	8579.25
473.997	8749.19
474.369	8850.21
474.74	8903.31
475.112	9031.67
475.484	9194.6
475.855	9445.9
476.227	9546.46
476.598	9757.3
476.97	9833.91
477.341	10117.74
477.713	10227.57
478.084	10249.49
478.455	10581.23
478.827	10653.55
479.198	10936.48
479.569	10938.74
479.94	11265.96
480.311	11384.83
480.682	11747.98
481.053	11981.87
481.424	12177.58
481.795	12298.7
482.166	12447.4
482.537	12596.55
482.908	12914.05
483.279	13047.83
483.65	13288.73
484.021	13537.09
484.391	13762.84
484.762	13924.2
485.133	13917.19
485.503	14276.73
485.874	14581.13
486.244	14643.95
486.615	14946.32
486.985	15163.26
487.356	15544.94
487.726	15591.95
488.097	15826.52
488.467	15971.6
488.837	16368.65
489.207	16548.76
489.578	16747.62
489.948	16852.25
490.318	17154.39
490.688	17328.4
491.058	17479.13
491.428	17792.34
491.798	17888.61
492.168	18286.79
492.538	18401.37
492.908	18597.97
493.278	18918.41
493.648	18918.87
494.017	19167.67
494.387	19345.52
494.757	19525.63
495.126	19844.94
495.496	19749.81
495.866	20027.31
496.235	20307.08
496.605	20436.57
496.974	20601.31
497.344	20807.18
497.713	20992.48
498.082	21161.52
498.452	21363.1
498.821	21464.79
499.19	21509.08
499.559	21721.28
499.928	21896.19
500.298	22041.04
500.667	22303.41
501.036	22144.32
501.405	22505.89
501.774	22657.07
502.143	22826.33
502.512	22892.55
502.88	23252.09
503.249	23288.7
503.618	23412.08
503.987	23579.08
504.356	23781.34
504.724	23751.96
505.093	24005.29
505.462	24087.77
505.83	24250.7
506.199	24484.6
506.567	24754.65
506.936	24732.5
507.304	25135.65
507.672	25227.63
508.041	25369.09
508.409	25581.29
508.777	25773.38
509.145	26050.43
509.514	26104.89
509.882	26159.58
510.25	26338.78
510.618	26597.08
510.986	26720.47
511.354	27021.25
511.722	27193.23
512.09	27413.78
512.458	27417.17
512.826	27661.69
513.193	27881.34
513.561	27989.81
513.929	28397.26
514.297	28588.44
514.664	28733.07
515.032	28878.83
515.4	29177.35
515.767	29332.83
516.135	29492.83
516.502	29320.85
516.869	29940.27
517.237	30056.88
517.604	30126.03
517.972	30480.82
518.339	30724.66
518.706	30805.56
519.073	30990.87
519.44	31164.87
519.808	31684.63
520.175	31541.81
520.542	32029.03
520.909	32241.23
521.276	32311.28
521.643	32553.31
522.009	32860.42
522.376	33073.75
522.743	33289.79
523.11	33692.49
523.477	33916.44
523.843	34108.98
524.21	34435.97
524.577	34803.87
524.943	34882.29
525.31	35116.86
525.676	35527.47
526.043	35767.69
526.409	35921.13
526.776	36244.74
527.142	36396.6
527.508	36716.82
527.874	36848.79
528.241	37240.65
528.607	37159.29
528.973	37761.99
529.339	37634.99
529.705	38111.13
530.071	38258.92
530.437	38468.18
530.803	38872.47
531.169	39036.3
531.535	38921.28
531.901	39064.1
532.267	39480.13
532.632	39599.68
532.998	39882.38
533.364	40104.52
533.73	40250.74
534.095	40652.98
534.461	40667.22
534.826	40941.79
535.192	41032.41
535.557	41355.57
535.923	41348.33
536.288	41483.02
536.653	41690.7
537.019	41730.24
537.384	41791.26
537.749	42079.84
538.114	42103.57
538.479	42336.33
538.845	42573.16
539.21	42482.09
539.575	42707.85
539.94	42842.76
540.305	43141.05
540.67	43146.03
541.034	43373.14
541.399	43609.07
541.764	43703.07
542.129	43701.49
542.494	43898.55
542.858	44113.23
543.223	44028.94
543.587	44335.15
543.952	44442.49
544.316	44550.28
544.681	44670.73
545.045	44948.01
545.41	45000.44
545.774	45202.92
546.138	45127.9
546.503	45406.76
546.867	45371.28
547.231	45741.44
547.595	45707.77
547.959	45913.64
548.324	46070.7
548.688	46190.24
549.052	46244.93
549.416	46432.04
549.779	46565.37
550.143	46675.2
550.507	46914.29
550.871	47075.64
551.235	47008.75
551.599	47352.47
551.962	47434.95
552.326	47602.18
552.689	47660.48
553.053	47605.34
553.417	47850.54
553.78	48255.72
554.143	48243.75
554.507	48412.33
554.87	48542.27
555.234	48892.99
555.597	48773
555.96	48950.17
556.323	49112.2
556.686	49234.23
557.05	49546.31
557.413	49553.32
557.776	49600.09
558.139	49967.54
558.502	50000.08
558.865	50146.52
559.228	50357.14
559.59	50443.69
559.953	50424.93
560.316	50840.29
560.679	50954.86
561.041	51137.23
561.404	51231.01
561.767	51457.22
562.129	51364.79
562.492	51781.28
562.854	51700.38
563.217	51825.35
563.579	51971.11
563.941	52238.89
564.304	52345.78
564.666	52497.87
565.028	52607.47
565.39	52678.43
565.753	52874.81
566.115	52909.84
566.477	53155.48
566.839	53180.56
567.201	53369.49
567.563	53371.07
567.925	53642.93
568.287	53663.26
568.648	53759.98
569.01	53936.7
569.372	54057.15
569.734	53992.97
570.095	54262.34
570.457	54318.84
570.819	54310.03
571.18	54393.19
571.542	54577.14
571.903	54646.97
572.265	54792.5
572.626	54822.78
572.987	54884.7
573.349	54952.27
573.71	55124.92
574.071	55157.91
574.432	55192.04
574.794	55452.82
575.155	55345.48
575.516	55338.25
575.877	55429.09
576.238	55544.34
576.599	55699.14
576.96	55648.75
577.32	55597.45
577.681	55781.4
578.042	55865.01
578.403	55933.03
578.763	55884.9
579.124	55947.72
579.485	56065.69
579.845	56124.89
580.206	56076.08
580.566	56091
580.927	56186.14
581.287	56282.63
581.648	56156.53
582.008	56305.68
582.368	56237.43
582.728	56284.44
583.089	56243.08
583.449	56255.06
583.809	56269.98
584.169	56357.88
584.529	56301.61
584.889	56485.34
585.249	56221.61
585.609	56305.45
585.969	56382.97
586.329	56349.07
586.688	56335.28
587.048	56342.06
587.408	56404.66
587.768	56367.37
588.127	56336.64
588.487	56222.74
588.846	56506.35
589.206	56369.63
589.565	56358.79
589.925	56505.9
590.284	56408.5
590.643	56506.13
591.003	56497.77
591.362	56553.13
591.721	56515.17
592.08	56472.23
592.44	56588.84
592.799	56616.63
593.158	56621.15
593.517	56592.68
593.876	56581.83
594.235	56521.49
594.593	56597.42
594.952	56664.54
595.311	56587.93
595.67	56617.31
596.029	56726.69
596.387	56730.08
596.746	56770.75
597.104	56740.7
597.463	56692.79
597.822	56877.19
598.18	56698.66
598.538	56680.13
598.897	56954.48
599.255	56629.97
599.613	57050.29
599.972	56833.12
600.33	56958.09
600.688	56893.24
601.046	56966.91
601.404	57073.12
601.762	56977.08
602.12	57125.09
602.478	57089.84
602.836	57142.49
603.194	56968.49
603.552	57004.65
603.91	56919
604.268	57187.47
604.625	57101.14
604.983	57205.77
605.341	57055.94
605.698	57212.32
606.056	57288.48
606.413	57189.95
606.771	57316.95
607.128	57366.67
607.485	57284.41
607.843	57293.68
608.2	57442.15
608.557	57577.06
608.914	57394.24
609.272	57549.04
609.629	57622.71
609.986	57667.23
610.343	57500.9
610.7	57773.44
611.057	57686.44
611.414	57700.9
611.771	57699.99
612.127	57767.34
612.484	57843.27
612.841	57795.81
613.198	57825.41
613.554	57832.65
613.911	57964.62
614.267	57913.77
614.624	57869.03
614.98	57928.91
615.337	58097.95
615.693	58038.52
616.05	57946.09
616.406	58091.4
616.762	58025.41
617.118	58051.62
617.475	58057.72
617.831	58172.52
618.187	58131.17
618.543	58150.15
618.899	58289.81
619.255	58231.51
619.611	58247.78
619.967	58308.11
620.323	58441.9
620.678	58290.94
621.034	58231.96
621.39	58247.32
621.746	58192.64
622.101	58477.83
622.457	58190.38
622.812	58270.6
623.168	58377.49
623.523	58364.16
623.879	58386.76
624.234	58259.98
624.589	58347.89
624.945	58360.77
625.3	58384.27
625.655	58347.21
626.01	58351.05
626.365	58392.86
626.72	58369.81
627.075	58281.45
627.43	58346.08
627.785	58231.51
628.14	58199.42
628.495	58279.41
628.85	58221.56
629.205	58126.65
629.559	58267.21
629.914	58161.22
630.269	58233.54
630.623	58115.8
630.978	58143.15
631.332	58193.54
631.687	58207.33
632.041	58138.63
632.396	58183.82
632.75	58024.96
633.104	57982.7
633.459	57963.94
633.813	57919.65
634.167	57960.55
634.521	57958.74
634.875	58030.61
635.229	57855.92
635.583	57740.45
635.937	57752.42
636.291	57739.32
636.645	57752.65
636.999	57622.48
637.352	57747.68
637.706	57599.21
638.06	57761.91
638.413	57592.2
638.767	57558.75
639.121	57569.38
639.474	57407.57
639.828	57496.38
640.181	57474.01
640.534	57431.07
640.888	57360.34
641.241	57227.69
641.594	57220.23
641.947	57371.64
642.301	57220.46
642.654	57305.88
643.007	57228.59
643.36	57213.91
643.713	57129.61
644.066	57239.67
644.419	57085.1
644.771	56910.41
645.124	56695.27
645.477	56592.23
645.83	56412.8
646.182	56341.61
646.535	56190.88
646.888	56274.72
647.24	56179.13
647.593	56309.07
647.945	56135.52
648.298	56010.32
648.65	55975.07
649.002	55951.11
649.355	56071.56
649.707	55978.23
650.059	56113.82
650.411	56428.62
650.763	56412.34
651.115	56603.98
651.467	56526.47
651.819	56476.07
652.171	56497.54
652.523	56377.32
652.875	56405.11
653.227	56220.71
653.578	56469.07
653.93	56388.39
654.282	56230.43
654.633	56200.82
654.985	56257.77
655.337	56134.84
655.688	56210.99
656.039	56299.8
656.391	56040.6
656.742	56145.46
657.094	56147.49
657.445	56201.05
657.796	56170.77
658.147	56055.97
658.498	56023.65
658.849	56115.4
659.2	56116.31
659.551	55981.85
659.902	56100.49
660.253	55991.34
660.604	56050.55
660.955	55903.88
661.306	55991.79
661.656	55912.7
662.007	55935.07
662.358	55895.3
662.708	55937.55
663.059	55840.16
663.409	55686.94
663.76	55858.91
664.11	55850.55
664.461	55835.41
664.811	55817.78
665.161	55801.96
665.511	55784.79
665.862	55733.49
666.212	55864.56
666.562	55794.51
666.912	55768.75
667.262	55724.45
667.612	55742.76
667.962	55746.6
668.312	55679.03
668.662	55820.95
669.011	55702.53
669.361	55732.81
669.711	55602.65
670.06	55626.83
670.41	55580.5
670.76	55552.03
671.109	55586.38
671.459	55623.89
671.808	55536.21
672.157	55611.01
672.507	55367.17
672.856	55405.37
673.205	55432.71
673.554	55569.43
673.904	55390.45
674.253	55580.73
674.602	55388.87
674.951	55075.2
675.3	54897.81
675.649	55303.9
675.998	55231.81
676.346	55237.46
676.695	55336.67
677.044	55121.3
677.393	55325.14
677.741	55268.42
678.09	55171.93
678.438	55161.08
678.787	55209.66
679.135	55206.27
679.484	55058.93
679.832	55061.42
680.181	54874.08
680.529	55006.28
680.877	54933.06
681.225	54893.74
681.573	55055.32
681.922	54880.18
682.27	54750.92
682.618	54726.96
682.966	54647.65
683.314	54642.67
683.661	54566.07
684.009	54432.74
684.357	54360.87
684.705	54427.76
685.053	54415.79
685.4	54368.33
685.748	54196.58
686.095	54169.47
686.443	54021.67
686.79	53988.23
687.138	54046.08
687.485	54004.5
687.832	53816.93
688.18	53927.44
688.527	53813.77
688.874	53728.12
689.221	53616.49
689.568	53565.19
689.915	53523.61
690.262	53576.71
690.609	53399.54
690.956	53330.84
691.303	53216.72
691.65	53188.47
691.997	53145.54
692.344	52975.82
692.69	52971.08
693.037	53098.99
693.383	52727.92
693.73	52904.41
694.077	52637.75
694.423	52510.3
694.769	52499
695.116	52499.45
695.462	52376.07
695.808	52308.05
696.155	52321.38
696.501	52075.28
696.847	52158.67
697.193	51816.98
697.539	51968.17
697.885	51811.11
698.231	51609.31
698.577	51671.23
698.923	51635.07
699.269	51517.78
699.614	51192.82
699.96	51188.3
700.306	51176.55
700.651	51200.05
700.997	50995.54
701.342	50850
701.688	50915.54
702.033	50690.01
702.379	50698.82
702.724	50507.64
703.069	50570.01
703.415	50191.04
703.76	50316.46
704.105	50104.71
704.45	50092.06
704.795	49941.78
705.14	49786.3
705.485	49817.04
705.83	49651.84
706.175	49771.39
706.52	49568.23
706.865	49492.75
707.209	49529.81
707.554	49353.55
707.899	49418.4
708.243	49129.15
708.588	49126.66
708.932	48840.57
709.277	48813
709.621	48867.46
709.966	48562.16
710.31	48742.49
710.654	48261.15
710.998	48442.84
711.342	48414.14
711.687	48261.15
712.031	48058.89
712.375	47976.63
712.719	48027.48
713.063	47850.76
713.407	47990.87
713.75	47734.38
714.094	47744.55
714.438	47503.43
714.782	47656.87
715.125	47326.26
715.469	47582.29
715.812	47325.13
716.156	47061.4
716.499	46962.65
716.843	47015.98
717.186	46801.75
717.53	47037.9
717.873	46917.23
718.216	46930.11
718.559	46750.45
718.902	46706.38
719.246	46653.28
719.589	46466.39
719.932	46368.99
720.275	46406.51
720.617	46314.53
720.96	46221.88
721.303	46121.54
721.646	46219.84
721.989	45851.27
722.331	46056.91
722.674	45982.34
723.016	45888.33
723.359	45889.46
723.701	45813.08
724.044	45462.8
724.386	45366.99
724.729	45430.03
725.071	45379.41
725.413	45294.9
725.755	45268.46
726.097	45117.95
726.439	44869.6
726.782	45093.32
727.124	45109.14
727.465	44881.35
727.807	44723.84
728.149	44598.19
728.491	44636.83
728.833	44679.77
729.175	44708.25
729.516	44478.42
729.858	44367.69
730.199	44448.37
730.541	44266.9
730.882	44237.75
731.224	44417.63
731.565	44122.95
731.906	44015.61
732.248	44158.66
732.589	43852.67
732.93	43830.98
733.271	43805.67
733.612	43873.47
733.953	43815.39
734.294	43561.16
734.635	43504.21
734.976	43605.22
735.317	43268.28
735.658	43336.98
735.999	43281.16
736.339	43148.51
736.68	43241.17
737.021	43129.08
737.361	42914.39
737.702	43159.59
738.042	42898.35
738.383	42825.36
738.723	42870.78
739.063	42751.23
739.404	42777.9
739.744	42653.38
740.084	42421.07
740.424	42567.28
740.764	42486.61
741.104	42392.15
741.444	42236.9
741.784	41995.32
742.124	42067.64
742.464	42140.4
742.804	41956
743.143	42040.97
743.483	41965.04
743.823	41752.16
744.162	41724.59
744.502	41510.59
744.841	41570.02
745.181	41771.37
745.52	41619.96
745.86	41554.66
746.199	41454.32
746.538	41307.2
746.877	41392.85
747.216	41354.89
747.556	41081.67
747.895	41123.48
748.234	41055.69
748.573	40961.68
748.911	40687.79
749.25	40798.97
749.589	40671.97
749.928	40704.73
750.267	40658.41
750.605	40510.62
750.944	40342.48
751.283	40288.25
751.621	40373.67
751.96	40111.76
752.298	40144.52
752.636	40139.78
