Data from plate_porcelain_FLMS001491_057.txt Node
Date: Tue Feb 07 11:19:33 GMT 2017
User: dcchb
Spectrometer: FLMS00149
Trigger mode: 0
Integration Time (sec): 2.000000E-2
Scans to average: 10
Electric dark correction enabled: true
Nonlinearity correction enabled: false
Boxcar width: 0
XAxis mode: Wavelengths
Number of Pixels in Spectrum: 2048
>>>>>Begin Spectral Data<<<<<
341.393	-11.81
341.776	-11.81
342.16	-11.81
342.543	-35.31
342.927	-86.61
343.31	-59.94
343.693	-54.74
344.077	-73.5
344.46	-57.91
344.843	-57
345.226	-52.26
345.61	-45.93
345.993	-25.37
346.376	13.73
346.759	10.11
347.142	30
347.525	50.56
347.908	62.99
348.291	75.87
348.674	80.17
349.057	103.22
349.44	140.5
349.823	155.65
350.206	182.31
350.588	245.36
350.971	245.59
351.354	279.26
351.737	290.78
352.119	290.33
352.502	296.21
352.884	316.32
353.267	331.01
353.65	343.66
354.032	358.8
354.414	356.32
354.797	359.93
355.179	369.88
355.562	370.1
355.944	376.43
356.326	384.34
356.709	387.28
357.091	383.66
357.473	393.83
357.855	403.32
358.238	404.23
358.62	394.74
359.002	392.02
359.384	408.75
359.766	401.74
360.148	414.4
360.53	392.02
360.912	404.9
361.294	390.89
361.676	402.42
362.057	415.53
362.439	386.15
362.821	396.54
363.203	399.26
363.584	396.77
363.966	411.23
364.348	386.37
364.729	400.61
365.111	398.35
365.493	373.49
365.874	391.12
366.256	412.59
366.637	440.61
367.019	415.53
367.4	399.71
367.781	398.8
368.163	420.72
368.544	418.46
368.925	415.07
369.306	418.24
369.688	411.46
370.069	399.26
370.45	413.04
370.831	412.59
371.212	413.27
371.593	425.47
371.974	427.05
372.355	433.38
372.736	436.09
373.117	439.25
373.498	418.46
373.879	420.27
374.26	428.63
374.641	426.6
375.021	435.19
375.402	452.14
375.783	447.39
376.163	475.86
376.544	486.71
376.925	477.22
377.305	479.7
377.686	469.99
378.066	489.42
378.447	465.69
378.827	468.18
379.208	497.11
379.588	461.63
379.968	503.43
380.349	466.6
380.729	507.95
381.109	507.95
381.489	519.48
381.87	503.66
382.25	506.37
382.63	513.83
383.01	540.27
383.39	531.23
383.77	530.78
384.15	552.47
384.53	547.05
384.91	553.6
385.29	556.54
385.67	575.3
386.049	562.41
386.429	571.91
386.809	621.17
387.189	593.15
387.568	614.84
387.948	599.48
388.328	596.76
388.707	603.77
389.087	609.19
389.466	630.66
389.846	655.07
390.225	636.31
390.605	621.85
390.984	662.07
391.363	645.58
391.743	667.72
392.122	670.66
392.501	674.95
392.881	685.35
393.26	695.52
393.639	683.54
394.018	708.63
394.397	735.29
394.776	755.4
395.155	738.46
395.534	729.64
395.913	722.86
396.292	761.28
396.671	763.54
397.05	743.88
397.429	783.2
397.808	769.41
398.186	784.1
398.565	787.49
398.944	813.93
399.323	829.3
399.701	820.71
400.08	836.08
400.458	837.66
400.837	865.23
401.215	852.58
401.594	883.31
401.972	895.06
402.351	865.91
402.729	895.97
403.107	919.02
403.486	923.08
403.864	920.6
404.242	923.08
404.62	922.86
404.999	956.08
405.377	960.37
405.755	974.83
406.133	1021.16
406.511	1002.18
406.889	1025
407.267	1049.41
407.645	1058.67
408.023	1054.83
408.401	1101.61
408.779	1092.8
409.156	1135.28
409.534	1114.49
409.912	1137.77
410.29	1162.17
410.667	1162.85
411.045	1189.74
411.422	1229.06
411.8	1204.43
412.178	1238.78
412.555	1262.96
412.933	1263.64
413.31	1268.16
413.687	1321.04
414.065	1312.23
414.442	1341.15
414.819	1326.91
415.197	1375.5
415.574	1377.08
415.951	1379.57
416.328	1409.85
416.705	1421.83
417.082	1429.96
417.46	1456.4
417.837	1463.41
418.214	1497.76
418.591	1515.38
418.967	1507.02
419.344	1544.99
419.721	1550.86
420.098	1555.38
420.475	1587.7
420.852	1610.07
421.228	1625.44
421.605	1648.49
421.982	1661.37
422.358	1685.32
422.735	1679.45
423.111	1688.26
423.488	1749.73
423.864	1747.69
424.241	1763.06
424.617	1795.38
424.994	1822.04
425.37	1801.48
425.746	1831.53
426.123	1869.95
426.499	1878.99
426.875	1925.32
427.251	1935.71
427.627	1945.66
428.003	2003.05
428.379	2026.78
428.756	2045.54
429.132	2072.43
429.507	2109.49
429.883	2135.03
430.259	2189.72
430.635	2196.04
431.011	2249.38
431.387	2274.23
431.763	2332.54
432.138	2316.04
432.514	2350.62
432.89	2387
433.265	2438.3
433.641	2422.7
434.016	2472.87
434.392	2543.38
434.767	2540.44
435.143	2554.9
435.518	2610.5
435.894	2650.72
436.269	2637.39
436.644	2685.52
437.02	2744.5
437.395	2738.85
437.77	2768.91
438.145	2828.12
438.52	2869.02
438.895	2863.6
439.271	2860.21
439.646	2962.8
440.021	2950.6
440.395	2986.98
440.77	2992.63
441.145	3028.56
441.52	3090.48
441.895	3109.92
442.27	3112.86
442.645	3088.68
443.019	3189.46
443.394	3158.28
443.769	3222.01
444.143	3203.7
444.518	3308.78
444.892	3261.1
445.267	3289.8
445.641	3348.56
446.016	3358.05
446.39	3387.65
446.764	3394.88
447.139	3398.27
447.513	3502.45
447.887	3447.99
448.262	3497.25
448.636	3516.24
449.01	3585.16
449.384	3599.4
449.758	3641.2
450.132	3674.88
450.506	3690.24
450.88	3718.49
451.254	3728.89
451.628	3815.44
452.002	3883.91
452.376	3873.29
452.75	3907.86
453.123	3955.55
453.497	4017.92
453.871	4024.47
454.244	4138.59
454.618	4144.92
454.992	4253.84
455.365	4247.29
455.739	4382.43
456.112	4357.34
456.486	4425.82
456.859	4464.01
457.232	4586.49
457.606	4591.69
457.979	4593.72
458.352	4750.55
458.725	4755.75
459.099	4803.66
459.472	4991.45
459.845	4973.15
460.218	4960.94
460.591	5058.34
460.964	5094.05
461.337	5224.66
461.71	5295.85
462.083	5382.17
462.456	5369.07
462.829	5454.94
463.201	5558.22
463.574	5588.5
463.947	5624.2
464.32	5738.78
464.692	5817.87
465.065	5859.68
465.438	5973.35
465.81	6063.74
466.183	6097.64
466.555	6268.93
466.928	6301.02
467.3	6310.74
467.672	6387.35
468.045	6594.35
468.417	6567.68
468.789	6607.45
469.161	6693.1
469.534	6887.9
469.906	6995.47
470.278	7028.46
470.65	7155.91
471.022	7263.26
471.394	7440.65
471.766	7483.14
472.138	7550.48
472.51	7754.32
472.882	7872.28
473.253	7983.24
473.625	8084.48
473.997	8229.56
474.369	8303.91
474.74	8411.25
475.112	8520.62
475.484	8691.24
475.855	8795.87
476.227	8956.77
476.598	9197.44
476.97	9230.66
477.341	9519.24
477.713	9631.78
478.084	9707.26
478.455	9946.57
478.827	10032.9
479.198	10294.36
479.569	10430.18
479.94	10685.99
480.311	10716.05
480.682	11020.9
481.053	11249.59
481.424	11457.27
481.795	11547.21
482.166	11738.84
482.537	11965.73
482.908	12171.6
483.279	12285.95
483.65	12526.85
484.021	12719.84
484.391	12913.28
484.762	13056.55
485.133	13140.61
485.503	13429.65
485.874	13614.27
486.244	13833.25
486.615	14136.07
486.985	14249.96
487.356	14501.48
487.726	14585.1
488.097	14911.87
488.467	15065.08
488.837	15255.36
489.207	15491.29
489.578	15768.34
489.948	15914.55
490.318	16103.93
490.688	16148.9
491.058	16436.12
491.428	16746.62
491.798	16858.26
492.168	17185.25
492.538	17301.86
492.908	17502.99
493.278	17776.88
493.648	17778.46
494.017	18075.63
494.387	18146.81
494.757	18429.06
495.126	18530.53
495.496	18597.87
495.866	18796.74
496.235	19047.13
496.605	19130.51
496.974	19334.8
497.344	19511.97
497.713	19568.02
498.082	19806.43
498.452	20035.12
498.821	20169.13
499.19	20165.51
499.559	20376.58
499.928	20474.89
500.298	20688.67
500.667	20865.38
501.036	20921.88
501.405	21130.91
501.774	21207.52
502.143	21439.61
502.512	21584.91
502.88	21750.33
503.249	21756.21
503.618	21987.39
503.987	22003.43
504.356	22265.8
504.724	22326.59
505.093	22515.51
505.462	22553.93
505.83	22819.46
506.199	22978.32
506.567	23293.79
506.936	23317.07
507.304	23586.22
507.672	23787.34
508.041	23868.24
508.409	24010.16
508.777	24176.03
509.145	24387.32
509.514	24428.23
509.882	24636.36
510.25	24700.76
510.618	24935.33
510.986	25021.88
511.354	25323.57
511.722	25592.04
512.09	25739.15
512.458	25721.3
512.826	26081.52
513.193	26251.23
513.561	26261.4
513.929	26663.2
514.297	26837.88
514.664	27056.63
515.032	27108.16
515.4	27313.35
515.767	27391.99
516.135	27755.15
516.502	27586.79
516.869	27996.72
517.237	28196.26
517.604	28228.13
517.972	28578.18
518.339	28932.52
518.706	28857.72
519.073	29118.5
519.44	29199.4
519.808	29520.75
520.175	29655.89
520.542	30068.53
520.909	30158.02
521.276	30277.79
521.643	30647.95
522.009	30861.73
522.376	31019.01
522.743	31271.89
523.11	31634.37
523.477	31849.73
523.843	32065.32
524.21	32442.48
524.577	32591.4
524.943	32752.75
525.31	32933.09
525.676	33285.17
526.043	33590.92
526.409	33683.35
526.776	34141.19
527.142	34199.27
527.508	34479.04
527.874	34788.41
528.241	34852.59
528.607	35047.38
528.973	35356.08
529.339	35494.83
529.705	35817.98
530.071	36066.57
530.437	36296.16
530.803	36535.03
531.169	36520.11
531.535	36619.77
531.901	36748.36
532.267	36989.93
532.632	37149.93
532.998	37356.48
533.364	37690.25
533.73	37822.45
534.095	38092.95
534.461	38184.93
534.826	38367.07
535.192	38509.89
535.557	38900.16
535.923	38641.87
536.288	39081.85
536.653	39226.48
537.019	39318.91
537.384	39456.76
537.749	39498.79
538.114	39706.7
538.479	39971.55
538.845	40060.81
539.21	40014.26
539.575	40219.68
539.94	40380.12
540.305	40745.54
540.67	40527.47
541.034	40704.41
541.399	40937.62
541.764	41049.03
542.129	41156.38
542.494	41281.57
542.858	41484.73
543.223	41553.2
543.587	41870.48
543.952	41915.9
544.316	42039.97
544.681	42071.38
545.045	42288.78
545.41	42486.51
545.774	42644.7
546.138	42700.97
546.503	42832.49
546.867	42839.5
547.231	43235.87
547.595	43322.42
547.959	43328.97
548.324	43563.32
548.688	43428.63
549.052	43800.37
549.416	43841.73
549.779	43905.91
550.143	44092.12
550.507	44314.48
550.871	44479
551.235	44528.26
551.599	44857.3
551.962	44888.48
552.326	45109.04
552.689	45164.41
553.053	45253.22
553.417	45361.69
553.78	45838.29
554.143	45716.93
554.507	45931.84
554.87	46094.32
555.234	46577.25
555.597	46323.47
555.96	46548.55
556.323	46770.69
556.686	46759.17
557.05	47085.94
557.413	47089.55
557.776	47075.54
558.139	47393.5
558.502	47613.38
558.865	47683.44
559.228	48032.8
559.59	48139.47
559.953	48159.81
560.316	48525.45
560.679	48591.66
561.041	48918.21
561.404	48973.8
561.767	49197.97
562.129	49113.45
562.492	49602.26
562.854	49568.81
563.217	49712.99
563.579	49922.7
563.941	50071.17
564.304	50151.17
564.666	50361.33
565.028	50565.17
565.39	50664.37
565.753	50679.06
566.115	50969.45
566.477	51053.29
566.839	51152.27
567.201	51304.81
567.563	51415.31
567.925	51598.36
568.287	51675.65
568.648	51768.07
569.01	51962.19
569.372	52157.44
569.734	52027.05
570.095	52227.95
570.457	52420.26
570.819	52482.63
571.18	52498
571.542	52622.51
571.903	52807.14
572.265	52883.98
572.626	52952.22
572.987	53013.01
573.349	53096.4
573.71	53172.1
574.071	53278.54
574.432	53397.86
574.794	53554.02
575.155	53507.01
575.516	53462.27
575.877	53690.06
576.238	53762.6
576.599	53793.33
576.96	53877.62
577.32	53920.11
577.681	53881.24
578.042	54168.24
578.403	54093.89
578.763	54137.5
579.124	54160.78
579.485	54277.84
579.845	54311.51
580.206	54286.2
580.566	54312.19
580.927	54390.38
581.287	54476.03
581.648	54405.29
582.008	54544.95
582.368	54487.78
582.728	54532.52
583.089	54426.08
583.449	54462.24
583.809	54492.3
584.169	54565.74
584.529	54516.02
584.889	54720.99
585.249	54498.85
585.609	54480.32
585.969	54566.87
586.329	54643.03
586.688	54621.56
587.048	54654.78
587.408	54592.18
587.768	54673.53
588.127	54594.21
588.487	54610.26
588.846	54773.19
589.206	54589.47
589.565	54551.96
589.925	54809.58
590.284	54640.54
590.643	54781.78
591.003	54750.82
591.362	54731.61
591.721	54720.99
592.08	54790.14
592.44	54811.38
592.799	54894.55
593.158	54836.69
593.517	54813.64
593.876	54917.6
594.235	54829.46
594.593	54750.14
594.952	54928.67
595.311	54807.99
595.67	54927.54
596.029	55076.69
596.387	54995.33
596.746	55075.11
597.104	54941.78
597.463	54987.2
597.822	55148.32
598.18	54990.36
598.538	55034.88
598.897	55129.57
599.255	54902.91
599.613	55293.86
599.972	55108.78
600.33	55214.31
600.688	55163.01
601.046	55245.72
601.404	55321.2
601.762	55288.66
602.12	55424.7
602.478	55312.84
602.836	55408.2
603.194	55330.47
603.552	55295.66
603.91	55258.6
604.268	55470.58
604.625	55292.5
604.983	55475.55
605.341	55354.65
605.698	55619.5
606.056	55554.19
606.413	55505.83
606.771	55632.83
607.128	55633.28
607.485	55563.91
607.843	55627.18
608.2	55737.91
608.557	55824.92
608.914	55732.94
609.272	55838.48
609.629	55890.23
609.986	55959.38
610.343	55890
610.7	56079.37
611.057	56063.1
611.414	56037.57
611.771	56044.8
612.127	56128.41
612.484	56090.9
612.841	56193.49
613.198	56115.98
613.554	56184.23
613.911	56260.84
614.267	56225.81
614.624	56232.14
614.98	56336.32
615.337	56458.57
615.693	56458.12
616.05	56294.51
616.406	56442.75
616.762	56392.36
617.118	56444.56
617.475	56390.78
617.831	56507.61
618.187	56501.73
618.543	56562.52
618.899	56671
619.255	56617.66
619.611	56625.35
619.967	56694.5
620.323	56750.32
620.678	56692.46
621.034	56609.08
621.39	56643.88
621.746	56652.24
622.101	56875.51
622.457	56663.99
622.812	56644.1
623.168	56742.18
623.523	56733.59
623.879	56821.95
624.234	56615.18
624.589	56745.57
624.945	56711.45
625.3	56757.55
625.655	56694.27
626.01	56718
626.365	56778.79
626.72	56742.86
627.075	56668.28
627.43	56639.58
627.785	56639.58
628.14	56699.47
628.495	56657.89
628.85	56567.27
629.205	56556.2
629.559	56682.07
629.914	56531.79
630.269	56539.93
630.623	56536.08
630.978	56436.65
631.332	56511.23
631.687	56597.33
632.041	56477.78
632.396	56478.46
632.75	56393.49
633.104	56429.42
633.459	56259.71
633.813	56327.05
634.167	56320.95
634.521	56293.15
634.875	56325.92
635.229	56192.59
635.583	56110.11
635.937	56114.85
636.291	56101.07
636.645	56085.47
636.999	55930.45
637.352	56073.05
637.706	55846.16
638.06	55995.99
638.413	56013.16
638.767	55822.2
639.121	55951.01
639.474	55659.5
639.828	55755.54
640.181	55757.57
640.534	55765.93
640.888	55648.88
641.241	55551.7
641.594	55655.2
641.947	55714.86
642.301	55533.62
642.654	55638.25
643.007	55582.44
643.36	55523.23
643.713	55400.29
644.066	55637.35
644.419	55369.79
644.771	55185.61
645.124	54912.17
645.477	54864.94
645.83	54622.46
646.182	54536.36
646.535	54413.65
646.888	54506.08
647.24	54346.99
647.593	54539.07
647.945	54509.92
648.298	54277.39
648.65	54156.49
649.002	54166.65
649.355	54273.09
649.707	54196.71
650.059	54326.88
650.411	54613.2
650.763	54686.19
651.115	54904.49
651.467	54685.96
651.819	54751.95
652.171	54790.82
652.523	54694.32
652.875	54666.08
653.227	54543.37
653.578	54658.17
653.93	54580.2
654.282	54510.15
654.633	54398.51
654.985	54470.15
655.337	54483.48
655.688	54439.19
656.039	54524.84
656.391	54258.4
656.742	54363.71
657.094	54464.05
657.445	54445.74
657.796	54433.77
658.147	54312.64
658.498	54256.37
658.849	54284.39
659.2	54197.16
659.551	54167.56
659.902	54331.17
660.253	54154.9
660.604	54226.09
660.955	54136.37
661.306	54258.63
661.656	54124.85
662.007	54144.06
662.358	54084.4
662.708	54110.16
663.059	53999.2
663.409	53818.87
663.76	54035.36
664.11	54010.5
664.461	53973.44
664.811	54061.35
665.161	53967.79
665.511	53941.8
665.862	53964.85
666.212	54015.47
666.562	54002.14
666.912	53949.26
667.262	53913.1
667.612	53826.78
667.962	54001.24
668.312	53911.75
668.662	53979.77
669.011	53929.37
669.361	53780.45
669.711	53864.97
670.06	53754.01
670.41	53670.4
670.76	53677.63
671.109	53869.71
671.459	53735.48
671.808	53707.23
672.157	53803.05
672.507	53594.01
672.856	53556.5
673.205	53650.28
673.554	53655.93
673.904	53471.53
674.253	53625.2
674.602	53588.59
674.951	53177.3
675.3	53026.12
675.649	53509.27
675.998	53515.15
676.346	53489.16
676.695	53468.59
677.044	53274.02
677.393	53457.75
677.741	53427.01
678.09	53374.36
678.438	53293.46
678.787	53304.53
679.135	53327.13
679.484	53107.25
679.832	53374.81
680.181	53129.62
680.529	53153.8
680.877	53056.4
681.225	53022.96
681.573	53132.33
681.922	52936.86
682.27	52809.18
682.618	52797.88
682.966	52784.09
683.314	52762.4
683.661	52634.04
684.009	52496.64
684.357	52443.08
684.705	52492.12
685.053	52450.99
685.4	52429.53
685.748	52257.33
686.095	52129.65
686.443	52103.21
686.79	52072.25
687.138	52103.66
687.485	52128.74
687.832	51947.28
688.18	52042.19
688.527	51784.34
688.874	51775.98
689.221	51642.88
689.568	51576.44
689.915	51480.4
690.262	51505.26
690.609	51354.75
690.956	51224.36
691.303	51236.11
691.65	51049.67
691.997	51001.54
692.344	50943.46
692.69	50875.67
693.037	50969.22
693.383	50631.38
693.73	50738.72
694.077	50545.28
694.423	50540.08
694.769	50324.04
695.116	50272.07
695.462	50276.59
695.808	50166.08
696.155	50243.37
696.501	49934.22
696.847	49973.77
697.193	49574.46
697.539	49860.1
697.885	49559.77
698.231	49508.25
698.577	49452.2
698.923	49421.02
699.269	49144.64
699.614	48871.2
699.96	48879.11
700.306	48855.38
700.651	48933.8
700.997	48790.07
701.342	48688.15
701.688	48520.48
702.033	48386.24
702.379	48433.47
702.724	48246.36
703.069	48280.03
703.415	47879.36
703.76	47858.12
704.105	47938.57
704.45	47733.38
704.795	47540.16
705.14	47315.99
705.485	47500.84
705.83	47223.11
706.175	47408.87
706.52	47143.34
706.865	46985.83
707.209	47026.5
707.554	46794.42
707.899	47022.66
708.243	46729.56
708.588	46688.21
708.932	46463.58
709.277	46300.65
709.621	46457.93
709.966	46122.12
710.31	46293.42
710.654	45966.87
710.998	46040.54
711.342	45956.48
711.687	45760.55
712.031	45613.89
712.375	45452.31
712.719	45609.59
713.063	45431.07
713.407	45449.14
713.75	45325.31
714.094	45383.38
714.438	45144.29
714.782	45042.15
715.125	45012.77
715.469	45006.22
715.812	44767.81
716.156	44603.29
716.499	44537.76
716.843	44556.74
717.186	44225.67
717.53	44459.34
717.873	44526
718.216	44388.83
718.559	44272.23
718.902	44094.15
719.246	44216.63
719.589	43961.5
719.932	43939.13
720.275	43713.37
720.617	43646.71
720.96	43622.07
721.303	43524.45
721.646	43579.81
721.989	43441.06
722.331	43490.78
722.674	43388.86
723.016	43361.97
723.359	43169.66
723.701	43247.85
724.044	42898.7
724.386	42740.29
724.729	42932.6
725.071	42794.75
725.413	42784.13
725.755	42573.51
726.097	42639.95
726.439	42425.49
726.782	42272.5
727.124	42425.04
727.465	42464.59
727.807	42197.25
728.149	42126.75
728.491	41992.06
728.833	42233.64
729.175	41890.59
729.516	41876.36
729.858	41832.06
730.199	41889.01
730.541	41599.98
730.882	41652.63
731.224	41745.51
731.565	41444.5
731.906	41557.95
732.248	41558.17
732.589	41352.3
732.93	41121.35
733.271	41206.09
733.612	41090.84
733.953	41238.18
734.294	41025.53
734.635	40996.38
734.976	40990.5
735.317	40755.93
735.658	40778.76
735.999	40768.14
736.339	40576.96
736.68	40663.28
737.021	40518.88
737.361	40322.5
737.702	40533.12
738.042	40482.95
738.383	40303.74
738.723	40445.43
739.063	40276.17
739.404	40219.45
739.744	40221.26
740.084	39920.93
740.424	39962.96
740.764	39900.14
741.104	39993.92
741.444	39735.85
741.784	39825.34
742.124	39547.15
742.464	39657.88
742.804	39522.97
743.143	39352.58
743.483	39375.41
743.823	39341.51
744.162	39350.32
744.502	39322.3
744.841	39059.03
745.181	39234.84
745.52	38932.71
745.86	38960.73
746.199	39016.54
746.538	38897.45
746.877	38914.63
747.216	38807.74
747.556	38665.82
747.895	38667.85
748.234	38408.88
748.573	38349.22
748.911	38358.26
749.25	38447.29
749.589	38194.65
749.928	38205.94
750.267	38219.73
750.605	38014.76
750.944	37908.78
751.283	37678.5
751.621	37841.89
751.96	37584.94
752.298	37643.02
752.636	37642.8
752.975	37433.31
