Data from plate_porcelain_FLMS001491_070.txt Node
Date: Tue Feb 07 11:19:42 GMT 2017
User: dcchb
Spectrometer: FLMS00149
Trigger mode: 0
Integration Time (sec): 2.000000E-2
Scans to average: 10
Electric dark correction enabled: true
Nonlinearity correction enabled: false
Boxcar width: 0
XAxis mode: Wavelengths
Number of Pixels in Spectrum: 2048
>>>>>Begin Spectral Data<<<<<
341.393	-11.2
341.776	-11.2
342.16	-11.2
342.543	-61.59
342.927	-60.46
343.31	-67.92
343.693	-56.85
344.077	-30.41
344.46	-87.36
344.843	-43.29
345.226	-29.73
345.61	-40.58
345.993	-11.88
346.376	-11.65
346.759	1.23
347.142	8.69
347.525	45.75
347.908	54.33
348.291	73.54
348.674	81
349.057	115.12
349.44	124.62
349.823	148.57
350.206	164.39
350.588	230.83
350.971	246.65
351.354	282.13
351.737	300.43
352.119	292.75
352.502	286.87
352.884	312.86
353.267	302.92
353.65	339.75
354.032	351.5
354.414	360.09
354.797	346.76
355.179	346.08
355.562	361.45
355.944	371.16
356.326	370.48
356.709	398.96
357.091	392.86
357.473	386.3
357.855	368.9
358.238	385.4
358.62	390.6
359.002	377.49
359.384	390.15
359.766	384.04
360.148	416.36
360.53	385.17
360.912	387.66
361.294	391.73
361.676	398.96
362.057	386.98
362.439	372.74
362.821	398.96
363.203	417.04
363.584	382.46
363.966	398.73
364.348	385.17
364.729	365.29
365.111	387.89
365.493	391.05
365.874	381.56
366.256	393.53
366.637	391.73
367.019	382.69
367.4	396.92
367.781	398.96
368.163	419.3
368.544	410.94
368.925	404.61
369.306	409.13
369.688	386.76
370.069	412.52
370.45	403.48
370.831	401.9
371.212	400.54
371.593	401.67
371.974	393.53
372.355	400.77
372.736	422.01
373.117	412.74
373.498	429.01
373.879	431.27
374.26	448
374.641	436.02
375.021	431.5
375.402	422.91
375.783	468.56
376.163	473.76
376.544	471.05
376.925	453.87
377.305	463.59
377.686	469.01
378.066	468.11
378.447	475.79
378.827	470.37
379.208	479.86
379.588	459.52
379.968	472.4
380.349	487.09
380.729	504.72
381.109	509.92
381.489	500.2
381.87	500.65
382.25	512.85
382.63	506.75
383.01	512.85
383.39	515.57
383.77	539.07
384.15	523.02
384.53	542.68
384.91	563.47
385.29	543.14
385.67	550.37
386.049	561.21
386.429	564.83
386.809	547.43
387.189	574.55
387.568	596.24
387.948	586.75
388.328	607.77
388.707	590.37
389.087	604.38
389.466	620.65
389.846	615.22
390.225	622.46
390.605	634.88
390.984	643.92
391.363	653.64
391.743	636.47
392.122	700.42
392.501	667.43
392.881	683.02
393.26	670.36
393.639	711.27
394.018	705.62
394.397	713.75
394.776	743.13
395.155	746.07
395.534	730.25
395.913	732.06
396.292	764.82
396.671	765.5
397.05	767.08
397.429	766.63
397.808	751.49
398.186	773.41
398.565	800.98
398.944	788.1
399.323	792.17
399.701	793.75
400.08	814.77
400.458	812.73
400.837	835.56
401.215	840.75
401.594	846.4
401.972	876.46
402.351	869.68
402.729	889.12
403.107	893.41
403.486	916.91
403.864	932.28
404.242	916.91
404.62	945.84
404.999	957.36
405.377	928.21
405.755	959.62
406.133	995.78
406.511	1014.31
406.889	995.33
407.267	1028.32
407.645	1021.77
408.023	1040.07
408.401	1049.11
408.779	1066.51
409.156	1101.31
409.534	1126.17
409.912	1122.1
410.29	1134.31
410.667	1168.88
411.045	1174.08
411.422	1179.95
411.8	1184.93
412.178	1236
412.555	1229.45
412.933	1253.4
413.31	1271.7
413.687	1276
414.065	1295.66
414.442	1308.09
414.819	1322.78
415.197	1342.44
415.574	1375.88
415.951	1388.31
416.328	1376.33
416.705	1388.54
417.082	1418.37
417.46	1444.35
417.837	1493.62
418.214	1478.93
418.591	1501.08
418.967	1485.48
419.344	1508.76
419.721	1529.1
420.098	1522.09
420.475	1549.44
420.852	1572.71
421.228	1599.38
421.605	1590.11
421.982	1633.05
422.358	1635.99
422.735	1651.81
423.111	1658.59
423.488	1680.73
423.864	1710.79
424.241	1737
424.617	1758.7
424.994	1766.38
425.37	1807.73
425.746	1786.04
426.123	1825.36
426.499	1843.21
426.875	1860.61
427.251	1929.99
427.627	1951.69
428.003	1982.42
428.379	2002.31
428.756	2010.44
429.132	2010.22
429.507	2047.95
429.883	2090.89
430.259	2141.29
430.635	2146.94
431.011	2153.49
431.387	2214.05
431.763	2280.72
432.138	2291.34
432.514	2305.35
432.89	2326.14
433.265	2402.75
433.641	2387.15
434.016	2398
434.392	2480.71
434.767	2529.52
435.143	2484.55
435.518	2524.55
435.894	2575.85
436.269	2622.63
436.644	2651.78
437.02	2665.79
437.395	2685
437.77	2727.71
438.145	2771.1
438.52	2817.65
438.895	2825.79
439.271	2891.1
439.646	2916.18
440.021	2910.76
440.395	2972.22
440.77	2907.59
441.145	2938.1
441.52	3004.09
441.895	3049.06
442.27	3091.99
442.645	3069.17
443.019	3118.21
443.394	3161.82
443.769	3152.11
444.143	3107.59
444.518	3229.17
444.892	3221.94
445.267	3236.62
445.641	3261.93
446.016	3298.54
446.39	3368.6
446.764	3369.28
447.139	3312.55
447.513	3420.35
447.887	3400.24
448.262	3434.58
448.636	3494.02
449.01	3478.43
449.384	3538.31
449.758	3596.61
450.132	3629.83
450.506	3656.27
450.88	3634.35
451.254	3666.9
451.628	3746.22
452.002	3807.23
452.376	3839.32
452.75	3850.39
453.123	3868.25
453.497	3922.93
453.871	3940.56
454.244	4053.1
454.618	4117.96
454.992	4177.84
455.365	4175.81
455.739	4290.83
456.112	4326.09
456.486	4329.93
456.859	4416.25
457.232	4485.4
457.606	4472.07
457.979	4530.15
458.352	4667.09
458.725	4695.57
459.099	4702.12
459.472	4797.26
459.845	4898.05
460.218	4938.05
460.591	4988.67
460.964	5019.85
461.337	5097.82
461.71	5206.74
462.083	5259.4
462.456	5277.7
462.829	5300.52
463.201	5428.2
463.574	5441.09
463.947	5537.35
464.32	5658.26
464.692	5754.52
465.065	5769.66
465.438	5839.72
465.81	5878.14
466.183	5962.88
466.555	6136.43
466.928	6147.06
467.3	6162.87
467.672	6311.8
468.045	6451.45
468.417	6455.52
468.789	6476.54
469.161	6578.23
469.534	6766.25
469.906	6874.27
470.278	6917.88
470.65	7025
471.022	7152.23
471.394	7286.91
471.766	7307.7
472.138	7409.62
472.51	7602.16
472.882	7671.08
473.253	7817.75
473.625	7891.64
473.997	8111.75
474.369	8140.22
474.74	8250.05
475.112	8384.96
475.484	8507.22
475.855	8667.89
476.227	8664.96
476.598	9009.35
476.97	9117.83
477.341	9320.76
477.713	9506.06
478.084	9509.45
478.455	9800.75
478.827	9864.47
479.198	10145.82
479.569	10168.65
479.94	10465.13
480.311	10580.84
480.682	10821.28
481.053	11109.41
481.424	11312.34
481.795	11325.22
482.166	11480.93
482.537	11709.85
482.908	11924.31
483.279	12064.19
483.65	12247.91
484.021	12598.86
484.391	12679.77
484.762	12770.84
485.133	12957.72
485.503	13084.5
485.874	13521.1
486.244	13528.1
486.615	13813.97
486.985	14005.15
487.356	14173.74
487.726	14420.96
488.097	14688.07
488.467	14732.14
488.837	15008.97
489.207	15266.82
489.578	15422.29
489.948	15643.53
490.318	15723.53
490.688	15890.53
491.058	16150.86
491.428	16461.81
491.798	16572.54
492.168	16952.2
492.538	16915.81
492.908	17189.25
493.278	17398.96
493.648	17425.4
494.017	17718.5
494.387	17880.76
494.757	18015.9
495.126	18099.06
495.496	18245.72
495.866	18492.72
496.235	18625.15
496.605	18829.66
496.974	18983.1
497.344	19163.21
497.713	19239.82
498.082	19429.64
498.452	19647.72
498.821	19800.71
499.19	19859.69
499.559	20058.55
499.928	20313.69
500.298	20360.69
500.667	20586.45
501.036	20496.51
501.405	20771.76
501.774	20797.97
502.143	21071.64
502.512	21151.63
502.88	21330.84
503.249	21386.2
503.618	21621.9
503.987	21782.58
504.356	21863.93
504.724	21985.96
505.093	22140.53
505.462	22227.99
505.83	22417.81
506.199	22700.52
506.567	22967.18
506.936	22855.09
507.304	23064.58
507.672	23299.37
508.041	23405.13
508.409	23638.12
508.777	23746.37
509.145	23987.94
509.514	24040.37
509.882	24196.52
510.25	24332.34
510.618	24579.57
510.986	24599.23
511.354	24848.71
511.722	25145.43
512.09	25361.47
512.458	25391.07
512.826	25519.65
513.193	25699.76
513.561	25843.71
513.929	26072.86
514.297	26324.38
514.664	26486.41
515.032	26623.81
515.4	26913.97
515.767	27044.36
516.135	27275.77
516.502	27068.31
516.869	27629.2
517.237	27676.43
517.604	27764.79
517.972	28104.67
518.339	28340.6
518.706	28341.5
519.073	28599.12
519.44	28773.35
519.808	29122.05
520.175	29244.75
520.542	29701.46
520.909	29588.47
521.276	29607.68
521.643	30095.8
522.009	30307.55
522.376	30572.85
522.743	30714.77
523.11	31097.13
523.477	31253.29
523.843	31534.86
524.21	31909.54
524.577	32116.09
524.943	32251.91
525.31	32319.93
525.676	32644.66
526.043	32811.89
526.409	32994.26
526.776	33489.39
527.142	33544.53
527.508	33706.11
527.874	34110.39
528.241	34271.51
528.607	34416.14
528.973	34744.95
529.339	34753.99
529.705	35195.33
530.071	35475.78
530.437	35525.72
530.803	35788.76
531.169	36055.2
531.535	36075.76
531.901	36245.25
532.267	36414.73
532.632	36666.25
532.998	36771.34
533.364	37145.34
533.73	37131.55
534.095	37561.15
534.461	37533.58
534.826	37701.25
535.192	37925.88
535.557	38213.78
535.923	38070.51
536.288	38350.05
536.653	38643.15
537.019	38458.75
537.384	38755.46
537.749	38850.15
538.114	38947.78
538.479	39146.41
538.845	39312.06
539.21	39393.87
539.575	39533.52
539.94	39775.78
540.305	39929.67
540.67	39819.84
541.034	40209.21
541.399	40370.79
541.764	40389.32
542.129	40617.56
542.494	40682.87
542.858	40854.84
543.223	40860.95
543.587	41185.46
543.952	41108.17
544.316	41255.29
544.681	41376.19
545.045	41594.03
545.41	41886.46
545.774	41915.38
546.138	41975.94
546.503	41968.71
546.867	42249.84
547.231	42665.19
547.595	42547.91
547.959	42620.45
548.324	42794.23
548.688	42918.97
549.052	43144.73
549.416	43066.99
549.779	43264.05
550.143	43366.42
550.507	43621.32
550.871	43862
551.235	43934.08
551.599	44136.34
551.962	44152.38
552.326	44376.56
552.689	44622.65
553.053	44541.75
553.417	44771.58
553.78	45182.19
554.143	44969.31
554.507	45297.44
554.87	45498.56
555.234	45837.09
555.597	45666.02
555.96	45910.3
556.323	45996.86
556.686	46110.07
557.05	46414.7
557.413	46414.47
557.776	46624.18
558.139	46974.46
558.502	47004.74
558.865	47042.03
559.228	47346.2
559.59	47480.21
559.953	47704.38
560.316	47967.2
560.679	47979.85
561.041	48246.74
561.404	48288.55
561.767	48709.78
562.129	48484.7
562.492	48894.41
562.854	48858.02
563.217	48981.41
563.579	49249.2
563.941	49399.03
564.304	49591.79
564.666	49836.3
565.028	50038.11
565.39	49980.71
565.753	50293.69
566.115	50334.37
566.477	50476.06
566.839	50543.18
567.201	50846.9
567.563	50898.2
567.925	51059.77
568.287	51194.68
568.648	51239.2
569.01	51333.44
569.372	51567.1
569.734	51482.14
570.095	51792.41
570.457	51889.13
570.819	52012.29
571.18	51965.29
571.542	52184.04
571.903	52211.61
572.265	52287.31
572.626	52420.87
572.987	52516.23
573.349	52602.78
573.71	52719.62
574.071	52776.79
574.432	52939.27
574.794	53125.03
575.155	53041.42
575.516	53014.3
575.877	53218.59
576.238	53235.99
576.599	53317.34
576.96	53342.65
577.32	53457.22
577.681	53475.08
578.042	53544.23
578.403	53619.71
578.763	53604.11
579.124	53779.25
579.485	53786.03
579.845	53804.33
580.206	53872.81
580.566	53854.95
580.927	53896.99
581.287	54031.67
581.648	53856.76
582.008	54087.04
582.368	54040.49
582.728	54043.88
583.089	53998.91
583.449	54032.12
583.809	54098.11
584.169	54133.59
584.529	54070.77
584.889	54295.39
585.249	54021.96
585.609	54011.79
585.969	54210.2
586.329	54116.42
586.688	54312.12
587.048	54193.93
587.408	54216.98
587.768	54213.81
588.127	54187.15
588.487	54061.73
588.846	54306.02
589.206	54093.37
589.565	54155.06
589.925	54334.72
590.284	54274.6
590.643	54268.05
591.003	54314.6
591.362	54336.52
591.721	54280.25
592.08	54261.27
592.44	54417.43
592.799	54335.62
593.158	54410.42
593.517	54424.2
593.876	54443.19
594.235	54367.48
594.593	54454.03
594.952	54529.74
595.311	54435.96
595.67	54494.71
596.029	54568.16
596.387	54580.13
596.746	54586.23
597.104	54473.92
597.463	54535.84
597.822	54660.13
598.18	54574.03
598.538	54602.96
598.897	54693.58
599.255	54522.06
599.613	54881.37
599.972	54725.44
600.33	54819.45
600.688	54785.78
601.046	54812.67
601.404	54973.12
601.762	54881.82
602.12	55026
602.478	54968.6
602.836	54995.49
603.194	54828.71
603.552	54926.11
603.91	54832.1
604.268	55046.34
604.625	54994.13
604.983	55129.72
605.341	54947.81
605.698	55124.75
606.056	55133.34
606.413	55092.21
606.771	55199.1
607.128	55244.75
607.485	55137.18
607.843	55166.78
608.2	55325.65
608.557	55458.3
608.914	55314.8
609.272	55509.15
609.629	55474.12
609.986	55568.81
610.343	55424.18
610.7	55688.8
611.057	55606.09
611.414	55596.83
611.771	55700.1
612.127	55738.97
612.484	55676.6
612.841	55804.96
613.198	55759.54
613.554	55711.63
613.911	55942.13
614.267	55731.74
614.624	55801.34
614.98	55905.75
615.337	56119.53
615.693	55974.45
616.05	55854
616.406	56102.8
616.762	55959.08
617.118	56024.84
617.475	55994.56
617.831	56039.3
618.187	56104.84
618.543	56017.61
618.899	56295.79
619.255	56200.66
619.611	56190.26
619.967	56224.61
620.323	56277.72
620.678	56226.42
621.034	56177.83
621.39	56169.7
621.746	56163.82
622.101	56402.01
622.457	56166.53
622.812	56248.79
623.168	56324.04
623.523	56308.22
623.879	56350.48
624.234	56248.56
624.589	56316.36
624.945	56319.52
625.3	56359.52
625.655	56302.57
626.01	56310.93
626.365	56310.03
626.72	56317.49
627.075	56319.97
627.43	56336.7
627.785	56227.1
628.14	56326.08
628.495	56287.43
628.85	56185.06
629.205	56087.21
629.559	56238.39
629.914	56094.9
630.269	56152.75
630.623	56027.55
630.978	56097.38
631.332	56112.3
631.687	56164.5
632.041	56023.03
632.396	56044.73
632.75	55974.9
633.104	55968.12
633.459	55844.28
633.813	55920.44
634.167	55823.49
634.521	55888.35
634.875	55865.3
635.229	55807.45
635.583	55673.66
635.937	55696.04
636.291	55698.07
636.645	55641.57
636.999	55545.08
637.352	55622.37
637.706	55499.43
638.06	55583.27
638.413	55518.87
638.767	55412.65
639.121	55535.59
639.474	55273.22
639.828	55324.52
640.181	55319.1
640.534	55430.73
640.888	55261.24
641.241	55155.03
641.594	55232.77
641.947	55244.75
642.301	55180.34
642.654	55129.95
643.007	55181.25
643.36	55141.7
643.713	55031.19
644.066	55127.69
644.419	54926.11
644.771	54760.24
645.124	54493.81
645.477	54402.51
645.83	54237.54
646.182	54116.64
646.535	53896.08
646.888	54045.46
647.24	53868.29
647.593	53974.72
647.945	53954.84
648.298	53797.33
648.65	53756.43
649.002	53562.08
649.355	53784
649.707	53620.61
650.059	53895.63
650.411	54189.63
650.763	54151.67
651.115	54487.93
651.467	54322.96
651.819	54386.69
652.171	54236.86
652.523	54248.39
652.875	54233.02
653.227	54010.2
653.578	54242.06
653.93	54059.92
654.282	53941.51
654.633	53962.97
654.985	53991.67
655.337	54059.69
655.688	54009.75
656.039	54033.03
656.391	53838.68
656.742	53828.29
657.094	53899.02
657.445	53983.54
657.796	53926.36
658.147	53811.34
658.498	53832.81
658.849	53853.37
659.2	53797.55
659.551	53762.75
659.902	53917.1
660.253	53825.12
660.604	53795.75
660.955	53694.28
661.306	53749.19
661.656	53643.43
662.007	53650.21
662.358	53582.64
662.708	53617.22
663.059	53640.95
663.409	53405.93
663.76	53584
664.11	53519.14
664.461	53734.51
664.811	53560.5
665.161	53570.44
665.511	53550.78
665.862	53580.16
666.212	53628.75
666.562	53560.05
666.912	53590.33
667.262	53535.41
667.612	53544
667.962	53526.83
668.312	53379.49
668.662	53607.73
669.011	53458.58
669.361	53433.72
669.711	53330.45
670.06	53307.4
670.41	53218.59
670.76	53198.47
671.109	53349.2
671.459	53239.15
671.808	53209.77
672.157	53294.97
672.507	53183.33
672.856	53096.33
673.205	53131.13
673.554	53209.77
673.904	53110.57
674.253	53198.93
674.602	53148.31
674.951	52643.91
675.3	52650.24
675.649	53036.22
675.998	53032.83
676.346	52899.05
676.695	53046.84
677.044	52849.78
677.393	52947.18
677.741	52967.97
678.09	52851.14
678.438	52774.3
678.787	52785.83
679.135	52863.12
679.484	52538.38
679.832	52725.49
680.181	52616.79
680.529	52661.31
680.877	52576.57
681.225	52482.56
681.573	52746.51
681.922	52411.38
682.27	52513.52
682.618	52430.13
682.966	52217.03
683.314	52403.24
683.661	52237.14
684.009	52073.53
684.357	51984.95
684.705	51976.13
685.053	52017.94
685.4	52016.58
685.748	51790.38
686.095	51719.64
686.443	51614.11
686.79	51555.58
687.138	51531.4
687.485	51640.55
687.832	51507.9
688.18	51561.23
688.527	51300.22
688.874	51418.86
689.221	51176.38
689.568	51063.39
689.915	50940.91
690.262	50942.49
690.609	50844.41
690.956	50741.82
691.303	50694.36
691.65	50561.71
691.997	50521.48
692.344	50398.1
692.69	50452.56
693.037	50422.28
693.383	50149.74
693.73	50267.25
694.077	49964.66
694.423	49994.04
694.769	49867.49
695.116	49752.69
695.462	49819.13
695.808	49632.69
696.155	49713.59
696.501	49470.44
696.847	49437.67
697.193	49155.87
697.539	49345.02
697.885	49042.2
698.231	48887.18
698.577	49058.02
698.923	48885.14
699.269	48601.98
699.614	48478.15
699.96	48370.58
700.306	48445.6
700.651	48297.36
700.997	48013.07
701.342	48129
701.688	48010.81
702.033	47862.12
702.379	47866.64
702.724	47619.19
703.069	47833.87
703.415	47346.88
703.76	47338.74
704.105	47331.51
704.45	47073.89
704.795	46877.51
705.14	46817.17
705.485	46691.3
705.83	46640.45
706.175	46749.15
706.52	46531.98
706.865	46407.92
707.209	46401.59
707.554	46258.09
707.899	46296.73
708.243	46289.5
708.588	45997.53
708.932	45765
709.277	45759.35
709.621	45803.64
709.966	45570.2
710.31	45679.58
710.654	45323.43
710.998	45398.23
711.342	45401.16
711.687	45266.93
712.031	45191.23
712.375	44838.47
712.719	45045.69
713.063	44915.3
713.407	44951.91
713.75	44601.64
714.094	44748.98
714.438	44558.7
714.782	44685.03
715.125	44398.03
715.469	44254.75
715.812	44190.58
716.156	43932.28
716.499	43930.92
716.843	44069.9
717.186	43716.46
717.53	43952.39
717.873	43906.06
718.216	43780.42
718.559	43673.75
718.902	43413.19
719.246	43418.17
719.589	43337.72
719.932	43178.62
720.275	43089.36
720.617	43175.69
720.96	43002.36
721.303	43021.57
721.646	43070.15
721.989	42730.73
722.331	42777.05
722.674	42740.44
723.016	42815.92
723.359	42610.5
723.701	42543.39
724.044	42333.22
724.386	42275.15
724.729	42358.08
725.071	42229.72
725.413	42142.04
725.755	42043.97
726.097	41921.93
726.439	41765.55
726.782	41922.84
727.124	41859.56
727.465	41672.22
727.807	41655.27
728.149	41629.96
728.491	41560.59
728.833	41509.97
729.175	41416.64
729.516	41356.75
729.858	41236.53
730.199	41182.97
730.541	41133.25
730.882	41133.25
731.224	41038.12
731.565	40901.62
731.906	40954.95
732.248	40967.16
732.589	40720.38
732.93	40571.01
733.271	40627.73
733.612	40642.65
733.953	40647.17
734.294	40522.88
734.635	40371.92
734.976	40451.69
735.317	40284.24
735.658	40160.4
735.999	40187.52
736.339	40064.81
736.68	40286.5
737.021	39989.56
737.361	39841.31
737.702	40047.41
738.042	39866.4
738.383	39699.62
738.723	39835.66
739.063	39679.28
739.404	39736.23
739.744	39559.74
740.084	39371.27
740.424	39462.79
740.764	39320.65
741.104	39440.87
741.444	39099.86
741.784	39091.95
742.124	39096.02
742.464	39045.17
742.804	39095.12
743.143	38928.34
743.483	38953.42
743.823	38575.58
744.162	38672.08
744.502	38782.36
744.841	38501.46
745.181	38595.69
745.52	38512.76
745.86	38522.7
746.199	38311.18
746.538	38366.1
746.877	38263.95
747.216	38223.95
747.556	38105.09
747.895	38108.93
748.234	37774.92
748.573	37800.69
748.911	37899.22
749.25	37726.56
749.589	37669.62
749.928	37753.68
750.267	37625.32
750.605	37537.64
750.944	37336.97
751.283	37223.75
751.621	37472.11
751.96	37100.82
752.298	37162.06
752.636	37093.36
752.975	36904.67
753.313	36774.27
