Data from plate_porcelain_FLMS001491_084.txt Node
Date: Tue Feb 07 11:20:02 GMT 2017
User: dcchb
Spectrometer: FLMS00149
Trigger mode: 0
Integration Time (sec): 2.000000E-2
Scans to average: 10
Electric dark correction enabled: true
Nonlinearity correction enabled: false
Boxcar width: 0
XAxis mode: Wavelengths
Number of Pixels in Spectrum: 2048
>>>>>Begin Spectral Data<<<<<
341.393	-3.8
341.776	-3.8
342.16	-3.8
342.543	-74.53
342.927	-64.36
343.31	-57.13
343.693	-66.4
344.077	-67.53
344.46	-58.26
344.843	-60.3
345.226	-56
345.61	-26.4
345.993	-27.53
346.376	7.73
346.759	21.74
347.142	28.97
347.525	43.43
347.908	47.27
348.291	74.16
348.674	91.34
349.057	104.9
349.44	121.17
349.823	157.55
350.206	163.43
350.588	208.4
350.971	240.26
351.354	252.92
351.737	266.93
352.119	273.48
352.502	296.98
352.884	280.94
353.267	323.88
353.65	311.22
354.032	318
354.414	331.56
354.797	348.06
355.179	360.94
355.562	356.19
355.944	361.61
356.326	367.72
356.709	368.85
357.091	372.46
357.473	370.88
357.855	370.65
358.238	373.14
358.62	379.92
359.002	388.28
359.384	387.38
359.766	388.73
360.148	397.09
360.53	388.96
360.912	376.76
361.294	382.86
361.676	395.74
362.057	389.41
362.439	381.95
362.821	395.06
363.203	366.36
363.584	378.79
363.966	385.79
364.348	372.46
364.729	378.79
365.111	368.85
365.493	399.13
365.874	390.54
366.256	386.02
366.637	389.41
367.019	380.6
367.4	383.31
367.781	385.79
368.163	367.72
368.544	383.08
368.925	391.22
369.306	385.34
369.688	395.74
370.069	398.68
370.45	395.96
370.831	396.87
371.212	398.45
371.593	400.94
371.974	385.57
372.355	404.78
372.736	412.46
373.117	409.98
373.498	416.53
373.879	421.73
374.26	409.98
374.641	408.62
375.021	416.08
375.402	442.06
375.783	447.94
376.163	456.98
376.544	445
376.925	439.13
377.305	455.62
377.686	448.84
378.066	433.48
378.447	442.74
378.827	435.06
379.208	464.44
379.588	472.12
379.968	462.4
380.349	468.28
380.729	480.03
381.109	482.52
381.489	490.88
381.87	488.62
382.25	503.31
382.63	513.02
383.01	496.98
383.39	491.55
383.77	504.89
384.15	545.56
384.53	523.64
384.91	531.78
385.29	518.22
385.67	530.65
386.049	525.9
386.429	553.47
386.809	557.99
387.189	578.33
387.568	571.55
387.948	548.73
388.328	572
388.707	577.43
389.087	578.33
389.466	585.11
389.846	597.09
390.225	614.72
390.605	585.34
390.984	618.78
391.363	614.49
391.743	643.64
392.122	638.22
392.501	645.22
392.881	652.68
393.26	661.49
393.639	685.45
394.018	681.83
394.397	680.7
394.776	693.81
395.155	690.87
395.534	674.83
395.913	722.28
396.292	702.17
396.671	751.66
397.05	741.72
397.429	711.66
397.808	741.27
398.186	738.33
398.565	747.37
398.944	767.71
399.323	772.45
399.701	770.87
400.08	773.81
400.458	792.79
400.837	814.94
401.215	786.01
401.594	826.91
401.972	823.98
402.351	856.74
402.729	831.88
403.107	882.96
403.486	884.54
403.864	880.02
404.242	897.65
404.62	885.44
404.999	938.77
405.377	907.14
405.755	913.46
406.133	961.37
406.511	941.26
406.889	959.11
407.267	980.13
407.645	974.25
408.023	1013.8
408.401	1004.54
408.779	1009.73
409.156	1035.27
409.534	1041.82
409.912	1066.91
410.29	1113.23
410.667	1117.98
411.045	1131.76
411.422	1124.31
411.8	1145.1
412.178	1143.29
412.555	1184.87
412.933	1211.76
413.31	1218.99
413.687	1233.46
414.065	1238.88
414.442	1253.79
414.819	1274.81
415.197	1256.05
415.574	1307.35
415.951	1344.19
416.328	1319.33
416.705	1340.57
417.082	1394.13
417.46	1379.67
417.837	1380.12
418.214	1386.9
418.591	1433.9
418.967	1408.59
419.344	1446.56
419.721	1451.53
420.098	1481.59
420.475	1516.61
420.852	1492.43
421.228	1522.49
421.605	1530.17
421.982	1555.03
422.358	1548.48
422.735	1601.36
423.111	1620.11
423.488	1632.09
423.864	1652.65
424.241	1682.48
424.617	1688.59
424.994	1687.46
425.37	1712.31
425.746	1728.13
426.123	1774.23
426.499	1748.7
426.875	1788.47
427.251	1803.38
427.627	1854
428.003	1858.52
428.379	1930.16
428.756	1901.01
429.132	1937.39
429.507	2005.64
429.883	2007.67
430.259	2049.93
430.635	2068.01
431.011	2082.93
431.387	2096.26
431.763	2188.46
432.138	2173.32
432.514	2197.95
432.89	2233.66
433.265	2282.02
433.641	2306.42
434.016	2326.08
434.392	2385.52
434.767	2402.92
435.143	2430.94
435.518	2475.68
435.894	2518.39
436.269	2513.87
436.644	2549.35
437.02	2587.54
437.395	2602.23
437.77	2631.84
438.145	2632.74
438.52	2676.13
438.895	2730.82
439.271	2726.52
439.646	2787.09
440.021	2809.23
440.395	2837.48
440.77	2817.14
441.145	2837.93
441.52	2958.83
441.895	2935.56
442.27	2943.02
442.645	2949.57
443.019	2996.35
443.394	2999.29
443.769	3005.39
444.143	3062.79
444.518	3091.26
444.892	3085.61
445.267	3133.07
445.641	3179.39
446.016	3171.26
446.39	3187.3
446.764	3223.23
447.139	3218.04
447.513	3275.66
447.887	3303.68
448.262	3305.49
448.636	3342.1
449.01	3433.85
449.384	3478.59
449.758	3474.53
450.132	3507.75
450.506	3486.28
450.88	3522.89
451.254	3561.76
451.628	3625.94
452.002	3688.31
452.376	3705.26
452.75	3760.17
453.123	3735.76
453.497	3849.21
453.871	3858.47
454.244	3952.71
454.618	3987.28
454.992	4019.37
455.365	4044.91
455.739	4162.42
456.112	4141.85
456.486	4199.48
456.859	4244.9
457.232	4301.4
457.606	4373.71
457.979	4406.71
458.352	4485.57
458.725	4559.02
459.099	4595.63
459.472	4678.56
459.845	4762.4
460.218	4748.84
460.591	4801.5
460.964	4835.62
461.337	4943.64
461.71	5042.4
462.083	5065.45
462.456	5119
462.829	5114.26
463.201	5228.38
463.574	5280.81
463.947	5361.48
464.32	5550.63
464.692	5508.6
465.065	5561.25
465.438	5643.28
465.81	5760.12
466.183	5768.93
466.555	5906.1
466.928	6027.91
467.3	5956.04
467.672	6083.05
468.045	6269.26
468.417	6263.83
468.789	6314.9
469.161	6430.16
469.534	6492.53
469.906	6583.82
470.278	6691.17
470.65	6781.33
471.022	6924.15
471.394	7107.88
471.766	7108.1
472.138	7217.03
472.51	7391.03
472.882	7429
473.253	7569.11
473.625	7739.05
473.997	7848.2
474.369	7902.43
474.74	7992.37
475.112	8166.83
475.484	8268.3
475.855	8407.28
476.227	8535.41
476.598	8762.3
476.97	8864.89
477.341	9075.96
477.713	9207.03
478.084	9278.44
478.455	9505.1
478.827	9607.93
479.198	9904.87
479.569	9865.55
479.94	10186.89
480.311	10319.77
480.682	10522.03
481.053	10683.6
481.424	10971.51
481.795	10990.49
482.166	11212.63
482.537	11359.97
482.908	11621.21
483.279	11652.62
483.65	11899.62
484.021	12157.46
484.391	12318.59
484.762	12437.68
485.133	12549.99
485.503	12752.7
485.874	13110.66
486.244	13145.01
486.615	13487.82
486.985	13589.29
487.356	13836.51
487.726	13937.53
488.097	14249.61
488.467	14424.52
488.837	14607.34
489.207	14846.21
489.578	15058.63
489.948	15121.23
490.318	15412.74
490.688	15431.73
491.058	15654.09
491.428	15908.1
491.798	16121.2
492.168	16458.14
492.538	16454.52
492.908	16730.68
493.278	16985.58
493.648	16989.2
494.017	17135.41
494.387	17397.33
494.757	17545.12
495.126	17786.24
495.496	17837.31
495.866	18034.37
496.235	18082.28
496.605	18355.72
496.974	18466.45
497.344	18628.71
497.713	18783.28
498.082	18875.93
498.452	19063.27
498.821	19186.2
499.19	19228.01
499.559	19522.24
499.928	19654.44
500.298	19782.12
500.667	20007.65
501.036	19989.8
501.405	20253.97
501.774	20314.08
502.143	20508.66
502.512	20498.94
502.88	20812.6
503.249	20792.26
503.618	20994.52
503.987	21062.31
504.356	21341.85
504.724	21424.11
505.093	21512.7
505.462	21776.19
505.83	21865.23
506.199	22006.7
506.567	22258.67
506.936	22267.25
507.304	22530.98
507.672	22650.07
508.041	22739.33
508.409	23036.27
508.777	23171.86
509.145	23321.92
509.514	23338.64
509.882	23526.2
510.25	23639.65
510.618	23889.58
510.986	23888.23
511.354	24300.19
511.722	24528.44
512.09	24580.86
512.458	24593.29
512.826	24976.33
513.193	25011.14
513.561	25150.57
513.929	25408.64
514.297	25661.29
514.664	25863.09
515.032	25984.67
515.4	26211.33
515.767	26312.12
516.135	26520.25
516.502	26434.15
516.869	26920.69
517.237	26987.36
517.604	27026.22
517.972	27253.11
518.339	27552.76
518.706	27554.57
519.073	27793.21
519.44	27994.11
519.808	28321.78
520.175	28369.24
520.542	28906.63
520.909	28955.21
521.276	28828.21
521.643	29294.64
522.009	29465.71
522.376	29659.6
522.743	29952.02
523.11	30225.91
523.477	30523.08
523.843	30786.8
524.21	31072.67
524.577	31226.79
524.943	31387.92
525.31	31638.76
525.676	31877.17
526.043	32124.62
526.409	32188.12
526.776	32656.81
527.142	32676.25
527.508	32974.32
527.874	33195.33
528.241	33340.86
528.607	33485.26
528.973	33850.23
529.339	33876.89
529.705	34244.34
530.071	34515.07
530.437	34579.25
530.803	34919.12
531.169	34999.35
531.535	35043.41
531.901	35374.48
532.267	35466.91
532.632	35754.13
532.998	35886.1
533.364	36138.53
533.73	36217.85
534.095	36410.38
534.461	36607.67
534.826	36812.63
535.192	36913.65
535.557	37257.14
535.923	37208.33
536.288	37421.21
536.653	37690.12
537.019	37491.49
537.384	37693.51
537.749	37799.5
538.114	38032.49
538.479	38197
538.845	38362.88
539.21	38295.31
539.575	38604.68
539.94	38773.03
540.305	38938.45
540.67	38902.75
541.034	39148.84
541.399	39324.66
541.764	39465.22
542.129	39476.07
542.494	39592.67
542.858	39811.42
543.223	40001.02
543.587	40114.24
543.952	40048.03
544.316	40374.12
544.681	40374.57
545.045	40562.82
545.41	40771.17
545.774	40681.46
546.138	40937.27
546.503	41076.93
546.867	41107.44
547.231	41629.46
547.595	41372.51
547.959	41596.46
548.324	41760.3
548.688	41819.73
549.052	41986.51
549.416	42050.24
549.779	42173.62
550.143	42323.45
550.507	42524.57
550.871	42862.64
551.235	42652.71
551.599	43101.28
551.962	43239.81
552.326	43146.7
552.689	43385.57
553.053	43488.62
553.417	43510.54
553.78	44040.01
554.143	43876.18
554.507	44184.87
554.87	44394.13
555.234	44777.85
555.597	44534.01
555.96	44774.01
556.323	44885.87
556.686	44983.94
557.05	45277.5
557.413	45365.86
557.776	45485.85
558.139	45742.34
558.502	45836.35
558.865	46016.23
559.228	46338.94
559.59	46366.73
559.953	46541.42
560.316	46907.28
560.679	46951.58
561.041	47160.16
561.404	47427.5
561.767	47555.85
562.129	47552.92
562.492	47944.54
562.854	47882.4
563.217	47922.85
563.579	48182.96
563.941	48414.36
564.304	48614.81
564.666	48809.38
565.028	48850.28
565.39	48947.91
565.753	49169.6
566.115	49448.91
566.477	49444.17
566.839	49486.42
567.201	49890.71
567.563	49934.32
567.925	50069.23
568.287	50128.67
568.648	50208.44
569.01	50469.22
569.372	50603.46
569.734	50708.31
570.095	50833.51
570.457	51043.67
570.819	51053.84
571.18	51115.31
571.542	51307.39
571.903	51303.55
572.265	51370.44
572.626	51529.53
572.987	51566.37
573.349	51701.73
573.71	51833.26
574.071	51799.13
574.432	52031.22
574.794	52120.71
575.155	52168.39
575.516	52140.37
575.877	52282.28
576.238	52303.53
576.599	52398.44
576.96	52463.3
577.32	52550.75
577.681	52626.91
578.042	52734.02
578.403	52778.77
578.763	52822.38
579.124	52770.86
579.485	52871.65
579.845	53065.09
580.206	52967.92
580.566	53008.59
580.927	52998.65
581.287	53162.03
581.648	53122.26
582.008	53263.73
582.368	53191.86
582.728	53195.03
583.089	53179.21
583.449	53094.92
583.809	53213.78
584.169	53341.92
584.529	53089.72
584.889	53404.97
585.249	53251.52
585.609	53142.83
585.969	53328.36
586.329	53270.28
586.688	53291.97
587.048	53400.45
587.408	53306.89
587.768	53313.89
588.127	53288.13
588.487	53316.15
588.846	53521.8
589.206	53357.06
589.565	53440.67
589.925	53473.66
590.284	53416.94
590.643	53490.61
591.003	53467.11
591.362	53558.18
591.721	53484.06
592.08	53504.17
592.44	53572.65
592.799	53613.1
593.158	53574.68
593.517	53589.37
593.876	53587.11
594.235	53549.14
594.593	53623.94
594.952	53668.91
595.311	53600.44
595.67	53625.98
596.029	53754.34
596.387	53760.21
596.746	53855.35
597.104	53731.74
597.463	53684.28
597.822	53822.58
598.18	53700.1
598.538	53696.94
598.897	54006.53
599.255	53667.11
599.613	54128.56
599.972	53873.88
600.33	54004.05
600.688	53859.64
601.046	54061.9
601.404	54178.96
601.762	54068.45
602.12	54220.76
602.478	54231.16
602.836	54214.66
603.194	54067.1
603.552	54113.65
603.91	54067.32
604.268	54245.62
604.625	54203.59
604.983	54360.65
605.341	54211.95
605.698	54437.71
606.056	54462.79
606.413	54406.75
606.771	54548.21
607.128	54525.61
607.485	54362.91
607.843	54378.5
608.2	54531.72
608.557	54650.36
608.914	54459.18
609.272	54711.82
609.629	54664.37
609.986	54656.01
610.343	54685.84
610.7	54890.12
611.057	54851.93
611.414	54856.45
611.771	54858.26
612.127	54985.26
612.484	54972.61
612.841	55060.29
613.198	54996.79
613.554	54944.13
613.911	55163.79
614.267	55051.7
614.624	55104.81
614.98	55185.94
615.337	55233.39
615.693	55253.05
616.05	55225.03
616.406	55365.82
616.762	55197.91
617.118	55275.65
617.475	55299.83
617.831	55361.52
618.187	55368.76
618.543	55438.36
618.899	55593.38
619.255	55448.3
619.611	55489.43
619.967	55528.07
620.323	55527.62
620.678	55394.74
621.034	55419.83
621.39	55555.19
621.746	55452.14
622.101	55755.19
622.457	55482.65
622.812	55576.89
623.168	55563.78
623.523	55594.51
623.879	55643.1
624.234	55533.5
624.589	55632.48
624.945	55570.11
625.3	55552.93
625.655	55646.49
626.01	55645.13
626.365	55663.44
626.72	55622.08
627.075	55659.14
627.43	55575.08
627.785	55474.97
628.14	55511.58
628.495	55513.84
628.85	55514.74
629.205	55418.7
629.559	55604.91
629.914	55424.12
630.269	55506.15
630.623	55395.65
630.978	55255.76
631.332	55418.02
631.687	55459.15
632.041	55382.54
632.396	55424.57
632.75	55237.69
633.104	55299.38
633.459	55183.68
633.813	55186.39
634.167	55164.92
634.521	55116.33
634.875	55147.97
635.229	55133.28
635.583	54980.97
635.937	55027.97
636.291	54944.81
636.645	55016
636.999	54877.02
637.352	54990.46
637.706	54780.75
638.06	54930.8
638.413	54848.32
638.767	54792.05
639.121	54885.83
639.474	54619.4
639.828	54610.36
640.181	54646.97
640.534	54623.69
640.888	54494.43
641.241	54440.64
641.594	54503.69
641.947	54499.17
642.301	54401.32
642.654	54461.44
643.007	54470.02
643.36	54393.87
643.713	54320.65
644.066	54442.45
644.419	54168.79
644.771	53990.94
645.124	53697.16
645.477	53681.12
645.83	53480.67
646.182	53322.26
646.535	53263.27
646.888	53245.42
647.24	53204.29
647.593	53373.55
647.945	53229.6
648.298	53084.07
648.65	52966.11
649.002	52924.98
649.355	53060.57
649.707	52987.35
650.059	53148.48
650.411	53466.43
650.763	53472.76
651.115	53799.98
651.467	53719.99
651.819	53600.44
652.171	53518.64
652.523	53418.52
652.875	53539.88
653.227	53287.68
653.578	53516.83
653.93	53369.71
654.282	53244.07
654.633	53164.52
654.985	53235.7
655.337	53202.71
655.688	53224.86
656.039	53326.55
656.391	53098.99
656.742	53126.33
657.094	53187.8
657.445	53294.01
657.796	53187.57
658.147	53083.84
658.498	53083.39
658.849	53085.43
659.2	52987.58
659.551	52999.1
659.902	53168.14
660.253	53047.24
660.604	53036.39
660.955	52927.92
661.306	53007.69
661.656	52919.55
662.007	52880.23
662.358	52914.13
662.708	52882.04
663.059	52854.47
663.409	52665.1
663.76	52908.48
664.11	52841.82
664.461	52888.14
664.811	52832.1
665.161	52907.8
665.511	52739.67
665.862	52824.42
666.212	52836.17
666.562	52851.08
666.912	52755.72
667.262	52743.74
667.612	52720.92
667.962	52774.7
668.312	52706.68
668.662	52845.43
669.011	52691.31
669.361	52649.28
669.711	52600.92
670.06	52694.7
670.41	52469.62
670.76	52534.25
671.109	52681.14
671.459	52525.89
671.808	52478.66
672.157	52586.91
672.507	52333.13
672.856	52432.56
673.205	52457.65
673.554	52462.39
673.904	52330.64
674.253	52479.79
674.602	52359.34
674.951	51941.95
675.3	51778.57
675.649	52270.76
675.998	52240.93
676.346	52172.91
676.695	52327.48
677.044	52068.28
677.393	52220.14
677.741	52181.5
678.09	52176.07
678.438	52046.81
678.787	52118.9
679.135	52081.16
679.484	51856.76
679.832	52080.25
680.181	51871.45
680.529	51843.65
680.877	51707.16
681.225	51730.66
681.573	51912.58
681.922	51704.45
682.27	51666.03
682.618	51624.45
682.966	51482.76
683.314	51602.3
683.661	51408.18
684.009	51244.57
684.357	51267.62
684.705	51219.94
685.053	51195.31
685.4	51220.84
685.748	50933.17
686.095	51014.52
686.443	50766.84
686.79	50766.62
687.138	50854.52
687.485	50807.07
687.832	50651.37
688.18	50650.46
688.527	50503.35
688.874	50376.8
689.221	50328.89
689.568	50257.25
689.915	50178.61
690.262	50286.86
690.609	50106.97
690.956	49946.3
691.303	49890.48
691.65	49756.47
691.997	49750.82
692.344	49478.74
692.69	49508.8
693.037	49639.19
693.383	49194
693.73	49414.79
694.077	49218.86
694.423	49234.23
694.769	48948.36
695.116	48907.68
695.462	48953.33
695.808	48733.9
696.155	48803.28
696.501	48520.12
696.847	48540.91
697.193	48266.12
697.539	48490.29
697.885	48072.45
698.231	48003.07
698.577	48029.06
698.923	47926.47
699.269	47815.51
699.614	47633.37
699.96	47453.26
700.306	47565.35
700.651	47324.45
700.997	47253.94
701.342	47207.39
701.688	47061.86
702.033	46891.92
702.379	46910.9
702.724	46738.47
703.069	46828.87
703.415	46352.04
703.76	46481.53
704.105	46437.01
704.45	46299.84
704.795	45888.33
705.14	45919.74
705.485	46017.59
705.83	45729.46
706.175	45817.37
706.52	45644.49
706.865	45521.11
707.209	45535.34
707.554	45398.17
707.899	45524.5
708.243	45214.45
708.588	45155.47
708.932	44949.37
709.277	44906.88
709.621	44881.57
709.966	44751.86
710.31	44687
710.654	44353.45
710.998	44583.5
711.342	44496.27
711.687	44196.39
712.031	44115.27
712.375	44060.13
712.719	44041.14
713.063	43964.31
713.407	43979.68
713.75	43759.57
714.094	43697.65
714.438	43642.74
714.782	43722.73
715.125	43402.29
715.469	43554.83
715.812	43296.53
716.156	43018.12
716.499	43038.23
716.843	43028.74
717.186	42743.78
717.53	43059.25
717.873	42931.57
718.216	42856.54
718.559	42881.85
718.902	42352.83
719.246	42672.14
719.589	42471.69
719.932	42246.16
720.275	42273.51
720.617	42152.15
720.96	42187.86
721.303	42177.92
721.646	42154.41
721.989	41889.34
722.331	41996.9
722.674	41751.94
723.016	41886.62
723.359	41835.78
723.701	41834.42
724.044	41528.44
724.386	41245.74
724.729	41443.02
725.071	41348.33
725.413	41294.32
725.755	41203.7
726.097	41115.12
726.439	40871.51
726.782	40928.68
727.124	41073.99
727.465	40822.02
727.807	40875.8
728.149	40713.55
728.491	40633.1
728.833	40666.77
729.175	40496.15
729.516	40435.82
729.858	40493.67
730.199	40486.89
730.541	40302.26
730.882	40189.95
731.224	40343.61
731.565	40018.65
731.906	40006.9
732.248	40186.56
732.589	39887.13
732.93	39816.62
733.271	39789.96
733.612	39787.92
733.953	39829.28
734.294	39580.24
734.635	39580.92
734.976	39547.7
735.317	39454.82
735.658	39498.89
735.999	39244.21
736.339	39225.45
736.68	39335.05
737.021	39146.36
737.361	38908.4
737.702	39161.27
738.042	39022.97
738.383	38949.98
738.723	39078.34
739.063	38791.56
739.404	38849.64
739.744	38630.21
740.084	38561.74
740.424	38629.08
740.764	38556.09
741.104	38619.82
741.444	38243.56
741.784	38173.05
742.124	38253.5
742.464	38275.19
742.804	38129.44
743.143	38077.46
743.483	38184.12
743.823	37980.29
744.162	38006.95
744.502	37945.49
744.841	37729.9
745.181	37917.01
745.52	37702.55
745.86	37748.2
746.199	37659.39
746.538	37620.3
746.877	37557.02
747.216	37458.27
747.556	37384.6
747.895	37304.82
748.234	37289.91
748.573	37022.57
748.911	36974.44
749.25	37060.54
749.589	36792.07
749.928	36924.72
750.267	36869.81
750.605	36858.96
750.944	36772.63
751.283	36628.23
751.621	36689.7
751.96	36418.52
752.298	36411.29
752.636	36513.88
752.975	36175.59
