Data from plate_ceramic_FLMS001491_038.txt Node
Date: Tue Feb 07 11:16:41 GMT 2017
User: dcchb
Spectrometer: FLMS00149
Trigger mode: 0
Integration Time (sec): 2.000000E-2
Scans to average: 10
Electric dark correction enabled: true
Nonlinearity correction enabled: false
Boxcar width: 0
XAxis mode: Wavelengths
Number of Pixels in Spectrum: 2048
>>>>>Begin Spectral Data<<<<<
341.393	-11.72
341.776	-11.72
342.16	-11.72
342.543	-68.9
342.927	-66.86
343.31	-63.25
343.693	-58.5
344.077	-66.64
344.46	-53.53
344.843	-52.85
345.226	-45.17
345.61	-40.65
345.993	-9.24
346.376	22.63
346.759	10.88
347.142	12.91
347.525	34.6
347.908	43.87
348.291	59.69
348.674	90.65
349.057	114.6
349.44	128.84
349.823	155.73
350.206	178.1
350.588	219.01
350.971	239.8
351.354	241.38
351.737	268.72
352.119	290.19
352.502	275.5
352.884	289.96
353.267	311.21
353.65	327.03
354.032	309.4
354.414	334.71
354.797	343.97
355.179	332.22
355.562	352.11
355.944	349.17
356.326	363.86
356.709	360.47
357.091	372
357.473	359.11
357.855	375.16
358.238	372
358.62	368.15
359.002	364.99
359.384	398.21
359.766	375.16
360.148	393.69
360.53	374.48
360.912	371.32
361.294	362.96
361.676	371.77
362.057	370.19
362.439	354.82
362.821	344.43
363.203	375.84
363.584	356.4
363.966	351.43
364.348	364.09
364.729	379.23
365.111	359.11
365.493	352.34
365.874	342.39
366.256	347.36
366.637	380.13
367.019	378.32
367.4	360.47
367.781	337.19
368.163	363.63
368.544	404.76
368.925	379
369.306	363.18
369.688	367.93
370.069	381.04
370.45	360.47
370.831	370.19
371.212	388.49
371.593	355.5
371.974	362.73
372.355	371.32
372.736	393.69
373.117	391.2
373.498	400.47
373.879	367.02
374.26	399.79
374.641	368.83
375.021	374.48
375.402	369.06
375.783	391.43
376.163	405.89
376.544	417.87
376.925	412.67
377.305	395.27
377.686	421.26
378.066	425.1
378.447	434.14
378.827	426.23
379.208	428.49
379.588	430.07
379.968	432.56
380.349	439.56
380.729	457.87
381.109	434.59
381.489	441.15
381.87	416.06
382.25	428.49
382.63	454.25
383.01	447.47
383.39	454.48
383.77	446.12
384.15	431.2
384.53	462.16
384.91	455.16
385.29	466.91
385.67	473.91
386.049	499.22
386.429	489.28
386.809	472.78
387.189	511.2
387.568	493.8
387.948	492.67
388.328	511.2
388.707	507.36
389.087	509.17
389.466	522.27
389.846	507.36
390.225	539
390.605	526.34
390.984	537.42
391.363	523.63
391.743	538.09
392.122	547.36
392.501	548.26
392.881	573.57
393.26	574.02
393.639	568.15
394.018	582.16
394.397	585.1
394.776	570.63
395.155	585.55
395.534	600.46
395.913	595.72
396.292	631.42
396.671	621.93
397.05	633.23
397.429	633.91
397.808	636.17
398.186	616.51
398.565	634.59
398.944	609.28
399.323	632.1
399.701	661.71
400.08	647.69
400.458	663.51
400.837	682.72
401.215	679.56
401.594	681.14
401.972	693.8
402.351	717.3
402.729	719.78
403.107	725.66
403.486	727.01
403.864	749.39
404.242	756.39
404.62	745.09
404.999	741.03
405.377	770.18
405.755	771.31
406.133	773.57
406.511	798.65
406.889	795.71
407.267	807.01
407.645	814.7
408.023	813.11
408.401	855.6
408.779	856.73
409.156	859.89
409.534	863.06
409.912	898.08
410.29	874.81
410.667	882.94
411.045	917.74
411.422	937.18
411.8	941.7
412.178	969.72
412.555	984.86
412.933	977.18
413.31	978.31
413.687	1000.45
414.065	1004.75
414.442	1034.13
414.819	1029.61
415.197	1024.63
415.574	1058.98
415.951	1075.48
416.328	1079.1
416.705	1101.24
417.082	1091.07
417.46	1112.54
417.837	1139.66
418.214	1151.86
418.591	1137.17
418.967	1143.95
419.344	1178.53
419.721	1204.97
420.098	1182.37
420.475	1206.78
420.852	1219.21
421.228	1229.6
421.605	1245.65
421.982	1215.59
422.358	1260.56
422.735	1303.27
423.111	1273.89
423.488	1294.01
423.864	1336.49
424.241	1333.1
424.617	1348.02
424.994	1369.26
425.37	1370.16
425.746	1349.15
426.123	1408.8
426.499	1417.17
426.875	1432.53
427.251	1458.29
427.627	1458.52
428.003	1495.13
428.379	1510.05
428.756	1545.07
429.132	1572.64
429.507	1567.67
429.883	1601.34
430.259	1627.56
430.635	1634.11
431.011	1644.96
431.387	1682.24
431.763	1699.42
432.138	1728.12
432.514	1736.03
432.89	1737.16
433.265	1794.11
433.641	1794.78
434.016	1805.4
434.392	1838.85
434.767	1896.02
435.143	1867.32
435.518	1934.21
435.894	1915.68
436.269	1943.25
436.644	1963.59
437.02	2021.9
437.395	2035
437.77	2063.02
438.145	2093.76
438.52	2098.28
438.895	2090.82
439.271	2138.5
439.646	2162.23
440.021	2191.84
440.395	2173.98
440.77	2177.15
441.145	2199.97
441.52	2238.16
441.895	2234.09
442.27	2288.78
442.645	2293.3
443.019	2332.62
443.394	2309.12
443.769	2385.95
444.143	2293.98
444.518	2354.32
444.892	2389.57
445.267	2418.5
445.641	2415.78
446.016	2418.5
446.39	2487.65
446.764	2484.03
447.139	2431.83
447.513	2494.43
447.887	2532.17
448.262	2548.89
448.636	2543.01
449.01	2587.98
449.384	2613.29
449.758	2622.33
450.132	2652.16
450.506	2681.31
450.88	2657.59
451.254	2678.83
451.628	2727.64
452.002	2782.78
452.376	2799.28
452.75	2785.49
453.123	2837.02
453.497	2915.88
453.871	2913.4
454.244	2977.13
454.618	2978.03
454.992	3040.4
455.365	3012.6
455.739	3094.18
456.112	3187.06
456.486	3172.83
456.859	3173.96
457.232	3267.96
457.606	3244.46
457.979	3311.35
458.352	3353.16
458.725	3451.01
459.099	3463.44
459.472	3520.84
459.845	3560.84
460.218	3594.96
460.591	3652.59
460.964	3604.91
461.337	3740.04
461.71	3787.5
462.083	3825.92
462.456	3833.15
462.829	3867.27
463.201	3914.5
463.574	3943.2
463.947	4032.46
464.32	4142.97
464.692	4118.56
465.065	4160.6
465.438	4226.36
465.81	4316.07
466.183	4313.14
466.555	4430.87
466.928	4430.65
467.3	4479.68
467.672	4563.52
468.045	4637.65
468.417	4664.76
468.789	4726.46
469.161	4772.56
469.534	4870.41
469.906	4973.23
470.278	5007.81
470.65	5040.35
471.022	5158.99
471.394	5277.63
471.766	5290.06
472.138	5348.36
472.51	5471.3
472.882	5524.85
473.253	5586.55
473.625	5681.46
473.997	5844.85
474.369	5879.42
474.74	5925.07
475.112	6075.12
475.484	6147.44
475.855	6250.49
476.227	6309.92
476.598	6487.32
476.97	6593.08
477.341	6689.34
477.713	6775.44
478.084	6826.97
478.455	7054.53
478.827	7089.11
479.198	7288.42
479.569	7332.72
479.94	7505.14
480.311	7619.71
480.682	7790.33
481.053	7897
481.424	8076.65
481.795	8171.56
482.166	8317.1
482.537	8396.19
482.908	8559.8
483.279	8706.01
483.65	8828.72
484.021	9015.38
484.391	9084.31
484.762	9155.95
485.133	9292.44
485.503	9460.8
485.874	9591.41
486.244	9767.23
486.615	9969.94
486.985	10021.01
487.356	10146.2
487.726	10287.89
488.097	10447.89
488.467	10574.21
488.837	10747.99
489.207	10879.74
489.578	11080.41
489.948	11139.85
490.318	11297.58
490.688	11327.19
491.058	11533.28
491.428	11700.74
491.798	11870.45
492.168	12077
492.538	12200.39
492.908	12279.03
493.278	12432.24
493.648	12474.28
494.017	12724.44
494.387	12813.02
494.757	12916.07
495.126	13081.04
495.496	13141.15
495.866	13264.54
496.235	13352.22
496.605	13501.59
496.974	13558.09
497.344	13657.3
497.713	13790.4
498.082	13903.84
498.452	14086.21
498.821	14094.12
499.19	14145.42
499.559	14307.45
499.928	14429.93
500.298	14542.02
500.667	14674.67
501.036	14677.61
501.405	14831.73
501.774	14810.03
502.143	15050.71
502.512	15130.7
502.88	15256.8
503.249	15337.48
503.618	15486.17
503.987	15488.43
504.356	15643.91
504.724	15839.39
505.093	15918.48
505.462	15931.36
505.83	15958.03
506.199	16197.12
506.567	16415.87
506.936	16355.3
507.304	16576.54
507.672	16718.46
508.041	16823.09
508.409	16926.36
508.777	17043.42
509.145	17197.77
509.514	17153.48
509.882	17388.27
510.25	17433.92
510.618	17535.61
510.986	17638.66
511.354	17905.77
511.722	18064.41
512.09	18200.91
512.458	18172.66
512.826	18337.4
513.193	18474.8
513.561	18492.2
513.929	18713.43
514.297	18919.98
514.664	19002.01
515.032	19116.81
515.4	19391.38
515.767	19356.13
516.135	19591.83
516.502	19446.75
516.869	19831.37
517.237	19886.06
517.604	19924.7
517.972	20099.39
518.339	20368.08
518.706	20345.93
519.073	20523.78
519.44	20614.18
519.808	20992.02
520.175	20940.49
520.542	21320.37
520.909	21406.92
521.276	21377.09
521.643	21719.23
522.009	21744.09
522.376	21861.15
522.743	22065.44
523.11	22227.47
523.477	22524.63
523.843	22569.6
524.21	22965.3
524.577	23029.71
524.943	23116.93
525.31	23332.75
525.676	23690.03
526.043	23709.69
526.409	23815.67
526.776	24093.86
527.142	24231.71
527.508	24378.37
527.874	24576.78
528.241	24779.94
528.607	24810.9
528.973	24986.94
529.339	25031.69
529.705	25265.58
530.071	25546.93
530.437	25615.17
530.803	25917.54
531.169	26080.92
531.535	26055.84
531.901	26066.01
532.267	26233.24
532.632	26431.2
532.998	26493.34
533.364	26741.47
533.73	26807.46
534.095	27112.76
534.461	27207.67
534.826	27289.03
535.192	27415.35
535.557	27571.28
535.923	27725.63
536.288	27914.77
536.653	27987.99
537.019	27874.32
537.384	28100.53
537.749	28216.69
538.114	28243.81
538.479	28281.77
538.845	28610.12
539.21	28507.53
539.575	28660.97
539.94	28819.38
540.305	29046.04
540.67	28963.11
541.034	29053.05
541.399	29444
541.764	29453.49
542.129	29476.54
542.494	29640.6
542.858	29643.77
543.223	29771.67
543.587	30049.63
543.952	29950.88
544.316	30062.97
544.681	30042.63
545.045	30335.95
545.41	30293.02
545.774	30432.67
546.138	30487.14
546.503	30637.41
546.867	30767.35
547.231	31167.8
547.595	31185.2
547.959	31258.87
548.324	31365.31
548.688	31432.2
549.052	31439.65
549.416	31473.78
549.779	31631.29
550.143	31809.81
550.507	32012.29
550.871	32146.53
551.235	32081.44
551.599	32359.86
551.962	32388.56
552.326	32500.19
552.689	32587.42
553.053	32645.5
553.417	32796
553.78	33198.7
554.143	33079.61
554.507	33388.53
554.87	33364.35
555.234	33738.35
555.597	33572.48
555.96	33861.06
556.323	34057.89
556.686	34079.81
557.05	34447.48
557.413	34489.06
557.776	34536.3
558.139	34781.49
558.502	34896.51
558.865	35058.09
559.228	35315.71
559.59	35354.13
559.953	35414.01
560.316	35699.65
560.679	35834.34
561.041	36038.18
561.404	36284.5
561.767	36449.92
562.129	36406.53
562.492	36757.48
562.854	36827.31
563.217	36844.03
563.579	37058.94
563.941	37396.56
564.304	37410.57
564.666	37674.74
565.028	37681.52
565.39	37862.99
565.753	38065.92
566.115	38262.53
566.477	38245.12
566.839	38417.78
567.201	38780.93
567.563	38799.23
567.925	39121.49
568.287	39101.15
568.648	39224.53
569.01	39363.51
569.372	39494.13
569.734	39505.43
570.095	39855.25
570.457	40007.34
570.819	40168.92
571.18	40127.79
571.542	40363.71
571.903	40508.12
572.265	40798.73
572.626	40625.63
572.987	40750.37
573.349	40972.51
573.71	41067.65
574.071	41092.51
574.432	41327.98
574.794	41532.27
575.155	41499.05
575.516	41479.16
575.877	41759.38
576.238	41770.46
576.599	41894.97
576.96	42030.79
577.32	42027.62
577.681	42214.29
578.042	42262.42
578.403	42377.45
578.763	42366.37
579.124	42500.15
579.485	42575.41
579.845	42759.36
580.206	42631
580.566	42727.27
580.927	42750.09
581.287	42727.72
581.648	42665.57
582.008	42870.77
582.368	42824.44
582.728	42867.6
583.089	42931.1
583.449	42838.9
583.809	42913.02
584.169	43143.07
584.529	42878
584.889	43299
585.249	43127.03
585.609	42956.86
585.969	43133.58
586.329	43024.89
586.688	43160.7
587.048	43109.86
587.408	43051.1
587.768	43173.36
588.127	43203.64
588.487	43130.19
588.846	43383.07
589.206	43212.9
589.565	43182.85
589.925	43474.14
590.284	43149.18
590.643	43359.34
591.003	43405.21
591.362	43522.05
591.721	43411.54
592.08	43543.29
592.44	43657.86
592.799	43638.2
593.158	43440.92
593.517	43479.34
593.876	43630.52
594.235	43536.06
594.593	43690.63
594.952	43875.71
595.311	43587.13
595.67	43656.73
596.029	43905.09
596.387	43832.1
596.746	43848.82
597.104	43732.89
597.463	43934.01
597.822	44055.59
598.18	43768.82
598.538	43788.48
598.897	44135.59
599.255	43859.67
599.613	44354.79
599.972	44174.91
600.33	44164.06
600.688	44032.54
601.046	44183.95
601.404	44426.88
601.762	44261.01
602.12	44393.21
602.478	44443.83
602.836	44489.03
603.194	44325.64
603.552	44287.68
603.91	44350.05
604.268	44342.82
604.625	44425.98
604.983	44690.83
605.341	44525.19
605.698	44812.64
606.056	44738.51
606.413	44804.27
606.771	44835.01
607.128	44872.97
607.485	44806.99
607.843	44816.03
608.2	45063.48
608.557	45186.64
608.914	44943.93
609.272	45165.17
609.629	45132.17
609.986	45441.55
610.343	45330.59
610.7	45399.29
611.057	45342.34
611.414	45392.96
611.771	45403.35
612.127	45615.55
612.484	45452.84
612.841	45684.25
613.198	45626.63
613.554	45589.56
613.911	45834.08
614.267	45835.43
614.624	45804.25
614.98	45883.34
615.337	46211.69
615.693	46151.58
616.05	45994.53
616.406	46187.29
616.762	45942.32
617.118	45966.73
617.475	45913.17
617.831	45984.81
618.187	46154.75
618.543	46184.58
618.899	46419.37
619.255	46369.88
619.611	46202.2
619.967	46468.64
620.323	46527.84
620.678	46371.92
621.034	46417.11
621.39	46324.91
621.746	46319.49
622.101	46783.43
622.457	46493.27
622.812	46462.54
623.168	46504.34
623.523	46557.67
623.879	46767.61
624.234	46451.24
624.589	46580.05
624.945	46524.23
625.3	46503.89
625.655	46659.14
626.01	46621.63
626.365	46629.08
626.72	46584.79
627.075	46542.08
627.43	46471.57
627.785	46451.69
628.14	46564.45
628.495	46543.21
628.85	46447.17
629.205	46311.13
629.559	46584.57
629.914	46448.3
630.269	46363.78
630.623	46357.91
630.978	46217.8
631.332	46368.75
631.687	46418.69
632.041	46346.15
632.396	46333.05
632.75	46042.89
633.104	46107.97
633.459	45903
633.813	46087.63
634.167	46064.35
634.521	46061.42
634.875	45996.11
635.229	45861.65
635.583	45628.43
635.937	45815.55
636.291	45694.42
636.645	45664.36
636.999	45596.8
637.352	45790.69
637.706	45467.08
638.06	45517.7
638.413	45477.02
638.767	45291.94
639.121	45422.56
639.474	45110.03
639.828	45318.16
640.181	45196.58
640.534	45203.59
640.888	45048.34
641.241	44934.67
641.594	45090.37
641.947	45178.73
642.301	45089.69
642.654	45060.31
643.007	45062.12
643.36	45089.92
643.713	44821.67
644.066	44923.59
644.419	44695.12
644.771	44278.19
645.124	43838.42
645.477	43810.63
645.83	43668.03
646.182	43496.74
646.535	43501.48
646.888	43473.46
647.24	43376.06
647.593	43545.55
647.945	43479.56
648.298	43296.06
648.65	43241.38
649.002	43191.89
649.355	43289.96
649.707	43101.95
650.059	43264.43
650.411	43785.32
650.763	43743.51
651.115	44112.99
651.467	43872.77
651.819	43981.47
652.171	43850.4
652.523	43702.61
652.875	43836.16
653.227	43527.02
653.578	43800.91
653.93	43702.83
654.282	43514.82
654.633	43491.09
654.985	43608.37
655.337	43538.54
655.688	43611.76
656.039	43611.54
656.391	43186.69
656.742	43461.71
657.094	43313.92
657.445	43504.65
657.796	43298.55
658.147	43225.56
658.498	43096.52
658.849	43141.72
659.2	43259.68
659.551	43019.69
659.902	43257.65
660.253	43067.14
660.604	43168.84
660.955	43004.77
661.306	43093.81
661.656	43076.86
662.007	43050.2
662.358	43081.16
662.708	43107.6
663.059	43132.23
663.409	42722.07
663.76	43058.78
664.11	42830.77
664.461	42995.96
664.811	42947.37
665.161	43034.6
665.511	42812.46
665.862	42892.23
666.212	42867.6
666.562	42971.1
666.912	42877.77
667.262	42771.78
667.612	42711.45
667.962	42764.55
668.312	42680.04
668.662	42944.21
669.011	42896.53
669.361	42732.69
669.711	42594.39
670.06	42535.86
670.41	42558.91
670.76	42526.14
671.109	42647.72
671.459	42568.85
671.808	42441.85
672.157	42527.72
672.507	42269.43
672.856	42177.45
673.205	42308.52
673.554	42415.18
673.904	42254.51
674.253	42429.2
674.602	42313.94
674.951	41849.32
675.3	41669.67
675.649	42253.61
675.998	42140.39
676.346	42231.69
676.695	42278.69
677.044	42049.77
677.393	42191.91
677.741	42173.38
678.09	41969.32
678.438	41846.16
678.787	42037.57
679.135	42171.57
679.484	41916.89
679.832	41994.63
680.181	41731.13
680.529	41816.33
680.877	41696.11
681.225	41622.21
681.573	41861.75
681.922	41510.8
682.27	41443.01
682.618	41538.6
682.966	41234.42
683.314	41436.45
683.661	41269.45
684.009	41063.13
684.357	40978.61
684.705	40906.3
685.053	40968.89
685.4	40981.55
685.748	40763.25
686.095	40815.23
686.443	40692.52
686.79	40469.25
687.138	40602.58
687.485	40437.38
687.832	40438.06
688.18	40593.09
688.527	40286.65
688.874	40242.13
689.221	39949.03
689.568	39932.09
689.915	39838.3
690.262	39865.65
690.609	39759.21
690.956	39690.51
691.303	39576.61
691.65	39368.94
691.997	39462.49
692.344	39211.88
692.69	39260.24
693.037	39303.18
693.383	39049.17
693.73	39091.88
694.077	38943.86
694.423	38868.84
694.769	38745
695.116	38862.06
695.462	38723.53
695.808	38411.67
696.155	38641.05
696.501	38241.51
696.847	38313.15
697.193	38015.53
697.539	38179.14
697.885	37845.59
698.231	37867.73
698.577	37832.25
698.923	37691.92
699.269	37464.58
699.614	37115.66
699.96	37188.65
700.306	37116.57
700.651	37136.45
700.997	37082.44
701.342	37007.19
701.688	36933.29
702.033	36760.19
702.379	36601.78
702.724	36624.15
703.069	36742.34
703.415	36327.89
703.76	36295.57
704.105	36285.85
704.45	36086.76
704.795	35868.46
705.14	35702.59
705.485	35786.88
705.83	35862.14
706.175	35794.12
706.52	35689.49
706.865	35491.98
707.209	35379.21
707.554	35299.67
707.899	35289.95
708.243	35329.72
708.588	35116.39
708.932	34977.19
709.277	34922.27
709.621	35022.38
709.966	34658.1
710.31	34815.38
710.654	34549.85
710.998	34636.41
711.342	34613.36
711.687	34478.22
712.031	34370.42
712.375	34283.87
712.719	34289.97
713.063	34219.47
713.407	34264.89
713.75	34129.98
714.094	34098.79
714.438	33883.88
714.782	33985.12
715.125	33813.6
715.469	33908.74
715.812	33667.62
716.156	33634.17
716.499	33592.82
716.843	33572.7
717.186	33372.26
717.53	33339.72
717.873	33371.13
718.216	33204.8
718.559	33134.07
718.902	32942.89
719.246	33188.53
719.589	33070.12
719.932	32805.49
720.275	32793.97
720.617	32820.86
720.96	32598.95
721.303	32622.45
721.646	32691.6
721.989	32549.68
722.331	32499.74
722.674	32396.46
723.016	32335.9
723.359	32341.1
723.701	32302.46
724.044	32007.77
724.386	32060.2
724.729	32208.67
725.071	32011.39
725.413	32092.74
725.755	31906.31
726.097	31771.4
726.439	31600.78
726.782	31785.86
727.124	31758.52
727.465	31471.29
727.807	31595.13
728.149	31517.17
728.491	31466.32
728.833	31532.53
729.175	31375.93
729.516	31389.03
729.858	31241.92
730.199	31331.18
730.541	31264.74
730.882	31113.79
731.224	31340.22
731.565	31056.39
731.906	31039.44
732.248	31042.6
732.589	30975.48
732.93	30889.61
733.271	30801.93
733.612	30772.55
733.953	30775.04
734.294	30744.3
734.635	30598.77
734.976	30722.61
735.317	30400.13
735.658	30575.95
735.999	30531.65
736.339	30487.59
736.68	30423.86
737.021	30399.23
737.361	30300.25
737.702	30406.46
738.042	30240.59
738.383	30119.69
738.723	30185.9
739.063	30068.39
739.404	30093.02
739.744	30032.91
740.084	29944.55
740.424	30010.31
740.764	29942.52
741.104	29960.82
741.444	29727.38
741.784	29771.22
742.124	29765.8
742.464	29678.34
742.804	29573.26
743.143	29609.87
743.483	29544.79
743.823	29492.36
744.162	29402.87
744.502	29344.34
744.841	29224.34
745.181	29292.59
745.52	29135.99
745.86	29121.75
746.199	29045.14
746.538	29061.86
746.877	29165.36
747.216	29051.24
747.556	28852.6
747.895	28865.26
748.234	28886.95
748.573	28738.26
748.911	28772.61
749.25	28642.89
749.589	28597.92
749.928	28605.6
750.267	28698.03
750.605	28408.32
750.944	28376.46
751.283	28357.7
751.621	28412.84
751.96	28144.15
752.298	28191.38
752.636	28105.5
752.975	28080.65
753.313	27946.86
753.651	28069.57
