Data from plate_porcelain_FLMS001491_086.txt Node
Date: Tue Feb 07 11:20:03 GMT 2017
User: dcchb
Spectrometer: FLMS00149
Trigger mode: 0
Integration Time (sec): 2.000000E-2
Scans to average: 10
Electric dark correction enabled: true
Nonlinearity correction enabled: false
Boxcar width: 0
XAxis mode: Wavelengths
Number of Pixels in Spectrum: 2048
>>>>>Begin Spectral Data<<<<<
341.393	-12.73
341.776	-12.73
342.16	-12.73
342.543	-44.14
342.927	-46.4
343.31	-76.23
343.693	-66.06
344.077	-56.57
344.46	-57.92
344.843	-56.79
345.226	-30.58
345.61	-27.64
345.993	-30.35
346.376	-15.21
346.759	-0.97
347.142	18.69
347.525	48.97
347.908	51.23
348.291	79.7
348.674	113.82
349.057	105.92
349.44	136.87
349.823	144.78
350.206	188.17
350.588	217.1
350.971	238.12
351.354	248.51
351.737	292.58
352.119	298.68
352.502	298.23
352.884	291
353.267	323.99
353.65	323.54
354.032	330.99
354.414	352.46
354.797	361.73
355.179	365.8
355.562	367.38
355.944	357.66
356.326	392.69
356.709	381.16
357.091	368.28
357.473	382.07
357.855	398.11
358.238	411.67
358.62	364.44
359.002	396.3
359.384	392.24
359.766	398.56
360.148	375.29
360.53	403.76
360.912	386.13
361.294	399.01
361.676	378.9
362.057	368.06
362.439	393.14
362.821	392.01
363.203	378.68
363.584	383.42
363.966	380.26
364.348	381.16
364.729	390.43
365.111	393.59
365.493	390.88
365.874	401.73
366.256	386.36
366.637	380.71
367.019	396.53
367.4	383.42
367.781	398.79
368.163	400.37
368.544	379.13
368.925	389.07
369.306	406.25
369.688	389.07
370.069	409.64
370.45	405.12
370.831	410.09
371.212	428.17
371.593	394.5
371.974	416.64
372.355	418.22
372.736	419.81
373.117	436.53
373.498	427.04
373.879	402.63
374.26	418.22
374.641	409.64
375.021	391.78
375.402	433.36
375.783	459.58
376.163	448.96
376.544	464.1
376.925	460.48
377.305	437.43
377.686	449.86
378.066	450.31
378.447	464.55
378.827	457.32
379.208	479.92
379.588	465.68
379.968	480.37
380.349	461.84
380.729	468.39
381.109	472.46
381.489	475.17
381.87	499.8
382.25	511.33
382.63	506.13
383.01	486.7
383.39	509.52
383.77	522.85
384.15	523.31
384.53	539.12
384.91	515.85
385.29	521.27
385.67	547.71
386.049	539.58
386.429	548.62
386.809	565.11
387.189	552.68
387.568	535.96
387.948	583.42
388.328	578.67
388.707	573.7
389.087	598.11
389.466	615.05
389.846	592
390.225	616.86
390.605	613.92
390.984	620.48
391.363	664.09
391.743	643.3
392.122	622.96
392.501	638.33
392.881	648.5
393.26	660.7
393.639	644.88
394.018	672.68
394.397	690.53
394.776	677.88
395.155	713.58
395.534	708.84
395.913	721.04
396.292	738.89
396.671	735.73
397.05	737.09
397.429	732.11
397.808	755.16
398.186	750.64
398.565	766.46
398.944	759.23
399.323	787.93
399.701	787.25
400.08	789.74
400.458	816.63
400.837	803.75
401.215	808.5
401.594	815.28
401.972	834.71
402.351	849.17
402.729	853.92
403.107	873.8
403.486	861.38
403.864	870.41
404.242	891.21
404.62	901.37
404.999	890.75
405.377	907.48
405.755	922.62
406.133	954.25
406.511	929.85
406.889	980.47
407.267	978.21
407.645	974.37
408.023	1027.47
408.401	1014.14
408.779	1059.34
409.156	1056.62
409.534	1088.71
409.912	1083.97
410.29	1095.95
410.667	1103.4
411.045	1145.21
411.422	1132.55
411.8	1140.01
412.178	1171.88
412.555	1216.62
412.933	1202.16
413.31	1224.53
413.687	1238.54
414.065	1264.75
414.442	1284.42
414.819	1287.13
415.197	1297.75
415.574	1312.66
415.951	1341.82
416.328	1326.22
416.705	1336.84
417.082	1306.79
417.46	1376.62
417.837	1390.4
418.214	1390.63
418.591	1431.98
418.967	1413.23
419.344	1459.33
419.721	1464.52
420.098	1476.73
420.475	1511.08
420.852	1504.3
421.228	1559.66
421.605	1535.26
421.982	1580.9
422.358	1565.99
422.735	1607.12
423.111	1610.73
423.488	1632.65
423.864	1627.91
424.241	1689.6
424.617	1688.25
424.994	1706.1
425.37	1711.52
425.746	1735.93
426.123	1759.88
426.499	1770.73
426.875	1802.37
427.251	1841.24
427.627	1863.16
428.003	1864.51
428.379	1904.96
428.756	1939.77
429.132	1964.85
429.507	2003.94
429.883	2027.9
430.259	2070.84
430.635	2073.77
431.011	2096.82
431.387	2141.57
431.763	2150.83
432.138	2209.81
432.514	2237.16
432.89	2263.15
433.265	2286.65
433.641	2338.4
434.016	2351.05
434.392	2378.4
434.767	2426.76
435.143	2404.61
435.518	2438.96
435.894	2486.19
436.269	2485.29
436.644	2585.85
437.02	2601.89
437.395	2619.75
437.77	2610.71
438.145	2708.33
438.52	2714.43
438.895	2760.53
439.271	2741.1
439.646	2806.18
440.021	2793.53
440.395	2823.13
440.77	2847.31
441.145	2884.83
441.52	2903.58
441.895	2939.29
442.27	2924.6
442.645	2951.94
443.019	3010.92
443.394	3002.79
443.769	3026.52
444.143	3018.61
444.518	3122.11
444.892	3096.57
445.267	3100.19
445.641	3170.47
446.016	3153.97
446.39	3218.38
446.764	3261.76
447.139	3250.47
447.513	3264.48
447.887	3285.94
448.262	3347.86
448.636	3319.16
449.01	3408.88
449.384	3439.16
449.758	3482.1
450.132	3530.23
450.506	3510.57
450.88	3500.63
451.254	3579.04
451.628	3579.72
452.002	3640.74
452.376	3710.34
452.75	3717.12
453.123	3740.62
453.497	3857.46
453.871	3869.43
454.244	3970.67
454.618	3979.94
454.992	4046.6
455.365	4033.72
455.739	4104
456.112	4165.7
456.486	4216.32
456.859	4223.77
457.232	4364.33
457.606	4315.07
457.979	4398.91
458.352	4515.06
458.725	4519.81
459.099	4598.45
459.472	4686.59
459.845	4735.85
460.218	4791.44
460.591	4816.98
460.964	4870.99
461.337	5021.04
461.71	5047.48
462.083	5102.39
462.456	5138.1
462.829	5171.09
463.201	5264.65
463.574	5277.08
463.947	5404.99
464.32	5514.36
464.692	5462.61
465.065	5586
465.438	5670.29
465.81	5739.89
466.183	5834.35
466.555	5920.23
466.928	5982.82
467.3	6044.97
467.672	6078.87
468.045	6244.96
468.417	6292.87
468.789	6303.04
469.161	6435.24
469.534	6512.53
469.906	6672.97
470.278	6733.99
470.65	6763.37
471.022	6952.51
471.394	7045.39
471.766	7125.62
472.138	7255.33
472.51	7356.57
472.882	7498.49
473.253	7585.72
473.625	7729.22
473.997	7895.32
474.369	7939.16
474.74	8007.63
475.112	8150.22
475.484	8323.55
475.855	8498.01
476.227	8479.48
476.598	8779.81
476.97	8818
477.341	9029.52
477.713	9121.27
478.084	9241.27
478.455	9510.87
478.827	9580.02
479.198	9839.22
479.569	9865.21
479.94	10221.58
480.311	10249.83
480.682	10497.28
481.053	10811.17
481.424	10971.17
481.795	11040.09
482.166	11243.25
482.537	11332.74
482.908	11665.39
483.279	11637.36
483.65	11943.12
484.021	12222.21
484.391	12349.89
484.762	12527.96
485.133	12619.94
485.503	12762.31
485.874	13073.94
486.244	13195.97
486.615	13458.33
486.985	13663.98
487.356	13898.1
487.726	13953.69
488.097	14333.56
488.467	14320.46
488.837	14621.01
489.207	14807.68
489.578	15018.52
489.948	15130.15
490.318	15420.31
490.688	15495.79
491.058	15754.09
491.428	15950.92
491.798	16113.86
492.168	16437.69
492.538	16493.06
492.908	16775.31
493.278	16882.42
493.648	16972.59
494.017	17211.45
494.387	17429.98
494.757	17524.67
495.126	17740.48
495.496	17824.55
495.866	17997.42
496.235	18185.21
496.605	18325.32
496.974	18458.65
497.344	18587.24
497.713	18858.19
498.082	18912.88
498.452	19118.07
498.821	19243.04
499.19	19321.46
499.559	19569.81
499.928	19682.58
500.298	19848.45
500.667	20040.53
501.036	19990.82
501.405	20271.26
501.774	20336.8
502.143	20476
502.512	20596.9
502.88	20739.27
503.249	20753.28
503.618	21052.71
503.987	21138.13
504.356	21193.72
504.724	21474.84
505.093	21485.01
505.462	21600.27
505.83	21861.73
506.199	22021.72
506.567	22390.3
506.936	22193.24
507.304	22663.06
507.672	22658.32
508.041	22682.27
508.409	22994.8
508.777	23202.48
509.145	23446.77
509.514	23385.08
509.882	23567.22
510.25	23649.48
510.618	23814.9
510.986	23843.82
511.354	24284.49
511.722	24272.29
512.09	24758.15
512.458	24690.35
512.826	24983.91
513.193	25088.08
513.561	25075.43
513.929	25382.54
514.297	25679.25
514.664	25938.91
515.032	25913.37
515.4	26237.21
515.767	26310.88
516.135	26434.71
516.502	26436.97
516.869	26829.28
517.237	26950.18
517.604	26977.75
517.972	27490.96
518.339	27540.45
518.706	27749.93
519.073	27745.87
519.44	28047.33
519.808	28365.51
520.175	28299.98
520.542	28761.43
520.909	28881.43
521.276	29043.91
521.643	29328.65
522.009	29574.97
522.376	29838.47
522.743	29873.95
523.11	30279.36
523.477	30582.18
523.843	30800.25
524.21	30939.23
524.577	31291.99
524.943	31402.72
525.31	31581.47
525.676	31864.85
526.043	32103.72
526.409	32184.17
526.776	32574.44
527.142	32691.27
527.508	33073.86
527.874	33207.87
528.241	33434.3
528.607	33517.01
528.973	33914.52
529.339	33867.29
529.705	34291.23
530.071	34570.32
530.437	34725.12
530.803	34883.98
531.169	35168.72
531.535	35168.72
531.901	35257.31
532.267	35297.76
532.632	35656.84
532.998	35784.07
533.364	36069.26
533.73	36349.71
534.095	36624.28
534.461	36661.56
534.826	36885.51
535.192	36887.32
535.557	37316.01
535.923	37158.73
536.288	37404.37
536.653	37593.97
537.019	37584.03
537.384	37726.17
537.749	37903.79
538.114	38026.73
538.479	38262.2
538.845	38288.64
539.21	38278.47
539.575	38484.34
539.94	38557.79
540.305	38987.38
540.67	38823.09
541.034	39122.52
541.399	39317.54
541.764	39341.49
542.129	39481.6
542.494	39590.3
542.858	39837.07
543.223	39871.2
543.587	40097.63
543.952	40077.97
544.316	40214.69
544.681	40261.24
545.045	40628.69
545.41	40763.83
545.774	40883.83
546.138	40928.12
546.503	41033.2
546.867	41065.06
547.231	41387.54
547.595	41540.08
547.959	41659.85
548.324	41655.33
548.688	41879.96
549.052	41921.54
549.416	42162.44
549.779	42159.5
550.143	42352.71
550.507	42606.27
550.871	42632.48
551.235	42919.7
551.599	43027.5
551.962	43251.9
552.326	43270.88
552.689	43506.36
553.053	43380.94
553.417	43506.81
553.78	44057.08
554.143	43986.57
554.507	44116.51
554.87	44350.63
555.234	44755.81
555.597	44519.89
555.96	44786.32
556.323	44785.64
556.686	44977.05
557.05	45295.69
557.413	45482.35
557.776	45369.58
558.139	45833.07
558.502	45803.24
558.865	45985.61
559.228	46236
559.59	46396.22
559.953	46590.79
560.316	46878.92
560.679	46846.61
561.041	47162.08
561.404	47255.41
561.767	47596.42
562.129	47450.66
562.492	47837.54
562.854	47911.89
563.217	47904.43
563.579	48166.8
563.941	48405.66
564.304	48606.33
564.666	48870.51
565.028	48838.19
565.39	48973.56
565.753	49123.16
566.115	49457.39
566.477	49546.88
566.839	49556.37
567.201	49877.94
567.563	49847.88
567.925	50192.28
568.287	50149.57
568.648	50211.04
569.01	50390.69
569.372	50679.95
569.734	50598.15
570.095	50882.21
570.457	50901.87
570.819	51027.51
571.18	50992.71
571.542	51280.84
571.903	51258.69
572.265	51432.48
572.626	51469.54
572.987	51591.57
573.349	51697.55
573.71	51865.01
574.071	51884.89
574.432	52057.77
574.794	52312.68
575.155	52178.9
575.516	52044.89
575.877	52307.03
576.238	52281.72
576.599	52516.97
576.96	52533.92
577.32	52490.3
577.681	52678.32
578.042	52708.15
578.403	52750.41
578.763	52769.84
579.124	52867.69
579.485	52929.61
579.845	53083.28
580.206	53021.13
580.566	53005.09
580.927	53122.15
581.287	53163.73
581.648	53035.6
582.008	53280.11
582.368	53185.2
582.728	53255.93
583.089	53230.17
583.449	53203.05
583.809	53270.85
584.169	53360.79
584.529	53278.53
584.889	53422.93
585.249	53284.4
585.609	53113.79
585.969	53406.89
586.329	53342.26
586.688	53430.39
587.048	53360.11
587.408	53358.98
587.768	53232.43
588.127	53372.54
588.487	53247.12
588.846	53459.54
589.206	53395.59
589.565	53329.15
589.925	53484.62
590.284	53447.11
590.643	53538.86
591.003	53564.62
591.362	53650.5
591.721	53569.37
592.08	53458.64
592.44	53610.5
592.799	53597.62
593.158	53495.25
593.517	53594.9
593.876	53664.96
594.235	53572.53
594.593	53575.02
594.952	53737.73
595.311	53672.87
595.67	53633.1
596.029	53777.95
596.387	53854.33
596.746	53789.25
597.104	53757.39
597.463	53693.43
597.822	53916.25
598.18	53786.76
598.538	53757.84
598.897	53916.48
599.255	53661.12
599.613	54055.01
599.972	53905.4
600.33	53939.3
600.688	53919.87
601.046	54024.95
601.404	54183.82
601.762	53993.31
602.12	54217.49
602.478	54218.39
602.836	54247.32
603.194	54068.79
603.552	54177.04
603.91	54091.39
604.268	54362.34
604.625	54225.85
604.983	54354.21
605.341	54159.64
605.698	54353.08
606.056	54460.19
606.413	54418.84
606.771	54451.38
607.128	54539.74
607.485	54354.66
607.843	54394.88
608.2	54538.61
608.557	54686.63
608.914	54493.86
609.272	54680.75
609.629	54641.66
609.986	54807.3
610.343	54696.34
610.7	54909.9
611.057	54889.56
611.414	54829.22
611.771	54861.54
612.127	55055.2
612.484	55034.19
612.841	55076
613.198	54954.87
613.554	54931.37
613.911	55197.57
614.267	55115.32
614.624	55106.28
614.98	55190.57
615.337	55300.85
615.693	55244.35
616.05	55195.31
616.406	55338.14
616.762	55300.4
617.118	55259.49
617.475	55314.18
617.831	55340.85
618.187	55377.46
618.543	55398.25
618.899	55456.32
619.255	55473.05
619.611	55433.27
619.967	55493.16
620.323	55669.88
620.678	55517.57
621.034	55514.63
621.39	55541.07
621.746	55520.05
622.101	55763.66
622.457	55555.76
622.812	55579.03
623.168	55632.36
623.523	55632.36
623.879	55733.15
624.234	55532.03
624.589	55626.72
624.945	55633.49
625.3	55694.51
625.655	55592.14
626.01	55621.74
626.365	55608.64
626.72	55604.8
627.075	55546.94
627.43	55578.13
627.785	55536.55
628.14	55585.81
628.495	55582.65
628.85	55528.86
629.205	55404.8
629.559	55530.67
629.914	55501.07
630.269	55564.57
630.623	55413.16
630.978	55400.96
631.332	55455.65
631.687	55488.41
632.041	55301.75
632.396	55391.02
632.75	55278.48
633.104	55250.91
633.459	55181.76
633.813	55196.9
634.167	55196.44
634.521	55168.87
634.875	55212.94
635.229	55052.04
635.583	55036.45
635.937	54960.97
636.291	55040.06
636.645	54951.48
636.999	54942.67
637.352	54924.36
637.706	54821.54
638.06	54950.8
638.413	54865.15
638.767	54776.79
639.121	54838.49
639.474	54622.67
639.828	54638.04
640.181	54654.09
640.534	54610.92
640.888	54597.82
641.241	54365.28
641.594	54459.97
641.947	54511.04
642.301	54415.22
642.654	54422
643.007	54475.79
643.36	54420.87
643.713	54324.83
644.066	54398.95
644.419	54128.9
644.771	54041.45
645.124	53778.63
645.477	53642.36
645.83	53522.36
646.182	53308.58
646.535	53260.22
646.888	53367.57
647.24	53183.62
647.593	53329.83
647.945	53187.91
648.298	53009.38
648.65	52975.94
649.002	52974.13
649.355	53090.28
649.707	53023.39
650.059	53077.4
650.411	53498.41
650.763	53469.48
651.115	53772.98
651.467	53664.28
651.819	53591.06
652.171	53497.96
652.523	53510.16
652.875	53454.8
653.227	53344.06
653.578	53530.27
653.93	53420.22
654.282	53273.56
654.633	53212.09
654.985	53214.35
655.337	53203.73
655.688	53295.25
656.039	53490.5
656.391	53043.73
656.742	53096.16
657.094	53185.2
657.445	53201.02
657.796	53219.77
658.147	53091.19
658.498	53109.27
658.849	53133.22
659.2	53144.07
659.551	53069.04
659.902	53105.88
660.253	53044.64
660.604	53017.29
660.955	52883.96
661.306	53019.55
661.656	52946.79
662.007	52943.4
662.358	52895.94
662.708	53006.9
663.059	52888.03
663.409	52729.16
663.76	52899.1
664.11	52847.13
664.461	52816.62
664.811	52800.35
665.161	52862.95
665.511	52788.6
665.862	52754.47
666.212	52862.49
666.562	52926.45
666.912	52707.92
667.262	52715.15
667.612	52714.02
667.962	52771.2
668.312	52724.87
668.662	52832.66
669.011	52718.54
669.361	52614.82
669.711	52612.78
670.06	52706.34
670.41	52535.72
670.76	52480.36
671.109	52592.22
671.459	52501.6
671.808	52484.43
672.157	52600.13
672.507	52312.68
672.856	52419.57
673.205	52483.3
673.554	52470.87
673.904	52356.74
674.253	52491.88
674.602	52304.32
674.951	51941.39
675.3	51785.91
675.649	52250.98
675.998	52312.68
676.346	52224.09
676.695	52341.15
677.044	52047.83
677.393	52239.01
677.741	52260.93
678.09	52184.55
678.438	52041.27
678.787	52191.1
679.135	52070.88
679.484	51898.9
679.832	52091.22
680.181	51809.41
680.529	51869.75
680.877	51744.56
681.225	51673.82
681.573	51909.3
681.922	51660.27
682.27	51582.75
682.618	51752.47
682.966	51562.64
683.314	51546.82
683.661	51319.26
684.009	51296.66
684.357	51178.24
684.705	51197.91
685.053	51281.97
685.4	51184.12
685.748	51029.1
686.095	51008.76
686.443	50849.21
686.79	50647.19
687.138	50713.4
687.485	50787.52
687.832	50772.83
688.18	50806.28
688.527	50493.74
688.874	50458.49
689.221	50344.37
689.568	50249.91
689.915	50208.33
690.262	50281.77
690.609	50124.94
690.956	49915
691.303	49858.51
691.65	49725.18
691.997	49654.22
692.344	49563.37
692.69	49492.41
693.037	49650.38
693.383	49252.87
693.73	49245.64
694.077	49028.92
694.423	49223.27
694.769	48935.14
695.116	49035.02
695.462	48974.23
695.808	48651.76
696.155	48856.27
696.501	48557.75
696.847	48506.45
697.193	48284.76
697.539	48365.66
697.885	48258.55
698.231	48015.84
698.577	48054.03
698.923	47908.27
699.269	47770.88
699.614	47503.99
699.96	47467.38
700.306	47512.13
700.651	47308.97
700.997	47202.53
701.342	47260.83
701.688	47167.73
702.033	46907.62
702.379	46879.83
702.724	46771.13
703.069	46898.36
703.415	46487.07
703.76	46564.58
704.105	46359.39
704.45	46253.18
704.795	46109.9
705.14	45801.89
705.485	45939.06
705.83	45932.51
706.175	45883.47
706.52	45750.36
706.865	45612.97
707.209	45542.01
707.554	45444.16
707.899	45342.92
708.243	45160.78
708.588	45098.63
708.932	44921.01
709.277	44851.63
709.621	44907.68
709.966	44678.3
710.31	44751.3
710.654	44401.47
710.998	44322.15
711.342	44481.25
711.687	44333.23
712.031	44018.21
712.375	43992.22
712.719	44034.03
713.063	43904.99
713.407	44069.28
713.75	43926.46
714.094	43819.79
714.438	43613.47
714.782	43783.18
715.125	43428.39
715.469	43610.53
715.812	43185.69
716.156	43079.47
716.499	43156.76
716.843	42994.73
717.186	42738.69
717.53	42872.7
717.873	42873.6
718.216	42988.86
718.559	42600.62
718.902	42545.25
719.246	42653.5
719.589	42428.64
719.932	42214.19
720.275	42207.41
720.617	42139.84
720.96	42356.78
721.303	42041.54
721.646	42152.49
721.989	41824.37
722.331	41967.41
722.674	41890.13
723.016	41976.23
723.359	41723.35
723.701	41708.44
724.044	41541.21
724.386	41389.58
724.729	41416.92
725.071	41338.5
725.413	41226.64
725.755	41309.13
726.097	41085.63
726.439	40962.02
726.782	40969.47
727.124	41070.94
727.465	40928.57
727.807	40877.72
728.149	40715.02
728.491	40610.84
728.833	40644.51
729.175	40516.15
729.516	40522.03
729.858	40329.94
730.199	40454.01
730.541	40267.57
730.882	40172.66
731.224	40225.54
731.565	40051.31
731.906	40015.6
732.248	40177.63
732.589	39876.4
732.93	39713.69
733.271	39933.34
733.612	39850.18
733.953	39773.35
734.294	39614.26
734.635	39605.67
734.976	39579.68
735.317	39441.83
735.658	39337.65
735.999	39318.9
736.339	39241.61
736.68	39411.55
737.021	39007.27
737.361	39062.18
737.702	39113.48
738.042	39004.78
738.383	38946.48
738.723	39009.07
739.063	38778.57
739.404	38826.48
739.744	38838.46
740.084	38545.58
740.424	38810.43
740.764	38577.9
741.104	38577.22
741.444	38380.16
741.784	38260.39
742.124	38368.86
742.464	38250.68
742.804	38172.03
743.143	38137.91
743.483	38229.66
743.823	37991.92
744.162	37993.05
744.502	37934.75
744.841	37681.88
745.181	37935.2
745.52	37712.84
745.86	37676.9
746.199	37749.67
746.538	37635.1
746.877	37605.72
747.216	37548.32
747.556	37343.58
747.895	37416.8
748.234	37278.5
748.573	37119.18
748.911	37054.55
749.25	37092.74
749.589	36805.97
749.928	36872.18
750.267	36881.22
750.605	36711.51
750.944	36720.32
751.283	36436.94
751.621	36643.03
751.96	36452.3
752.298	36420.44
752.636	36606.2
