Data from plate_ceramic_FLMS001491_091.txt Node
Date: Tue Feb 07 11:17:34 GMT 2017
User: dcchb
Spectrometer: FLMS00149
Trigger mode: 0
Integration Time (sec): 2.000000E-2
Scans to average: 10
Electric dark correction enabled: true
Nonlinearity correction enabled: false
Boxcar width: 0
XAxis mode: Wavelengths
Number of Pixels in Spectrum: 2048
>>>>>Begin Spectral Data<<<<<
341.393	-10.18
341.776	-10.18
342.16	-10.18
342.543	-70.75
342.927	-44.98
343.31	-65.55
343.693	-69.62
344.077	-68.49
344.46	-34.36
344.843	-55.38
345.226	-42.27
345.61	-37.08
345.993	0.89
346.376	1.57
346.759	2.02
347.142	24.39
347.525	18.06
347.908	43.15
348.291	83.83
348.674	84.96
349.057	113.88
349.44	140.1
349.823	165.41
350.206	165.63
350.588	220.32
350.971	223.93
351.354	257.38
351.737	251.28
352.119	260.32
352.502	286.76
352.884	290.83
353.267	324.95
353.65	323.82
354.032	340.54
354.414	342.12
354.797	339.19
355.179	332.18
355.562	368.56
355.944	359.3
356.326	344.61
356.709	354.33
357.091	388
357.473	364.72
357.855	357.94
358.238	379.86
358.62	367.43
359.002	362.91
359.384	394.55
359.766	380.31
360.148	377.38
360.53	383.7
360.912	383.03
361.294	362.46
361.676	367.66
362.057	369.92
362.439	371.73
362.821	388.45
363.203	379.41
363.584	357.04
363.966	368.34
364.348	358.85
364.729	368.34
365.111	376.93
365.493	360.2
365.874	362.91
366.256	363.14
366.637	369.02
367.019	364.04
367.4	350.94
367.781	355.23
368.163	390.03
368.544	375.8
368.925	370.82
369.306	383.93
369.688	359.98
370.069	380.99
370.45	388
370.831	385.06
371.212	360.88
371.593	360.88
371.974	364.27
372.355	354.33
372.736	389.58
373.117	376.25
373.498	371.73
373.879	393.87
374.26	372.18
374.641	381.44
375.021	377.83
375.402	393.2
375.783	383.03
376.163	426.19
376.544	395
376.925	430.93
377.305	409.92
377.686	413.08
378.066	404.72
378.447	403.59
378.827	415.12
379.208	397.72
379.588	422.57
379.968	421.9
380.349	434.1
380.729	437.94
381.109	441.1
381.489	421.67
381.87	446.53
382.25	422.57
382.63	456.7
383.01	441.1
383.39	446.53
383.77	454.66
384.15	467.77
384.53	451.27
384.91	474.78
385.29	475.23
385.67	465.28
386.049	499.18
386.429	473.42
386.809	475.68
387.189	488.11
387.568	483.59
387.948	512.74
388.328	493.76
388.707	479.97
389.087	518.16
389.466	517.49
389.846	515.68
390.225	515.45
390.605	529.92
390.984	536.47
391.363	519.97
391.743	526.75
392.122	570.37
392.501	538.5
392.881	574.89
393.26	563.59
393.639	569.46
394.018	588.22
394.397	583.25
394.776	590.48
395.155	570.59
395.534	594.32
395.913	604.72
396.292	605.39
396.671	612.4
397.05	613.08
397.429	619.86
397.808	613.3
398.186	636.58
398.565	623.02
398.944	620.53
399.323	640.65
399.701	640.2
400.08	665.96
400.458	655.56
400.837	665.96
401.215	682.91
401.594	699.85
401.972	671.15
402.351	696.92
402.729	700.08
403.107	694.2
403.486	707.54
403.864	703.7
404.242	707.31
404.62	745.95
404.999	743.7
405.377	740.76
405.755	744.6
406.133	764.03
406.511	793.41
406.889	787.08
407.267	788.44
407.645	812.39
408.023	810.59
408.401	841.55
408.779	845.84
409.156	864.82
409.534	839.74
409.912	866.63
410.29	886.29
410.667	868.44
411.045	892.17
411.422	910.92
411.8	922.9
412.178	937.14
412.555	935.78
412.933	955.21
413.31	960.41
413.687	961.99
414.065	992.73
414.442	997.25
414.819	1006.97
415.197	1034.31
415.574	1027.53
415.951	1033.86
416.328	1058.26
416.705	1069.79
417.082	1066.85
417.46	1083.57
417.837	1082.22
418.214	1077.25
418.591	1106.85
418.967	1145.72
419.344	1122.67
419.721	1116.79
420.098	1157.47
420.475	1172.84
420.852	1168.99
421.228	1198.15
421.605	1193.17
421.982	1210.58
422.358	1232.72
422.735	1236.56
423.111	1240.63
423.488	1282.89
423.864	1262.55
424.241	1303.45
424.617	1316.79
424.994	1306.62
425.37	1348.88
425.746	1353.4
426.123	1385.26
426.499	1392.27
426.875	1369.89
427.251	1406.95
427.627	1444.92
428.003	1441.53
428.379	1459.61
428.756	1482.66
429.132	1524.47
429.507	1533.73
429.883	1523.34
430.259	1567.18
430.635	1604.01
431.011	1600.17
431.387	1641.07
431.763	1653.95
432.138	1624.35
432.514	1661.19
432.89	1685.59
433.265	1745.02
433.641	1752.71
434.016	1754.74
434.392	1790
434.767	1832.48
435.143	1835.87
435.518	1858.24
435.894	1869.77
436.269	1887.39
436.644	1889.65
437.02	1940.27
437.395	1940.73
437.77	1990.67
438.145	1988.41
438.52	2046.49
438.895	2078.58
439.271	2052.59
439.646	2082.19
440.021	2082.64
440.395	2112.02
440.77	2116.99
441.145	2119.03
441.52	2198.57
441.895	2178.01
442.27	2211.68
442.645	2167.16
443.019	2224.56
443.394	2249.42
443.769	2227.5
444.143	2281.51
444.518	2308.4
444.892	2341.62
445.267	2307.95
445.641	2336.87
446.016	2361.96
446.39	2387.27
446.764	2387.04
447.139	2392.24
447.513	2434.05
447.887	2429.53
448.262	2443.09
448.636	2437.89
449.01	2537.09
449.384	2524.21
449.758	2555.85
450.132	2556.53
450.506	2560.14
450.88	2587.49
451.254	2600.82
451.628	2655.28
452.002	2662.06
452.376	2690.31
452.75	2705
453.123	2723.98
453.497	2788.16
453.871	2790.19
454.244	2858.44
454.618	2887.59
454.992	2938.44
455.365	2936.63
455.739	2998.78
456.112	3033.8
456.486	3068.38
456.859	3112.22
457.232	3167.59
457.606	3182.73
457.979	3196.96
458.352	3275.15
458.725	3301.59
459.099	3299.11
459.472	3400.8
459.845	3461.14
460.218	3429.27
460.591	3483.96
460.964	3524.19
461.337	3600.57
461.71	3660
462.083	3697.97
462.456	3683.96
462.829	3718.08
463.201	3799.89
463.574	3828.81
463.947	3884.4
464.32	3935.02
464.692	4023.38
465.065	4037.62
465.438	4063.38
465.81	4135.24
466.183	4185.64
466.555	4268.12
466.928	4274
467.3	4295.24
467.672	4405.52
468.045	4471.96
468.417	4515.8
468.789	4537.04
469.161	4610.94
469.534	4735.45
469.906	4807.54
470.278	4768.67
470.65	4847.32
471.022	4963.92
471.394	5060.19
471.766	5098.61
472.138	5133.18
472.51	5304.03
472.882	5344.93
473.253	5367.75
473.625	5468.99
473.997	5608.43
474.369	5631.02
474.74	5692.27
475.112	5812.04
475.484	5876.44
475.855	5963.9
476.227	6066.94
476.598	6175.87
476.97	6285.7
477.341	6398.91
477.713	6505.8
478.084	6569.76
478.455	6705.12
478.827	6800.26
479.198	7049.07
479.569	7000.71
479.94	7250.19
480.311	7259.46
480.682	7443.41
481.053	7596.85
481.424	7776.73
481.795	7824.64
482.166	7939.44
482.537	8025.54
482.908	8297.39
483.279	8330.16
483.65	8493.1
484.021	8609.25
484.391	8691.51
484.762	8807.44
485.133	8915.23
485.503	9051.05
485.874	9229.35
486.244	9287.43
486.615	9466.86
486.985	9598.83
487.356	9765.15
487.726	9857.13
488.097	10067.52
488.467	10134.86
488.837	10333.73
489.207	10476.77
489.578	10598.58
489.948	10713.83
490.318	10884.45
490.688	10917.66
491.058	11045.8
491.428	11154.04
491.798	11297.32
492.168	11556.97
492.538	11599.23
492.908	11807.13
493.278	11846.68
493.648	11884.87
494.017	12125.77
494.387	12234.69
494.757	12316.27
495.126	12504.06
495.496	12518.3
495.866	12561.92
496.235	12802.59
496.605	12915.13
496.974	13025.18
497.344	13068.12
497.713	13222.92
498.082	13276.7
498.452	13453.87
498.821	13514.88
499.19	13612.74
499.559	13741.55
499.928	13842.11
500.298	13949.22
500.667	14062.67
501.036	14003.01
501.405	14269.22
501.774	14222.21
502.143	14290.01
502.512	14451.13
502.88	14660.39
503.249	14680.5
503.618	14820.84
503.987	14816.77
504.356	15002.98
504.724	14957.11
505.093	15043.88
505.462	15225.35
505.83	15306.48
506.199	15499.69
506.567	15653.81
506.936	15664.88
507.304	15827.82
507.672	15870.76
508.041	16105.1
508.409	16151.43
508.777	16375.6
509.145	16365.88
509.514	16513.68
509.882	16659.21
510.25	16614.01
510.618	16790.05
510.986	16870.5
511.354	17157.27
511.722	17172.64
512.09	17329.47
512.458	17340.09
512.826	17554.33
513.193	17674.1
513.561	17653.98
513.929	17894.88
514.297	18039.29
514.664	18234.31
515.032	18305.72
515.4	18441.76
515.767	18507.75
516.135	18637.46
516.502	18680.85
516.869	18959.26
517.237	19056.43
517.604	19044.46
517.972	19314.28
518.339	19451
518.706	19447.16
519.073	19580.04
519.44	19699.13
519.808	19998.56
520.175	20081.72
520.542	20283.75
520.909	20437.87
521.276	20485.77
521.643	20733
522.009	20784.07
522.376	20972.77
522.743	21120.56
523.11	21323.94
523.477	21616.14
523.843	21741.11
524.21	21914.66
524.577	22093.64
524.943	22151.04
525.31	22239.18
525.676	22528.66
526.043	22656.11
526.409	22773.4
526.776	23017.91
527.142	23103.33
527.508	23423.78
527.874	23428.75
528.241	23602.3
528.607	23739.02
528.973	23865.8
529.339	23966.14
529.705	24189.86
530.071	24369.74
530.437	24471.21
530.803	24798.43
531.169	24794.36
531.535	24996.39
531.901	24952.78
532.267	25117.29
532.632	25271.64
532.998	25412.43
533.364	25621.23
533.73	25677.95
534.095	25886.76
534.461	25961.11
534.826	26142.58
535.192	26318.39
535.557	26460.53
535.923	26417.14
536.288	26648.1
536.653	26757.7
537.019	26803.12
537.384	26755.67
537.749	26943.01
538.114	27034.08
538.479	27140.06
538.845	27244.47
539.21	27261.19
539.575	27430
539.94	27583.89
540.305	27779.59
540.67	27757.22
541.034	27923.09
541.399	28077.21
541.764	28035.18
542.129	28247.38
542.494	28229.98
542.858	28382.74
543.223	28385.45
543.587	28696.41
543.952	28486.92
544.316	28673.13
544.681	28682.62
545.045	29013.23
545.41	29078.77
545.774	29127.58
546.138	29250.97
546.503	29420.68
546.867	29429.04
547.231	29647.12
547.595	29720.33
547.959	29796.94
548.324	29881.91
548.688	29971.85
549.052	30148.8
549.416	30208.01
549.779	30286.87
550.143	30389.7
550.507	30563.93
550.871	30780.87
551.235	30691.16
551.599	30882.56
551.962	31096.57
552.326	31191.93
552.689	31311.7
553.053	31239.84
553.417	31417.01
553.78	31648.42
554.143	31687.97
554.507	31849.54
554.87	31957.79
555.234	32240.95
555.597	32106.94
555.96	32361.39
556.323	32512.58
556.686	32603.87
557.05	32785.56
557.413	32872.34
557.776	33126.57
558.139	33371.99
558.502	33310.3
558.865	33444.76
559.228	33666.22
559.59	33758.87
559.953	33991.41
560.316	34312.53
560.679	34113.89
561.041	34369.03
561.404	34640.66
561.767	34864.83
562.129	34668.9
562.492	35132.85
562.854	35213.07
563.217	35223.47
563.579	35502.33
563.941	35637.69
564.304	35848.31
564.666	36078.59
565.028	36060.51
565.39	36263.21
565.753	36474.06
566.115	36591.11
566.477	36664.11
566.839	36868.85
567.201	36954.72
567.563	37148.39
567.925	37480.58
568.287	37248.05
568.648	37494.59
569.01	37656.85
569.372	37988.82
569.734	37694.36
570.095	38051.87
570.457	38226.55
570.819	38436.04
571.18	38387.45
571.542	38554
571.903	38639.42
572.265	38805.29
572.626	38920.32
572.987	38934.56
573.349	39013.42
573.71	39169.8
574.071	39322.12
574.432	39469
574.794	39679.85
575.155	39668.55
575.516	39490.02
575.877	39848.43
576.238	39936.34
576.599	40106.28
576.96	40073.28
577.32	40062.44
577.681	40325.93
578.042	40521.18
578.403	40391.47
578.763	40489.09
579.124	40542.2
579.485	40688.63
579.845	40910.77
580.206	40690.44
580.566	40699.48
580.927	40784.22
581.287	40991.45
581.648	40715.98
582.008	41018.57
582.368	40913.94
582.728	41026.25
583.089	41073.26
583.449	40905.58
583.809	41260.14
584.169	41227.83
584.529	41171.78
584.889	41503.98
585.249	41127.27
585.609	41099.24
585.969	41288.17
586.329	41207.26
586.688	41413.36
587.048	41372.01
587.408	41254.95
587.768	41159.81
588.127	41247.04
588.487	41215.85
588.846	41489.74
589.206	41258.34
589.565	41332.23
589.925	41370.2
590.284	41363.42
590.643	41339.01
591.003	41621.26
591.362	41616.07
591.721	41579.01
592.08	41586.46
592.44	41634.37
592.799	41659.46
593.158	41739.91
593.517	41621.94
593.876	41635.5
594.235	41688.61
594.593	41789.85
594.952	41924.76
595.311	41687.48
595.67	41768.61
596.029	41797.76
596.387	41976.28
596.746	41930.41
597.104	41860.81
597.463	41831.2
597.822	41995.27
598.18	41747.59
598.538	41816.51
598.897	42176.96
599.255	41836.4
599.613	42418.08
599.972	42113.45
600.33	42216.28
600.688	42122.95
601.046	42323.39
601.404	42396.16
601.762	42254.92
602.12	42466.67
602.478	42557.06
602.836	42559.09
603.194	42337.86
603.552	42384.18
603.91	42288.82
604.268	42533.33
604.625	42577.17
604.983	42749.6
605.341	42606.1
605.698	42681.35
606.056	42729.71
606.413	42751.86
606.771	42837.5
607.128	42982.36
607.485	42814.45
607.843	42892.87
608.2	42891.97
608.557	43069.81
608.914	42938.07
609.272	43180.55
609.629	43246.98
609.986	43364.04
610.343	43177.83
610.7	43578.28
611.057	43269.58
611.414	43241.33
611.771	43509.12
612.127	43648.56
612.484	43505.51
612.841	43791.38
613.198	43571.5
613.554	43675.67
613.911	43887.42
614.267	43625.51
614.624	43806.74
614.98	43921.32
615.337	44129.9
615.693	44044.93
616.05	44037.02
616.406	44175.32
616.762	43977.36
617.118	43959.96
617.475	44039.73
617.831	43954.54
618.187	44234.98
618.543	44153.63
618.899	44319.95
619.255	44321.98
619.611	44223.23
619.967	44517.23
620.323	44603.11
620.678	44371.25
621.034	44271.36
621.39	44358.59
621.746	44397.01
622.101	44810.56
622.457	44392.72
622.812	44526.05
623.168	44692.82
623.523	44512.94
623.879	44607.4
624.234	44442.66
624.589	44651.47
624.945	44482.88
625.3	44611.02
625.655	44573.28
626.01	44483.79
626.365	44662.09
626.72	44532.6
627.075	44632.48
627.43	44451.47
627.785	44434.07
628.14	44610.56
628.495	44532.15
628.85	44499.38
629.205	44249.44
629.559	44491.7
629.914	44315.88
630.269	44270.91
630.623	44227.07
630.978	44100.07
631.332	44432.04
631.687	44393.17
632.041	44291.25
632.396	44240.18
632.75	43993.86
633.104	44121.76
633.459	43932.16
633.813	43916.35
634.167	43897.36
634.521	43952.5
634.875	43921.77
635.229	43821.43
635.583	43493.31
635.937	43637.71
636.291	43644.04
636.645	43652.62
636.999	43531.27
637.352	43675.22
637.706	43374.44
638.06	43520.65
638.413	43500.76
638.767	43311.39
639.121	43454.66
639.474	43107.1
639.828	43082.92
640.181	43143.26
640.534	43287.44
640.888	42980.78
641.241	42988.69
641.594	42862.14
641.947	43056.03
642.301	42940.55
642.654	42971.29
643.007	42831.18
643.36	42926.09
643.713	42807
644.066	42938.97
644.419	42549.83
644.771	42283.17
645.124	41959.33
645.477	41926.12
645.83	41525.67
646.182	41389.86
646.535	41252.23
646.888	41318.9
647.24	41327.03
647.593	41482.28
647.945	41373.14
648.298	41199.13
648.65	41182.86
649.002	40971.79
649.355	41238.45
649.707	41100.83
650.059	41173.14
650.411	41702.39
650.763	41585.79
651.115	42124.75
651.467	41993.91
651.819	41801.37
652.171	41808.6
652.523	41630.3
652.875	41747.59
653.227	41565.22
653.578	41738.78
653.93	41647.03
654.282	41540.81
654.633	41418.56
654.985	41629.4
655.337	41614.03
655.688	41532.23
656.039	41661.04
656.391	41167.72
656.742	41326.58
657.094	41254.27
657.445	41320.48
657.796	41231.44
658.147	41231.44
658.498	41142.18
658.849	41216.53
659.2	41139.02
659.551	41008.85
659.902	41136.53
660.253	41128.4
660.604	41128.62
660.955	40937.67
661.306	41170.2
661.656	41024.44
662.007	41016.99
662.358	40948.97
662.708	40849.31
663.059	40991.22
663.409	40745.58
663.76	40815.41
664.11	40809.31
664.461	40842.08
664.811	40838.46
665.161	40889.98
665.511	40804.79
665.862	40796.2
666.212	40901.06
666.562	40917.1
666.912	40879.36
667.262	40781.06
667.612	40715.98
667.962	40824.68
668.312	40770.21
668.662	40913.03
669.011	40799.37
669.361	40684.57
669.711	40690.89
670.06	40685.02
670.41	40442.76
670.76	40325.03
671.109	40463.33
671.459	40471.92
671.808	40631.23
672.157	40500.62
672.507	40317.8
672.856	40232.6
673.205	40356.44
673.554	40337.91
673.904	40173.84
674.253	40349.21
674.602	40290.68
674.951	39771.14
675.3	39569.79
675.649	40006.84
675.998	40071.02
676.346	40134.3
676.695	40106.28
677.044	39928.88
677.393	40036.45
677.741	40079.61
678.09	40023.57
678.438	39772.05
678.787	39975.88
679.135	39936.11
679.484	39738.15
679.832	39969.1
680.181	39711.26
680.529	39751.03
680.877	39577.48
681.225	39492.73
681.573	39614.54
681.922	39462.23
682.27	39519.4
682.618	39315.79
682.966	39266.75
683.314	39309.01
683.661	39287.99
684.009	39024.72
684.357	38997.6
684.705	38936.82
685.053	39058.85
685.4	38892.75
685.748	38945.4
686.095	38730.49
686.443	38526.88
686.79	38527.33
687.138	38454.34
687.485	38572.76
687.832	38312.2
688.18	38490.73
688.527	38392.2
688.874	38212.31
689.221	38001.47
689.568	37897.07
689.915	37764.19
690.262	37904.3
690.609	37792.89
690.956	37752.21
691.303	37634.25
691.65	37580.01
691.997	37559.9
692.344	37225.9
692.69	37243.75
693.037	37378.21
693.383	36981.39
693.73	36943.65
694.077	36939.13
694.423	37024.78
694.769	37004.44
695.116	36805.35
695.462	36663.65
695.808	36624.56
696.155	36630.44
696.501	36293.49
696.847	36205.14
697.193	36096.66
697.539	36239.48
697.885	35856.9
698.231	35735.54
698.577	35749.1
698.923	35792.04
699.269	35552.27
699.614	35330.13
699.96	35269.12
700.306	35388.66
700.651	35295.1
700.997	35056.01
701.342	35140.98
701.688	34992.06
702.033	34773.08
702.379	34821.22
702.724	34787.09
703.069	34759.52
703.415	34365.18
703.76	34320.21
704.105	34418.74
704.45	34244.28
704.795	34100.56
705.14	33957.96
705.485	33873.45
705.83	33870.96
706.175	33910.28
706.52	33774.92
706.865	33693.11
707.209	33569.05
707.554	33469.16
707.899	33665.77
708.243	33396.62
708.588	33214.48
708.932	33065.11
709.277	32984.88
709.621	33062.39
709.966	32904.43
710.31	32858.33
710.654	32717.54
710.998	32737.43
711.342	32765
711.687	32658.79
712.031	32551.45
712.375	32435.52
712.719	32535.18
713.063	32354.84
713.407	32531.79
713.75	32296.99
714.094	32216.77
714.438	32067.39
714.782	32155.3
715.125	32044.34
715.469	32113.94
715.812	31873.5
716.156	31735.65
716.499	31669.89
716.843	31810
717.186	31493.85
717.53	31614.07
717.873	31668.08
718.216	31559.16
718.559	31472.6
718.902	31358.26
719.246	31316.9
719.589	31309.9
719.932	31142.44
720.275	31000.75
720.617	31077.36
720.96	31030.36
721.303	30943.58
721.646	31025.61
721.989	30843.47
722.331	30786.97
722.674	30830.36
723.016	30665.17
723.359	30673.08
723.701	30723.47
724.044	30451.16
724.386	30312.86
724.729	30526.87
725.071	30273.09
725.413	30361.45
725.755	30182.24
726.097	30116.93
726.439	30060.66
726.782	29943.83
727.124	30094.79
727.465	29874
727.807	29941.8
728.149	29897.96
728.491	29899.54
728.833	29761.92
729.175	29601.47
729.516	29651.18
729.858	29657.06
730.199	29655.93
730.541	29480.79
730.882	29569.15
731.224	29563.05
731.565	29455.48
731.906	29474.69
732.248	29416.39
732.589	29264.53
732.93	29103.85
733.271	29073.57
733.612	29147.69
733.953	29243.96
734.294	29051.88
734.635	29143.85
734.976	29083.74
735.317	28870.64
735.658	28942.05
735.999	28956.51
736.339	28849.62
736.68	28817.08
737.021	28649.63
737.361	28571.21
737.702	28713.81
738.042	28652.11
738.383	28652.79
738.723	28597.2
739.063	28553.59
739.404	28567.6
739.744	28339.58
740.084	28265.46
740.424	28432.23
740.764	28366.25
741.104	28360.82
741.444	28214.16
741.784	28076.31
742.124	28179.58
742.464	28103.2
742.804	28083.54
743.143	28048.06
743.483	27979.82
743.823	27807.62
744.162	27968.97
744.502	27846.71
744.841	27756.32
745.181	27750.22
745.52	27652.14
745.86	27630.45
746.199	27515.42
746.538	27469.32
746.877	27473.16
747.216	27567.85
747.556	27343
747.895	27322.21
748.234	27229.78
748.573	27208.08
748.911	27256.67
749.25	27213.73
749.589	27007.41
749.928	26973.29
750.267	27082.44
750.605	26958.15
750.944	26855.1
751.283	26718.83
751.621	26863.69
751.96	26694.88
752.298	26651.94
752.636	26724.03
752.975	26508.22
753.313	26361.33
753.651	26507.31
753.989	26289.01
