Data from plate_porcelain_FLMS001491_011.txt Node
Date: Tue Feb 07 11:18:51 GMT 2017
User: dcchb
Spectrometer: FLMS00149
Trigger mode: 0
Integration Time (sec): 2.000000E-2
Scans to average: 10
Electric dark correction enabled: true
Nonlinearity correction enabled: false
Boxcar width: 0
XAxis mode: Wavelengths
Number of Pixels in Spectrum: 2048
>>>>>Begin Spectral Data<<<<<
341.393	-12.99
341.776	-12.99
342.16	-12.99
342.543	-55.03
342.927	-68.59
343.31	-66.78
343.693	-62.03
344.077	-73.33
344.46	-49.15
344.843	-61.58
345.226	-58.19
345.61	-45.31
345.993	-16.16
346.376	-12.09
346.759	12.32
347.142	34.91
347.525	57.51
347.908	65.2
348.291	70.85
348.674	80.56
349.057	123.27
349.44	125.31
349.823	130.73
350.206	168.7
350.588	217.28
350.971	230.62
351.354	250.5
351.737	266.09
352.119	286.43
352.502	280.11
352.884	317.39
353.267	318.3
353.65	301.35
354.032	308.58
354.414	321.69
354.797	344.06
355.179	362.82
355.562	342.7
355.944	352.65
356.326	379.31
356.709	366.88
357.091	362.59
357.473	388.13
357.855	369.59
358.238	384.28
358.62	382.7
359.002	373.66
359.384	377.5
359.766	377.96
360.148	377.05
360.53	373.21
360.912	368.69
361.294	364.62
361.676	380.44
362.057	384.74
362.439	375.92
362.821	391.74
363.203	390.39
363.584	382.48
363.966	382.25
364.348	376.15
364.729	379.99
365.111	377.28
365.493	381.57
365.874	363.72
366.256	384.74
366.637	384.28
367.019	389.26
367.4	383.38
367.781	391.06
368.163	379.54
368.544	379.09
368.925	392.19
369.306	386.32
369.688	375.92
370.069	413.66
370.45	389.48
370.831	385.64
371.212	387.45
371.593	402.14
371.974	407.56
372.355	387
372.736	401.23
373.117	389.03
373.498	400.55
373.879	403.27
374.26	412.76
374.641	384.96
375.021	400.1
375.402	415.24
375.783	445.3
376.163	456.6
376.544	439.2
376.925	441.91
377.305	443.27
377.686	416.37
378.066	460.21
378.447	457.28
378.827	431.74
379.208	445.07
379.588	459.31
379.968	465.64
380.349	476.26
380.729	458.86
381.109	479.65
381.489	471.51
381.87	485.98
382.25	482.13
382.63	483.49
383.01	474.9
383.39	502.7
383.77	502.02
384.15	505.64
384.53	515.35
384.91	552.87
385.29	517.84
385.67	534.11
386.049	519.65
386.429	538.18
386.809	544.73
387.189	550.61
387.568	549.93
387.948	551.28
388.328	551.51
388.707	568.69
389.087	580.89
389.466	569.59
389.846	578.4
390.225	616.14
390.605	603.71
390.984	596.48
391.363	596.93
391.743	624.5
392.122	612.07
392.501	627.44
392.881	614.79
393.26	632.19
393.639	634.67
394.018	674.22
394.397	657.04
394.776	668.57
395.155	664.73
395.534	681
395.913	678.51
396.292	690.04
396.671	716.48
397.05	713.09
397.429	720.32
397.808	716.03
398.186	751.51
398.565	719.64
398.944	709.92
399.323	732.75
399.701	751.51
400.08	757.16
400.458	770.49
400.837	790.37
401.215	781.34
401.594	782.69
401.972	789.7
402.351	810.26
402.729	816.81
403.107	851.16
403.486	843.03
403.864	828.11
404.242	843.93
404.62	842.12
404.999	859.53
405.377	891.16
405.755	896.81
406.133	877.38
406.511	917.6
406.889	930.94
407.267	906.98
407.645	956.7
408.023	949.47
408.401	990.14
408.779	1003.7
409.156	1005.74
409.534	986.08
409.912	1010.71
410.29	1057.03
410.667	1022.01
411.045	1066.07
411.422	1089.8
411.8	1089.58
412.178	1119.63
412.555	1116.02
412.933	1125.06
413.31	1161.89
413.687	1139.74
414.065	1165.73
414.442	1216.13
414.819	1203.02
415.197	1216.58
415.574	1222.45
415.951	1273.98
416.328	1250.7
416.705	1263.36
417.082	1296.8
417.46	1274.43
417.837	1331.15
418.214	1344.03
418.591	1341.77
418.967	1301.55
419.344	1350.36
419.721	1348.55
420.098	1361.21
420.475	1391.49
420.852	1410.7
421.228	1440.3
421.605	1426.29
421.982	1475.1
422.358	1470.36
422.735	1517.36
423.111	1480.3
423.488	1530.69
423.864	1532.73
424.241	1557.59
424.617	1574.99
424.994	1563.69
425.37	1606.62
425.746	1613.86
426.123	1649.79
426.499	1626.96
426.875	1678.26
427.251	1694.31
427.627	1739.73
428.003	1766.39
428.379	1748.77
428.756	1821.53
429.132	1789.22
429.507	1842.32
429.883	1826.96
430.259	1877.35
430.635	1882.32
431.011	1948.31
431.387	1978.14
431.763	1974.52
432.138	2021.3
432.514	2032.6
432.89	2077.8
433.265	2135.88
433.641	2122.32
434.016	2152.37
434.392	2205.03
434.767	2223.33
435.143	2224.91
435.518	2247.96
435.894	2244.8
436.269	2293.39
436.644	2350.56
437.02	2337.23
437.395	2355.53
437.77	2409.54
438.145	2419.03
438.52	2472.82
438.895	2500.16
439.271	2509.65
439.646	2542.87
440.021	2555.07
440.395	2523.21
440.77	2547.62
441.145	2597.78
441.52	2619.03
441.895	2643.43
442.27	2713.71
442.645	2660.83
443.019	2704.9
443.394	2723.88
443.769	2772.47
444.143	2754.16
444.518	2808.4
444.892	2824.9
445.267	2823.32
445.641	2867.16
446.016	2847.72
446.39	2899.47
446.764	2947.61
447.139	2900.15
447.513	2923.65
447.887	2960.94
448.262	2995.06
448.636	3031.9
449.01	3066.02
449.384	3078.68
449.758	3085.68
450.132	3198.22
450.506	3120.71
450.88	3179.01
451.254	3162.06
451.628	3232.8
452.002	3301.27
452.376	3339.69
452.75	3294.49
453.123	3371.32
453.497	3428.27
453.871	3432.79
454.244	3486.8
454.618	3566.35
454.992	3584.65
455.365	3604.54
455.739	3663.97
456.112	3700.13
456.486	3774.48
456.859	3822.61
457.232	3917.52
457.606	3925.43
457.979	3900.58
458.352	4020.12
458.725	4043.4
459.099	4104.64
459.472	4179.44
459.845	4189.83
460.218	4246.1
460.591	4272.99
460.964	4295.37
461.337	4404.52
461.71	4452.43
462.083	4544.17
462.456	4555.7
462.829	4536.26
463.201	4683.38
463.574	4670.05
463.947	4733.1
464.32	4891.06
464.692	4887.67
465.065	4917.05
465.438	5020.55
465.81	5103.26
466.183	5112.97
466.555	5233.87
466.928	5254.21
467.3	5263.03
467.672	5371.5
468.045	5523.58
468.417	5540.76
468.789	5555.67
469.161	5569.91
469.534	5743.46
469.906	5825.95
470.278	5867.3
470.65	5965.83
471.022	6050.35
471.394	6171.7
471.766	6219.16
472.138	6334.64
472.51	6490.11
472.882	6549.32
473.253	6624.57
473.625	6742.31
473.997	6841.97
474.369	6933.49
474.74	6981.17
475.112	7081.96
475.484	7206.7
475.855	7306.36
476.227	7422.29
476.598	7653.02
476.97	7726.69
477.341	7909.28
477.713	7956.74
478.084	8022.95
478.455	8266.11
478.827	8358.31
479.198	8587.68
479.569	8622.49
479.94	8887.34
480.311	8869.03
480.682	9150.83
481.053	9277.84
481.424	9507.43
481.795	9628.79
482.166	9812.51
482.537	9818.84
482.908	10014.54
483.279	10164.37
483.65	10374.76
484.021	10600.74
484.391	10714.86
484.762	10816.33
485.133	10881.18
485.503	11077.56
485.874	11276.2
486.244	11383.54
486.615	11602.75
486.985	11760.03
487.356	11938.56
487.726	12104.88
488.097	12369.28
488.467	12395.04
488.837	12681.81
489.207	12828.25
489.578	13005.65
489.948	13125.87
490.318	13298.75
490.688	13382.81
491.058	13547.55
491.428	13693.99
491.798	13890.37
492.168	14224.82
492.538	14216.69
492.908	14420.98
493.278	14579.84
493.648	14673.85
494.017	14714.53
494.387	14942.32
494.757	15061.86
495.126	15222.54
495.496	15329.88
495.866	15498.91
496.235	15636.76
496.605	15740.26
496.974	15872.01
497.344	16064.1
497.713	16161.04
498.082	16254.83
498.452	16466.57
498.821	16463.63
499.19	16619.34
499.559	16826.56
499.928	16857.97
500.298	17006.45
500.667	17104.07
501.036	17129.61
501.405	17284.4
501.774	17406.89
502.143	17600.33
502.512	17625.86
502.88	17864.73
503.249	17851.4
503.618	18089.81
503.987	18129.35
504.356	18284.15
504.724	18276.69
505.093	18428.78
505.462	18588.78
505.83	18768.89
506.199	18852.05
506.567	19182.21
506.936	19133.85
507.304	19383.78
507.672	19334.52
508.041	19572.25
508.409	19681.18
508.777	19899.25
509.145	20084.1
509.514	20127.49
509.882	20263.08
510.25	20311.22
510.618	20507.82
510.986	20577.2
511.354	20869.39
511.722	20903.74
512.09	21148.26
512.458	21077.3
512.826	21261.7
513.193	21454.24
513.561	21496.04
513.929	21781.69
514.297	22024.62
514.664	22178.06
515.032	22296.25
515.4	22405.63
515.767	22600.2
516.135	22711.38
516.502	22652.62
516.869	23005.38
517.237	23148.66
517.604	23089
517.972	23409.67
518.339	23693.28
518.706	23599.27
519.073	23809.66
519.44	24038.35
519.808	24210.1
520.175	24250.55
520.542	24622.74
520.909	24813.02
521.276	24873.58
521.643	25153.58
522.009	25403.51
522.376	25434.92
522.743	25756.72
523.11	25942.26
523.477	26075.36
523.843	26335.24
524.21	26512.64
524.577	26804.61
524.943	27012.06
525.31	26978.61
525.676	27300.86
526.043	27584.25
526.409	27651.82
526.776	28047.74
527.142	28123.22
527.508	28304.68
527.874	28380.61
528.241	28586.71
528.607	28790.77
528.973	29063.3
529.339	29027.82
529.705	29364.54
530.071	29557.98
530.437	29690.63
530.803	29881.14
531.169	30139.89
531.535	30144.86
531.901	30168.36
532.267	30388.01
532.632	30644.96
532.998	30752.07
533.364	30909.58
533.73	31160.42
534.095	31383.24
534.461	31450.81
534.826	31654.65
535.192	31749.11
535.557	32055.54
535.923	31995.88
536.288	32073.17
536.653	32195.2
537.019	32271.58
537.384	32370.79
537.749	32584.34
538.114	32609.65
538.479	32795.86
538.845	32935.29
539.21	32913.82
539.575	33077.21
539.94	33316.53
540.305	33498.44
540.67	33429.97
541.034	33695.27
541.399	33802.61
541.764	33966.45
542.129	34008.48
542.494	34127.8
542.858	34152.21
543.223	34330.28
543.587	34558.75
543.952	34594.91
544.316	34658.64
544.681	34710.61
545.045	34863.83
545.41	34982.47
545.774	35105.63
546.138	35183.82
546.503	35364.38
546.867	35385.62
547.231	35802.56
547.595	35771.6
547.959	35895.44
548.324	35871.49
548.688	35989.9
549.052	36315.09
549.416	36336.78
549.779	36334.07
550.143	36574.52
550.507	36840.5
550.871	36867.84
551.235	36992.59
551.599	37246.37
551.962	37335.4
552.326	37334.05
552.689	37546.24
553.053	37529.52
553.417	37684.77
553.78	38140.13
554.143	38007.7
554.507	38272.55
554.87	38426
555.234	38739.43
555.597	38570.85
555.96	38847.91
556.323	38937.62
556.686	38997.51
557.05	39348.91
557.413	39499.87
557.776	39510.26
558.139	39761.78
558.502	39870.48
558.865	39999.51
559.228	40290.13
559.59	40344.36
559.953	40440.41
560.316	40970.11
560.679	40849.43
561.041	41085.81
561.404	41335.98
561.767	41537.1
562.129	41360.38
562.492	41974.83
562.854	41845.11
563.217	42020.25
563.579	42177.99
563.941	42456.17
564.304	42594.47
564.666	42845.99
565.028	42836.27
565.39	43060.68
565.753	43370.5
566.115	43416.15
566.477	43512.64
566.839	43752.41
567.201	43910.37
567.563	43976.13
567.925	44267.65
568.287	44333.18
568.648	44397.82
569.01	44669.22
569.372	44927.97
569.734	44914.86
570.095	45277.79
570.457	45370.45
570.819	45403.44
571.18	45437.56
571.542	45680.04
571.903	45701.51
572.265	45931.33
572.626	45953.71
572.987	46006.59
573.349	46212.46
573.71	46407.25
574.071	46405.67
574.432	46689.51
574.794	46977.86
575.155	46799.11
575.516	46808.6
575.877	47024.41
576.238	46952.32
576.599	47174.92
576.96	47185.54
577.32	47298.3
577.681	47393.22
578.042	47478.86
578.403	47418.53
578.763	47630.95
579.124	47698.97
579.485	47754.79
579.845	47778.07
580.206	47876.59
580.566	47795.69
580.927	47925.18
581.287	47889.93
581.648	47791.17
582.008	48101.9
582.368	47972.86
582.728	48051.96
583.089	48032.07
583.449	48046.99
583.809	48116.81
584.169	48259.18
584.529	48136.02
584.889	48445.17
585.249	48232.74
585.609	48059.87
585.969	48343.25
586.329	48203.59
586.688	48317.03
587.048	48189.58
587.408	48171.95
587.768	48131.95
588.127	48213.99
588.487	48120.2
588.846	48451.04
589.206	48110.71
589.565	48289.01
589.925	48375.34
590.284	48314.55
590.643	48307.54
591.003	48560.87
591.362	48521.32
591.721	48454.21
592.08	48404.49
592.44	48534.88
592.799	48493.53
593.158	48470.02
593.517	48603.35
593.876	48541.44
594.235	48507.54
594.593	48566.07
594.952	48628.44
595.311	48502.79
595.67	48566.29
596.029	48868.43
596.387	48809.9
596.746	48825.04
597.104	48597.93
597.463	48703.69
597.822	48915.21
598.18	48734.65
598.538	48691.26
598.897	48971.25
599.255	48632.28
599.613	49106.84
599.972	48963.35
600.33	49091.7
600.688	48806.06
601.046	49095.77
601.404	49148.88
601.762	49135.54
602.12	49232.72
602.478	49339.61
602.836	49284.92
603.194	49141.19
603.552	49265.48
603.91	49082.21
604.268	49285.82
604.625	49288.53
604.983	49414.18
605.341	49117.01
605.698	49350.91
606.056	49496.89
606.413	49512.26
606.771	49617.34
607.128	49669.54
607.485	49373.5
607.843	49548.87
608.2	49639.26
608.557	49801.52
608.914	49659.37
609.272	49799.71
609.629	49957.22
609.986	49978.01
610.343	49819.82
610.7	50117.89
611.057	50007.16
611.414	49963.09
611.771	50079.93
612.127	50194.5
612.484	50041.74
612.841	50327.15
613.198	50179.81
613.554	50180.49
613.911	50281.28
614.267	50433.36
614.624	50313.59
614.98	50406.92
615.337	50599.01
615.693	50474.94
616.05	50386.58
616.406	50674.94
616.762	50469.97
617.118	50523.53
617.475	50575.73
617.831	50702.51
618.187	50634.04
618.543	50724.43
618.899	50916.51
619.255	50761.72
619.611	50715.16
619.967	50818.44
620.323	51028.38
620.678	50804.2
621.034	50711.32
621.39	50707.48
621.746	50672.9
622.101	51036.51
622.457	50766.46
622.812	50937.98
623.168	50909.73
623.523	50939.79
623.879	51099.79
624.234	50717.88
624.589	50996.74
624.945	51002.16
625.3	51019.56
625.655	50950.86
626.01	50954.03
626.365	50964.65
626.72	50874.48
627.075	50901.6
627.43	50858.66
627.785	50738.21
628.14	50783.41
628.495	50844.43
628.85	50763.52
629.205	50648.27
629.559	50867.7
629.914	50723.07
630.269	50730.76
630.623	50666.58
630.978	50568.5
631.332	50657.54
631.687	50725.56
632.041	50571.66
632.396	50643.3
632.75	50442.63
633.104	50522.85
633.459	50388.17
633.813	50346.13
634.167	50300.49
634.521	50298.9
634.875	50302.07
635.229	50296.42
635.583	50170.32
635.937	50096.2
636.291	50103.88
636.645	50091.9
636.999	50089.64
637.352	50100.72
637.706	49939.36
638.06	50035.18
638.413	49840.61
638.767	49764.68
639.121	49793.15
639.474	49598.58
639.828	49658.02
640.181	49634.29
640.534	49661.18
640.888	49453.73
641.241	49490.11
641.594	49342.32
641.947	49484.46
642.301	49479.26
642.654	49456.67
643.007	49449.66
643.36	49269.1
643.713	49266.39
644.066	49364.69
644.419	49070.69
644.771	48738.49
645.124	48335.57
645.477	48262.57
645.83	48040.66
646.182	47964.28
646.535	47956.14
646.888	47965.18
647.24	47781.68
647.593	48007.89
647.945	47909.14
648.298	47677.73
648.65	47676.15
649.002	47515.7
649.355	47682.7
649.707	47626.88
650.059	47627.79
650.411	48098.28
650.763	48038.62
651.115	48366.3
651.467	48352.74
651.819	48378.95
652.171	48101.45
652.523	48094.22
652.875	48116.36
653.227	47892.19
653.578	48067.55
653.93	48047.89
654.282	47823.49
654.633	47743.04
654.985	47760.67
655.337	47867.55
655.688	47758.41
656.039	47787.78
656.391	47549.6
656.742	47712.53
657.094	47713.21
657.445	47918.4
657.796	47746.2
658.147	47597.28
658.498	47524.74
658.849	47643.15
659.2	47674.79
659.551	47543.72
659.902	47590.27
660.253	47512.99
660.604	47564.96
660.955	47421.24
661.306	47496.27
661.656	47355.93
662.007	47419.43
662.358	47425.76
662.708	47220.34
663.059	47364.97
663.409	46969.27
663.76	47402.71
664.11	47422.37
664.461	47355.03
664.811	47349.83
665.161	47430.28
665.511	47084.3
665.862	47150.74
666.212	47277.06
666.562	47297.4
666.912	47165.65
667.262	47201.58
667.612	47185.76
667.962	47202.94
668.312	47173.56
668.662	47359.32
669.011	47101.25
669.361	47110.06
669.711	47110.74
670.06	46941.7
670.41	46868.03
670.76	46841.59
671.109	46985.54
671.459	46930.63
671.808	46848.15
672.157	46913.91
672.507	46566.12
672.856	46550.98
673.205	46643.41
673.554	46813.12
673.904	46556.18
674.253	46812.22
674.602	46616.29
674.951	46180.59
675.3	45819.93
675.649	46640.02
675.998	46510.53
676.346	46582.39
676.695	46642.05
677.044	46225.11
677.393	46482.96
677.741	46477.08
678.09	46416.29
678.438	46118
678.787	46320.25
679.135	46187.15
679.484	46160.48
679.832	46183.98
680.181	45970.2
680.529	46172.68
680.877	45859.47
681.225	45833.71
681.573	46001.39
681.922	45720.72
682.27	45718.46
682.618	45659.03
682.966	45537.67
683.314	45645.69
683.661	45488.63
684.009	45365.25
684.357	45295.87
684.705	45224.91
685.053	45207.06
685.4	45102.2
685.748	44984.24
686.095	44970.46
686.443	44713.06
686.79	44760.97
687.138	44841.42
687.485	44748.09
687.832	44535.89
688.18	44535.44
688.527	44400.3
688.874	44393.07
689.221	44277.37
689.568	44132.29
689.915	43966.41
690.262	43966.64
690.609	43962.8
690.956	43666.31
691.303	43768.45
691.65	43459.54
691.997	43520.32
692.344	43195.59
692.69	43228.35
693.037	43245.76
693.383	42934.8
693.73	42973.22
694.077	42668.82
694.423	42723.96
694.769	42656.39
695.116	42398.32
695.462	42570.29
695.808	42354.25
696.155	42434.93
696.501	42103.41
696.847	42173.92
697.193	41891.44
697.539	41999.46
697.885	41772.8
698.231	41593.6
698.577	41637.44
698.923	41479.47
699.269	41339.37
699.614	41210.33
699.96	41058.69
700.306	41047.4
700.651	40967.85
700.997	40819.38
701.342	40694.41
701.688	40740.06
702.033	40514.98
702.379	40625.94
702.724	40375.32
703.069	40432.95
703.415	40018.27
703.76	39966.52
704.105	40000.42
704.45	39762.23
704.795	39663.02
705.14	39580.09
705.485	39513.42
705.83	39456.7
706.175	39446.31
706.52	39241.12
706.865	39146.43
707.209	39184.17
707.554	39061.68
707.899	39071.63
708.243	38854.91
708.588	38899.66
708.932	38523.39
709.277	38503.96
709.621	38519.1
709.966	38225.32
710.31	38353
710.654	38153.01
710.998	38089.28
711.342	38108.26
711.687	37973.35
712.031	37870.98
712.375	37765.67
712.719	37742.85
713.063	37602.97
713.407	37660.82
713.75	37586.47
714.094	37419.02
714.438	37343.99
714.782	37325.23
715.125	37205.01
715.469	37238.23
715.812	36991
716.156	36844.12
716.499	36878.24
716.843	36851.8
717.186	36667.17
717.53	36864
717.873	36735.87
718.216	36791.91
718.559	36454.75
718.902	36280.51
719.246	36455.43
719.589	36210.23
719.932	36123.91
720.275	36103.57
720.617	36088.66
720.96	36006.4
721.303	35904.71
721.646	35958.04
721.989	35700.42
722.331	35936.8
722.674	35683.47
723.016	35681.89
723.359	35400.09
723.701	35600.31
724.044	35341.33
724.386	35227.21
724.729	35419.97
725.071	35247.32
725.413	35201.22
725.755	35210.49
726.097	34995.58
726.439	34880.78
726.782	34835.13
727.124	35058.17
727.465	34800.78
727.807	34850.04
728.149	34735.47
728.491	34610.28
728.833	34698.86
729.175	34496.83
729.516	34478.3
729.858	34412.77
730.199	34455.48
730.541	34340.45
730.882	34426.1
731.224	34504.97
731.565	34191.08
731.906	34137.29
732.248	34175.03
732.589	33934.59
732.93	33929.84
733.271	33803.74
733.612	33881.71
733.953	33916.06
734.294	33675.84
734.635	33601.72
734.976	33802.16
735.317	33488.95
735.658	33528.72
735.999	33556.52
736.339	33297.09
736.68	33488.5
737.021	33294.6
737.361	33205.12
737.702	33399.23
738.042	33364.66
738.383	33175.96
738.723	33183.65
739.063	32996.99
739.404	33108.85
739.744	32781.17
740.084	32730.33
740.424	32844.45
740.764	32865.46
741.104	32815.07
741.444	32693.72
741.784	32602.19
742.124	32542.31
742.464	32488.3
742.804	32433.84
743.143	32289.21
743.483	32354.74
743.823	32278.81
744.162	32194.52
744.502	32197.46
744.841	32095.77
745.181	32300.51
745.52	31998.37
745.86	32051.93
746.199	31956.79
746.538	31867.07
746.877	31932.61
747.216	31966.5
747.556	31823.91
747.895	31658.94
748.234	31570.13
748.573	31531.26
748.911	31563.35
749.25	31510.92
749.589	31379.4
749.928	31338.27
750.267	31346.41
750.605	31227.31
750.944	31044.95
751.283	31053.31
751.621	31006.98
751.96	30890.15
752.298	30841.79
752.636	30840.66
752.975	30626.88
