Data from plate_ceramic_FLMS001491_064.txt Node
Date: Tue Feb 07 11:17:08 GMT 2017
User: dcchb
Spectrometer: FLMS00149
Trigger mode: 0
Integration Time (sec): 2.000000E-2
Scans to average: 10
Electric dark correction enabled: true
Nonlinearity correction enabled: false
Boxcar width: 0
XAxis mode: Wavelengths
Number of Pixels in Spectrum: 2048
>>>>>Begin Spectral Data<<<<<
341.393	-9.35
341.776	-9.35
342.16	-9.35
342.543	-60.65
342.927	-62.91
343.31	-66.52
343.693	-68.78
344.077	-71.27
344.46	-49.8
344.843	-62.91
345.226	-25.62
345.61	-40.76
345.993	-24.26
346.376	-7.77
346.759	13.47
347.142	25.45
347.525	37.43
347.908	62.29
348.291	78.56
348.674	89.86
349.057	110.65
349.44	121.95
349.823	137.31
350.206	162.85
350.588	207.82
350.971	235.39
351.354	234.49
351.737	268.16
352.119	258.21
352.502	290.53
352.884	306.12
353.267	318.32
353.65	334.6
354.032	320.13
354.414	319
354.797	346.12
355.179	337.31
355.562	354.93
355.944	354.03
356.326	364.88
356.709	357.87
357.091	357.65
357.473	352.22
357.855	379.79
358.238	377.53
358.62	368.72
359.002	377.98
359.384	375.27
359.766	380.92
360.148	379.11
360.53	380.92
360.912	354.48
361.294	368.04
361.676	366.23
362.057	348.83
362.439	359.91
362.821	372.79
363.203	359.23
363.584	357.65
363.966	356.97
364.348	366.01
364.729	371.2
365.111	356.52
365.493	359.91
365.874	365.78
366.256	342.96
366.637	350.41
367.019	353.35
367.4	354.48
367.781	369.4
368.163	358.1
368.544	369.62
368.925	352.9
369.306	357.42
369.688	364.65
370.069	380.92
370.45	372.33
370.831	359.45
371.212	378.66
371.593	386.12
371.974	368.49
372.355	370.3
372.736	381.15
373.117	364.43
373.498	387.48
373.879	379.11
374.26	367.14
374.641	387.93
375.021	378.44
375.402	384.54
375.783	396.74
376.163	407.81
376.544	407.14
376.925	401.26
377.305	410.3
377.686	415.27
378.066	431.77
378.447	438.1
378.827	420.92
379.208	424.31
379.588	409.17
379.968	438.32
380.349	417.76
380.729	433.8
381.109	437.19
381.489	430.86
381.87	438.55
382.25	443.75
382.63	430.41
383.01	448.04
383.39	432.45
383.77	458.66
384.15	472.22
384.53	453.91
384.91	449.85
385.29	486.46
385.67	457.76
386.049	484.2
386.429	492.56
386.809	474.93
387.189	482.16
387.568	484.42
387.948	502.73
388.328	518.32
388.707	533.23
389.087	512.44
389.466	509.28
389.846	503.18
390.225	522.84
390.605	526
390.984	529.39
391.363	531.65
391.743	537.53
392.122	542.27
392.501	549.05
392.881	544.99
393.26	570.3
393.639	571.65
394.018	559.45
394.397	584.08
394.776	562.61
395.155	596.28
395.534	573.01
395.913	580.92
396.292	606.9
396.671	593.12
397.05	631.09
397.429	624.08
397.808	634.25
398.186	619.56
398.565	641.48
398.944	651.42
399.323	655.04
399.701	648.03
400.08	657.07
400.458	671.08
400.837	653.46
401.215	678.77
401.594	676.73
401.972	678.54
402.351	702.5
402.729	694.59
403.107	713.79
403.486	701.82
403.864	698.2
404.242	724.42
404.62	740.23
404.999	734.36
405.377	770.29
405.755	769.84
406.133	757.64
406.511	788.6
406.889	792.66
407.267	811.42
407.645	808.48
408.023	818.42
408.401	811.65
408.779	838.76
409.156	850.29
409.534	862.94
409.912	864.53
410.29	905.65
410.667	907.91
411.045	899.78
411.422	929.83
411.8	906.56
412.178	940.68
412.555	952.66
412.933	948.36
413.31	971.87
413.687	987.46
414.065	995.6
414.442	1001.92
414.819	996.95
415.197	1013.67
415.574	1045.54
415.951	1045.99
416.328	1070.85
416.705	1073.79
417.082	1083.5
417.46	1099.1
417.837	1112.65
418.214	1132.77
418.591	1126.67
418.967	1149.72
419.344	1120.56
419.721	1178.64
420.098	1154.01
420.475	1183.16
420.852	1183.16
421.228	1195.82
421.605	1202.37
421.982	1235.81
422.358	1242.37
422.735	1252.31
423.111	1273.78
423.488	1294.12
423.864	1281.24
424.241	1321.01
424.617	1309.26
424.994	1338.19
425.37	1348.35
425.746	1344.96
426.123	1351.07
426.499	1392.2
426.875	1381.35
427.251	1422.02
427.627	1450.05
428.003	1498.86
428.379	1463.38
428.756	1500.44
429.132	1516.03
429.507	1567.33
429.883	1575.92
430.259	1571.85
430.635	1614.56
431.011	1600.78
431.387	1632.64
431.763	1679.42
432.138	1678.74
432.514	1711.51
432.89	1677.61
433.265	1753.32
433.641	1772.52
434.016	1803.48
434.392	1846.19
434.767	1831.51
435.143	1856.59
435.518	1898.85
435.894	1867.66
436.269	1900.66
436.644	1960.99
437.02	1949.24
437.395	1951.73
437.77	2019.98
438.145	2010.94
438.52	2047.32
438.895	2074.89
439.271	2052.97
439.646	2092.06
440.021	2092.97
440.395	2129.58
440.77	2140.88
441.145	2148.33
441.52	2178.62
441.895	2203.02
442.27	2198.73
442.645	2218.16
443.019	2260.19
443.394	2299.06
443.769	2323.02
444.143	2292.51
444.518	2318.95
444.892	2340.19
445.267	2338.38
445.641	2386.52
446.016	2412.96
446.39	2419.74
446.764	2423.81
447.139	2436.91
447.513	2441.21
447.887	2446.63
448.262	2520.75
448.636	2504.26
449.01	2521.2
449.384	2572.95
449.758	2552.62
450.132	2587.87
450.506	2607.76
450.88	2637.59
451.254	2645.72
451.628	2688.88
452.002	2713.74
452.376	2747.87
452.75	2756.23
453.123	2789.67
453.497	2848.65
453.871	2849.56
454.244	2913.96
454.618	2919.84
454.992	2969.33
455.365	2971.81
455.739	3048.87
456.112	3047.97
456.486	3122.09
456.859	3104.01
457.232	3205.48
457.606	3202.99
457.979	3224.92
458.352	3299.72
458.725	3321.18
459.099	3381.3
459.472	3420.62
459.845	3468.3
460.218	3499.94
460.591	3525.02
460.964	3521.86
461.337	3683.21
461.71	3712.13
462.083	3734.96
462.456	3747.39
462.829	3774.73
463.201	3855.86
463.574	3894.28
463.947	3920.26
464.32	3993.26
464.692	4045.46
465.065	4083.2
465.438	4139.92
465.81	4201.61
466.183	4228.96
466.555	4304.43
466.928	4362.29
467.3	4405.9
467.672	4447.71
468.045	4567.03
468.417	4501.49
468.789	4571.77
469.161	4653.35
469.534	4738.77
469.906	4856.06
470.278	4851.31
470.65	4944.64
471.022	5037.07
471.394	5130.18
471.766	5152.55
472.138	5231.19
472.51	5278.65
472.882	5401.81
473.253	5506.21
473.625	5621.01
473.997	5683.83
474.369	5718.18
474.74	5825.98
475.112	5879.99
475.484	6007.44
475.855	6126.99
476.227	6144.61
476.598	6329.24
476.97	6410.14
477.341	6530.14
477.713	6643.13
478.084	6647.2
478.455	6848.77
478.827	6876.12
479.198	7096.68
479.569	7143.46
479.94	7310.68
480.311	7423.9
480.682	7554.97
481.053	7771.91
481.424	7817.56
481.795	7940.5
482.166	8088.52
482.537	8174.84
482.908	8350.43
483.279	8434.72
483.65	8608.73
484.021	8769.63
484.391	8851.21
484.762	8973.92
485.133	9031.54
485.503	9199.45
485.874	9357.41
486.244	9494.81
486.615	9636.5
486.985	9702.26
487.356	9990.61
487.726	10018.86
488.097	10285.75
488.467	10341.11
488.837	10483.71
489.207	10669.47
489.578	10779.52
489.948	10836.01
490.318	10999.85
490.688	11111.94
491.058	11306.51
491.428	11359.84
491.798	11518.48
492.168	11696.33
492.538	11784.92
492.908	11977.68
493.278	12142.87
493.648	12182.65
494.017	12316.88
494.387	12411.11
494.757	12566.14
495.126	12704.44
495.496	12734.72
495.866	12791.22
496.235	12979.23
496.605	13088.84
496.974	13220.36
497.344	13348.49
497.713	13424.87
498.082	13471.2
498.452	13670.29
498.821	13727.46
499.19	13796.39
499.559	13956.61
499.928	14151.41
500.298	14197.51
500.667	14263.5
501.036	14318.41
501.405	14377.16
501.774	14546.65
502.143	14578.51
502.512	14680.66
502.88	14909.81
503.249	14941.9
503.618	14960.65
503.987	15104.38
504.356	15202
504.724	15352.73
505.093	15384.82
505.462	15499.39
505.83	15596.34
506.199	15799.95
506.567	15916.56
506.936	15864.81
507.304	16203.33
507.672	16262.99
508.041	16315.64
508.409	16333.05
508.777	16624.34
509.145	16757.44
509.514	16726.71
509.882	16875.4
510.25	16986.59
510.618	17065.23
510.986	17236.52
511.354	17326.24
511.722	17476.52
512.09	17622.05
512.458	17616.18
512.826	17834.02
513.193	17973.68
513.561	18039.89
513.929	18246.89
514.297	18387.68
514.664	18570.5
515.032	18603.49
515.4	18712.19
515.767	18838.29
516.135	19019.98
516.502	18904.05
516.869	19291.16
517.237	19358.5
517.604	19329.35
517.972	19571.38
518.339	19734.76
518.706	19836.46
519.073	19945.38
519.44	20026.51
519.808	20367.97
520.175	20404.12
520.542	20595.98
520.909	20712.82
521.276	20870.55
521.643	21096.76
522.009	21193.03
522.376	21294.95
522.743	21392.57
523.11	21747.82
523.477	21850.41
523.843	22087.47
524.21	22280.91
524.577	22386.22
524.943	22456.95
525.31	22705.98
525.676	22819.43
526.043	23014.23
526.409	23028.91
526.776	23466.64
527.142	23498.51
527.508	23711.38
527.874	23837.25
528.241	24087.19
528.607	24101.65
528.973	24423
529.339	24330.8
529.705	24647.63
530.071	24852.6
530.437	24909.32
530.803	25140.5
531.169	25368.74
531.535	25281.74
531.901	25408.51
532.267	25563.99
532.632	25654.38
532.998	25793.14
533.364	26022.28
533.73	26142.5
534.095	26324.87
534.461	26552.44
534.826	26577.07
535.192	26736.39
535.557	26887.57
535.923	26949.49
536.288	27022.48
536.653	27314.9
537.019	27121.69
537.384	27417.27
537.749	27517.16
538.114	27537.27
538.479	27598.51
538.845	27882.12
539.21	27831.27
539.575	28036.47
539.94	28089.8
540.305	28214.99
540.67	28069.69
541.034	28352.84
541.399	28418.83
541.764	28519.62
542.129	28636
542.494	28749.22
542.858	28912.6
543.223	28979.04
543.587	29160.73
543.952	29202.09
544.316	29253.16
544.681	29371.35
545.045	29480.95
545.41	29709.87
545.774	29692.69
546.138	29787.15
546.503	30020.59
546.867	30026.24
547.231	30318.67
547.595	30240.25
547.959	30425.78
548.324	30478.44
548.688	30618.77
549.052	30628.04
549.416	30768.15
549.779	30813.57
550.143	30893.11
550.507	31224.18
550.871	31366.32
551.235	31157.74
551.599	31490.61
551.962	31559.31
552.326	31742.81
552.689	31899.42
553.053	31817.16
553.417	32028.45
553.78	32335.11
554.143	32054.21
554.507	32441.1
554.87	32574.2
555.234	32889.67
555.597	32757.7
555.96	32989.1
556.323	33058.93
556.686	33220.74
557.05	33441.75
557.413	33509.32
557.776	33610.1
558.139	33909.53
558.502	33857.78
558.865	33925.12
559.228	34239.92
559.59	34375.06
559.953	34354.49
560.316	34763.29
560.679	34813.01
561.041	35007.81
561.404	35361.02
561.767	35430.62
562.129	35434.46
562.492	35667
562.854	35771.4
563.217	35870.16
563.579	36122.36
563.941	36273.09
564.304	36433.76
564.666	36536.81
565.028	36789
565.39	36946.74
565.753	37024.48
566.115	37307.63
566.477	37357.8
566.839	37446.84
567.201	37672.82
567.563	37750.79
567.925	38000.05
568.287	37963.44
568.648	38159.59
569.01	38382.18
569.372	38510.54
569.734	38483.88
570.095	38764.77
570.457	38912.11
570.819	38930.64
571.18	39093.35
571.542	39382.38
571.903	39412.89
572.265	39672.77
572.626	39540.34
572.987	39673
573.349	39797.96
573.71	40039.31
574.071	40048.13
574.432	40185.07
574.794	40535.35
575.155	40463.71
575.516	40405.63
575.877	40605.63
576.238	40741.22
576.599	40938.5
576.96	40876.58
577.32	41057.37
577.681	41048.78
578.042	41144.14
578.403	41186.63
578.763	41171.71
579.124	41245.61
579.485	41565.38
579.845	41597.24
580.206	41523.57
580.566	41592.49
580.927	41572.16
581.287	41720.17
581.648	41637.46
582.008	41816.89
582.368	41704.13
582.728	41826.16
583.089	41739.38
583.449	41815.09
583.809	41787.29
584.169	41964.24
584.529	41929.89
584.889	42094.63
585.249	41913.84
585.609	41888.76
585.969	42112.48
586.329	42073.16
586.688	42036.1
587.048	42073.39
587.408	42051.01
587.768	42083.33
588.127	42024.8
588.487	42004.46
588.846	42286.71
589.206	41999.04
589.565	42062.09
589.925	42279.48
590.284	42150.67
590.643	42251.91
591.003	42312.93
591.362	42282.65
591.721	42333.49
592.08	42339.14
592.44	42406.26
592.799	42509.31
593.158	42376.2
593.517	42289.65
593.876	42404.68
594.235	42358.12
594.593	42523.77
594.952	42562.41
595.311	42385.92
595.67	42576.87
596.029	42770.32
596.387	42795.4
596.746	42744.33
597.104	42566.71
597.463	42649.64
597.822	42861.39
598.18	42770.32
598.538	42612.81
598.897	43003.76
599.255	42456.43
599.613	43146.8
599.972	42901.61
600.33	43052.34
600.688	42887.6
601.046	43157.88
601.404	43319.23
601.762	43107.48
602.12	43313.8
602.478	43199.46
602.836	43179.57
603.194	43061.83
603.552	43216.41
603.91	43147.03
604.268	43451.65
604.625	43186.58
604.983	43532.33
605.341	43383.63
605.698	43505.44
606.056	43652.55
606.413	43551.31
606.771	43604.87
607.128	43743.4
607.485	43547.7
607.843	43629.73
608.2	43788.14
608.557	43981.13
608.914	43716.96
609.272	44020.9
609.629	44053.45
609.986	44159.88
610.343	44031.53
610.7	44399.2
611.057	44153.78
611.414	44141.58
611.771	44266.55
612.127	44453.44
612.484	44464.96
612.841	44448.01
613.198	44353.1
613.554	44459.76
613.911	44518.29
614.267	44704.05
614.624	44557.61
614.98	44638.52
615.337	44892.07
615.693	44811.17
616.05	44812.07
616.406	45052.52
616.762	44900.2
617.118	44941.33
617.475	44884.84
617.831	45019.07
618.187	45036.92
618.543	45041.22
618.899	45355.56
619.255	45142.23
619.611	45099.29
619.967	45238.73
620.323	45339.29
620.678	45377.71
621.034	45144.26
621.39	45173.87
621.746	45092.97
622.101	45572.95
622.457	45229.01
622.812	45365.73
623.168	45348.55
623.523	45409.57
623.879	45387.42
624.234	45258.61
624.589	45303.81
624.945	45275.33
625.3	45401.89
625.655	45223.36
626.01	45291.38
626.365	45327.31
626.72	45454.54
627.075	45259.06
627.43	45315.33
627.785	45233.98
628.14	45271.27
628.495	45323.7
628.85	45351.72
629.205	45355.33
629.559	45372.51
629.914	45313.98
630.269	45231.95
630.623	45004.83
630.978	44922.58
631.332	45098.84
631.687	45131.16
632.041	45112.63
632.396	45056.58
632.75	44783.14
633.104	45013.19
633.459	44795.8
633.813	44756.7
634.167	44775.46
634.521	44765.29
634.875	44790.6
635.229	44699.76
635.583	44478.52
635.937	44426.54
636.291	44524.39
636.645	44451.63
636.999	44278.75
637.352	44470.38
637.706	44182.71
638.06	44399.43
638.413	44147
638.767	43970.51
639.121	44116.27
639.474	43869.04
639.828	43834.69
640.181	44033.56
640.534	44161.24
640.888	43754.02
641.241	43669.5
641.594	43673.8
641.947	43842.6
642.301	43757.41
642.654	43839.89
643.007	43700.91
643.36	43681.48
643.713	43662.95
644.066	43688.48
644.419	43382.73
644.771	43114.94
645.124	42771.67
645.477	42639.92
645.83	42333.49
646.182	42183.21
646.535	42079.26
646.888	42287.62
647.24	41903.67
647.593	42401.96
647.945	42339.37
648.298	42189.09
648.65	41809.44
649.002	41905.71
649.355	41936.44
649.707	41900.96
650.059	41956.78
650.411	42404.68
650.763	42431.79
651.115	42884.44
651.467	42803.31
651.819	42523.54
652.171	42608.74
652.523	42495.07
652.875	42470.21
653.227	42289.42
653.578	42541.85
653.93	42535.97
654.282	42349.54
654.633	42345.47
654.985	42421.4
655.337	42400.83
655.688	42380.27
656.039	42499.14
656.391	41957.91
656.742	42069.32
657.094	42137.34
657.445	42255.98
657.796	42096.21
658.147	42080.39
658.498	41926.5
658.849	41999.71
659.2	41885.59
659.551	41928.98
659.902	42139.15
660.253	41912.26
660.604	41957.91
660.955	41759.27
661.306	42014.63
661.656	41891.7
662.007	41886.05
662.358	41824.35
662.708	41767.86
663.059	41840.62
663.409	41380.3
663.76	41717.91
664.11	41534.87
664.461	41700.74
664.811	41746.16
665.161	41748.87
665.511	41659.38
665.862	41524.47
666.212	41697.58
666.562	41640.4
666.912	41645.6
667.262	41625.04
667.612	41645.83
667.962	41602.21
668.312	41491.03
668.662	41629.56
669.011	41448.77
669.361	41497.13
669.711	41556.34
670.06	41424.14
670.41	41250.58
670.76	41160.41
671.109	41352.95
671.459	41196.12
671.808	41234.09
672.157	41162.9
672.507	41008.1
672.856	41013.53
673.205	41116.57
673.554	41178.49
673.904	40913.19
674.253	41138.49
674.602	41045.39
674.951	40575.57
675.3	40442.02
675.649	41043.58
675.998	40940.31
676.346	40892.63
676.695	40946.18
677.044	40777.6
677.393	41026.41
677.741	40892.4
678.09	40694.89
678.438	40655.8
678.787	40689.92
679.135	40597.72
679.484	40573.99
679.832	40809.69
680.181	40320.89
680.529	40653.54
680.877	40405.63
681.225	40358.4
681.573	40688.79
681.922	40200.44
682.27	40103.72
682.618	40122.93
682.966	40043.38
683.314	40137.39
683.661	39950.28
684.009	39732.88
684.357	39767.46
684.705	39662.38
685.053	39782.6
685.4	39870.28
685.748	39561.59
686.095	39550.29
686.443	39423.74
686.79	39306.23
687.138	39294.02
687.485	39166.57
687.832	39191.65
688.18	39142.16
688.527	39076.63
688.874	38925.22
689.221	38762.51
689.568	38685.23
689.915	38619.46
690.262	38664.44
690.609	38667.83
690.956	38459.02
691.303	38348.96
691.65	38098.12
691.997	38250.66
692.344	38061.51
692.69	38080.5
693.037	38164.34
693.383	37812.48
693.73	37843.21
694.077	37563.9
694.423	37680.96
694.769	37507.4
695.116	37478.03
695.462	37416.33
695.808	37379.5
696.155	37331.14
696.501	36958.04
696.847	37101.54
697.193	36844.82
697.539	36942.22
697.885	36628.33
698.231	36665.17
698.577	36621.55
698.923	36607.99
699.269	36335.23
699.614	36015.47
699.96	36137.5
700.306	36153.77
700.651	35929.59
700.997	35889.82
701.342	35812.98
701.688	35727.79
702.033	35576.61
702.379	35555.82
702.724	35532.31
703.069	35505.42
703.415	35184.3
703.76	35157.63
704.105	35094.81
704.45	35010.75
704.795	34803.29
705.14	34610.3
705.485	34657.76
705.83	34476.75
706.175	34457.77
706.52	34522.62
706.865	34346.81
707.209	34237.89
707.554	34105.91
707.899	34196.53
708.243	34086.02
708.588	34106.36
708.932	33842.87
709.277	33805.13
709.621	33769.2
709.966	33570.78
710.31	33642.42
710.654	33343.22
710.998	33504.8
711.342	33470.9
711.687	33345.48
712.031	33195.2
712.375	33233.17
712.719	33242.66
713.063	33104.36
713.407	33193.62
713.75	32940.52
714.094	32901.42
714.438	32982.55
714.782	32792.27
715.125	32629.34
715.469	32719.05
715.812	32631.6
716.156	32498.27
716.499	32540.08
716.843	32544.14
717.186	32368.1
717.53	32240.65
717.873	32344.6
718.216	32176.24
718.559	32009.7
718.902	31804.28
719.246	31996.14
719.589	31802.69
719.932	31800.89
720.275	31755.01
720.617	31757.95
720.96	31673.66
721.303	31595.02
721.646	31646.77
721.989	31459.65
722.331	31483.16
722.674	31279.32
723.016	31435.7
723.359	31337.85
723.701	31335.81
724.044	31047.01
724.386	30916.16
724.729	31203.39
725.071	31052.21
725.413	30981.7
725.755	30982.15
726.097	30782.16
726.439	30675.72
726.782	30753.91
727.124	30692.22
727.465	30577.64
727.807	30528.38
728.149	30461.26
728.491	30473.69
728.833	30564.76
729.175	30346.01
729.516	30315.5
729.858	30227.37
730.199	30331.55
730.541	30208.16
730.882	30228.72
731.224	30294.03
731.565	30013.82
731.906	30096.07
732.248	29983.08
732.589	29913.25
732.93	29734.5
733.271	29791.22
733.612	29902.41
733.953	29753.94
734.294	29655.86
734.635	29546.93
734.976	29809.98
735.317	29460.16
735.658	29525.24
735.999	29594.39
736.339	29475.3
736.68	29504.45
737.021	29419.03
737.361	29223.1
737.702	29477.78
738.042	29282.31
738.383	29139.26
738.723	29279.37
739.063	29104.46
739.404	29229.88
739.744	29027.17
740.084	28908.08
740.424	29046.61
740.764	28949.21
741.104	29097.68
741.444	28803.9
741.784	28701.53
742.124	28732.72
742.464	28761.42
742.804	28653.85
743.143	28704.02
743.483	28547.64
743.823	28436.68
744.162	28437.36
744.502	28417.47
744.841	28309.91
745.181	28332.05
745.52	28199.4
745.86	28387.87
746.199	28167.99
746.538	28083.24
746.877	28151.94
747.216	27951.04
747.556	27991.04
747.895	28031.27
748.234	27840.54
748.573	27739.3
748.911	27768.9
749.25	27716.93
749.589	27721.22
749.928	27728.23
750.267	27664.72
750.605	27655.23
750.944	27434.9
751.283	27335.69
751.621	27396.03
751.96	27306.54
752.298	27222.7
752.636	27230.61
752.975	27132.76
753.313	26992.65
753.651	27074.68
