Data from plate_porcelain_FLMS001491_041.txt Node
Date: Tue Feb 07 11:19:22 GMT 2017
User: dcchb
Spectrometer: FLMS00149
Trigger mode: 0
Integration Time (sec): 2.000000E-2
Scans to average: 10
Electric dark correction enabled: true
Nonlinearity correction enabled: false
Boxcar width: 0
XAxis mode: Wavelengths
Number of Pixels in Spectrum: 2048
>>>>>Begin Spectral Data<<<<<
341.393	-2.06
341.776	-2.06
342.16	-2.06
342.543	-61.5
342.927	-54.49
343.31	-81.16
343.693	-54.04
344.077	-64.89
344.46	-66.24
344.843	-46.35
345.226	-55.62
345.61	-21.27
345.993	-13.59
346.376	-7.26
346.759	8.33
347.142	42
347.525	40.42
347.908	65.51
348.291	79.97
348.674	80.42
349.057	93.75
349.44	118.16
349.823	142.57
350.206	176.46
350.588	257.82
350.971	242.68
351.354	277.93
351.737	291.94
352.119	284.26
352.502	312.96
352.884	309.79
353.267	323.35
353.65	327.19
354.032	349.34
354.414	344.82
354.797	362.22
355.179	377.81
355.562	358.15
355.944	384.59
356.326	372.39
356.709	386.18
357.091	394.99
357.473	395.89
357.855	385.95
358.238	374.2
358.62	400.64
359.002	391.6
359.384	399.06
359.766	394.99
360.148	410.81
360.53	388.44
360.912	396.8
361.294	391.37
361.676	410.81
362.057	387.76
362.439	382.79
362.821	396.35
363.203	396.35
363.584	402.9
363.966	385.05
364.348	390.92
364.729	395.22
365.111	402
365.493	397.48
365.874	388.44
366.256	409.9
366.637	399.28
367.019	406.29
367.4	390.47
367.781	391.6
368.163	408.55
368.544	403.58
368.925	411.71
369.306	396.12
369.688	412.39
370.069	397.7
370.45	410.13
370.831	425.5
371.212	418.72
371.593	409.23
371.974	427.98
372.355	423.24
372.736	431.37
373.117	440.86
373.498	424.82
373.879	409.45
374.26	432.28
374.641	399.51
375.021	428.21
375.402	436.12
375.783	439.96
376.163	455.78
376.544	496.91
376.925	452.16
377.305	462.78
377.686	482.67
378.066	460.98
378.447	479.73
378.827	472.5
379.208	490.13
379.588	451.49
379.968	496.46
380.349	482.22
380.729	482.9
381.109	502.33
381.489	520.64
381.87	516.12
382.25	509.34
382.63	506.85
383.01	508.66
383.39	511.6
383.77	528.77
384.15	525.61
384.53	545.72
384.91	540.07
385.29	546.17
385.67	578.04
386.049	582.1
386.429	558.6
386.809	588.43
387.189	593.85
387.568	582.1
387.948	596.57
388.328	614.42
388.707	626.85
389.087	603.35
389.466	608.54
389.846	619.39
390.225	638.15
390.605	664.81
390.984	652.61
391.363	659.84
391.743	641.54
392.122	653.97
392.501	700.07
392.881	698.71
393.26	675.89
393.639	733.51
394.018	715.89
394.397	717.92
394.776	723.57
395.155	715.66
395.534	740.52
395.913	745.94
396.292	777.58
396.671	754.3
397.05	748.65
397.429	802.89
397.808	770.8
398.186	806.73
398.565	783
398.944	806.28
399.323	822.55
399.701	822.77
400.08	826.16
400.458	830.01
400.837	850.8
401.215	865.03
401.594	858.25
401.972	876.11
402.351	868.88
402.729	897.35
403.107	910
403.486	925.15
403.864	949.33
404.242	917.91
404.62	944.35
404.999	958.14
405.377	961.98
405.755	982.77
406.133	989.78
406.511	1005.6
406.889	1016.67
407.267	1023.22
407.645	1047.85
408.023	1041.98
408.401	1101.19
408.779	1078.81
409.156	1086.72
409.534	1098.93
409.912	1154.29
410.29	1166.27
410.667	1172.82
411.045	1186.83
411.422	1201.52
411.8	1207.62
412.178	1234.97
412.555	1250.56
412.933	1260.96
413.31	1255.08
413.687	1285.81
414.065	1316.32
414.442	1314.51
414.819	1350.9
415.197	1353.83
415.574	1373.72
415.951	1389.77
416.328	1402.65
416.705	1418.69
417.082	1453.04
417.46	1455.07
417.837	1493.04
418.214	1500.72
418.591	1505.69
418.967	1510.89
419.344	1541.4
419.721	1542.3
420.098	1565.35
420.475	1574.62
420.852	1620.72
421.228	1615.52
421.605	1633.38
421.982	1640.38
422.358	1664.11
422.735	1688.51
423.111	1696.42
423.488	1746.14
423.864	1738.46
424.241	1755.63
424.617	1784.11
424.994	1801.51
425.37	1838.79
425.746	1840.6
426.123	1879.7
426.499	1839.02
426.875	1892.13
427.251	1943.88
427.627	1977.55
428.003	2006.02
428.379	2027.04
428.756	2031.56
429.132	2068.17
429.507	2119.92
429.883	2102.29
430.259	2161.72
430.635	2179.8
431.011	2202.63
431.387	2270.87
431.763	2318.55
432.138	2311.78
432.514	2334.6
432.89	2356.75
433.265	2457.31
433.641	2438.1
434.016	2465.22
434.392	2506.8
434.767	2568.49
435.143	2554.71
435.518	2594.48
435.894	2678.32
436.269	2643.74
436.644	2686.23
437.02	2733.01
437.395	2738.88
437.77	2791.31
438.145	2816.17
438.52	2862.04
438.895	2852.78
439.271	2875.6
439.646	2948.14
440.021	2981.81
440.395	2999.21
440.77	2973.23
441.145	3005.99
441.52	3135.03
441.895	3065.43
442.27	3135.03
442.645	3123.96
443.019	3153.34
443.394	3179.78
443.769	3235.82
444.143	3218.19
444.518	3315.36
444.892	3291.41
445.267	3295.93
445.641	3291.18
446.016	3335.03
446.39	3406.66
446.764	3412.76
447.139	3406.66
447.513	3471.07
447.887	3491.86
448.262	3540.67
448.636	3530.27
449.01	3541.12
449.384	3611.63
449.758	3606.2
450.132	3679.2
450.506	3727.33
450.88	3678.07
451.254	3757.61
451.628	3840.55
452.002	3890.94
452.376	3853.43
452.75	3959.87
453.123	3969.36
453.497	4081.45
453.871	4071.73
454.244	4153.53
454.618	4185.4
454.992	4229.24
455.365	4258.84
455.739	4336.58
456.112	4410.93
456.486	4412.06
456.859	4435.34
457.232	4609.79
457.606	4585.39
457.979	4659.51
458.352	4736.12
458.725	4815.44
459.099	4828.55
459.472	4910.13
459.845	5022.21
460.218	4994.42
460.591	5039.16
460.964	5109.67
461.337	5281.19
461.71	5292.49
462.083	5390.11
462.456	5395.08
462.829	5429.21
463.201	5552.82
463.574	5562.54
463.947	5660.84
464.32	5794.4
464.692	5822.42
465.065	5856.99
465.438	5935.86
465.81	6047.72
466.183	6147.83
466.555	6269.64
466.928	6296.53
467.3	6357.54
467.672	6414.04
468.045	6603.64
468.417	6650.87
468.789	6686.8
469.161	6810.64
469.534	6854.48
469.906	7013.57
470.278	7054.7
470.65	7208.6
471.022	7300.57
471.394	7440.91
471.766	7520.68
472.138	7582.6
472.51	7803.16
472.882	7903.27
473.253	7952.53
473.625	8083.15
473.997	8321.11
474.369	8312.07
474.74	8491.5
475.112	8631.61
475.484	8802.23
475.855	8871.15
476.227	8985.95
476.598	9193.18
476.97	9323.12
477.341	9536.22
477.713	9618.7
478.084	9704.35
478.455	9983.66
478.827	10103.66
479.198	10360.6
479.569	10370.77
479.94	10783.42
480.311	10905.67
480.682	11038.33
481.053	11314.02
481.424	11488.94
481.795	11566.22
482.166	11885.31
482.537	11990.16
482.908	12239.2
483.279	12394
483.65	12593.09
484.021	12859.52
484.391	13067.42
484.762	13061.55
485.133	13299.28
485.503	13428.77
485.874	13702.66
486.244	13887.06
486.615	14142.2
486.985	14286.38
487.356	14633.49
487.726	14763.43
488.097	15010.88
488.467	15073.7
488.837	15367.93
489.207	15529.73
489.578	15865.32
489.948	15969.95
490.318	16318.86
490.688	16361.8
491.058	16641.57
491.428	16769.25
491.798	16936.7
492.168	17362.23
492.538	17347.09
492.908	17550.7
493.278	17841.54
493.648	17855.32
494.017	18083.56
494.387	18311.81
494.757	18414.85
495.126	18671.12
495.496	18784.56
495.866	18915.18
496.235	19061.84
496.605	19359.24
496.974	19406.92
497.344	19723.07
497.713	19753.12
498.082	19952.22
498.452	20232.89
498.821	20260.23
499.19	20376.61
499.559	20516.95
499.928	20783.83
500.298	20849.59
500.667	21023.15
501.036	21089.13
501.405	21360.77
501.774	21362.57
502.143	21596.92
502.512	21684.83
502.88	21887.98
503.249	21959.85
503.618	22061.54
503.987	22212.04
504.356	22380.85
504.724	22500.17
505.093	22659.04
505.462	22798.69
505.83	22959.37
506.199	23149.19
506.567	23504.66
506.936	23424.67
507.304	23729.29
507.672	23916.18
508.041	23932.9
508.409	24249.73
508.777	24363.85
509.145	24578.76
509.514	24572.21
509.882	24867.79
510.25	24984.17
510.618	25115.92
510.986	25132.42
511.354	25478.4
511.722	25717.26
512.09	26008.1
512.458	26012.85
512.826	26213.97
513.193	26347.53
513.561	26540.74
513.929	26846.05
514.297	26997.68
514.664	27265.47
515.032	27348.86
515.4	27596.53
515.767	27740.71
516.135	27914.72
516.502	27911.55
516.869	28217.08
517.237	28405.78
517.604	28422.73
517.972	28770.51
518.339	28990.17
518.706	29131.64
519.073	29308.58
519.44	29431.97
519.808	29796.25
520.175	29931.84
520.542	30297.93
520.909	30420.19
521.276	30393.07
521.643	30830.57
522.009	31050.45
522.376	31372.25
522.743	31680.95
523.11	31863.99
523.477	32167.49
523.843	32220.59
524.21	32633.01
524.577	32763.63
524.943	33117.07
525.31	33295.37
525.676	33651.29
526.043	33781.68
526.409	33936.03
526.776	34352.51
527.142	34363.81
527.508	34682.45
527.874	34967.19
528.241	35201.53
528.607	35146.39
528.973	35511.81
529.339	35721.07
529.705	35925.35
530.071	36204.67
530.437	36562.63
530.803	36668.39
531.169	36733.7
531.535	36859.12
531.901	36999.9
532.267	37304.3
532.632	37365.99
532.998	37702.94
533.364	37996.71
533.73	38019.09
534.095	38328
534.461	38546.75
534.826	38632.63
535.192	38932.96
535.557	39157.36
535.923	39059.96
536.288	39125.72
536.653	39404.13
537.019	39395.77
537.384	39678.48
537.749	39859.71
538.114	39945.36
538.479	40097.67
538.845	40246.82
539.21	40363.66
539.575	40504.9
539.94	40686.81
540.305	41025.33
540.67	40892
541.034	41050.64
541.399	41185.1
541.764	41412.44
542.129	41536.73
542.494	41622.61
542.858	41850.17
543.223	41920.23
543.587	42122.93
543.952	42089.71
544.316	42303.04
544.681	42419.42
545.045	42485.41
545.41	42690.15
545.774	42798.62
546.138	42845.62
546.503	43140.53
546.867	43061.44
547.231	43417.59
547.595	43488.77
547.959	43512.95
548.324	43717.01
548.688	43843.79
549.052	44051.47
549.416	44111.35
549.779	44160.62
550.143	44355.87
550.507	44653.49
550.871	44718.34
551.235	44890.99
551.599	45096.41
551.962	45193.59
552.326	45326.92
552.689	45454.82
553.053	45361.49
553.417	45591.54
553.78	46043.28
554.143	45983.17
554.507	46251.41
554.87	46374.35
555.234	46773.88
555.597	46650.5
555.96	46844.16
556.323	46954.22
556.686	47118.28
557.05	47258.39
557.413	47403.47
557.776	47613.86
558.139	47902.89
558.502	47834.19
558.865	48011.59
559.228	48311.24
559.59	48478.92
559.953	48404.57
560.316	48751.23
560.679	48774.06
561.041	49131.79
561.404	49369.52
561.767	49524.77
562.129	49385.34
562.492	49849.28
562.854	49809.28
563.217	49964.31
563.579	50063.51
563.941	50277.07
564.304	50434.13
564.666	50750.05
565.028	50637.74
565.39	50921.8
565.753	51124.5
566.115	51106.65
566.477	51293.31
566.839	51390.03
567.201	51593.64
567.563	51661.44
567.925	51927.19
568.287	51863.47
568.648	51926.97
569.01	52204.93
569.372	52354.53
569.734	52319.73
570.095	52480.17
570.457	52652.6
570.819	52700.96
571.18	52773.05
571.542	52886.94
571.903	52963.78
572.265	53112.7
572.626	53176.2
572.987	53276.09
573.349	53354.28
573.71	53511.33
574.071	53502.29
574.432	53514.27
574.794	53853.47
575.155	53782.51
575.516	53706.58
575.877	53860.7
576.238	53863.19
576.599	54015.73
576.96	54026.57
577.32	53994.03
577.681	54148.83
578.042	54235.61
578.403	54289.62
578.763	54384.53
579.124	54455.26
579.485	54428.37
579.845	54607.35
580.206	54497.07
580.566	54580.91
580.927	54534.36
581.287	54705.43
581.648	54588.82
582.008	54670.17
582.368	54615.26
582.728	54690.74
583.089	54701.13
583.449	54723.96
583.809	54754.46
584.169	54859.09
584.529	54801.92
584.889	54987.68
585.249	54737.06
585.609	54695.93
585.969	54832.43
586.329	54737.74
586.688	54954.01
587.048	54864.29
587.408	54777.06
587.768	54848.47
588.127	54803.05
588.487	54803.5
588.846	54977.06
589.206	54793.79
589.565	54850.51
589.925	54956.27
590.284	54876.27
590.643	54902.03
591.003	55014.57
591.362	55040.78
591.721	54988.13
592.08	55031.75
592.44	55118.07
592.799	55050.5
593.158	55057.28
593.517	55043.95
593.876	55090.5
594.235	55022.71
594.593	55088.47
594.952	55137.96
595.311	55045.53
595.67	55104.96
596.029	55237.39
596.387	55265.41
596.746	55244.62
597.104	55157.84
597.463	55230.38
597.822	55276.94
598.18	55220.21
598.538	55222.25
598.897	55369.59
599.255	55166.66
599.613	55561
599.972	55351.51
600.33	55419.76
600.688	55346.99
601.046	55440.77
601.404	55614.1
601.762	55498.63
602.12	55664.95
602.478	55597.15
602.836	55648
603.194	55499.08
603.552	55581.79
603.91	55426.09
604.268	55678.06
604.625	55632.63
604.983	55735.68
605.341	55567.32
605.698	55717.38
606.056	55758.28
606.413	55765.51
606.771	55812.97
607.128	55896.81
607.485	55770.26
607.843	55781.78
608.2	55923.7
608.557	56061.77
608.914	55977.71
609.272	56062
609.629	56124.6
609.986	56116.69
610.343	56004.37
610.7	56263.35
611.057	56252.73
611.414	56209.79
611.771	56178.61
612.127	56314.65
612.484	56290.02
612.841	56411.82
613.198	56288.89
613.554	56381.31
613.911	56530.69
614.267	56432.84
614.624	56475.32
614.98	56620.86
615.337	56695.43
615.693	56645.04
616.05	56615.43
616.406	56707.86
616.762	56562.55
617.118	56564.59
617.475	56622.44
617.831	56680.52
618.187	56731.59
618.543	56756.67
618.899	56832.6
619.255	56806.61
619.611	56772.72
619.967	56893.17
620.323	56886.16
620.678	56833.51
621.034	56765.26
621.39	56828.99
621.746	56754.86
622.101	57067.85
622.457	56825.37
622.812	56849.55
623.168	56874.63
623.523	56891.58
623.879	56989.89
624.234	56810.68
624.589	56939.94
624.945	56974.29
625.3	56897.23
625.655	56871.02
626.01	56955.31
626.365	56964.58
626.72	56968.87
627.075	56863.34
627.43	56891.13
627.785	56826.27
628.14	56868.76
628.495	56850
628.85	56783.34
629.205	56711.25
629.559	56870.57
629.914	56777.69
630.269	56824.01
630.623	56688.2
630.978	56659.27
631.332	56720.74
631.687	56785.37
632.041	56651.14
632.396	56739.04
632.75	56539.05
633.104	56621.31
633.459	56397.58
633.813	56504.02
634.167	56509.45
634.521	56435.1
634.875	56493.4
635.229	56433.29
635.583	56310.36
635.937	56302.45
636.291	56270.36
636.645	56280.3
636.999	56219.51
637.352	56315.33
637.706	56090.7
638.06	56225.84
638.413	56095.22
638.767	56101.77
639.121	56112.85
639.474	55962.12
639.828	55998.73
640.181	55987.65
640.534	55970.7
640.888	55852.29
641.241	55771.61
641.594	55824.49
641.947	55939.29
642.301	55798.5
642.654	55800.54
643.007	55801.89
643.36	55694.55
643.713	55716.02
644.066	55833.53
644.419	55578.17
644.771	55360.32
645.124	55192.19
645.477	55095.92
645.83	54889.6
646.182	54811.86
646.535	54675.14
646.888	54720.11
647.24	54610.06
647.593	54705.65
647.945	54597.18
648.298	54480.12
648.65	54543.4
649.002	54322.84
649.355	54474.92
649.707	54388.6
650.059	54605.99
650.411	54873.33
650.763	54923.95
651.115	55176.15
651.467	55089.37
651.819	55031.07
652.171	55004.18
652.523	54789.27
652.875	54862.48
653.227	54689.83
653.578	54907.91
653.93	54827.46
654.282	54687.57
654.633	54681.7
654.985	54694.13
655.337	54686.44
655.688	54716.5
656.039	54805.31
656.391	54379.78
656.742	54597.63
657.094	54613.68
657.445	54684.18
657.796	54610.51
658.147	54604.19
658.498	54481.7
658.849	54535.94
659.2	54438.09
659.551	54397.86
659.902	54508.82
660.253	54398.32
660.604	54505.88
660.955	54290.07
661.306	54443.74
661.656	54311.76
662.007	54322.84
662.358	54324.42
662.708	54335.04
663.059	54313.57
663.409	54064.76
663.76	54360.35
664.11	54238.09
664.461	54269.05
664.811	54266.34
665.161	54171.2
665.511	54187.02
665.862	54156.97
666.212	54298.43
666.562	54207.13
666.912	54274.25
667.262	54229.96
667.612	54151.09
667.962	54236.96
668.312	54133.46
668.662	54237.87
669.011	54122.84
669.361	54066.8
669.711	54062.28
670.06	54083.75
670.41	53915.84
670.76	53967.82
671.109	54066.35
671.459	53992.9
671.808	53941.83
672.157	54031.32
672.507	53847.82
672.856	53751.1
673.205	53899.57
673.554	53969.85
673.904	53804.21
674.253	53881.49
674.602	53780.25
674.951	53388.4
675.3	53337.1
675.649	53765.79
675.998	53665
676.346	53658.45
676.695	53738.67
677.044	53475.63
677.393	53632.46
677.741	53754.04
678.09	53597.88
678.438	53572.12
678.787	53594.49
679.135	53558.79
679.484	53348.63
679.832	53503.65
680.181	53197.9
680.529	53497.55
680.877	53160.16
681.225	53145.92
681.573	53386.14
681.922	53146.82
682.27	53097.33
682.618	53105.69
682.966	53041.29
683.314	53030.67
683.661	52967.39
684.009	52830.45
684.357	52699.38
684.705	52717
685.053	52818.02
685.4	52653.73
685.748	52620.51
686.095	52530.12
686.443	52380.74
686.79	52314.53
687.138	52386.84
687.485	52340.52
687.832	52230.46
688.18	52331.7
688.527	52152.5
688.874	52063.46
689.221	51902.34
689.568	51783.02
689.915	51811.49
690.262	51817.82
690.609	51708.89
690.956	51491.5
691.303	51545.96
691.65	51308.91
691.997	51288.79
692.344	51100.78
692.69	51167.44
693.037	51238.17
693.383	50893.55
693.73	51031.62
694.077	50868.92
694.423	50681.8
694.769	50700.79
695.116	50568.81
695.462	50613.1
695.808	50507.8
696.155	50474.35
696.501	50270.74
696.847	50259.22
697.193	49910.07
697.539	50223.74
697.885	49896.29
698.231	49772
698.577	49829.85
698.923	49654.71
699.269	49422.63
699.614	49284.1
699.96	49219.24
700.306	49296.53
700.651	49184.89
700.997	48994.39
701.342	48792.36
701.688	48874.84
702.033	48692.02
702.379	48705.36
702.724	48603.21
703.069	48646.6
703.415	48299.94
703.76	48317.57
704.105	48122.55
704.45	48210
704.795	47825.61
705.14	47786.96
705.485	47757.13
705.83	47619.96
706.175	47629
706.52	47458.61
706.865	47360.31
707.209	47286.86
707.554	47186.08
707.899	47235.57
708.243	47097.49
708.588	46940.21
708.932	46734.56
709.277	46794
709.621	46746.54
709.966	46483.72
710.31	46467.22
710.654	46173.22
710.998	46206.89
711.342	46316.27
711.687	46028.14
712.031	45878.77
712.375	45816.17
712.719	45893.45
713.063	45804.64
713.407	45745.44
713.75	45579.79
714.094	45631.31
714.438	45508.38
714.782	45465.67
715.125	45341.38
715.469	45323.75
715.812	45067.49
716.156	44907.04
716.499	44788.85
716.843	44849.87
717.186	44580.49
717.53	44728.51
717.873	44823.43
718.216	44646.48
718.559	44563.77
718.902	44368.3
719.246	44458.24
719.589	44384.12
719.932	44016.89
720.275	44115.65
720.617	43971.02
720.96	43902.55
721.303	43803.34
721.646	43938.25
721.989	43676.56
722.331	43757.92
722.674	43611.93
723.016	43568.09
723.359	43559.28
723.701	43538.04
724.044	43362.9
724.386	43137.82
724.729	43379.62
725.071	43110.7
725.413	43111.61
725.755	43017.82
726.097	42875.68
726.439	42756.59
726.782	42700.77
727.124	42839.52
727.465	42574.22
727.807	42495.8
728.149	42461.91
728.491	42334
728.833	42404.51
729.175	42193.66
729.516	42153.21
729.858	42181.91
730.199	42130.62
730.541	42039.77
730.882	42082.03
731.224	42106.44
731.565	41764.98
731.906	41855.14
732.248	41920.23
732.589	41736.05
732.93	41592.32
733.271	41523.85
733.612	41618.99
733.953	41511.65
734.294	41192.56
734.635	41284.54
734.976	41431.65
735.317	41136.07
735.658	41142.39
735.999	41196.18
736.339	41030.98
736.68	40995.96
737.021	40889.52
737.361	40644.33
737.702	40964.32
738.042	40667.15
738.383	40616.08
738.723	40525.46
739.063	40466.93
739.404	40697.88
739.744	40493.14
740.084	40267.61
740.424	40311.23
740.764	40319.14
741.104	40300.61
741.444	40158.46
741.784	39962.54
742.124	40034.85
742.464	39974.29
742.804	39912.37
743.143	39869.66
743.483	39754.18
743.823	39667.63
744.162	39576.11
744.502	39668.53
744.841	39513.06
745.181	39618.59
745.52	39281.88
745.86	39475.09
746.199	39291.37
746.538	39395.32
746.877	39268.77
747.216	39218.83
747.556	38909.01
747.895	38878.05
748.234	38734.55
748.573	38691.61
748.911	38704.72
749.25	38846.63
749.589	38598.96
749.928	38509.69
750.267	38461.11
750.605	38408
750.944	38348.12
751.283	38120.55
751.621	38299.53
751.96	38088.01
752.298	38034.45
752.636	38049.82
752.975	37837.17
753.313	37527.8
