Data from plate_ceramic_FLMS001491_029.txt Node
Date: Tue Feb 07 11:16:32 GMT 2017
User: dcchb
Spectrometer: FLMS00149
Trigger mode: 0
Integration Time (sec): 2.000000E-2
Scans to average: 10
Electric dark correction enabled: true
Nonlinearity correction enabled: false
Boxcar width: 0
XAxis mode: Wavelengths
Number of Pixels in Spectrum: 2048
>>>>>Begin Spectral Data<<<<<
341.393	-14.8
341.776	-14.8
342.16	-14.8
342.543	-65.42
342.927	-77.63
343.31	-61.81
343.693	-63.39
344.077	-65.65
344.46	-49.38
344.843	-48.47
345.226	-31.07
345.61	-24.07
345.993	-23.16
346.376	-18.42
346.759	10.96
347.142	10.96
347.525	29.72
347.908	64.29
348.291	73.33
348.674	83.27
349.057	112.88
349.44	148.58
349.823	137.28
350.206	149.26
350.588	209.15
350.971	199.43
351.354	232.65
351.737	243.95
352.119	262.48
352.502	279.65
352.884	289.6
353.267	296.15
353.65	289.14
354.032	319.2
354.414	330.5
354.797	309.26
355.179	337.96
355.562	345.64
355.944	345.19
356.326	320.1
356.709	342.7
357.091	361.01
357.473	360.1
357.855	354.68
358.238	349.71
358.62	350.61
359.002	351.29
359.384	360.56
359.766	352.87
360.148	355.81
360.53	362.36
360.912	368.01
361.294	351.29
361.676	358.3
362.057	330.5
362.439	368.24
362.821	363.04
363.203	364.17
363.584	340.67
363.966	342.93
364.348	329.82
364.729	328.47
365.111	333.89
365.493	342.25
365.874	330.27
366.256	355.58
366.637	327.34
367.019	335.47
367.4	318.97
367.781	335.92
368.163	334.57
368.544	330.05
368.925	331.86
369.306	374.57
369.688	338.18
370.069	336.38
370.45	340.89
370.831	359.65
371.212	343.83
371.593	338.41
371.974	352.65
372.355	351.97
372.736	356.26
373.117	362.59
373.498	349.03
373.879	355.58
374.26	332.76
374.641	346.77
375.021	349.03
375.402	357.39
375.783	360.78
376.163	353.1
376.544	378.41
376.925	354.23
377.305	367.11
377.686	352.87
378.066	359.43
378.447	363.95
378.827	367.33
379.208	388.58
379.588	398.07
379.968	397.16
380.349	393.55
380.729	372.53
381.109	393.55
381.489	399.2
381.87	403.04
382.25	398.97
382.63	410.95
383.01	393.32
383.39	411.63
383.77	395.36
384.15	390.61
384.53	395.13
384.91	429.71
385.29	422.47
385.67	432.19
386.049	421.12
386.429	437.84
386.809	449.37
387.189	443.49
387.568	434.68
387.948	441.01
388.328	452.53
388.707	438.52
389.087	453.21
389.466	450.27
389.846	475.81
390.225	449.59
390.605	468.35
390.984	472.42
391.363	474.9
391.743	458.41
392.122	461.8
392.501	476.03
392.881	502.47
393.26	495.47
393.639	486.65
394.018	481
394.397	509.48
394.776	512.64
395.155	507.22
395.534	532.75
395.913	530.27
396.292	532.75
396.671	517.16
397.05	546.31
397.429	528.91
397.808	533.88
398.186	572.53
398.565	554.67
398.944	541.57
399.323	558.52
399.701	555.13
400.08	569.14
400.458	573.43
400.837	577.95
401.215	576.14
401.594	582.47
401.972	588.8
402.351	619.08
402.729	589.48
403.107	618.18
403.486	622.47
403.864	610.49
404.242	639.19
404.62	624.5
404.999	649.81
405.377	627.22
405.755	657.95
406.133	684.84
406.511	680.77
406.889	682.58
407.267	710.6
407.645	680.77
408.023	691.62
408.401	683.03
408.779	736.36
409.156	694.56
409.534	726.2
409.912	735.01
410.29	768.45
410.667	749.02
411.045	741.56
411.422	761.22
411.8	795.8
412.178	786.76
412.555	808
412.933	814.78
413.31	817.72
413.687	812.52
414.065	845.74
414.442	831.96
414.819	859.98
415.197	845.51
415.574	885.06
415.951	882.8
416.328	879.19
416.705	881.9
417.082	891.84
417.46	923.25
417.837	930.94
418.214	916.25
418.591	939.52
418.967	940.88
419.344	946.3
419.721	965.96
420.098	942.24
420.475	966.42
420.852	991.95
421.228	980.43
421.605	1021.78
421.982	999.41
422.358	1033.53
422.735	1052.06
423.111	1020.65
423.488	1075.11
423.864	1082.8
424.241	1084.15
424.617	1093.19
424.994	1071.27
425.37	1090.25
425.746	1085.96
426.123	1123.02
426.499	1152.63
426.875	1145.39
427.251	1155.79
427.627	1186.75
428.003	1171.83
428.379	1206.41
428.756	1188.56
429.132	1210.7
429.507	1227.88
429.883	1278.5
430.259	1283.47
430.635	1285.28
431.011	1300.87
431.387	1311.72
431.763	1320.76
432.138	1383.58
432.514	1392.84
432.89	1385.84
433.265	1408.66
433.641	1429.45
434.016	1445.5
434.392	1458.38
434.767	1501.54
435.143	1492.73
435.518	1520.3
435.894	1529.79
436.269	1545.16
436.644	1557.59
437.02	1571.15
437.395	1608.66
437.77	1591.71
438.145	1644.82
438.52	1638.94
438.895	1659.73
439.271	1707.86
439.646	1711.93
440.021	1681.65
440.395	1708.99
440.77	1716.45
441.145	1732.04
441.52	1744.93
441.895	1755.55
442.27	1788.99
442.645	1786.28
443.019	1780.63
443.394	1815.88
443.769	1819.73
444.143	1840.29
444.518	1862.21
444.892	1837.13
445.267	1831.25
445.641	1871.02
446.016	1911.25
446.39	1900.18
446.764	1900.63
447.139	1889.55
447.513	1951.02
447.887	1931.59
448.262	1977.24
448.636	1961.87
449.01	1995.54
449.384	2012.94
449.758	1994.41
450.132	2052.71
450.506	2059.72
450.88	2072.6
451.254	2101.07
451.628	2106.95
452.002	2134.29
452.376	2159.6
452.75	2131.36
453.123	2183.78
453.497	2221.52
453.871	2249.77
454.244	2297.45
454.618	2328.87
454.992	2343.33
455.365	2363.89
455.739	2385.36
456.112	2411.12
456.486	2462.87
456.859	2457.45
457.232	2511.46
457.606	2480.95
457.979	2507.17
458.352	2585.13
458.725	2636.65
459.099	2647.28
459.472	2688.86
459.845	2699.48
460.218	2755.07
460.591	2767.72
460.964	2781.51
461.337	2859.47
461.71	2922.07
462.083	2922.97
462.456	2957.55
462.829	2986.02
463.201	3005.68
463.574	3024.21
463.947	3076.19
464.32	3132.23
464.692	3163.87
465.065	3174.49
465.438	3230.76
465.81	3272.34
466.183	3316.64
466.555	3380.82
466.928	3401.38
467.3	3377.65
467.672	3454.71
468.045	3568.83
468.417	3579.45
468.789	3593.46
469.161	3600.7
469.534	3713.01
469.906	3786.91
470.278	3791.65
470.65	3844.53
471.022	3914.81
471.394	3951.65
471.766	4036.84
472.138	4086.11
472.51	4124.75
472.882	4207.91
473.253	4267.35
473.625	4305.08
473.997	4405.42
474.369	4463.95
474.74	4470.5
475.112	4560.22
475.484	4691.06
475.855	4744.17
476.227	4797.05
476.598	4946.65
476.97	4932.86
477.341	5009.02
477.713	5136.02
478.084	5116.81
478.455	5292.86
478.827	5393.42
479.198	5534.43
479.569	5499.18
479.94	5687.42
480.311	5702.56
480.682	5831.37
481.053	5975.78
481.424	6050.58
481.795	6102.55
482.166	6232.27
482.537	6309.55
482.908	6454.18
483.279	6507.29
483.65	6676.32
484.021	6686.72
484.391	6839.26
484.762	6943.43
485.133	6926.71
485.503	7088.74
485.874	7255.97
486.244	7258.68
486.615	7387.94
486.985	7571.67
487.356	7664.09
487.726	7731.66
488.097	7855.95
488.467	7887.36
488.837	8055.49
489.207	8176.17
489.578	8343.4
489.948	8396.73
490.318	8573.67
490.688	8566.22
491.058	8710.39
491.428	8728.25
491.798	8937.05
492.168	9040.1
492.538	9053.21
492.908	9137.95
493.278	9338.17
493.648	9385.63
494.017	9464.5
494.387	9582.46
494.757	9638.28
495.126	9759.63
495.496	9818.61
495.866	9829.23
496.235	10021.54
496.605	10024.26
496.974	10130.69
497.344	10245.95
497.713	10338.82
498.082	10440.06
498.452	10555.54
498.821	10595.09
499.19	10625.37
499.559	10802.99
499.928	10866.95
500.298	10854.74
500.667	10950.33
501.036	11005.25
501.405	11088.41
501.774	11139.48
502.143	11236.2
502.512	11285.01
502.88	11417.21
503.249	11433.03
503.618	11588.73
503.987	11662.41
504.356	11603.65
504.724	11824.43
505.093	11873.7
505.462	11861.72
505.83	12041.38
506.199	12127.93
506.567	12295.83
506.936	12336.51
507.304	12405.21
507.672	12508.94
508.041	12590.29
508.409	12654.02
508.777	12793.45
509.145	12850.85
509.514	12951.64
509.882	12979.88
510.25	13025.76
510.618	13218.75
510.986	13198.64
511.354	13388.46
511.722	13471.4
512.09	13560.21
512.458	13539.87
512.826	13679.08
513.193	13818.28
513.561	13993.42
513.929	14005.62
514.297	14177.14
514.664	14280.19
515.032	14326.06
515.4	14457.36
515.767	14481.31
516.135	14667.98
516.502	14559.05
516.869	14997.01
517.237	14864.58
517.604	14963.11
517.972	15157
518.339	15331.24
518.706	15241.75
519.073	15339.37
519.44	15499.14
519.808	15637.67
520.175	15623.21
520.542	15932.8
520.909	16065.45
521.276	16042.18
521.643	16200.14
522.009	16399
522.376	16434.48
522.743	16547.25
523.11	16750.86
523.477	16879.22
523.843	16996.28
524.21	17195.82
524.577	17329.37
524.943	17415.7
525.31	17544.51
525.676	17682.81
526.043	17863.6
526.409	17915.35
526.776	18193.31
527.142	18163.48
527.508	18218.62
527.874	18463.36
528.241	18529.34
528.607	18599.17
528.973	18771.37
529.339	18800.07
529.705	18973.4
530.071	19116.45
530.437	19203.68
530.803	19412.94
531.169	19519.83
531.535	19426.95
531.901	19518.02
532.267	19753.49
532.632	19855.41
532.998	19937.22
533.364	20129.53
533.73	20071.9
534.095	20276.19
534.461	20350.54
534.826	20514.15
535.192	20541.27
535.557	20742.62
535.923	20793.01
536.288	20924.99
536.653	20986.23
537.019	20968.38
537.384	21029.62
537.749	21124.08
538.114	21150.07
538.479	21256.05
538.845	21437.06
539.21	21370.62
539.575	21623.95
539.94	21598.42
540.305	21672.76
540.67	21669.6
541.034	21942.36
541.399	22057.84
541.764	21963.83
542.129	22130.15
542.494	22262.58
542.858	22310.26
543.223	22294.44
543.587	22457.15
543.952	22533.76
544.316	22623.25
544.681	22583.93
545.045	22683.36
545.41	22879.74
545.774	22992.95
546.138	22975.78
546.503	22994.31
546.867	23097.58
547.231	23258.71
547.595	23326.05
547.959	23484.24
548.324	23517.46
548.688	23523.11
549.052	23681.3
549.416	23704.8
549.779	23799.26
550.143	23935.08
550.507	24085.36
550.871	24209.87
551.235	24086.49
551.599	24406.02
551.962	24394.73
552.326	24409.19
552.689	24613.93
553.053	24555.4
553.417	24739.12
553.78	24959.91
554.143	24752
554.507	25029.74
554.87	25164.42
555.234	25395.6
555.597	25237.42
555.96	25407.58
556.323	25454.13
556.686	25669.49
557.05	25770.28
557.413	25803.5
557.776	25820
558.139	26117.17
558.502	26088.01
558.865	26370.27
559.228	26440.1
559.59	26514.44
559.953	26615.91
560.316	26887.09
560.679	26934.55
561.041	27087.54
561.404	27214.31
561.767	27333.41
562.129	27223.35
562.492	27591.25
562.854	27603.23
563.217	27767.97
563.579	27762.32
563.941	27979.94
564.304	28149.66
564.666	28355.98
565.028	28278.92
565.39	28558.01
565.753	28804.78
566.115	28745.8
566.477	28788.73
566.839	28936.08
567.201	29090.2
567.563	29170.19
567.925	29372.22
568.287	29382.84
568.648	29459
569.01	29738.77
569.372	29900.34
569.734	29727.01
570.095	29963.84
570.457	30017.4
570.819	30103.28
571.18	30292.2
571.542	30440.22
571.903	30450.16
572.265	30630.04
572.626	30792.3
572.987	30706.88
573.349	30807.66
573.71	30973.31
574.071	31051.5
574.432	31182.8
574.794	31378.95
575.155	31416.69
575.516	31387.76
575.877	31440.64
576.238	31578.72
576.599	31670.69
576.96	31622.33
577.32	31850.57
577.681	31876.34
578.042	31925.15
578.403	31987.07
578.763	31885.6
579.124	32074.07
579.485	32193.39
579.845	32246.72
580.206	32196.1
580.566	32241.07
580.927	32326.04
581.287	32483.78
581.648	32326.27
582.008	32352.03
582.368	32516.32
582.728	32458.24
583.089	32448.07
583.449	32425.7
583.809	32549.09
584.169	32558.58
584.529	32593.15
584.889	32763.55
585.249	32511.57
585.609	32576.43
585.969	32735.98
586.329	32608.52
586.688	32793.6
587.048	32719.93
587.408	32752.92
587.768	32745.01
588.127	32614.4
588.487	32558.58
588.846	32917.89
589.206	32679.71
589.565	32579.37
589.925	32968.96
590.284	32795.18
590.643	32734.62
591.003	32898.01
591.362	32913.37
591.721	32944.33
592.08	32897.55
592.44	32943.2
592.799	33053.93
593.158	32872.47
593.517	32956.53
593.876	33049.64
594.235	33057.1
594.593	33005.57
594.952	33171.9
595.311	32931
595.67	33112.69
596.029	33310.65
596.387	33380.03
596.746	33232.46
597.104	33078.34
597.463	33105.23
597.822	33323.53
598.18	33156.53
598.538	33158.34
598.897	33402.62
599.255	33181.39
599.613	33620.92
599.972	33543.19
600.33	33492.11
600.688	33396.07
601.046	33433.58
601.404	33715.61
601.762	33638.32
602.12	33744.08
602.478	33814.59
602.836	33679
603.194	33500.7
603.552	33736.18
603.91	33649.85
604.268	33717.42
604.625	33669.28
604.983	33730.75
605.341	33615.95
605.698	33860.69
606.056	34054.36
606.413	33932.1
606.771	33997.86
607.128	34066.11
607.485	33999.45
607.843	34028.6
608.2	34383.16
608.557	34393.11
608.914	34196.05
609.272	34132.77
609.629	34294.8
609.986	34492.31
610.343	34298.42
610.7	34481.01
611.057	34433.78
611.414	34514.69
611.771	34461.35
612.127	34611.86
612.484	34609.37
612.841	34770.27
613.198	34616.38
613.554	34723.95
613.911	34862.02
614.267	34746.09
614.624	34725.3
614.98	34991.74
615.337	35053.2
615.693	34938.4
616.05	34977.5
616.406	35125.07
616.762	35036.25
617.118	35053.2
617.475	35147.44
617.831	35173.2
618.187	35295.23
618.543	35269.69
618.899	35358.51
619.255	35247.77
619.611	35391.5
619.967	35389.01
620.323	35471.95
620.678	35368.9
621.034	35360.54
621.39	35361.22
621.746	35244.38
622.101	35720.3
622.457	35299.98
622.812	35335.23
623.168	35383.82
623.523	35410.48
623.879	35509.01
624.234	35249.36
624.589	35404.15
624.945	35441.22
625.3	35496.35
625.655	35422.91
626.01	35575
626.365	35669.01
626.72	35413.87
627.075	35483.93
627.43	35519.86
627.785	35415
628.14	35460.88
628.495	35286.87
628.85	35481.21
629.205	35181.56
629.559	35329.13
629.914	35286.87
630.269	35259.98
630.623	35162.58
630.978	35104.5
631.332	35312.4
631.687	35250.03
632.041	35128.91
632.396	35090.26
632.75	35022.02
633.104	35021.34
633.459	34953.54
633.813	34909.48
634.167	34833.55
634.521	34873.77
634.875	34854.56
635.229	34829.03
635.583	34685.08
635.937	34801.01
636.291	34685.98
636.645	34671.52
636.999	34661.35
637.352	34716.71
637.706	34383.84
638.06	34534.12
638.413	34502.03
638.767	34409.83
639.121	34416.84
639.474	34276.5
639.828	34309.72
640.181	34405.76
640.534	34249.38
640.888	34158.76
641.241	34033.79
641.594	34086.9
641.947	34156.28
642.301	33883.74
642.654	34058.65
643.007	34026.34
643.36	34009.84
643.713	33962.84
644.066	34011.2
644.419	33671.09
644.771	33377.31
645.124	33032.46
645.477	33132.58
645.83	32889.42
646.182	32764.45
646.535	32719.93
646.888	32793.6
647.24	32666.82
647.593	32955.4
647.945	32684.23
648.298	32496.89
648.65	32454.4
649.002	32365.82
649.355	32535.53
649.707	32441.52
650.059	32502.31
650.411	32935.07
650.763	32956.76
651.115	33244.89
651.467	33076.76
651.819	33084.21
652.171	33140.71
652.523	33009.64
652.875	32980.71
653.227	32930.09
653.578	33138
653.93	33003.99
654.282	32854.39
654.633	32809.65
654.985	32876.08
655.337	32777.1
655.688	32820.04
656.039	32849.42
656.391	32698.24
656.742	32658.46
657.094	32726.71
657.445	32861.4
657.796	32760.83
658.147	32607.62
658.498	32545.7
658.849	32646.03
659.2	32653.04
659.551	32592.25
659.902	32740.27
660.253	32548.64
660.604	32577.34
660.955	32467.06
661.306	32422.31
661.656	32504.34
662.007	32280.62
662.358	32210.11
662.708	32416.89
663.059	32321.07
663.409	32097.8
663.76	32412.82
664.11	32279.72
664.461	32419.37
664.811	32456.89
665.161	32331.92
665.511	32221.86
665.862	32228.64
666.212	32411.24
666.562	32269.55
666.912	32270.22
667.262	32124.47
667.612	32089.44
667.962	32238.36
668.312	32061.64
668.662	32236.33
669.011	32181.19
669.361	32067.29
669.711	32089.44
670.06	32003.57
670.41	31889.67
670.76	31994.07
671.109	32099.83
671.459	32011.47
671.808	31994.53
672.157	31908.2
672.507	31731.48
672.856	31791.14
673.205	31851.48
673.554	31898.03
673.904	31938.48
674.253	31957.46
674.602	31857.81
674.951	31428.21
675.3	31227.54
675.649	31773.51
675.998	31607.42
676.346	31725.83
676.695	31802.44
677.044	31456.24
677.393	31498.04
677.741	31674.31
678.09	31507.99
678.438	31505.73
678.787	31453.3
679.135	31450.36
679.484	31253.53
679.832	31424.37
680.181	31269.57
680.529	31296.47
680.877	31271.38
681.225	31097.37
681.573	31296.01
681.922	31147.09
682.27	31002.69
682.618	31122.46
682.966	30961.11
683.314	31119.07
683.661	30999.75
684.009	30871.84
684.357	30688.57
684.705	30665.3
685.053	30648.8
685.4	30567.67
685.748	30507.11
686.095	30497.39
686.443	30371.74
686.79	30282.93
687.138	30382.14
687.485	30385.3
687.832	30231.63
688.18	30192.77
688.527	30051.07
688.874	30066.22
689.221	29868.25
689.568	29979.89
689.915	29769.05
690.262	29870.51
690.609	29864.41
690.956	29573.35
691.303	29718.43
691.65	29607.7
691.997	29432.79
692.344	29395.5
692.69	29303.98
693.037	29417.87
693.383	29182.17
693.73	29333.58
694.077	29211.32
694.423	29203.86
694.769	29003.64
695.116	28940.37
695.462	28895.4
695.808	28712.58
696.155	28760.71
696.501	28536.31
696.847	28472.58
697.193	28326.37
697.539	28415.41
697.885	28215.87
698.231	28136.55
698.577	28169.77
698.923	27944.01
699.269	27978.13
699.614	27755.77
699.96	27742.43
700.306	27797.35
700.651	27659.05
700.997	27626.51
701.342	27562.55
701.688	27449.33
702.033	27454.31
702.379	27353.97
702.724	27351.94
703.069	27356.91
703.415	27057.03
703.76	27031.04
704.105	26978.61
704.45	26906.07
704.795	26676.02
705.14	26770.26
705.485	26737.04
705.83	26587.89
706.175	26661.78
706.52	26630.6
706.865	26415.46
707.209	26449.59
707.554	26337.05
707.899	26393.09
708.243	26153.1
708.588	26256.37
708.932	26055.7
709.277	25964.18
709.621	25929.83
709.966	25870.85
710.31	25905.65
710.654	25767.35
710.998	25639.66
711.342	25684.41
711.687	25675.37
712.031	25599.89
712.375	25488.93
712.719	25460.69
713.063	25439.9
713.407	25447.58
713.75	25325.55
714.094	25263.4
714.438	25185.67
714.782	25276.51
715.125	25126.01
715.469	25207.36
715.812	25062.5
716.156	24891.44
716.499	24871.55
716.843	24918.78
717.186	24763.08
717.53	24793.13
717.873	24806.01
718.216	24770.76
718.559	24611.22
718.902	24495.97
719.246	24469.75
719.589	24342.98
719.932	24279.93
720.275	24341.62
720.617	24390.88
720.96	24267.72
721.303	24237.22
721.646	24139.82
721.989	24064.34
722.331	24064.79
722.674	23945.7
723.016	24082.19
723.359	24063.44
723.701	23913.16
724.044	23860.28
724.386	23666.84
724.729	23867.06
725.071	23802.65
725.413	23740.28
725.755	23674.52
726.097	23662.54
726.439	23508.2
726.782	23587.74
727.124	23675.2
727.465	23476.56
727.807	23498.03
728.149	23401.53
728.491	23350.01
728.833	23448.54
729.175	23324.92
729.516	23244.25
729.858	23234.53
730.199	23183.91
730.541	23052.39
730.882	23010.13
731.224	23085.61
731.565	22945.5
731.906	23077.7
732.248	23136.23
732.589	22908.66
732.93	22789.34
733.271	22881.77
733.612	22807.2
733.953	22852.62
734.294	22766.52
734.635	22688.33
734.976	22832.96
735.317	22765.84
735.658	22595
735.999	22594.32
736.339	22561.1
736.68	22571.95
737.021	22451.95
737.361	22322.46
737.702	22494.44
738.042	22419.64
738.383	22252.41
738.723	22365.85
739.063	22254.67
739.404	22333.31
739.744	22309.13
740.084	22156.59
740.424	22202.02
740.764	22156.82
741.104	22222.58
741.444	22020.32
741.784	21967.44
742.124	21963.38
742.464	21960.89
742.804	21912.08
743.143	21841.12
743.483	21883.83
743.823	21758.64
744.162	21745.98
744.502	21772.2
744.841	21689.94
745.181	21727.68
745.52	21588.92
745.86	21637.51
746.199	21562.26
746.538	21580.11
746.877	21589.15
747.216	21529.72
747.556	21455.82
747.895	21349.83
748.234	21383.05
748.573	21305.77
748.911	21192.78
749.25	21211.76
749.589	21052.44
749.928	21099.9
750.267	21120.24
750.605	21025.77
750.944	20975.61
751.283	20859
751.621	20963.4
751.96	20850.19
752.298	20737.19
752.636	20849.96
752.975	20833.24
753.313	20621.49
753.651	20748.04
753.989	20575.17
754.327	20542.4
754.666	20410.42
