Data from plate_ceramic_FLMS001491_002.txt Node
Date: Tue Feb 07 11:16:13 GMT 2017
User: dcchb
Spectrometer: FLMS00149
Trigger mode: 0
Integration Time (sec): 2.000000E-2
Scans to average: 10
Electric dark correction enabled: true
Nonlinearity correction enabled: false
Boxcar width: 0
XAxis mode: Wavelengths
Number of Pixels in Spectrum: 2048
>>>>>Begin Spectral Data<<<<<
341.393	-12.09
341.776	-12.09
342.16	-12.09
342.543	-50.73
342.927	-52.54
343.31	-67.68
343.693	-75.14
344.077	-74.24
344.46	-63.39
344.843	-54.12
345.226	-44.18
345.61	-24.52
345.993	-28.36
346.376	1.92
346.759	12.99
347.142	32.2
347.525	34.46
347.908	45.31
348.291	80.34
348.674	107.23
349.057	117.17
349.44	123.5
349.823	143.16
350.206	154.69
350.588	201.01
350.971	217.28
351.354	258.41
351.737	250.28
352.119	276.26
352.502	275.36
352.884	294.12
353.267	294.57
353.65	304.96
354.032	334.12
354.414	339.54
354.797	351.29
355.179	334.12
355.562	346.77
355.944	368.92
356.326	343.38
356.709	347.45
357.091	355.81
357.473	370.72
357.855	339.77
358.238	360.1
358.62	365.3
359.002	391.74
359.384	369.37
359.766	357.84
360.148	371.18
360.53	360.56
360.912	356.94
361.294	376.15
361.676	365.08
362.057	374.11
362.439	374.57
362.821	383.15
363.203	340.22
363.584	362.59
363.966	366.21
364.348	358.07
364.729	377.28
365.111	341.12
365.493	344.51
365.874	361.91
366.256	370.72
366.637	358.75
367.019	360.33
367.4	361.23
367.781	356.49
368.163	359.65
368.544	369.59
368.925	358.3
369.306	354.91
369.688	363.49
370.069	357.17
370.45	374.79
370.831	353.78
371.212	386.54
371.593	380.67
371.974	363.72
372.355	374.11
372.736	373.21
373.117	370.5
373.498	395.36
373.879	389.71
374.26	384.28
374.641	359.2
375.021	369.59
375.402	362.82
375.783	394.23
376.163	416.83
376.544	413.89
376.925	391.74
377.305	388.35
377.686	403.04
378.066	410.27
378.447	418.86
378.827	413.66
379.208	407.56
379.588	410.95
379.968	403.27
380.349	410.05
380.729	420.21
381.109	448.24
381.489	424.51
381.87	419.09
382.25	424.73
382.63	443.72
383.01	448.01
383.39	441.46
383.77	439.65
384.15	475.35
384.53	449.14
384.91	454.79
385.29	488.91
385.67	465.19
386.049	470.61
386.429	457.5
386.809	466.32
387.189	510.61
387.568	508.12
387.948	478.52
388.328	499.08
388.707	507.44
389.087	482.13
389.466	519.2
389.846	511.74
390.225	519.65
390.605	503.6
390.984	513.77
391.363	545.18
391.743	552.41
392.122	545.64
392.501	560.32
392.881	559.65
393.26	548.12
393.639	584.96
394.018	573.88
394.397	570.95
394.776	572.53
395.155	558.52
395.534	603.26
395.913	605.29
396.292	602.58
396.671	589.7
397.05	625.41
397.429	621.11
397.808	627.67
398.186	638.06
398.565	622.47
398.944	629.47
399.323	654.79
399.701	652.53
400.08	664.05
400.458	648.91
400.837	699.98
401.215	651.85
401.594	666.08
401.972	697.72
402.351	692.3
402.729	699.53
403.107	698.17
403.486	722.81
403.864	719.87
404.242	726.65
404.62	746.08
404.999	776.14
405.377	777.72
405.755	762.58
406.133	781.11
406.511	786.53
406.889	812.3
407.267	810.94
407.645	789.7
408.023	819.3
408.401	823.82
408.779	824.95
409.156	847.1
409.534	869.24
409.912	862.01
410.29	887.77
410.667	886.64
411.045	888.68
411.422	916.7
411.8	897.49
412.178	921.22
412.555	958.28
412.933	920.09
413.31	995.12
413.687	985.4
414.065	993.31
414.442	997.6
414.819	1037.6
415.197	1028.79
415.574	1041.89
415.951	1052.74
416.328	1036.24
416.705	1076.92
417.082	1086.64
417.46	1099.52
417.837	1118.5
418.214	1144.04
418.591	1143.13
418.967	1127.99
419.344	1122.8
419.721	1190.14
420.098	1163.02
420.475	1205.51
420.852	1198.73
421.228	1212.74
421.605	1200.76
421.982	1219.52
422.358	1235.79
422.735	1267.2
423.111	1285.28
423.488	1266.29
423.864	1327.54
424.241	1310.59
424.617	1318.27
424.994	1352.62
425.37	1369.57
425.746	1346.52
426.123	1402.11
426.499	1381.32
426.875	1377.03
427.251	1422.45
427.627	1461.77
428.003	1473.52
428.379	1499.96
428.756	1492.05
429.132	1537.25
429.507	1547.19
429.883	1574.53
430.259	1595.1
430.635	1635.32
431.011	1607.75
431.387	1667.64
431.763	1694.76
432.138	1692.05
432.514	1737.92
432.89	1751.03
433.265	1767.52
433.641	1794.64
434.016	1788.77
434.392	1810.91
434.767	1856.34
435.143	1889.55
435.518	1907.41
435.894	1916.45
436.269	1945.15
436.644	2005.26
437.02	1992.38
437.395	1991.47
437.77	2016.11
438.145	2051.36
438.52	2089.1
438.895	2110.79
439.271	2100.62
439.646	2146.27
440.021	2178.81
440.395	2168.42
440.77	2168.87
441.145	2194.18
441.52	2228.3
441.895	2249.77
442.27	2225.37
442.645	2283.89
443.019	2278.7
443.394	2323.67
443.769	2319.83
444.143	2319.6
444.518	2346.27
444.892	2329.32
445.267	2388.3
445.641	2421.97
446.016	2445.25
446.39	2450.44
446.764	2448.86
447.139	2457.68
447.513	2501.29
447.887	2503.78
448.262	2523.66
448.636	2498.13
449.01	2579.03
449.384	2594.4
449.758	2596.88
450.132	2668.52
450.506	2676.65
450.88	2664
451.254	2646.82
451.628	2742.87
452.002	2768.18
452.376	2756.42
452.75	2836.65
453.123	2809.53
453.497	2869.64
453.871	2883.43
454.244	2965.23
454.618	2954.84
454.992	3005.91
455.365	3032.12
455.739	3109.86
456.112	3145.57
456.486	3192.35
456.859	3210.42
457.232	3245
457.606	3277.09
457.979	3289.29
458.352	3362.74
458.725	3438.67
459.099	3435.73
459.472	3444.54
459.845	3538.78
460.218	3558.21
460.591	3611.54
460.964	3646.34
461.337	3718.66
461.71	3809.96
462.083	3857.41
462.456	3854.25
462.829	3898.09
463.201	3933.12
463.574	3969.73
463.947	4030.74
464.32	4099.89
464.692	4160.68
465.065	4204.97
465.438	4263.5
465.81	4321.58
466.183	4327
466.555	4430.96
466.928	4517.73
467.3	4494.91
467.672	4550.95
468.045	4671.4
468.417	4664.85
468.789	4738.75
469.161	4775.13
469.534	4883.15
469.906	4962.69
470.278	5041.34
470.65	5098.28
471.022	5151.16
471.394	5280.2
471.766	5299.18
472.138	5354.32
472.51	5476.58
472.882	5602
473.253	5606.52
473.625	5740.98
473.997	5863.46
474.369	5918.15
474.74	5913.86
475.112	6014.87
475.484	6168.76
475.855	6332.83
476.227	6371.47
476.598	6514.74
476.97	6544.8
477.341	6688.52
477.713	6816.66
478.084	6836.77
478.455	7081.51
478.827	7075.18
479.198	7335.51
479.569	7333.48
479.94	7577.54
480.311	7595.17
480.682	7794.48
481.053	7973.69
481.424	8104.31
481.795	8105.21
482.166	8326.45
482.537	8482.83
482.908	8674.91
483.279	8778.19
483.65	8857.96
484.021	9037.62
484.391	9166.43
484.762	9201.9
485.133	9270.83
485.503	9437.83
485.874	9718.28
486.244	9768.44
486.615	9942.22
486.985	10120.98
487.356	10301.54
487.726	10430.8
488.097	10587.63
488.467	10623.79
488.837	10919.6
489.207	10974.51
489.578	11097.45
489.948	11261.96
490.318	11425.12
490.688	11476.2
491.058	11635.29
491.428	11807.49
491.798	12000.25
492.168	12254.93
492.538	12204.99
492.908	12418.32
493.278	12572.44
493.648	12555.49
494.017	12832.54
494.387	12900.56
494.757	12985.08
495.126	13152.31
495.496	13191.4
495.866	13345.75
496.235	13469.36
496.605	13547.78
496.974	13650.15
497.344	13842.91
497.713	13872.29
498.082	14046.98
498.452	14194.99
498.821	14250.59
499.19	14312.96
499.559	14502.33
499.928	14578.03
500.298	14693.06
500.667	14821.64
501.036	14826.84
501.405	14960.4
501.774	15012.83
502.143	15165.14
502.512	15279.71
502.88	15380.73
503.249	15439.93
503.618	15545.24
503.987	15681.51
504.356	15693.49
504.724	15866.14
505.093	16006.25
505.462	16023.87
505.83	16095.06
506.199	16312.9
506.567	16533.01
506.936	16507.7
507.304	16799.9
507.672	16831.31
508.041	16942.27
508.409	17026.56
508.777	17142.94
509.145	17267.68
509.514	17362.14
509.882	17490.27
510.25	17595.36
510.618	17710.61
510.986	17827.89
511.354	18070.15
511.722	18257.94
512.09	18360.53
512.458	18397.82
512.826	18468.33
513.193	18601.43
513.561	18767.53
513.929	18858.6
514.297	19074.19
514.664	19262.66
515.032	19352.37
515.4	19515.31
515.767	19582.42
516.135	19681.63
516.502	19659.03
516.869	20113.26
517.237	20105.35
517.604	20176.08
517.972	20255.63
518.339	20471.89
518.706	20625.11
519.073	20693.35
519.44	20896.96
519.808	21115.49
520.175	21076.85
520.542	21420.11
520.909	21604.74
521.276	21561.13
521.643	21823.27
522.009	21943.72
522.376	22194.33
522.743	22286.76
523.11	22482.91
523.477	22737.59
523.843	22885.61
524.21	23148.66
524.577	23411.93
524.943	23447.41
525.31	23550.91
525.676	23760.39
526.043	23978.24
526.409	24084.45
526.776	24400.15
527.142	24325.12
527.508	24573.7
527.874	24800.82
528.241	24940.25
528.607	24933.92
528.973	25235.38
529.339	25324.42
529.705	25457.07
530.071	25780.23
530.437	25879.66
530.803	26013.67
531.169	26211.85
531.535	26161.23
531.901	26371.85
532.267	26492.98
532.632	26728
532.998	26861.78
533.364	26951.27
533.73	27195.78
534.095	27300.86
534.461	27487.98
534.826	27549.45
535.192	27736.11
535.557	27843.67
535.923	27905.59
536.288	28016.55
536.653	28191.01
537.019	28101.75
537.384	28394.39
537.749	28414.96
538.114	28477.33
538.479	28642.75
538.845	28777.44
539.21	28834.16
539.575	28908.28
539.94	29044.1
540.305	29291.09
540.67	29185.33
541.034	29451.09
541.399	29489.51
541.764	29644.98
542.129	29762.72
542.494	29747.81
542.858	29912.77
543.223	29954.58
543.587	30115.48
543.952	30230.28
544.316	30226.44
544.681	30365.19
545.045	30535.81
545.41	30684.05
545.774	30668.91
546.138	30767.21
546.503	30877.27
546.867	30941.22
547.231	31136.24
547.595	31179.18
547.959	31451.94
548.324	31354.32
548.688	31520.64
549.052	31785.27
549.416	31790.92
549.779	31861.42
550.143	31920.86
550.507	32248.53
550.871	32289.21
551.235	32168.08
551.599	32496.21
551.962	32571.69
552.326	32631.8
552.689	32899.81
553.053	32838.12
553.417	32975.29
553.78	33405.34
554.143	33302.74
554.507	33485.11
554.87	33361.27
555.234	33852.1
555.597	33627.25
555.96	34042.61
556.323	34075.83
556.686	34144.07
557.05	34422.03
557.413	34527.11
557.776	34723.72
558.139	34991.74
558.502	34909.25
558.865	35096.37
559.228	35426.53
559.59	35507.88
559.953	35382.23
560.316	35854.99
560.679	35789
561.041	36100.18
561.404	36199.84
561.767	36522.32
562.129	36457.01
562.492	36760.28
562.854	36892.93
563.217	36813.83
563.579	37150.55
563.941	37351.67
564.304	37521.39
564.666	37607.03
565.028	37702.4
565.39	37915.27
565.753	38037.76
566.115	38248.37
566.477	38405.66
566.839	38438.2
567.201	38723.61
567.563	38669.15
567.925	39004.51
568.287	38958.18
568.648	39190.04
569.01	39219.65
569.372	39689.92
569.734	39550.03
570.095	39731.27
570.457	39842.68
570.819	40083.13
571.18	40206.29
571.542	40421.88
571.903	40385.49
572.265	40667.29
572.626	40673.85
572.987	40667.52
573.349	40793.39
573.71	41018.7
574.071	40956.78
574.432	41100.05
574.794	41415.07
575.155	41293.72
575.516	41386.14
575.877	41675.85
576.238	41749.07
576.599	41891.21
576.96	41895.96
577.32	41902.29
577.681	42095.5
578.042	42152.68
578.403	42158.55
578.763	42134.37
579.124	42365.1
579.485	42335.5
579.845	42618.65
580.206	42431.09
580.566	42553.8
580.927	42617.3
581.287	42842.38
581.648	42834.24
582.008	42757.86
582.368	42588.6
582.728	42836.05
583.089	42702.94
583.449	42823.85
583.809	42862.71
584.169	42969.15
584.529	42712.44
584.889	43069.71
585.249	42743.85
585.609	42763.28
585.969	43072.88
586.329	42853.68
586.688	43004.63
587.048	43149.26
587.408	42813.22
587.768	42922.6
588.127	42951.3
588.487	43049.38
588.846	43433.1
589.206	43132.99
589.565	43175.25
589.925	43118.98
590.284	43074.91
590.643	43184.51
591.003	43324.4
591.362	43444.62
591.721	43300.67
592.08	43322.36
592.44	43435.13
592.799	43537.5
593.158	43501.57
593.517	43300.9
593.876	43396.03
594.235	43455.24
594.593	43410.95
594.952	43692.98
595.311	43424.28
595.67	43501.12
596.029	43663.6
596.387	43658.85
596.746	43709.02
597.104	43487.33
597.463	43592.41
597.822	43913.99
598.18	43552.64
598.538	43601.45
598.897	43834.67
599.255	43737.27
599.613	44181.1
599.972	43796.7
600.33	44097.48
600.688	43927.09
601.046	43995.11
601.404	44117.37
601.762	44031.95
602.12	44198.05
602.478	44171.83
602.836	44343.35
603.194	44143.81
603.552	44174.09
603.91	43999.86
604.268	44256.12
604.625	44180.19
604.983	44479.4
605.341	44316.69
605.698	44490.02
606.056	44518.49
606.413	44454.54
606.771	44628.77
607.128	44699.28
607.485	44560.98
607.843	44580.64
608.2	44708.54
608.557	44863.11
608.914	44626.74
609.272	45004.58
609.629	45062.88
609.986	45095.42
610.343	44911.25
610.7	45227.85
611.057	45108.53
611.414	45111.24
611.771	45144.24
612.127	45272.82
612.484	45283.22
612.841	45481.85
613.198	45279.37
613.554	45248.41
613.911	45450.44
614.267	45520.27
614.624	45438.92
614.98	45607.5
615.337	45821.06
615.693	45700.83
616.05	45708.52
616.406	45978.79
616.762	45769.31
617.118	45828.96
617.475	45787.84
617.831	45875.06
618.187	46000.94
618.543	45981.28
618.899	46107.83
619.255	46185.34
619.611	45914.39
619.967	46268.5
620.323	46287.48
620.678	46098.34
621.034	45909.64
621.39	46210.42
621.746	46124.78
622.101	46497.42
622.457	46219.69
622.812	46173.59
623.168	46452.9
623.523	46327.26
623.879	46395.05
624.234	46265.56
624.589	46181.72
624.945	46349.85
625.3	46256.75
625.655	46200.48
626.01	46282.96
626.365	46245.22
626.72	46369.97
627.075	46212.68
627.43	46052.69
627.785	46134.27
628.14	46230.31
628.495	46313.47
628.85	46095.17
629.205	45955.29
629.559	46155.51
629.914	46008.62
630.269	46032.12
630.623	45977.21
630.978	45793.03
631.332	46079.81
631.687	45979.47
632.041	45891.56
632.396	45960.03
632.75	45729.98
633.104	45756.42
633.459	45527.73
633.813	45712.36
634.167	45573.38
634.521	45688.86
634.875	45624.9
635.229	45504.91
635.583	45234.4
635.937	45323.67
636.291	45334.51
636.645	45332.03
636.999	45249.77
637.352	45288.64
637.706	45055.88
638.06	45209.77
638.413	45165.25
638.767	45045.26
639.121	45022.88
639.474	44779.05
639.828	44777.69
640.181	44929.55
640.534	44926.39
640.888	44680.97
641.241	44585.38
641.594	44571.14
641.947	44665.61
642.301	44714.64
642.654	44690.69
643.007	44635.1
643.36	44506.74
643.713	44479.17
644.066	44509.68
644.419	44299.97
644.771	44146.52
645.124	43832.86
645.477	43682.13
645.83	43292.31
646.182	43165.98
646.535	43004.86
646.888	43101.13
647.24	42919.89
647.593	43212.54
647.945	43181.58
648.298	42870.85
648.65	42725.32
649.002	42655.49
649.355	42869.49
649.707	42801.25
650.059	42885.77
650.411	43268.35
650.763	43487.56
651.115	43772.52
651.467	43467.44
651.819	43501.12
652.171	43529.14
652.523	43454.79
652.875	43378.18
653.227	43005.08
653.578	43412.76
653.93	43367.79
654.282	43267.9
654.633	43067
654.985	43168.47
655.337	43208.69
655.688	43138.41
656.039	43177.51
656.391	42728.03
656.742	42833.79
657.094	42885.77
657.445	43056.61
657.796	43179.32
658.147	42746.79
658.498	42925.76
658.849	42849.16
659.2	42869.72
659.551	42718.99
659.902	42780.68
660.253	42660.23
660.604	42916.95
660.955	42641.93
661.306	42790.85
661.656	42713.57
662.007	42560.12
662.358	42529.16
662.708	42611.42
663.059	42520.12
663.409	42192.45
663.76	42521.03
664.11	42375.27
664.461	42502.05
664.811	42369.85
665.161	42422.05
665.511	42365.33
665.862	42359.45
666.212	42529.39
666.562	42628.37
666.912	42496.62
667.262	42364.87
667.612	42419.11
667.962	42478.32
668.312	42342.95
668.662	42494.36
669.011	42314.93
669.361	42267.02
669.711	42252.11
670.06	42234.48
670.41	42205.1
670.76	42125.79
671.109	42264.31
671.459	42093.92
671.808	42052.11
672.157	42225.44
672.507	41858.22
672.856	41988.84
673.205	41871.33
673.554	41994.94
673.904	41846.47
674.253	42027.48
674.602	41794.95
674.951	41312.47
675.3	41190.89
675.649	41806.7
675.998	41559.47
676.346	41596.08
676.695	41771.44
677.044	41508.17
677.393	41649.19
677.741	41782.97
678.09	41597.66
678.438	41560.38
678.787	41496.87
679.135	41536.2
679.484	41336.43
679.832	41588.62
680.181	41287.39
680.529	41331.91
680.877	41212.36
681.225	41099.82
681.573	41345.47
681.922	41006.72
682.27	40942.54
682.618	41004.01
682.966	40888.98
683.314	40893.5
683.661	40750.45
684.009	40509.1
684.357	40539.61
684.705	40442.67
685.053	40556.11
685.4	40433.63
685.748	40274.31
686.095	40269.56
686.443	40155.44
686.79	40017.14
687.138	39967.2
687.485	40011.26
687.832	39883.58
688.18	40044.26
688.527	39640.88
688.874	39686.75
689.221	39516.36
689.568	39430.04
689.915	39318.85
690.262	39461.9
690.609	39278.85
690.956	39339.42
691.303	39071.18
691.65	38960.67
691.997	38919.32
692.344	38701.47
692.69	38816.72
693.037	38761.35
693.383	38444.07
693.73	38552.77
694.077	38328.82
694.423	38407.24
694.769	38390.52
695.116	38117.53
695.462	38246.56
695.808	38000.24
696.155	37921.6
696.501	37580.82
696.847	37630.76
697.193	37390.99
697.539	37599.12
697.885	37315.97
698.231	37182.19
698.577	37310.09
698.923	37183.09
699.269	36837.11
699.614	36731.12
699.96	36649.09
700.306	36804.34
700.651	36636.66
700.997	36573.84
701.342	36457.01
701.688	36396.44
702.033	36191.93
702.379	36231.02
702.724	36085.72
703.069	36211.82
703.415	35791.49
703.76	35650.02
704.105	35577.48
704.45	35548.78
704.795	35342.91
705.14	35243.71
705.485	35339.97
705.83	35115.57
706.175	35265.85
706.52	35048.23
706.865	34954.9
707.209	35070.83
707.554	34736.6
707.899	34890.72
708.243	34711.06
708.588	34642.14
708.932	34389.04
709.277	34402.6
709.621	34396.04
709.966	34173.68
710.31	34436.04
710.654	33941.37
710.998	34150.85
711.342	34086.9
711.687	33870.63
712.031	33841.48
712.375	33738.66
712.719	33787.93
713.063	33654.82
713.407	33681.49
713.75	33600.13
714.094	33514.03
714.438	33434.04
714.782	33430.87
715.125	33217.09
715.469	33274.27
715.812	33196.98
716.156	33043.31
716.499	32929.42
716.843	32924.67
717.186	32697.78
717.53	32893.49
717.873	32749.08
718.216	32745.47
718.559	32637.22
718.902	32603.78
719.246	32571.23
719.589	32171.7
719.932	32338.02
720.275	32339.15
720.617	32209.89
720.96	32267.06
721.303	32194.29
721.646	32165.82
721.989	31901.42
722.331	32098.48
722.674	31849.67
723.016	32026.16
723.359	31810.12
723.701	31812.84
724.044	31640.41
724.386	31558.83
724.729	31559.28
725.071	31611.71
725.413	31564.71
725.755	31453.52
726.097	31311.38
726.439	31162.91
726.782	31132.18
727.124	31326.29
727.465	30987.32
727.807	31114.1
728.149	31031.84
728.491	30938.06
728.833	31188.22
729.175	30899.87
729.516	30739.19
729.858	30784.84
730.199	30971.73
730.541	30825.52
730.882	30646.99
731.224	30809.92
731.565	30550.5
731.906	30536.71
732.248	30610.83
732.589	30281.58
732.93	30265.53
733.271	30216.27
733.612	30364.29
733.953	30329.26
734.294	30169.26
734.635	30090.17
734.976	30063.28
735.317	29895.82
735.658	29965.2
735.999	30047.23
736.339	29919.33
736.68	29994.8
737.021	29818.54
737.361	29713.91
737.702	29807.69
738.042	29703.74
738.383	29632.78
738.723	29741.7
739.063	29592.78
739.404	29663.97
739.744	29541.71
740.084	29408.15
740.424	29557.3
740.764	29390.98
741.104	29440.24
741.444	29187.59
741.784	29102.17
742.124	29229.85
742.464	29157.99
742.804	29101.72
743.143	28923.87
743.483	29084.32
743.823	28826.47
744.162	28882.29
744.502	28803.88
744.841	28677.1
745.181	28720.26
745.52	28664.67
745.86	28751.67
746.199	28609.08
746.538	28531.57
746.877	28471.23
747.216	28547.38
747.556	28336.77
747.895	28405.69
748.234	28245.92
748.573	28123.67
748.911	28215.87
749.25	28185.13
749.589	28074.63
749.928	28152.37
750.267	28176.1
750.605	28001.64
750.944	27851.58
751.283	27780.17
751.621	27828.53
751.96	27750.57
752.298	27619.5
752.636	27598.71
752.975	27538.82
753.313	27440.75
