Data from plate_porcelain_FLMS001491_036.txt Node
Date: Tue Feb 07 11:19:13 GMT 2017
User: dcchb
Spectrometer: FLMS00149
Trigger mode: 0
Integration Time (sec): 2.000000E-2
Scans to average: 10
Electric dark correction enabled: true
Nonlinearity correction enabled: false
Boxcar width: 0
XAxis mode: Wavelengths
Number of Pixels in Spectrum: 2048
>>>>>Begin Spectral Data<<<<<
341.393	3.45
341.776	3.45
342.16	3.45
342.543	-47.85
342.927	-48.76
343.31	-72.26
343.693	-61.18
344.077	-51.69
344.46	-63.44
344.843	-60.96
345.226	-42.88
345.61	-26.16
345.993	-38.59
346.376	-3.11
346.759	-4.69
347.142	14.75
347.525	51.13
347.908	59.49
348.291	79.6
348.674	110.56
349.057	109.43
349.44	124.8
349.823	122.77
350.206	198.92
350.588	208.64
350.971	253.84
351.354	267.85
351.737	271.24
352.119	295.42
352.502	288.64
352.884	303.1
353.267	309.43
353.65	337.9
354.032	359.14
354.414	337
354.797	347.17
355.179	356.88
355.562	372.93
355.944	349.88
356.326	361.18
356.709	374.96
357.091	364.57
357.473	383.1
357.855	385.58
358.238	362.53
358.62	400.5
359.002	427.39
359.384	394.17
359.766	400.72
360.148	402.08
360.53	416.77
360.912	398.24
361.294	369.54
361.676	378.8
362.057	395.53
362.439	399.14
362.821	375.19
363.203	408.86
363.584	385.13
363.966	378.13
364.348	407.28
364.729	396.2
365.111	380.84
365.493	407.96
365.874	394.4
366.256	391.68
366.637	384.91
367.019	388.07
367.4	401.18
367.781	385.58
368.163	395.75
368.544	408.18
368.925	415.41
369.306	402.08
369.688	409.99
370.069	406.83
370.45	415.86
370.831	432.36
371.212	400.5
371.593	401.18
371.974	419.48
372.355	429.65
372.736	423.32
373.117	429.2
373.498	429.88
373.879	423.32
374.26	423.1
374.641	433.94
375.021	430.33
375.402	419.03
375.783	425.36
376.163	473.04
376.544	452.93
376.925	451.8
377.305	443.43
377.686	433.49
378.066	446.6
378.447	452.93
378.827	469.42
379.208	500.16
379.588	488.63
379.968	470.33
380.349	492.47
380.729	478.46
381.109	487.73
381.489	508.74
381.87	490.67
382.25	493.15
382.63	508.29
383.01	517.56
383.39	522.75
383.77	520.72
384.15	536.54
384.53	528.63
384.91	565.01
385.29	536.31
385.67	548.97
386.049	550.55
386.429	561.62
386.809	564.11
387.189	586.48
387.568	595.52
387.948	587.61
388.328	596.2
388.707	598.46
389.087	582.87
389.466	600.04
389.846	632.81
390.225	634.62
390.605	626.48
390.984	659.02
391.363	633.03
391.743	641.62
392.122	661.06
392.501	658.57
392.881	670.32
393.26	700.6
393.639	679.13
394.018	697.89
394.397	701.96
394.776	706.93
395.155	717.55
395.534	718
395.913	721.85
396.292	716.87
396.671	736.99
397.05	742.86
397.429	752.35
397.808	793.93
398.186	765.69
398.565	766.36
398.944	787.61
399.323	786.02
399.701	810.66
400.08	785.35
400.458	802.97
400.837	850.43
401.215	851.79
401.594	850.88
401.972	837.77
402.351	847.49
402.729	871.9
403.107	883.88
403.486	895.17
403.864	920.94
404.242	903.54
404.62	931.33
404.999	927.04
405.377	925
405.755	982.86
406.133	981.27
406.511	1007.26
406.889	987.15
407.267	1004.32
407.645	1020.14
408.023	1010.2
408.401	1053.59
408.779	1060.14
409.156	1093.81
409.534	1089.29
409.912	1108.28
410.29	1096.07
410.667	1151.89
411.045	1145.11
411.422	1205
411.8	1202.06
412.178	1212
412.555	1205.67
412.933	1228.95
413.31	1252.23
413.687	1270.76
414.065	1278.67
414.442	1301.72
414.819	1303.98
415.197	1319.12
415.574	1358.21
415.951	1353.92
416.328	1390.3
416.705	1363.18
417.082	1442.05
417.46	1397.08
417.837	1449.51
418.214	1454.71
418.591	1444.09
418.967	1472.33
419.344	1499
419.721	1543.97
420.098	1550.3
420.475	1570.64
420.852	1560.02
421.228	1573.12
421.605	1604.99
421.982	1572.44
422.358	1622.61
422.735	1663.06
423.111	1639.56
423.488	1696.51
423.864	1701.25
424.241	1721.37
424.617	1741.71
424.994	1801.59
425.37	1782.16
425.746	1790.29
426.123	1768.6
426.499	1858.09
426.875	1856.28
427.251	1902.61
427.627	1901.02
428.003	1956.62
428.379	1994.81
428.756	2022.38
429.132	2049.04
429.507	2064.86
429.883	2080
430.259	2116.39
430.635	2162.03
431.011	2157.51
431.387	2215.37
431.763	2261.92
432.138	2258.75
432.514	2296.04
432.89	2291.52
433.265	2360.67
433.641	2401.12
434.016	2427.34
434.392	2439.77
434.767	2513.89
435.143	2516.15
435.518	2546.66
435.894	2564.06
436.269	2639.54
436.644	2635.47
437.02	2654.22
437.395	2698.52
437.77	2744.39
438.145	2723.83
438.52	2819.42
438.895	2814.9
439.271	2849.47
439.646	2927.44
440.021	2926.53
440.395	2940.09
440.77	2942.13
441.145	2980.09
441.52	3026.19
441.895	3029.81
442.27	3066.42
442.645	3019.19
443.019	3113.87
443.394	3095.34
443.769	3155.91
444.143	3160.65
444.518	3206.3
444.892	3188.45
445.267	3216.02
445.641	3285.62
446.016	3336.92
446.39	3337.37
446.764	3315.45
447.139	3372.17
447.513	3428.21
447.887	3421.89
448.262	3415.11
448.636	3473.64
449.01	3533.75
449.384	3577.59
449.758	3586.63
450.132	3606.29
450.506	3639.73
450.88	3682.9
451.254	3668.21
451.628	3740.52
452.002	3812.61
452.376	3790.92
452.75	3860.52
453.123	3886.51
453.497	3956.34
453.871	4010.57
454.244	4090.57
454.618	4085.15
454.992	4178.93
455.365	4163.56
455.739	4291.92
456.112	4297.12
456.486	4335.31
456.859	4409.66
457.232	4526.72
457.606	4497.34
457.979	4534.63
458.352	4693.49
458.725	4703.44
459.099	4761.06
459.472	4892.58
459.845	4952.69
460.218	4937.78
460.591	4980.94
460.964	5044.67
461.337	5151.33
461.71	5249.64
462.083	5325.57
462.456	5323.98
462.829	5332.8
463.201	5459.57
463.574	5506.58
463.947	5542.28
464.32	5714.48
464.692	5727.82
465.065	5752.45
465.438	5893.23
465.81	5895.72
466.183	6000.12
466.555	6172.55
466.928	6208.25
467.3	6211.42
467.672	6326.44
468.045	6495.03
468.417	6436.95
468.789	6561.01
469.161	6596.72
469.534	6781.57
469.906	6926.65
470.278	6973.21
470.65	7062.02
471.022	7186.76
471.394	7315.8
471.766	7405.06
472.138	7468.11
472.51	7615.22
472.882	7787.65
473.253	7869.68
473.625	7983.8
473.997	8166.85
474.369	8206.85
474.74	8291.36
475.112	8501.3
475.484	8623.78
475.855	8799.15
476.227	8847.06
476.598	9046.6
476.97	9189.87
477.341	9436.19
477.713	9548.96
478.084	9582.18
478.455	9896.29
478.827	10002.28
479.198	10220.58
479.569	10269.17
479.94	10566.11
480.311	10645.88
480.682	10920.22
481.053	11115.47
481.424	11336.03
481.795	11403.37
482.166	11630.94
482.537	11737.15
482.908	12051.49
483.279	12223.92
483.65	12437.47
484.021	12625.04
484.391	12748.2
484.762	12965.82
485.133	13020.05
485.503	13301.63
485.874	13542.07
486.244	13639.47
486.615	13934.15
486.985	14143.87
487.356	14377.76
487.726	14621.59
488.097	14832.43
488.467	14930.74
488.837	15218.87
489.207	15339.09
489.578	15623.15
489.948	15738.85
490.318	16019.3
490.688	16064.04
491.058	16266.75
491.428	16589
491.798	16758.26
492.168	17153.5
492.538	17250.68
492.908	17352.37
493.278	17579.71
493.648	17655.41
494.017	17878.46
494.387	18129.07
494.757	18257.43
495.126	18379.01
495.496	18429.18
495.866	18690.19
496.235	18891.09
496.605	19113
496.974	19210.17
497.344	19262.37
497.713	19531.75
498.082	19662.59
498.452	19840.89
498.821	19847.44
499.19	20106.19
499.559	20189.58
499.928	20423.02
500.298	20475
500.667	20849.23
501.036	20701.66
501.405	21035.44
501.774	21128.77
502.143	21260.06
502.512	21328.54
502.88	21641.07
503.249	21630
503.618	21782.53
503.987	21913.83
504.356	22028.86
504.724	22199.25
505.093	22359.02
505.462	22490.99
505.83	22664.09
506.199	22836.97
506.567	23229.73
506.936	23191.09
507.304	23400.8
507.672	23503.39
508.041	23690.96
508.409	23812.31
508.777	23938.18
509.145	24318.29
509.514	24281
509.882	24502.69
510.25	24546.98
510.618	24847.54
510.986	24810.93
511.354	25128.21
511.722	25356.45
512.09	25581.53
512.458	25633.51
512.826	25836.21
513.193	26030.56
513.561	26129.31
513.929	26368.4
514.297	26606.59
514.664	26732.69
515.032	27018.56
515.4	27266.46
515.767	27312.56
516.135	27517.98
516.502	27439.56
516.869	28040
517.237	28019.66
517.604	28074.35
517.972	28434.11
518.339	28548.46
518.706	28700.09
519.073	28954.78
519.44	29022.12
519.808	29349.34
520.175	29506.17
520.542	29715.43
520.909	29978.7
521.276	30044.24
521.643	30446.26
522.009	30595.64
522.376	30872.69
522.743	31138.67
523.11	31368.05
523.477	31707.25
523.843	31913.34
524.21	32116.27
524.577	32262.26
524.943	32541.8
525.31	32712.87
525.676	33109.92
526.043	33323.93
526.409	33431.95
526.776	33873.74
527.142	33935.44
527.508	34200.74
527.874	34500.62
528.241	34684.79
528.607	34728.63
528.973	35139.7
529.339	35166.36
529.705	35559.35
530.071	35705.33
530.437	35934.93
530.803	36221.48
531.169	36383.73
531.535	36402.94
531.901	36560.9
532.267	36727
532.632	37115.92
532.998	37234.56
533.364	37355.01
533.73	37548.67
534.095	37829.34
534.461	37958.38
534.826	38123.35
535.192	38376.9
535.557	38549.1
535.923	38590.23
536.288	38720.85
536.653	38892.14
537.019	38993.83
537.384	39132.81
537.749	39301.62
538.114	39451.45
538.479	39458.68
538.845	39724.66
539.21	39633.82
539.575	39992.9
539.94	40064.09
540.305	40288.94
540.67	40347.24
541.034	40521.25
541.399	40663.17
541.764	40803.73
542.129	40888.92
542.494	41026.32
542.858	41179.31
543.223	41200.56
543.587	41516.25
543.952	41456.14
544.316	41625.18
544.681	41701.11
545.045	41896.81
545.41	42154.65
545.774	42080.76
546.138	42210.7
546.503	42484.36
546.867	42446.4
547.231	42976.33
547.595	42890.23
547.959	43158.24
548.324	43096.55
548.688	43272.59
549.052	43408.86
549.416	43515.75
549.779	43596.2
550.143	43770.43
550.507	44077.32
550.871	44110.08
551.235	44187.6
551.599	44581.94
551.962	44677.53
552.326	44745.32
552.689	44934.47
553.053	44814.7
553.417	45010.62
553.78	45409.03
554.143	45330.16
554.507	45591.85
554.87	45701
555.234	46059.41
555.597	46021.45
555.96	46213.98
556.323	46426.86
556.686	46300.31
557.05	46739.39
557.413	46840.63
557.776	46784.36
558.139	47097.58
558.502	47217.57
558.865	47347.96
559.228	47738.01
559.59	47711.12
559.953	47879.7
560.316	48274.95
560.679	48282.18
561.041	48502.06
561.404	48615.28
561.767	48789.28
562.129	48790.41
562.492	49189.72
562.854	49207.8
563.217	49236.5
563.579	49483.73
563.941	49717.62
564.304	49883.94
564.666	50084.16
565.028	50266.53
565.39	50286.87
565.753	50476.02
566.115	50530.48
566.477	50784.26
566.839	50940.19
567.201	51051.82
567.563	51143.57
567.925	51403.68
568.287	51266.05
568.648	51463.34
569.01	51648.42
569.372	51802.99
569.734	51817.45
570.095	52058.35
570.457	52179.48
570.819	52160.04
571.18	52137.89
571.542	52363.65
571.903	52470.09
572.265	52574.72
572.626	52585.57
572.987	52691.78
573.349	52842.28
573.71	52851.1
574.071	52880.02
574.432	53042.5
574.794	53307.58
575.155	53189.84
575.516	53173.8
575.877	53319.11
576.238	53487.46
576.599	53538.76
576.96	53501.25
577.32	53525.43
577.681	53715.03
578.042	53805.2
578.403	53761.35
578.763	53843.16
579.124	53827.79
579.485	53894.01
579.845	54046.09
580.206	53950.05
580.566	54000.44
580.927	54086.09
581.287	54255.81
581.648	53993.44
582.008	54248.35
582.368	54139.65
582.728	54253.55
583.089	54179.65
583.449	54196.37
583.809	54284.5
584.169	54400.66
584.529	54217.16
584.889	54436.14
585.249	54240.89
585.609	54152.76
585.969	54339.64
586.329	54272.98
586.688	54373.99
587.048	54362.92
587.408	54396.14
587.768	54385.07
588.127	54318.4
588.487	54382.13
588.846	54515.01
589.206	54234.79
589.565	54375.8
589.925	54540.09
590.284	54422.13
590.643	54503.71
591.003	54550.94
591.362	54546.64
591.721	54480.21
592.08	54493.09
592.44	54597.04
592.799	54575.12
593.158	54546.19
593.517	54592.75
593.876	54671.84
594.235	54467.32
594.593	54618.51
594.952	54639.75
595.311	54583.71
595.67	54534.44
596.029	54730.59
596.387	54798.62
596.746	54819.63
597.104	54601.56
597.463	54724.49
597.822	54837.71
598.18	54726.53
598.538	54647.66
598.897	54909.35
599.255	54582.8
599.613	54954.54
599.972	54816.69
600.33	54927.2
600.688	54823.02
601.046	55030.25
601.404	55096.69
601.762	54964.49
602.12	55164.03
602.478	55026.86
602.836	55135.78
603.194	54952.51
603.552	55072.51
603.91	54982.57
604.268	55160.41
604.625	55098.72
604.983	55225.95
605.341	55110.92
605.698	55234.31
606.056	55368.77
606.413	55208.1
606.771	55331.26
607.128	55434.53
607.485	55278.6
607.843	55291.71
608.2	55473.4
608.557	55630.23
608.914	55453.29
609.272	55591.82
609.629	55627.07
609.986	55737.35
610.343	55601.08
610.7	55810.57
611.057	55787.97
611.414	55742.77
611.771	55905.03
612.127	55880.62
612.484	55834.52
612.841	55944.12
613.198	55803.56
613.554	55860.28
613.911	55980.51
614.267	55995.42
614.624	55944.12
614.98	55996.55
615.337	56184.34
615.693	56119.94
616.05	56023.44
616.406	56202.87
616.762	56076.1
617.118	56168.52
617.475	56179.82
617.831	56248.3
618.187	56219.82
618.543	56238.13
618.899	56492.58
619.255	56300.72
619.611	56288.75
619.967	56409.87
620.323	56400.38
620.678	56384.34
621.034	56273.61
621.39	56373.72
621.746	56350.89
622.101	56610.32
622.457	56419.14
622.812	56514.95
623.168	56436.09
623.523	56408.52
623.879	56495.97
624.234	56415.75
624.589	56492.13
624.945	56417.1
625.3	56466.37
625.655	56470.89
626.01	56463.43
626.365	56481.74
626.72	56474.28
627.075	56372.81
627.43	56405.35
627.785	56394.05
628.14	56381.62
628.495	56390.21
628.85	56297.56
629.205	56211.46
629.559	56427.5
629.914	56248.52
630.269	56335.52
630.623	56248.52
630.978	56238.35
631.332	56282.19
631.687	56358.8
632.041	56213.72
632.396	56298.69
632.75	56080.16
633.104	56194.29
633.459	56057.79
633.813	56007.4
634.167	56099.82
634.521	56027.28
634.875	56058.02
635.229	55912.71
635.583	55777.35
635.937	55826.61
636.291	55752.49
636.645	55893.5
636.999	55766.5
637.352	55814.86
637.706	55621.42
638.06	55766.95
638.413	55644.24
638.767	55675.65
639.121	55678.59
639.474	55571.02
639.828	55498.48
640.181	55461.42
640.534	55554.53
640.888	55450.35
641.241	55267.76
641.594	55306.62
641.947	55415.1
642.301	55279.73
642.654	55318.83
643.007	55284.03
643.36	55223.92
643.713	55164.26
644.066	55277.02
644.419	55114.54
644.771	54841.1
645.124	54576.7
645.477	54672.07
645.83	54406.31
646.182	54238.4
646.535	54101.68
646.888	54187.33
647.24	53992.76
647.593	54273.43
647.945	54158.41
648.298	54025.98
648.65	53921.58
649.002	53827.12
649.355	53916.6
649.707	53902.82
650.059	54067.11
650.411	54286.09
650.763	54343.94
651.115	54640.2
651.467	54517.95
651.819	54443.14
652.171	54475.91
652.523	54368.8
652.875	54329.7
653.227	54181.68
653.578	54442.01
653.93	54301.23
654.282	54149.59
654.633	54101.01
654.985	54099.2
655.337	54123.38
655.688	54176.71
656.039	54199.54
656.391	53978.07
656.742	53981.91
657.094	54060.56
657.445	54165.19
657.796	54069.6
658.147	53997.05
658.498	53941.69
658.849	53993.67
659.2	53975.59
659.551	53904.85
659.902	53916.6
660.253	53923.61
660.604	53974.23
660.955	53736.04
661.306	53877.06
661.656	53772.65
662.007	53775.37
662.358	53796.83
662.708	53802.03
663.059	53751.86
663.409	53488.59
663.76	53788.02
664.11	53695.59
664.461	53711.64
664.811	53694.69
665.161	53680.9
665.511	53598.2
665.862	53674.8
666.212	53749.38
666.562	53726.55
666.912	53681.58
667.262	53655.82
667.612	53551.87
667.962	53658.31
668.312	53625.54
668.662	53743.05
669.011	53593.22
669.361	53563.85
669.711	53490.18
670.06	53561.81
670.41	53363.63
670.76	53439.56
671.109	53567.91
671.459	53458.09
671.808	53395.04
672.157	53431.19
672.507	53296.51
672.856	53228.26
673.205	53328.37
673.554	53355.04
673.904	53258.09
674.253	53315.26
674.602	53243.85
674.951	52792.34
675.3	52753.25
675.649	53193.46
675.998	53140.81
676.346	53185.55
676.695	53239.79
677.044	53025.78
677.393	53123.41
677.741	53226
678.09	53043.63
678.438	52985.33
678.787	53025.78
679.135	52997.08
679.484	52843.64
679.832	52926.8
680.181	52623.53
680.529	52829.4
680.877	52756.41
681.225	52695.85
681.573	52813.13
681.922	52648.62
682.27	52631.89
682.618	52512.35
682.966	52456.76
683.314	52520.03
683.661	52314.16
684.009	52120.04
684.357	52181.51
684.705	52137.22
685.053	52198.68
685.4	52095.64
685.748	51932.48
686.095	51947.84
686.443	51768.64
686.79	51678.25
687.138	51794.63
687.485	51787.62
687.832	51739.04
688.18	51697.91
688.527	51582.88
688.874	51468.99
689.221	51346.95
689.568	51204.36
689.915	51211.59
690.262	51126.17
690.609	51027.64
690.956	50954.42
691.303	50947.19
691.65	50669.91
691.997	50685.73
692.344	50618.16
692.69	50608.44
693.037	50701.55
693.383	50336.36
693.73	50414.55
694.077	50141.79
694.423	50288.68
694.769	49863.15
695.116	49922.81
695.462	49991.28
695.808	49874
696.155	49884.85
696.501	49570.05
696.847	49638.3
697.193	49347.69
697.539	49431.75
697.885	49079.67
698.231	49154.02
698.577	49258.42
698.923	49068.14
699.269	48694.14
699.614	48528.27
699.96	48500.02
700.306	48574.15
700.651	48425.9
700.997	48233.59
701.342	48157.89
701.688	48046.93
702.033	48018
702.379	47948.63
702.724	47750.44
703.069	47881.28
703.415	47394.97
703.76	47623.66
704.105	47531.01
704.45	47265.93
704.795	47020.06
705.14	47029.78
705.485	47018.93
705.83	46880.41
706.175	47011.02
706.52	46839.73
706.865	46698.26
707.209	46484.94
707.554	46495.56
707.899	46524.26
708.243	46214.66
708.588	46194.32
708.932	45962.69
709.277	45992.75
709.621	45953.65
709.966	45782.36
710.31	45769.7
710.654	45498.75
710.998	45631.4
711.342	45578.75
711.687	45279.77
712.031	45204.97
712.375	44971.76
712.719	45188.47
713.063	45068.48
713.407	45043.84
713.75	44962.72
714.094	44991.19
714.438	44715.72
714.782	44711.65
715.125	44426.68
715.469	44588.71
715.812	44316.18
716.156	44025.79
716.499	44150.08
716.843	44206.35
717.186	43949.41
717.53	44088.84
717.873	43997.32
718.216	43895.17
718.559	43880.48
718.902	43605.46
719.246	43826.47
719.589	43636.2
719.932	43378.35
720.275	43316.88
720.617	43375.19
720.96	43167.06
721.303	43238.92
721.646	43075.99
721.989	42859.04
722.331	42976.33
722.674	42919.15
723.016	42993.73
723.359	42786.73
723.701	42792.15
724.044	42586.28
724.386	42433.74
724.729	42641.2
725.071	42312.39
725.413	42258.61
725.755	42203.69
726.097	42159.4
726.439	42064.94
726.782	41972.29
727.124	42081.89
727.465	41768.68
727.807	41931.38
728.149	41734.33
728.491	41619.08
728.833	41671.05
729.175	41469.7
729.516	41539.08
729.858	41493.2
730.199	41429.02
730.541	41332.3
730.882	41409.82
731.224	41284.85
731.565	40989.49
731.906	41156.94
732.248	41197.17
732.589	41086.89
732.93	40904.52
733.271	40889.38
733.612	40815.03
733.953	40855.71
734.294	40693.22
734.635	40544.75
734.976	40628.37
735.317	40387.02
735.658	40335.27
735.999	40450.07
736.339	40317.19
736.68	40323.74
737.021	40139.57
737.361	39951.77
737.702	40084.88
738.042	39920.14
738.383	39990.19
738.723	40003.52
739.063	39873.58
739.404	39935.5
739.744	39664.55
740.084	39501.16
740.424	39598.79
740.764	39491.9
741.104	39670.2
741.444	39311.11
741.784	39355.41
742.124	39222.53
742.464	39211.68
742.804	39266.59
743.143	39190.66
743.483	39186.6
743.823	38878.36
744.162	38896.89
744.502	38857.79
744.841	38806.95
745.181	38824.12
745.52	38901.41
745.86	38800.39
746.199	38702.32
746.538	38624.58
746.877	38552.26
747.216	38481.76
747.556	38322.66
747.895	38288.77
748.234	38073.18
748.573	37912.73
748.911	37944.14
749.25	37998.15
749.589	37730.82
749.928	37901.88
750.267	37714.09
750.605	37705.05
750.944	37531.05
751.283	37377.6
751.621	37511.39
751.96	37456.47
752.298	37390.26
752.636	37218.06
752.975	37036.6
753.313	37046.09
