Data from plate_ceramic_FLMS001491_007.txt Node
Date: Tue Feb 07 11:16:14 GMT 2017
User: dcchb
Spectrometer: FLMS00149
Trigger mode: 0
Integration Time (sec): 2.000000E-2
Scans to average: 10
Electric dark correction enabled: true
Nonlinearity correction enabled: false
Boxcar width: 0
XAxis mode: Wavelengths
Number of Pixels in Spectrum: 2048
>>>>>Begin Spectral Data<<<<<
341.393	-21.6
341.776	-21.6
342.16	-21.6
342.543	-42.61
342.927	-56.17
343.31	-76.06
343.693	-49.17
344.077	-50.97
344.46	-57.98
344.843	-50.3
345.226	-49.62
345.61	-37.64
345.993	-20.24
346.376	0.1
346.759	9.36
347.142	18.4
347.525	40.32
347.908	63.15
348.291	67.67
348.674	89.36
349.057	103.6
349.44	117.84
349.823	159.64
350.206	167.1
350.588	225.86
350.971	222.69
351.354	245.74
351.737	264.05
352.119	266.98
352.502	290.49
352.884	299.75
353.267	291.84
353.65	326.42
354.032	306.53
354.414	331.16
354.797	347.21
355.179	368.45
355.562	339.3
355.944	355.34
356.326	349.92
356.709	365.29
357.091	354.21
357.473	372.74
357.855	365.29
358.238	376.81
358.62	349.69
359.002	339.52
359.384	370.94
359.766	383.82
360.148	351.05
360.53	383.37
360.912	374.78
361.294	365.74
361.676	362.58
362.057	367.77
362.439	362.12
362.821	349.02
363.203	363.03
363.584	358.96
363.966	373.87
364.348	358.96
364.729	356.7
365.111	365.51
365.493	370.03
365.874	371.84
366.256	372.07
366.637	357.15
367.019	330.94
367.4	352.63
367.781	337.27
368.163	355.57
368.544	354.21
368.925	349.69
369.306	383.37
369.688	378.17
370.069	355.8
370.45	355.12
370.831	367.55
371.212	383.82
371.593	383.59
371.974	363.48
372.355	372.52
372.736	373.42
373.117	368
373.498	379.07
373.879	370.94
374.26	389.02
374.641	357.38
375.021	379.07
375.402	389.92
375.783	413.65
376.163	412.29
376.544	410.26
376.925	412.97
377.305	422.91
377.686	398.05
378.066	398.73
378.447	403.93
378.827	406.19
379.208	420.65
379.588	418.17
379.968	417.26
380.349	418.17
380.729	423.14
381.109	433.31
381.489	436.25
381.87	430.14
382.25	418.84
382.63	436.47
383.01	436.25
383.39	442.57
383.77	431.27
384.15	469.92
384.53	467.21
384.91	463.36
385.29	464.95
385.67	462.69
386.049	477.37
386.429	480.31
386.809	490.48
387.189	463.82
387.568	486.64
387.948	486.19
388.328	494.78
388.707	524.15
389.087	503.59
389.466	504.72
389.846	537.03
390.225	519.18
390.605	487.77
390.984	540.88
391.363	544.49
391.743	529.12
392.122	559.41
392.501	547.2
392.881	551.72
393.26	544.27
393.639	575.45
394.018	571.84
394.397	581.78
394.776	569.58
395.155	589.24
395.534	581.33
395.913	593.08
396.292	607.31
396.671	611.38
397.05	625.17
397.429	605.05
397.808	627.88
398.186	614.55
398.565	639.86
398.944	642.57
399.323	622.23
399.701	643.25
400.08	660.65
400.458	659.06
400.837	661.78
401.215	675.79
401.594	689.12
401.972	680.98
402.351	685.5
402.729	688.44
403.107	710.59
403.486	745.16
403.864	695.67
404.242	720.08
404.62	736.35
404.999	763.24
405.377	763.92
405.755	763.02
406.133	788.55
406.511	786.29
406.889	782
407.267	791.72
407.645	808.21
408.023	837.36
408.401	821.32
408.779	853.64
409.156	843.01
409.534	841.88
409.912	861.32
410.29	869.45
410.667	896.57
411.045	895.22
411.422	889.79
411.8	909.45
412.178	922.56
412.555	946.97
412.933	959.4
413.31	968.89
413.687	978.6
414.065	982.67
414.442	990.81
414.819	1019.96
415.197	1043.69
415.574	1034.2
415.951	1045.27
416.328	1055.21
416.705	1056.12
417.082	1081.88
417.46	1127.53
417.837	1124.82
418.214	1101.99
418.591	1115.78
418.967	1151.71
419.344	1157.58
419.721	1128.2
420.098	1162.78
420.475	1185.38
420.852	1169.56
421.228	1217.02
421.605	1226.51
421.982	1219.05
422.358	1216.56
422.735	1282.55
423.111	1254.98
423.488	1277.81
423.864	1280.52
424.241	1324.36
424.617	1313.74
424.994	1367.52
425.37	1364.13
425.746	1344.7
426.123	1391.25
426.499	1390.57
426.875	1404.81
427.251	1419.95
427.627	1469.44
428.003	1471.02
428.379	1499.04
428.756	1528.87
429.132	1539.27
429.507	1542.66
429.883	1565.26
430.259	1623.33
430.635	1619.94
431.011	1593.73
431.387	1673.95
431.763	1680.28
432.138	1715.08
432.514	1687.96
432.89	1734.52
433.265	1802.31
433.641	1770.45
434.016	1787.85
434.392	1841.18
434.767	1889.09
435.143	1876.21
435.518	1881.41
435.894	1938.35
436.269	1950.56
436.644	1934.96
437.02	2012.48
437.395	1995.98
437.77	2036.43
438.145	2062.19
438.52	2049.31
438.895	2086.82
439.271	2119.82
439.646	2144.22
440.021	2140.38
440.395	2171.12
440.77	2161.85
441.145	2218.8
441.52	2212.02
441.895	2223.09
442.27	2243.2
442.645	2262.19
443.019	2311.68
443.394	2312.13
443.769	2343.54
444.143	2329.08
444.518	2374.5
444.892	2354.61
445.267	2380.15
445.641	2388.51
446.016	2413.37
446.39	2456.08
446.764	2473.71
447.139	2463.08
447.513	2523.2
447.887	2509.86
448.262	2492.01
448.636	2548.96
449.01	2564.55
449.384	2642.52
449.758	2623.08
450.132	2654.72
450.506	2682.06
450.88	2678.9
451.254	2707.37
451.628	2725.22
452.002	2776.07
452.376	2802.96
452.75	2828.05
453.123	2845.9
453.497	2888.61
453.871	2918.44
454.244	2987.14
454.618	2950.98
454.992	3047.02
455.365	3052.22
455.739	3116.18
456.112	3146.23
456.486	3200.92
456.859	3187.36
457.232	3274.14
457.606	3262.39
457.979	3323.85
458.352	3383.29
458.725	3426.22
459.099	3458.76
459.472	3521.59
459.845	3546.45
460.218	3600
460.591	3649.95
460.964	3622.38
461.337	3722.71
461.71	3830.28
462.083	3854.01
462.456	3848.36
462.829	3855.82
463.201	3931.97
463.574	3962.93
463.947	4026.89
464.32	4117.73
464.692	4164.96
465.065	4194.11
465.438	4224.62
465.81	4321.79
466.183	4372.41
466.555	4415.12
466.928	4485.18
467.3	4478.4
467.672	4557.72
468.045	4685.17
468.417	4671.84
468.789	4748.45
469.161	4809.92
469.534	4929.91
469.906	5011.04
470.278	5036.12
470.65	5086.07
471.022	5167.65
471.394	5245.84
471.766	5303.69
472.138	5367.42
472.51	5515.89
472.882	5575.09
473.253	5645.6
473.625	5766.5
473.997	5859.38
474.369	5872.26
474.74	5980.73
475.112	6038.13
475.484	6203.55
475.855	6272.25
476.227	6316.99
476.598	6564.45
476.97	6634.5
477.341	6692.8
477.713	6862.74
478.084	6878.11
478.455	7079.46
478.827	7143.64
479.198	7351.09
479.569	7409.17
479.94	7589.28
480.311	7712.89
480.682	7874.47
481.053	8007.8
481.424	8144.74
481.795	8184.97
482.166	8344.74
482.537	8503.15
482.908	8605.97
483.279	8737.72
483.65	8910.6
484.021	9024.95
484.391	9204.38
484.762	9279.63
485.133	9307.2
485.503	9469
485.874	9678.04
486.244	9818.15
486.615	9968.88
486.985	10041.64
487.356	10275.76
487.726	10451.58
488.097	10530.44
488.467	10589.88
488.837	10907.61
489.207	11059.7
489.578	11121.39
489.948	11253.59
490.318	11407.48
490.688	11451.1
491.058	11644.76
491.428	11802.5
491.798	11934.02
492.168	12258.31
492.538	12174.47
492.908	12368.36
493.278	12562.71
493.648	12609.71
494.017	12741.68
494.387	12868.69
494.757	13006.76
495.126	13056.7
495.496	13261.45
495.866	13376.92
496.235	13565.17
496.605	13582.57
496.974	13704.6
497.344	13876.34
497.713	13907.53
498.082	14006.28
498.452	14092.61
498.821	14272.94
499.19	14319.04
499.559	14437.23
499.928	14597.46
500.298	14734.85
500.667	14839.48
501.036	14760.39
501.405	14979.82
501.774	15014.85
502.143	15199.25
502.512	15250.77
502.88	15396.08
503.249	15374.61
503.618	15631.78
503.987	15625.45
504.356	15832.45
504.724	15843.52
505.093	16018.66
505.462	16054.14
505.83	16243.74
506.199	16261.59
506.567	16530.06
506.936	16540
507.304	16765.76
507.672	16842.82
508.041	17017.5
508.409	17095.24
508.777	17183.83
509.145	17403.71
509.514	17370.94
509.882	17533.2
510.25	17652.52
510.618	17723.25
510.986	17857.03
511.354	18078.27
511.722	18183.12
512.09	18417.02
512.458	18338.15
512.826	18573.85
513.193	18637.8
513.561	18724.35
513.929	18916.89
514.297	19071.46
514.664	19261.51
515.032	19390.1
515.4	19472.36
515.767	19606.36
516.135	19721.84
516.502	19624.44
516.869	19982.62
517.237	20120.93
517.604	20104.88
517.972	20376.51
518.339	20522.72
518.706	20509.16
519.073	20705.32
519.44	20846.1
519.808	21133.33
520.175	21235.25
520.542	21508.69
520.909	21567.67
521.276	21527.44
521.643	21822.12
522.009	21942.12
522.376	22168.33
522.743	22329.68
523.11	22569.9
523.477	22828.88
523.843	22897.58
524.21	23053.05
524.577	23278.36
524.943	23400.84
525.31	23514.96
525.676	23853.93
526.043	23950.43
526.409	23956.53
526.776	24448.95
527.142	24434.03
527.508	24578.66
527.874	24843.29
528.241	24897.75
528.607	24963.96
528.973	25241.47
529.339	25290.51
529.705	25558.07
530.071	25834.22
530.437	25993.54
530.803	26077.15
531.169	26301.33
531.535	26264.94
531.901	26353.98
532.267	26489.35
532.632	26717.36
532.998	26885.95
533.364	26993.74
533.73	27011.14
534.095	27305.14
534.461	27346.27
534.826	27581.07
535.192	27722.76
535.557	27875.3
535.923	27925.92
536.288	28040.94
536.653	28267.15
537.019	28302.18
537.384	28219.02
537.749	28547.82
538.114	28528.84
538.479	28615.62
538.845	28812.67
539.21	28792.34
539.575	29023.74
539.94	29133.57
540.305	29333.56
540.67	29213.79
541.034	29395.03
541.399	29534.69
541.764	29598.42
542.129	29710.73
542.494	29832.99
542.858	29848.81
543.223	30032.76
543.587	30127.89
543.952	30242.92
544.316	30339.19
544.681	30326.99
545.045	30530.6
545.41	30801.1
545.774	30759.06
546.138	30861.43
546.503	31002.45
546.867	30874.77
547.231	31180.3
547.595	31241.31
547.959	31342.55
548.324	31383.45
548.688	31505.03
549.052	31704.8
549.416	31779.15
549.779	31779.15
550.143	31983.66
550.507	32155.19
550.871	32308.85
551.235	32292.81
551.599	32498
551.962	32555.63
552.326	32731.44
552.689	32943.19
553.053	32736.64
553.417	33026.58
553.78	33458.2
554.143	33315.38
554.507	33530.29
554.87	33623.17
555.234	33894.57
555.597	33776.16
555.96	33915.59
556.323	34159.88
556.686	34066.32
557.05	34401.68
557.413	34639.41
557.776	34644.39
558.139	34925.28
558.502	34928.9
558.865	35060.42
559.228	35434.65
559.59	35422.67
559.953	35545.38
560.316	35824.92
560.679	35817.01
561.041	36127.28
561.404	36317.79
561.767	36543.54
562.129	36402.53
562.492	36932.69
562.854	36863.76
563.217	36759.58
563.579	37174.26
563.941	37461.26
564.304	37580.13
564.666	37674.59
565.028	37743.51
565.39	37929.95
565.753	38123.84
566.115	38271.41
566.477	38430.95
566.839	38489.71
567.201	38757.95
567.563	38722.92
567.925	39032.29
568.287	39064.16
568.648	39315
569.01	39380.98
569.372	39687.42
569.734	39535.1
570.095	39734.65
570.457	40002.44
570.819	40089.67
571.18	40161.75
571.542	40444.46
571.903	40552.25
572.265	40617.11
572.626	40695.98
572.987	40813.71
573.349	40963.54
573.71	41127.61
574.071	41066.59
574.432	41048.29
574.794	41469.97
575.155	41402.17
575.516	41578.21
575.877	41591.55
576.238	41756.06
576.599	41956.06
576.96	41872.22
577.32	41950.63
577.681	41996.28
578.042	42162.83
578.403	42221.36
578.763	42227.69
579.124	42398.98
579.485	42435.59
579.845	42577.74
580.206	42585.42
580.566	42510.85
580.927	42649.6
581.287	42749.03
581.648	42615.93
582.008	42815.47
582.368	42701.57
582.728	42778.41
583.089	42706.55
583.449	42851.18
583.809	42878.97
584.169	43044.84
584.529	42730.73
584.889	43126.65
585.249	42938.86
585.609	42791.29
585.969	42973.43
586.329	42927.78
586.688	43022.7
587.048	42948.8
587.408	42914.22
587.768	43054.56
588.127	42952.42
588.487	42894.11
588.846	43381.56
589.206	43123.48
589.565	43090.27
589.925	43313.31
590.284	43282.58
590.643	43351.95
591.003	43372.52
591.362	43334.55
591.721	43293.2
592.08	43293.2
592.44	43486.19
592.799	43409.13
593.158	43457.71
593.517	43371.61
593.876	43393.31
594.235	43330.26
594.593	43423.59
594.952	43544.04
595.311	43431.73
595.67	43412.52
596.029	43700.64
596.387	43687.31
596.746	43700.87
597.104	43671.94
597.463	43652.28
597.822	43745.39
598.18	43732.73
598.538	43652.74
598.897	43999.85
599.255	43559.18
599.613	44177.92
599.972	43757.37
600.33	43958.04
600.688	43906.06
601.046	44087.53
601.404	44211.59
601.762	44097.02
602.12	44326.62
602.478	44232.16
602.836	44287.52
603.194	44068.32
603.552	44159.16
603.91	44044.82
604.268	44348.99
604.625	44226.28
604.983	44542.88
605.341	44267.18
605.698	44426.73
606.056	44660.85
606.413	44482.55
606.771	44572.49
607.128	44701.75
607.485	44652.03
607.843	44616.55
608.2	44798.24
608.557	44789.66
608.914	44753.5
609.272	44950.78
609.629	45075.3
609.986	45163.21
610.343	45110.55
610.7	45239.81
611.057	45099.25
611.414	45222.64
611.771	45298.79
612.127	45380.15
612.484	45462.18
612.841	45419.02
613.198	45221.51
613.554	45313.94
613.911	45434.38
614.267	45559.35
614.624	45552.12
614.98	45644.32
615.337	45836.18
615.693	45627.15
616.05	45715.28
616.406	45912.79
616.762	45856.07
617.118	45839.57
617.475	45890.87
617.831	46013.13
618.187	45998.21
618.543	45997.08
618.899	46181.26
619.255	46123.18
619.611	46027.14
619.967	46257.64
620.323	46412.89
620.678	46026.91
621.034	46001.6
621.39	46016.97
621.746	46179.22
622.101	46578.54
622.457	46126.8
622.812	46345.77
623.168	46334.93
623.523	46333.34
623.879	46498.76
624.234	46174.93
624.589	46436.17
624.945	46377.18
625.3	46351.2
625.655	46316.85
626.01	46342.84
626.365	46270.52
626.72	46242.5
627.075	46268.94
627.43	46177.19
627.785	46071.66
628.14	46113.24
628.495	46246.34
628.85	46264.87
629.205	46155.72
629.559	46322.04
629.914	45989.17
630.269	46161.15
630.623	46009.51
630.978	46024.65
631.332	46035.95
631.687	46122.05
632.041	45957.76
632.396	45890.64
632.75	45707.37
633.104	45782.85
633.459	45640.03
633.813	45646.81
634.167	45580.6
634.521	45565.68
634.875	45723.87
635.229	45464.89
635.583	45290.66
635.937	45395.29
636.291	45354.39
636.645	45415.18
636.999	45216.54
637.352	45446.81
637.706	45133.83
638.06	45294.28
638.413	45096.54
638.767	44974.06
639.121	44979.71
639.474	44727.96
639.828	44749.2
640.181	44958.24
640.534	44926.15
640.888	44803.89
641.241	44652.71
641.594	44677.79
641.947	44775.19
642.301	44678.47
642.654	44613.84
643.007	44668.75
643.36	44602.99
643.713	44433.73
644.066	44567.74
644.419	44325.94
644.771	44000.07
645.124	43658.39
645.477	43633.98
645.83	43313.31
646.182	43105.41
646.535	43110.6
646.888	43214.33
647.24	42979.08
647.593	43243.93
647.945	43055.46
648.298	42928.46
648.65	42739.31
649.002	42620
649.355	42836.26
649.707	42777.96
650.059	42854.11
650.411	43342.91
650.763	43363.25
651.115	43716.01
651.467	43548.56
651.819	43577.03
652.171	43468.33
652.523	43395.34
652.875	43419.97
653.227	43212.52
653.578	43446.41
653.93	43408
654.282	43168.68
654.633	43170.49
654.985	43272.86
655.337	43124.84
655.688	43151.73
656.039	43166.87
656.391	42844.4
656.742	43068.57
657.094	42923.72
657.445	43078.06
657.796	42926.43
658.147	42883.94
658.498	42821.57
658.849	43019.08
659.2	42834.68
659.551	42794.91
659.902	42786.77
660.253	42715.36
660.604	42732.31
660.955	42517.85
661.306	42781.35
661.656	42614.35
662.007	42667.9
662.358	42416.38
662.708	42538.64
663.059	42690.5
663.409	42206.67
663.76	42636.49
664.11	42436.72
664.461	42543.16
664.811	42510.62
665.161	42538.19
665.511	42386.55
665.862	42427.01
666.212	42581.8
666.562	42559.43
666.912	42543.61
667.262	42378.65
667.612	42352.43
667.962	42434.69
668.312	42196.28
668.662	42416.61
669.011	42415.71
669.361	42281.47
669.711	42405.31
670.06	42225.66
670.41	42231.53
670.76	42005.77
671.109	42245.77
671.459	42099.1
671.808	41988.37
672.157	42310.17
672.507	41874.03
672.856	41913.35
673.205	41935.04
673.554	41988.15
673.904	41907.47
674.253	41893.46
674.602	41947.92
674.951	41404.43
675.3	41091.45
675.649	41890.07
675.998	41758.32
676.346	41686.23
676.695	41761.26
677.044	41607.37
677.393	41706.12
677.741	41596.07
678.09	41568.95
678.438	41482.85
678.787	41706.35
679.135	41569.18
679.484	41420.25
679.832	41560.81
680.181	41233.36
680.529	41351.33
680.877	41175.97
681.225	41138.68
681.573	41272.69
681.922	40960.83
682.27	40989.3
682.618	40938.68
682.966	40908.18
683.314	40953.15
683.661	40615.53
684.009	40622.31
684.357	40465.93
684.705	40659.82
685.053	40594.29
685.4	40729.65
685.748	40397.23
686.095	40306.38
686.443	40131.47
686.79	40020.97
687.138	40032.27
687.485	40081.3
687.832	39883.8
688.18	39988.88
688.527	39827.53
688.874	39737.13
689.221	39662.78
689.568	39533.07
689.915	39379.63
690.262	39445.84
690.609	39434.32
690.956	39148.45
691.303	39140.76
691.65	38853.54
691.997	38818.51
692.344	38782.36
692.69	38796.82
693.037	38838.63
693.383	38581.23
693.73	38639.53
694.077	38449.48
694.423	38312.54
694.769	38364.06
695.116	38271.63
695.462	38256.49
695.808	38011.75
696.155	38053.56
696.501	37709.62
696.847	37716.4
697.193	37443.41
697.539	37731.08
697.885	37409.28
698.231	37257.2
698.577	37208.84
698.923	37157.54
699.269	36881.39
699.614	36750.32
699.96	36753.93
700.306	36755.06
700.651	36702.64
700.997	36607.05
701.342	36464.22
701.688	36339.93
702.033	36243.89
702.379	36206.38
702.724	36064.01
703.069	36238.24
703.415	35706.05
703.76	35711.02
704.105	35846.84
704.45	35539.73
704.795	35330.24
705.14	35347.64
705.485	35468.77
705.83	35234.88
706.175	35297.02
706.52	35149.91
706.865	35013.19
707.209	35001.44
707.554	34923.93
707.899	34925.51
708.243	34673.76
708.588	34771.61
708.932	34482.13
709.277	34542.69
709.621	34481.23
709.966	34338.41
710.31	34243.94
710.654	34030.16
710.998	34214.34
711.342	34168.69
711.687	34039.88
712.031	33873.56
712.375	33754.01
712.719	33719.21
713.063	33774.13
713.407	33817.51
713.75	33594.24
714.094	33463.4
714.438	33484.19
714.782	33417.53
715.125	33344.76
715.469	33338.43
715.812	33273.8
716.156	32961.04
716.499	32882.4
716.843	32969.63
717.186	32808.95
717.53	32885.56
717.873	33000.81
718.216	32863.42
718.559	32770.08
718.902	32644.44
719.246	32504.78
719.589	32384.33
719.932	32341.62
720.275	32451
720.617	32411
720.96	32271.11
721.303	32235.41
721.646	32240.83
721.989	32053.27
722.331	32186.37
722.674	31888.75
723.016	31975.53
723.359	31818.92
723.701	31827.51
724.044	31636.33
724.386	31479.05
724.729	31688.98
725.071	31525.6
725.413	31525.6
725.755	31387.97
726.097	31274.08
726.439	31259.62
726.782	31210.8
727.124	31330.57
727.465	31159.51
727.807	31055.1
728.149	31013.07
728.491	31011.26
728.833	31086.29
729.175	30946.4
729.516	30963.35
729.858	30717.26
730.199	30877.03
730.541	30682.23
730.882	30737.82
731.224	30813.53
731.565	30566.3
731.906	30456.7
732.248	30490.37
732.589	30523.59
732.93	30261.9
733.271	30242.92
733.612	30376.02
733.953	30411.73
734.294	30238.85
734.635	30040.89
734.976	30175.8
735.317	30085.86
735.658	30015.35
735.999	30066.2
736.339	29908.47
736.68	30030.72
737.021	29841.12
737.361	29825.98
737.702	29849.03
738.042	29862.36
738.383	29641.13
738.723	29766.77
739.063	29566.55
739.404	29597.96
739.744	29568.59
740.084	29409.27
740.424	29485.88
740.764	29420.57
741.104	29524.97
741.444	29225.32
741.784	29215.6
742.124	29216.28
742.464	29246.79
742.804	29111.88
743.143	28996.62
743.483	29036.4
743.823	28940.58
744.162	28908.72
744.502	28906.01
744.841	28780.13
745.181	28804.31
745.52	28773.58
745.86	28775.84
746.199	28580.59
746.538	28415.4
746.877	28535.62
747.216	28398.22
747.556	28401.61
747.895	28442.29
748.234	28351.67
748.573	28258.34
748.911	28340.37
749.25	28301.5
749.589	28018.35
749.928	28036.2
750.267	28166.36
750.605	28039.14
750.944	28027.16
751.283	27931.12
751.621	27959.82
751.96	27728.41
752.298	27849.76
752.636	27639.15
752.975	27561.41
753.313	27497.91
