Data from plate_porcelain_FLMS001491_078.txt Node
Date: Tue Feb 07 11:19:52 GMT 2017
User: dcchb
Spectrometer: FLMS00149
Trigger mode: 0
Integration Time (sec): 2.000000E-2
Scans to average: 10
Electric dark correction enabled: true
Nonlinearity correction enabled: false
Boxcar width: 0
XAxis mode: Wavelengths
Number of Pixels in Spectrum: 2048
>>>>>Begin Spectral Data<<<<<
341.393	6.23
341.776	6.23
342.16	6.23
342.543	-76.71
342.927	-82.58
343.31	-70.15
343.693	-88.68
344.077	-59.53
344.46	-71.74
344.843	-55.69
345.226	-47.78
345.61	-31.74
345.993	-21.79
346.376	-7.56
346.759	13.23
347.142	25.21
347.525	50.97
347.908	74.93
348.291	78.09
348.674	94.14
349.057	118.09
349.44	126.45
349.823	142.04
350.206	177.52
350.588	217.3
350.971	238.54
351.354	271.53
351.737	288.26
352.119	303.62
352.502	317.86
352.884	318.08
353.267	327.8
353.65	331.42
354.032	355.6
354.414	313.34
354.797	376.16
355.179	364.64
355.562	360.8
355.944	354.24
356.326	381.81
356.709	392.43
357.091	389.04
357.473	388.59
357.855	399.66
358.238	388.37
358.62	391.76
359.002	409.16
359.384	411.64
359.766	390.17
360.148	409.16
360.53	419.1
360.912	394.02
361.294	393.34
361.676	409.83
362.057	395.6
362.439	410.06
362.821	403.28
363.203	410.51
363.584	400.12
363.966	419.1
364.348	400.79
364.729	404.64
365.111	399.21
365.493	415.94
365.874	390.17
366.256	400.12
366.637	420.68
367.019	402.83
367.4	398.31
367.781	406.67
368.163	419.33
368.544	416.39
368.925	410.74
369.306	397.63
369.688	420
370.069	417.97
370.45	440.12
370.831	430.4
371.212	419.33
371.593	415.48
371.974	432.66
372.355	435.37
372.736	445.09
373.117	429.49
373.498	449.38
373.879	436.5
374.26	443.96
374.641	428.14
375.021	450.96
375.402	451.64
375.783	459.32
376.163	509.49
376.544	506.55
376.925	480.57
377.305	483.28
377.686	487.35
378.066	485.54
378.447	498.19
378.827	516.72
379.208	489.15
379.588	508.14
379.968	505.2
380.349	506.78
380.729	514.24
381.109	526.44
381.489	523.96
381.87	518.08
382.25	555.59
382.63	553.78
383.01	537.06
383.39	569.15
383.77	528.93
384.15	565.54
384.53	600.11
384.91	609.6
385.29	601.69
385.67	601.69
386.049	607.34
386.429	619.77
386.809	608.02
387.189	624.74
387.568	632.43
387.948	622.03
388.328	638.98
388.707	674.01
389.087	662.93
389.466	673.56
389.846	675.82
390.225	681.01
390.605	699.09
390.984	690.28
391.363	697.06
391.743	733.22
392.122	700.67
392.501	739.54
392.881	746.1
393.26	745.64
393.639	754.01
394.018	756.04
394.397	769.82
394.776	785.19
395.155	801.46
395.534	808.92
395.913	814.57
396.292	800.56
396.671	814.34
397.05	814.57
397.429	845.98
397.808	874
398.186	868.35
398.565	845.3
398.944	864.51
399.323	878.75
399.701	888.01
400.08	894.34
400.458	915.81
400.837	935.7
401.215	937.28
401.594	951.29
401.972	954.68
402.351	953.32
402.729	983.83
403.107	998.52
403.486	1006.43
403.864	985.64
404.242	1003.04
404.62	1055.92
404.999	1063.15
405.377	1048.69
405.755	1068.35
406.133	1097.05
406.511	1097.95
406.889	1119.87
407.267	1133.66
407.645	1172.53
408.023	1190.38
408.401	1160.77
408.779	1198.29
409.156	1241.45
409.534	1249.36
409.912	1240.09
410.29	1289.58
410.667	1299.75
411.045	1342.01
411.422	1309.92
411.8	1352.18
412.178	1373.65
412.555	1401.22
412.933	1419.07
413.31	1409.58
413.687	1445.06
414.065	1433.99
414.442	1496.13
414.819	1520.09
415.197	1521.9
415.574	1543.59
415.951	1557.15
416.328	1555.79
416.705	1587.43
417.082	1630.37
417.46	1620.42
417.837	1652.51
418.214	1625.17
418.591	1688.44
418.967	1701.1
419.344	1692.96
419.721	1757.82
420.098	1741.55
420.475	1760.53
420.852	1801.66
421.228	1829.23
421.605	1791.04
421.982	1869
422.358	1869.91
422.735	1870.59
423.111	1911.94
423.488	1927.08
423.864	1947.65
424.241	1980.19
424.617	2005.95
424.994	2010.02
425.37	2048.43
425.746	2055.67
426.123	2083.69
426.499	2110.58
426.875	2145.83
427.251	2193.29
427.627	2185.83
428.003	2266.51
428.379	2276.45
428.756	2315.32
429.132	2383.34
429.507	2387.86
429.883	2385.83
430.259	2452.04
430.635	2470.12
431.011	2506.28
431.387	2541.98
431.763	2611.81
432.138	2605.48
432.514	2652.26
432.89	2666.05
433.265	2743.11
433.641	2762.09
434.016	2781.52
434.392	2875.08
434.767	2868.98
435.143	2887.06
435.518	2958.47
435.894	3015.87
436.269	3010.67
436.644	3080.72
437.02	3113.94
437.395	3102.64
437.77	3203.43
438.145	3213.6
438.52	3248.4
438.895	3267.84
439.271	3313.26
439.646	3356.88
440.021	3369.76
440.395	3427.16
440.77	3417.89
441.145	3442.75
441.52	3491.33
441.895	3485.23
442.27	3545.12
442.645	3551.67
443.019	3630.09
443.394	3612.01
443.769	3658.56
444.143	3650.2
444.518	3762.97
444.892	3724.55
445.267	3778.11
445.641	3816.3
446.016	3795.96
446.39	3842.51
446.764	3908.95
447.139	3852
447.513	3926.58
447.887	3946.69
448.262	3989.4
448.636	3959.8
449.01	4071.43
449.384	4150.3
449.758	4166.35
450.132	4201.6
450.506	4189.62
450.88	4261.48
451.254	4300.35
451.628	4318.66
452.002	4354.59
452.376	4401.59
452.75	4500.35
453.123	4499.9
453.497	4607.01
453.871	4606.11
454.244	4747.57
454.618	4772.66
454.992	4815.82
455.365	4829.83
455.739	4964.97
456.112	4964.74
456.486	5046.77
456.859	5058.75
457.232	5220.78
457.606	5232.53
457.979	5284.51
458.352	5362.7
458.725	5487.89
459.099	5482.24
459.472	5633.2
459.845	5694.21
460.218	5753.65
460.591	5824.15
460.964	5818.73
461.337	5983.02
461.71	6073.87
462.083	6209.23
462.456	6166.74
462.829	6223.01
463.201	6311.83
463.574	6379.62
463.947	6494.19
464.32	6648.77
464.692	6689.67
465.065	6671.82
465.438	6754.07
465.81	6928.31
466.183	6972.83
466.555	7222.99
466.928	7161.97
467.3	7208.75
467.672	7397.67
468.045	7536.43
468.417	7614.16
468.789	7618.23
469.161	7727.61
469.534	7858.68
469.906	8051.21
470.278	8089.41
470.65	8185.9
471.022	8369.62
471.394	8563.07
471.766	8662.5
472.138	8737.07
472.51	8871.98
472.882	9078.31
473.253	9167.8
473.625	9299.32
473.997	9533.44
474.369	9572.76
474.74	9685.97
475.112	9848
475.484	10080.31
475.855	10206.19
476.227	10326.41
476.598	10541.32
476.97	10705.38
477.341	10928.65
477.713	11074.19
478.084	11160.96
478.455	11541.74
478.827	11501.75
479.198	11960.72
479.569	12013.82
479.94	12329.52
480.311	12462.62
480.682	12715.05
481.053	13037.52
481.424	13249.95
481.795	13327.46
482.166	13634.57
482.537	13698.3
482.908	14045.63
483.279	14157.95
483.65	14451.72
484.021	14769.91
484.391	14925.61
484.762	15105.72
485.133	15280.86
485.503	15447.63
485.874	15839.26
486.244	15916.54
486.615	16287.83
486.985	16461.62
487.356	16717.65
487.726	16905.22
488.097	17225.66
488.467	17288.03
488.837	17725.08
489.207	18006.66
489.578	18268.12
489.948	18395.12
490.318	18658.62
490.688	18756.7
491.058	18977.71
491.428	19293.18
491.798	19453.63
492.168	19916.67
492.538	19898.59
492.908	20225.58
493.278	20574.28
493.648	20478.68
494.017	20806.81
494.387	20985.11
494.757	21246.57
495.126	21450.41
495.496	21504.42
495.866	21736.5
496.235	21972.2
496.605	22129.71
496.974	22334.91
497.344	22611.51
497.713	22712.52
498.082	22825.97
498.452	23131.04
498.821	23260.98
499.19	23411.04
499.559	23557.47
499.928	23627.08
500.298	23916.11
500.667	24157.91
501.036	24197.91
501.405	24333.95
501.774	24482.42
502.143	24766.93
502.512	24875.41
502.88	25045.8
503.249	25145.68
503.618	25384.32
503.987	25516.74
504.356	25549.06
504.724	25825.66
505.093	25964.64
505.462	26083.28
505.83	26176.39
506.199	26571.41
506.567	26975.01
506.936	26809.14
507.304	27128.23
507.672	27233.99
508.041	27507.2
508.409	27750.58
508.777	27857.7
509.145	28199.16
509.514	28159.61
509.882	28374.52
510.25	28527.74
510.618	28727.06
510.986	28872.36
511.354	29212.92
511.722	29440.26
512.09	29718.22
512.458	29645.22
512.826	30016.29
513.193	30236.62
513.561	30306.22
513.929	30603.62
514.297	30894
514.664	31118.86
515.032	31318.17
515.4	31595.23
515.767	31787.31
516.135	31881.1
516.502	31805.39
516.869	32330.12
517.237	32398.37
517.604	32451.7
517.972	32824.35
518.339	33186.6
518.706	33240.61
519.073	33446.25
519.44	33657.55
519.808	34167.36
520.175	34168.95
520.542	34695.49
520.909	34795.82
521.276	34749.5
521.643	35168.24
522.009	35539.31
522.376	35737.72
522.743	35897.49
523.11	36149.23
523.477	36711.7
523.843	36973.17
524.21	37231.46
524.577	37453.61
524.943	37624.45
525.31	37891.33
525.676	38235.51
526.043	38500.58
526.409	38599.34
526.776	39094.92
527.142	39244.29
527.508	39505.98
527.874	39836.14
528.241	40119.75
528.607	40244.72
528.973	40684.03
529.339	40428.22
529.705	41053.06
530.071	41378.47
530.437	41381.41
530.803	41566.27
531.169	41991.57
531.535	41931.68
531.901	42143.2
532.267	42184.1
532.632	42457.99
532.998	42728.5
533.364	43126.22
533.73	43285.77
534.095	43609.6
534.461	43535.03
534.826	43919.2
535.192	43975.69
535.557	44410.26
535.923	44337.04
536.288	44521.44
536.653	44688.44
537.019	44692.29
537.384	44887.76
537.749	45173.85
538.114	45213.63
538.479	45346.73
538.845	45606.84
539.21	45642.54
539.575	45825.14
539.94	45966.15
540.305	46271.45
540.67	46120.27
541.034	46376.76
541.399	46494.5
541.764	46631.9
542.129	46800.48
542.494	46985.33
542.858	47186.46
543.223	47235.5
543.587	47423.74
543.952	47466.22
544.316	47620.8
544.681	47732.43
545.045	47734.47
545.41	47970.62
545.774	48094.23
546.138	48216.03
546.503	48324.96
546.867	48368.57
547.231	48693.99
547.595	48709.58
547.959	48752.29
548.324	48917.94
548.688	49077.71
549.052	49185.05
549.416	49279.96
549.779	49503.46
550.143	49463.91
550.507	49780.06
550.871	49988.87
551.235	49862.54
551.599	50258.69
551.962	50255.08
552.326	50355.64
552.689	50483.77
553.053	50508.86
553.417	50706.59
553.78	50950.88
554.143	50858.68
554.507	51178.89
554.87	51235.84
555.234	51640.58
555.597	51459.11
555.96	51606.45
556.323	51717.41
556.686	51817.75
557.05	52036.05
557.413	52148.81
557.776	52305.19
558.139	52523.04
558.502	52507.9
558.865	52605.75
559.228	52869.25
559.59	52810.04
559.953	53041.9
560.316	53275.56
560.679	53356.46
561.041	53524.37
561.404	53652.28
561.767	53871.03
562.129	53768.66
562.492	54112.15
562.854	54113.28
563.217	54159.16
563.579	54329.09
563.941	54512.59
564.304	54606.15
564.666	54841.85
565.028	54838.23
565.39	55018.12
565.753	55131.11
566.115	55226.47
566.477	55299.69
566.839	55375.39
567.201	55519.57
567.563	55610.64
567.925	55738.77
568.287	55830.52
568.648	55865.32
569.01	56011.54
569.372	56216.28
569.734	56167.01
570.095	56372.66
570.457	56350.51
570.819	56497.17
571.18	56543.73
571.542	56694.68
571.903	56722.48
572.265	56851.51
572.626	56877.95
572.987	56967.44
573.349	57009.93
573.71	57180.09
574.071	57164.27
574.432	57229.81
574.794	57399.52
575.155	57359.75
575.516	57357.26
575.877	57435.91
576.238	57544.83
576.599	57647.2
576.96	57587.99
577.32	57663.47
577.681	57770.59
578.042	57888.77
578.403	57924.48
578.763	57918.38
579.124	57985.27
579.485	58060.3
579.845	58091.93
580.206	58017.13
580.566	58139.84
580.927	58097.58
581.287	58173.74
581.648	58072.5
582.008	58240.63
582.368	58177.81
582.728	58231.14
583.089	58203.12
583.449	58238.6
583.809	58241.08
584.169	58303.9
584.529	58254.64
584.889	58371.7
585.249	58219.84
585.609	58178.94
585.969	58369.89
586.329	58252.83
586.688	58368.76
587.048	58378.93
587.408	58307.97
587.768	58342.55
588.127	58312.49
588.487	58282.44
588.846	58472.49
589.206	58276.33
589.565	58307.29
589.925	58491.47
590.284	58373.73
590.643	58437.46
591.003	58466.39
591.362	58537.12
591.721	58430.23
592.08	58437.46
592.44	58511.36
592.799	58529.66
593.158	58496.67
593.517	58549.77
593.876	58528.76
594.235	58487.63
594.593	58554.07
594.952	58540.51
595.311	58517.46
595.67	58638.59
596.029	58645.36
596.387	58660.05
596.746	58693.05
597.104	58681.52
597.463	58635.87
597.822	58742.09
598.18	58648.75
598.538	58626.83
598.897	58754.06
599.255	58653.73
599.613	58983.89
599.972	58785.02
600.33	58841.97
600.688	58818.02
601.046	58880.84
601.404	58975.3
601.762	58887.62
602.12	59034.06
602.478	59018.46
602.836	59091.45
603.194	58960.84
603.552	58960.84
603.91	58913.38
604.268	59084
604.625	58999.03
604.983	59095.97
605.341	59048.74
605.698	59089.42
606.056	59220.04
606.413	59144.33
606.771	59272.47
607.128	59282.64
607.485	59163.77
607.843	59192.92
608.2	59279.25
608.557	59384.33
608.914	59316.99
609.272	59419.58
609.629	59421.84
609.986	59484.66
610.343	59396.31
610.7	59570.54
611.057	59524.44
611.414	59530.99
611.771	59575.51
612.127	59633.14
612.484	59582.06
612.841	59723.75
613.198	59606.7
613.554	59669.07
613.911	59800.36
614.267	59744.77
614.624	59775.73
614.98	59832.9
615.337	59919.91
615.693	59949.74
616.05	59869.51
616.406	59991.32
616.762	59924.65
617.118	59858.67
617.475	59916.74
617.831	60002.62
618.187	60002.39
618.543	60025.22
618.899	60154.48
619.255	60101.15
619.611	60060.47
619.967	60111.77
620.323	60169.39
620.678	60102.95
621.034	60077.87
621.39	60082.39
621.746	60088.72
622.101	60311.99
622.457	60104.31
622.812	60202.84
623.168	60203.97
623.523	60167.58
623.879	60248.49
624.234	60087.59
624.589	60251.88
624.945	60217.3
625.3	60261.59
625.655	60198.54
626.01	60223.63
626.365	60201.03
626.72	60210.97
627.075	60210.3
627.43	60170.75
627.785	60090.98
628.14	60125.55
628.495	60182.05
628.85	60067.25
629.205	60044.88
629.559	60157.42
629.914	60040.13
630.269	60072.9
630.623	60022.73
630.978	59967.82
631.332	59970.53
631.687	60051.43
632.041	59996.97
632.396	59975.27
632.75	59876.97
633.104	59913.13
633.459	59804.66
633.813	59753.13
634.167	59782.06
634.521	59845.11
634.875	59790.42
635.229	59754.94
635.583	59604.21
635.937	59627.71
636.291	59642.4
636.645	59583.42
636.999	59507.94
637.352	59550.43
637.706	59454.84
638.06	59544.32
638.413	59450.77
638.767	59400.6
639.121	59454.61
639.474	59308.62
639.828	59253.94
640.181	59289.64
640.534	59312.47
640.888	59275.63
641.241	59166.71
641.594	59172.36
641.947	59261.39
642.301	59114.28
642.654	59209.19
643.007	59129.42
643.36	59089.65
643.713	58987.5
644.066	59154.73
644.419	58973.94
644.771	58784.57
645.124	58575.99
645.477	58522.2
645.83	58317.92
646.182	58213.96
646.535	58164.02
646.888	58237.47
647.24	58110.92
647.593	58204.47
647.945	58103.01
648.298	57986.17
648.65	57932.16
649.002	57861.2
649.355	57987.75
649.707	57914.76
650.059	58034.76
650.411	58297.58
650.763	58293.74
651.115	58511.81
651.467	58408.76
651.819	58418.48
652.171	58339.38
652.523	58286.96
652.875	58263.68
653.227	58153.4
653.578	58319.72
653.93	58222.78
654.282	58064.82
654.633	58092.61
654.985	58128.77
655.337	58103.23
655.688	58147.07
656.039	58213.74
656.391	57982.56
656.742	58111.14
657.094	58087.41
657.445	58221.65
657.796	58093.51
658.147	58040.86
658.498	57970.81
658.849	58041.76
659.2	57987.3
659.551	57899.62
659.902	57998.83
660.253	57910.24
660.604	57999.73
660.955	57783.24
661.306	57937.36
661.656	57951.37
662.007	57784.37
662.358	57828.44
662.708	57829.12
663.059	57797.48
663.409	57655.33
663.76	57763.13
664.11	57737.37
664.461	57747.08
664.811	57760.64
665.161	57748.67
665.511	57666.41
665.862	57769
666.212	57780.75
666.562	57807.19
666.912	57748.89
667.262	57733.98
667.612	57735.56
667.962	57724.03
668.312	57642.23
668.662	57748.67
669.011	57612.17
669.361	57645.62
669.711	57620.98
670.06	57578.73
670.41	57496.69
670.76	57482.01
671.109	57580.99
671.459	57508.67
671.808	57409.24
672.157	57472.06
672.507	57354.33
672.856	57406.08
673.205	57437.94
673.554	57494.43
673.904	57369.47
674.253	57503.47
674.602	57348.9
674.951	57006.76
675.3	56957.5
675.649	57343.7
675.998	57252.41
676.346	57280.43
676.695	57395
677.044	57140.09
677.393	57269.81
677.741	57297.15
678.09	57130.15
678.438	57061.45
678.787	57172.86
679.135	57171.28
679.484	57030.94
679.832	57173.31
680.181	56940.32
680.529	57041.34
680.877	56931.74
681.225	56896.26
681.573	57071.62
681.922	56800.44
682.27	56814
682.618	56817.39
682.966	56715.47
683.314	56733.32
683.661	56581.92
684.009	56464.41
684.357	56424.63
684.705	56438.64
685.053	56485.65
685.4	56394.35
685.748	56243.62
686.095	56228.25
686.443	56143.74
686.79	56059.22
687.138	56164.3
687.485	56116.62
687.832	56043.85
688.18	56037.98
688.527	55889.51
688.874	55832.56
689.221	55728.38
689.568	55638.21
689.915	55660.58
690.262	55544.66
690.609	55578.33
690.956	55480.93
691.303	55430.08
691.65	55389.18
691.997	55270.54
692.344	55015.18
692.69	55078
693.037	55065.8
693.383	54843.2
693.73	54991.9
694.077	54755.52
694.423	54809.08
694.769	54668.75
695.116	54626.94
695.462	54684.34
695.808	54507.85
696.155	54486.15
696.501	54353.27
696.847	54398.7
697.193	54131.13
697.539	54282.77
697.885	54023.79
698.231	53937.01
698.577	53962.32
698.923	53848.88
699.269	53703.8
699.614	53477.37
699.96	53540.41
700.306	53572.73
700.651	53417.48
700.997	53354.43
701.342	53341.32
701.688	53279.4
702.033	53111.27
702.379	53077.6
702.724	52908.79
703.069	53045.06
703.415	52607.56
703.76	52754.22
704.105	52686.88
704.45	52592.42
704.795	52322.59
705.14	52272.2
705.485	52304.51
705.83	52281.92
706.175	52235.59
706.52	52068.36
706.865	51914.24
707.209	51949.5
707.554	51860.68
707.899	51901.14
708.243	51716.51
708.588	51610.3
708.932	51334.82
709.277	51475.16
709.621	51509.73
709.966	51279.91
710.31	51308.16
710.654	51070.2
710.998	51002.63
711.342	51079.01
711.687	50888.96
712.031	50708.17
712.375	50671.34
712.719	50799.92
713.063	50665.46
713.407	50698.91
713.75	50542.53
714.094	50503.43
714.438	50367.84
714.782	50454.39
715.125	50152.25
715.469	50324.23
715.812	49915.42
716.156	49818.93
716.499	49834.75
716.843	49770.57
717.186	49684.02
717.53	49856.22
717.873	49719.27
718.216	49725.15
718.559	49467.53
718.902	49353.41
719.246	49438.83
719.589	49424.14
719.932	48952.96
720.275	49056.46
720.617	49122.68
720.96	48892.85
721.303	48915.68
721.646	48897.6
721.989	48729.47
722.331	48894.66
722.674	48727.43
723.016	48715.91
723.359	48491.28
723.701	48696.02
724.044	48402.02
724.386	48246.32
724.729	48286.54
725.071	48255.81
725.413	48177.17
725.755	48126.32
726.097	47942.37
726.439	47894.69
726.782	47752.77
727.124	47928.36
727.465	47778.31
727.807	47668.03
728.149	47490.86
728.491	47475.04
728.833	47527.69
729.175	47375.15
729.516	47355.04
729.858	47262.39
730.199	47275.49
730.541	47147.81
730.882	47144.88
731.224	47106.46
731.565	46790.99
731.906	46983.3
732.248	46954.82
732.589	46815.39
732.93	46603.2
733.271	46645
733.612	46702.85
733.953	46643.42
734.294	46496.76
734.635	46251.57
734.976	46450.21
735.317	46210.66
735.658	46200.95
735.999	46157.56
736.339	46038.92
736.68	46281.4
737.021	46017.67
737.361	45759.38
737.702	45955.3
738.042	45874.4
738.383	45670.79
738.723	45684.35
739.063	45693.16
739.404	45714.86
739.744	45547.63
740.084	45349.9
740.424	45444.81
740.764	45320.74
741.104	45487.29
741.444	45204.36
741.784	44975.22
742.124	45073.97
742.464	45066.29
742.804	44873.98
743.143	44699.52
743.483	44913.97
743.823	44662
744.162	44512.4
744.502	44642.34
744.841	44511.73
745.181	44538.84
745.52	44372.75
745.86	44360.99
746.199	44377.49
746.538	44381.33
746.877	44321.45
747.216	44178.17
747.556	44003.72
747.895	44023.15
748.234	43851.18
748.573	43675.36
748.911	43633.78
749.25	43436.5
749.589	43460.45
749.928	43527.34
750.267	43486.89
750.605	43212.78
750.944	43074.25
751.283	43045.32
751.621	43176.84
751.96	42842.39
752.298	42966.91
752.636	43053.23
