Data from plate_porcelain_FLMS001491_094.txt Node
Date: Tue Feb 07 11:20:13 GMT 2017
User: dcchb
Spectrometer: FLMS00149
Trigger mode: 0
Integration Time (sec): 2.000000E-2
Scans to average: 10
Electric dark correction enabled: true
Nonlinearity correction enabled: false
Boxcar width: 0
XAxis mode: Wavelengths
Number of Pixels in Spectrum: 2048
>>>>>Begin Spectral Data<<<<<
341.393	-26.86
341.776	-26.86
342.16	-26.86
342.543	-81.1
342.927	-57.15
343.31	-86.3
343.693	-74.09
344.077	-64.6
344.46	-61.44
344.843	-58.05
345.226	-42.91
345.61	-38.16
345.993	-24.38
346.376	0.93
346.759	-2.68
347.142	29.63
347.525	72.34
347.908	49.74
348.291	79.35
348.674	106.01
349.057	114.6
349.44	130.19
349.823	131.32
350.206	169.74
350.588	226.01
350.971	246.58
351.354	256.07
351.737	267.14
352.119	300.13
352.502	300.59
352.884	309.85
353.267	319.12
353.65	336.97
354.032	339.45
354.414	334.48
354.797	337.87
355.179	369.74
355.562	364.76
355.944	382.17
356.326	381.26
356.709	371.77
357.091	389.17
357.473	396.4
357.855	390.53
358.238	386.23
358.62	403.41
359.002	377.19
359.384	397.98
359.766	387.14
360.148	408.83
360.53	393.69
360.912	389.62
361.294	394.14
361.676	387.59
362.057	407.7
362.439	397.76
362.821	420.58
363.203	387.59
363.584	383.07
363.966	399.79
364.348	369.96
364.729	402.28
365.111	392.79
365.493	394.59
365.874	385.1
366.256	400.47
366.637	395.5
367.019	386.01
367.4	390.07
367.781	398.44
368.163	404.31
368.544	383.52
368.925	390.53
369.306	418.55
369.688	415.84
370.069	390.07
370.45	411.09
370.831	400.24
371.212	405.67
371.593	409.96
371.974	433.01
372.355	409.73
372.736	431.88
373.117	437.98
373.498	408.15
373.879	440.69
374.26	419.23
374.641	412.9
375.021	435.5
375.402	431.43
375.783	480.24
376.163	464.2
376.544	447.93
376.925	478.66
377.305	476.4
377.686	458.77
378.066	452.9
378.447	480.69
378.827	479.56
379.208	471.88
379.588	487.25
379.968	470.07
380.349	491.77
380.729	493.35
381.109	513.46
381.489	512.78
381.87	505.78
382.25	517.53
382.63	498.09
383.01	527.92
383.39	559.11
383.77	556.17
384.15	512.78
384.53	538.32
384.91	544.65
385.29	564.99
385.67	545.32
386.049	583.74
386.429	565.66
386.809	593.91
387.189	569.28
387.568	571.99
387.948	588.94
388.328	610.86
388.707	614.48
389.087	623.29
389.466	622.61
389.846	634.59
390.225	625.1
390.605	629.84
390.984	651.76
391.363	667.36
391.743	670.07
392.122	673.46
392.501	682.95
392.881	675.49
393.26	716.85
393.639	688.82
394.018	727.24
394.397	731.76
394.776	741.25
395.155	758.88
395.534	759.1
395.913	747.81
396.292	783.06
396.671	791.19
397.05	797.07
397.429	812.44
397.808	806.56
398.186	809.5
398.565	806.11
398.944	858.54
399.323	850.85
399.701	809.95
400.08	840.46
400.458	846.79
400.837	865.99
401.215	886.11
401.594	889.27
401.972	886.56
402.351	907.12
402.729	905.54
403.107	907.8
403.486	965.2
403.864	929.27
404.242	955.48
404.62	973.56
404.999	962.94
405.377	990.51
405.755	1004.52
406.133	1028.02
406.511	1037.29
406.889	1044.75
407.267	1064.18
407.645	1073.45
408.023	1094.69
408.401	1086.78
408.779	1111.64
409.156	1130.62
409.534	1136.04
409.912	1196.61
410.29	1200
410.667	1201.35
411.045	1216.95
411.422	1241.8
411.8	1232.09
412.178	1270.5
412.555	1308.47
412.933	1313.89
413.31	1320.67
413.687	1350.5
414.065	1374
414.442	1367
414.819	1370.84
415.197	1380.1
415.574	1428.92
415.951	1478.18
416.328	1461.68
416.705	1462.81
417.082	1474.79
417.46	1490.61
417.837	1514.79
418.214	1532.42
418.591	1551.17
418.967	1577.84
419.344	1587.11
419.721	1610.83
420.098	1643.15
420.475	1668.68
420.852	1656.03
421.228	1682.92
421.605	1676.14
421.982	1720.43
422.358	1718.63
422.735	1774.9
423.111	1772.86
423.488	1783.48
423.864	1799.53
424.241	1845.4
424.617	1853.09
424.994	1856.48
425.37	1877.04
425.746	1911.62
426.123	1911.16
426.499	1955.23
426.875	1950.94
427.251	2008.11
427.627	2050.82
428.003	2069.8
428.379	2100.31
428.756	2116.13
429.132	2139.41
429.507	2190.03
429.883	2230.48
430.259	2249.46
430.635	2289.46
431.011	2294.21
431.387	2339.18
431.763	2411.72
432.138	2406.74
432.514	2418.95
432.89	2466.18
433.265	2532.62
433.641	2538.49
434.016	2592.95
434.392	2625.72
434.767	2662.78
435.143	2667.3
435.518	2707.75
435.894	2752.95
436.269	2761.76
436.644	2823.23
437.02	2853.74
437.395	2822.78
437.77	2883.12
438.145	2961.98
438.52	2985.26
438.895	3027.97
439.271	2999.05
439.646	3058.93
440.021	3104.58
440.395	3144.58
440.77	3136.67
441.145	3179.15
441.52	3206.27
441.895	3231.58
442.27	3240.62
442.645	3253.5
443.019	3312.26
443.394	3328.3
443.769	3373.5
444.143	3326.49
444.518	3394.52
444.892	3440.84
445.267	3443.78
445.641	3512.48
446.016	3530.33
446.39	3558.35
446.764	3540.27
447.139	3578.69
447.513	3672.47
447.887	3634.06
448.262	3666.82
448.636	3671.57
449.01	3736.2
449.384	3769.65
449.758	3828.18
450.132	3870.89
450.506	3899.36
450.88	3905.46
451.254	3905.01
451.628	3987.04
452.002	4046.48
452.376	4097.55
452.75	4103.42
453.123	4169.64
453.497	4244.89
453.871	4232.46
454.244	4328.28
454.618	4403.53
454.992	4440.14
455.365	4453.47
455.739	4577.99
456.112	4630.41
456.486	4640.58
456.859	4693.92
457.232	4793.35
457.606	4822.05
457.979	4877.64
458.352	4981.37
458.725	4996.73
459.099	5057.75
459.472	5188.59
459.845	5238.53
460.218	5303.62
460.591	5329.38
460.964	5397.85
461.337	5499.54
461.71	5587
462.083	5639.2
462.456	5653.44
462.829	5719.88
463.201	5808.24
463.574	5880.78
463.947	5952.19
464.32	6089.13
464.692	6167.32
465.065	6161.67
465.438	6271.5
465.81	6375.45
466.183	6442.8
466.555	6614.32
466.928	6663.81
467.3	6641.66
467.672	6763.24
468.045	6972.27
468.417	6975.44
468.789	7040.3
469.161	7170.01
469.534	7251.81
469.906	7443.22
470.278	7405.26
470.65	7607.96
471.022	7732.03
471.394	7846.38
471.766	7912.81
472.138	8047.5
472.51	8258.34
472.882	8352.13
473.253	8396.19
473.625	8576.53
473.997	8756.86
474.369	8845.22
474.74	8881.6
475.112	9070.75
475.484	9213.12
475.855	9432.1
476.227	9518.87
476.598	9848.36
476.97	9890.62
477.341	10093.32
477.713	10188.69
478.084	10336.48
478.455	10597.72
478.827	10631.84
479.198	10919.74
479.569	10962.68
479.94	11325.38
480.311	11469.78
480.682	11754.3
481.053	11919.49
481.424	12208.07
481.795	12312.7
482.166	12462.07
482.537	12633.82
482.908	12883.08
483.279	13120.14
483.65	13297.98
484.021	13608.48
484.391	13783.62
484.762	13866.33
485.133	14037.63
485.503	14205.98
485.874	14541.34
486.244	14584.05
486.615	14940.88
486.985	15144.94
487.356	15448.21
487.726	15608.66
488.097	15872.61
488.467	15919.84
488.837	16348.52
489.207	16485.02
489.578	16733.15
489.948	16884.56
490.318	17186.47
490.688	17245.9
491.058	17544.2
491.428	17707.81
491.798	17968.37
492.168	18286.33
492.538	18400.22
492.908	18673.44
493.278	18845.18
493.648	18941.45
494.017	19206.75
494.387	19263.02
494.757	19504.83
495.126	19727.87
495.496	19805.38
495.866	19972.84
496.235	20290.34
496.605	20455.08
496.974	20543.89
497.344	20798.35
497.713	20861.4
498.082	21127.83
498.452	21330.77
498.821	21480.59
499.19	21570.99
499.559	21740.02
499.928	21973.69
500.298	21997.42
500.667	22305.66
501.036	22252.78
501.405	22426.56
501.774	22616.83
502.143	22825.42
502.512	22899.31
502.88	23224.28
503.249	23203.71
503.618	23402.12
503.987	23477.83
504.356	23811.83
504.724	23937.93
505.093	23967.76
505.462	23978.83
505.83	24297.47
506.199	24580.4
506.567	24874.63
506.936	24801.41
507.304	25071.91
507.672	25157.33
508.041	25447.72
508.409	25590.32
508.777	25879.57
509.145	26099.23
509.514	26075.27
509.882	26306.23
510.25	26357.08
510.618	26574.92
510.986	26738.53
511.354	26958.19
511.722	27044.74
512.09	27513.2
512.458	27506.65
512.826	27679.75
513.193	27726.53
513.561	27936.02
513.929	28223.01
514.297	28502.33
514.664	28816.67
515.032	28876.33
515.4	29188.87
515.767	29316.32
516.135	29509.99
516.502	29319.71
516.869	29921.73
517.237	30049.41
517.604	29996.3
517.972	30295.5
518.339	30606.68
518.706	30778.43
519.073	30928.93
519.44	31180.9
519.808	31565.3
520.175	31522.14
520.542	32027.21
520.909	32201.89
521.276	32302.68
521.643	32658.83
522.009	32933.63
522.376	33086.62
522.743	33330.23
523.11	33673.72
523.477	33894.96
523.843	34148.28
524.21	34540.36
524.577	34735.84
524.943	34985.78
525.31	35155.71
525.676	35375.14
526.043	35656.72
526.409	35812.19
526.776	36282.46
527.142	36370.15
527.508	36652.62
527.874	37004.93
528.241	37173.74
528.607	37287.18
528.973	37778.92
529.339	37608.76
529.705	37979.14
530.071	38283.54
530.437	38618.22
530.803	38782.74
531.169	38896.63
531.535	38913.81
531.901	39042.39
532.267	39301.14
532.632	39693.9
532.998	39832.43
533.364	40113.32
533.73	40218.18
534.095	40457.27
534.461	40508.79
534.826	40982.91
535.192	41079.63
535.557	41365.27
535.923	41282.11
536.288	41449.56
536.653	41687.75
537.019	41591.7
537.384	41941.98
537.749	42056.55
538.114	42140.39
538.479	42168.86
538.845	42422.19
539.21	42452.25
539.575	42620.15
539.94	42887.94
540.305	43184.66
540.67	43067.6
541.034	43352.79
541.399	43577.87
541.764	43699.9
542.129	43790.06
542.494	43798.42
542.858	44108.47
543.223	44146.44
543.587	44315.02
543.952	44414.45
544.316	44717.04
544.681	44543.04
545.045	44850.15
545.41	45110.71
545.774	45066.19
546.138	45317.93
546.503	45357.71
546.867	45383.92
547.231	45745.94
547.595	45878.14
547.959	45972.15
548.324	45990.23
548.688	46111.58
549.052	46270
549.416	46415.3
549.779	46569.43
550.143	46654.17
550.507	46928.74
550.871	46940.04
551.235	47152.23
551.599	47434.49
551.962	47402.4
552.326	47524.65
552.689	47767.36
553.053	47646.46
553.417	47866.11
553.78	48331.41
554.143	48111.53
554.507	48379.77
554.87	48525.08
555.234	49069.25
555.597	48651.86
555.96	48862.92
556.323	49148.11
556.686	49134.56
557.05	49428.11
557.413	49604.6
557.776	49647.31
558.139	49946.96
558.502	49977.7
558.865	50151.7
559.228	50306.73
559.59	50448.65
559.953	50451.81
560.316	50857.22
560.679	50832.59
561.041	51097.22
561.404	51314.84
561.767	51425.79
562.129	51412.24
562.492	51755.05
562.854	51741.04
563.217	51863.3
563.579	51973.58
563.941	52202.5
564.304	52314.13
564.666	52465.77
565.028	52540.57
565.39	52712.99
565.753	52882.71
566.115	52984.62
566.477	53100.1
566.839	53208.35
567.201	53370.6
567.563	53479.53
567.925	53576.25
568.287	53597.94
568.648	53778.5
569.01	53822.12
569.372	54096.68
569.734	54014.88
570.095	54155.67
570.457	54354.08
570.819	54351.14
571.18	54421.42
571.542	54601.53
571.903	54609.89
572.265	54778.7
572.626	54709.78
572.987	54956.1
573.349	54928.75
573.71	55093.27
574.071	55119.03
574.432	55248.75
574.794	55393.83
575.155	55427.05
575.516	55351.34
575.877	55494.84
576.238	55544.56
576.599	55633.82
576.96	55690.09
577.32	55630.2
577.681	55751.1
578.042	55835.62
578.403	55853.47
578.763	55937.77
579.124	55926.47
579.485	55987.71
579.845	56071.32
580.206	56077.65
580.566	56055.05
580.927	56139.8
581.287	56232.9
581.648	56170.3
582.008	56302.28
582.368	56216.63
582.728	56247.36
583.089	56256.63
583.449	56227.02
583.809	56253.92
584.169	56370.3
584.529	56242.84
584.889	56404.19
585.249	56255.72
585.609	56262.5
585.969	56427.25
586.329	56401.94
586.688	56393.8
587.048	56347.25
587.408	56308.38
587.768	56342.05
588.127	56353.35
588.487	56333.24
588.846	56464.98
589.206	56314.93
589.565	56375.27
589.925	56506.57
590.284	56444.42
590.643	56479.45
591.003	56497.75
591.362	56532.1
591.721	56487.58
592.08	56579.33
592.44	56611.2
592.799	56618.65
593.158	56595.6
593.517	56529.62
593.876	56552.89
594.235	56587.47
594.593	56588.82
594.952	56691.64
595.311	56570.07
595.67	56614.58
596.029	56764.64
596.387	56805.99
596.746	56777.07
597.104	56699.33
597.463	56677.18
597.822	56810.51
598.18	56598.31
598.538	56737.07
598.897	56885.31
599.255	56709.72
599.613	57026.1
599.972	56797.63
600.33	56963.28
600.688	56801.47
601.046	57027
601.404	57093.67
601.762	56994.69
602.12	57126.89
602.478	57104.74
602.836	57187
603.194	57033.56
603.552	56933.9
603.91	56985.65
604.268	57097.96
604.625	57071.97
604.983	57181.35
605.341	57025.2
605.698	57242.14
606.056	57277.62
606.413	57162.82
606.771	57337.73
607.128	57433.55
607.485	57260.9
607.843	57257.96
608.2	57445.98
608.557	57498.86
608.914	57429.48
609.272	57442.13
609.629	57544.73
609.986	57605.07
610.343	57505.41
610.7	57765.29
611.057	57690.26
611.414	57696.82
611.771	57727.32
612.127	57795.12
612.484	57749.02
612.841	57874.44
613.198	57752.41
613.554	57830.82
613.911	57856.36
614.267	57906.3
614.624	57848.45
614.98	57920.09
615.337	58052.97
615.693	58006.64
616.05	57982.23
616.406	58125.51
616.762	58019.29
617.118	58019.75
617.475	58049.58
617.831	58155.79
618.187	58064.72
618.543	58125.28
618.899	58250.25
619.255	58299.06
619.611	58184.49
619.967	58342.67
620.323	58309.46
620.678	58318.95
621.034	58235.33
621.39	58203.47
621.746	58212.06
622.101	58488.89
622.457	58301.09
622.812	58309.68
623.168	58341.09
623.523	58398.72
623.879	58424.71
624.234	58278.72
624.589	58321.88
624.945	58338.16
625.3	58342.22
625.655	58382.45
626.01	58364.14
626.365	58373.63
626.72	58361.21
627.075	58310.36
627.43	58312.85
627.785	58233.98
628.14	58226.97
628.495	58248.44
628.85	58246.63
629.205	58147.65
629.559	58314.43
629.914	58142
630.269	58217.93
630.623	58112.62
630.978	58063.81
631.332	58240.08
631.687	58198.72
632.041	58078.28
632.396	58157.37
632.75	58013.42
633.104	58095.68
633.459	57914.21
633.813	57958.28
634.167	57969.58
634.521	57937.71
634.875	57919.18
635.229	57876.02
635.583	57791.96
635.937	57750.83
636.291	57791.05
636.645	57753.31
636.999	57672.18
637.352	57709.92
637.706	57603.03
638.06	57672.18
638.413	57595.8
638.767	57577.95
639.121	57583.37
639.474	57410.95
639.828	57414.34
640.181	57472.19
640.534	57511.06
640.888	57361.68
641.241	57259.77
641.594	57293.21
641.947	57327.56
642.301	57323.49
642.654	57306.09
643.007	57262.93
643.36	57195.81
643.713	57134.8
644.066	57324.85
644.419	57020
644.771	56873.34
645.124	56653.91
645.477	56638.09
645.83	56439.45
646.182	56256.63
646.535	56261.6
646.888	56245.33
647.24	56185.44
647.593	56268.15
647.945	56177.31
648.298	56094.82
648.65	55985.9
649.002	55878.56
649.355	55992.91
649.707	55982.74
650.059	56082.4
650.411	56414.82
650.763	56420.47
651.115	56708.14
651.467	56514.47
651.819	56501.37
652.171	56488.71
652.523	56411.2
652.875	56367.81
653.227	56302.95
653.578	56382.95
653.93	56348.6
654.282	56197.19
654.633	56234.93
654.985	56244.88
655.337	56250.3
655.688	56210.08
656.039	56240.81
656.391	55987.71
656.742	56114.94
657.094	56181.15
657.445	56163.75
657.796	56186.35
658.147	56124.2
658.498	56074.03
658.849	56146.8
659.2	55995.84
659.551	56026.35
659.902	56060.02
660.253	56038.33
660.604	56069.06
660.955	55896.19
661.306	55994.49
661.656	55938.9
662.007	55934.6
662.358	55881.04
662.708	55870.65
663.059	55832.23
663.409	55745.68
663.76	55826.13
664.11	55772.35
664.461	55848.05
664.811	55830.65
665.161	55799.24
665.511	55705.46
665.862	55761.5
666.212	55857.54
666.562	55863.42
666.912	55727.6
667.262	55743.2
667.612	55727.15
667.962	55736.64
668.312	55655.97
668.662	55787.49
669.011	55734.83
669.361	55649.41
669.711	55634.95
670.06	55613.71
670.41	55560.38
670.76	55551.56
671.109	55621.62
671.459	55547.95
671.808	55568.74
672.157	55674.04
672.507	55401.74
672.856	55317.44
673.205	55496.87
673.554	55531
673.904	55408.51
674.253	55529.87
674.602	55400.83
674.951	55098.92
675.3	54855.08
675.649	55349.76
675.998	55325.35
676.346	55232.93
676.695	55402.64
677.044	55131.69
677.393	55186.37
677.741	55264.34
678.09	55220.5
678.438	55181.4
678.787	55257.78
679.135	55248.75
679.484	55080.39
679.832	55135.53
680.181	54820.28
680.529	55008.07
680.877	54837.68
681.225	54962.88
681.573	55028.19
681.922	54832.26
682.27	54717.91
682.618	54707.52
682.966	54651.92
683.314	54626.16
683.661	54577.8
684.009	54467.07
684.357	54370.35
684.705	54389.11
685.053	54470.23
685.4	54347.3
685.748	54237.7
686.095	54208.55
686.443	54034.31
686.79	53963.81
687.138	54007.65
687.485	54049.68
687.832	53974.43
688.18	53937.82
688.527	53772.4
688.874	53706.64
689.221	53738.73
689.568	53605.62
689.915	53531.95
690.262	53541.67
690.609	53377.38
690.956	53274.79
691.303	53320.89
691.65	53112.53
691.997	53156.82
692.344	52930.61
692.69	53008.13
693.037	53054.68
693.383	52653.33
693.73	52779.88
694.077	52617.85
694.423	52606.33
694.769	52432.55
695.116	52442.72
695.462	52382.83
695.808	52427.58
696.155	52324.53
696.501	52046.12
696.847	52102.61
697.193	51915.27
697.539	51946.23
697.885	51774.26
698.231	51684.32
698.577	51682.51
698.923	51578.79
699.269	51428.96
699.614	51236.87
699.96	51166.59
700.306	51212.92
700.651	51075.97
700.997	50993.04
701.342	50946.26
701.688	50789.2
702.033	50606.38
702.379	50538.36
702.724	50620.62
703.069	50597.12
703.415	50244.36
703.76	50280.74
704.105	50265.15
704.45	50093.85
704.795	49914.2
705.14	49802.33
705.485	49751.04
705.83	49630.14
706.175	49717.14
706.52	49610.93
706.865	49447.09
707.209	49453.87
707.554	49378.39
707.899	49366.19
708.243	49100.43
708.588	49211.16
708.932	48842.81
709.277	48838.52
709.621	48909.48
709.966	48630.61
710.31	48644.4
710.654	48325.54
710.998	48405.54
711.342	48433.78
711.687	48221.13
712.031	48055.04
712.375	48030.18
712.719	48060.91
713.063	47928.71
713.407	47958.99
713.75	47701.82
714.094	47723.75
714.438	47604.43
714.782	47595.16
715.125	47335.73
715.469	47491.89
715.812	47206.24
716.156	46970.77
716.499	47059.36
716.843	47074.95
717.186	46765.8
717.53	47074.04
717.873	47035.63
718.216	46914.27
718.559	46920.15
718.902	46793.6
719.246	46731.23
719.589	46491.01
719.932	46289.21
720.275	46308.87
720.617	46261.41
720.96	46085.14
721.303	46076.1
721.646	46081.53
721.989	45929.22
722.331	46072.26
722.674	45800.41
723.016	45946.16
723.359	45821.2
723.701	45838.82
724.044	45517.7
724.386	45278.84
724.729	45550.92
725.071	45408.1
725.413	45302.11
725.755	45278.39
726.097	45104.83
726.439	44881.56
726.782	44913.42
727.124	45154.1
727.465	44823.48
727.807	44757.27
728.149	44625.07
728.491	44718.85
728.833	44774.67
729.175	44533.32
729.516	44577.16
729.858	44362.25
730.199	44503.04
730.541	44407
730.882	44321.12
731.224	44324.51
731.565	43995.93
731.906	44084.52
732.248	44021.24
732.589	43841.14
732.93	43754.36
733.271	43776.73
733.612	43775.37
733.953	43663.96
734.294	43550.97
734.635	43498.32
734.976	43658.99
735.317	43200.25
735.658	43238.21
735.999	43337.65
736.339	43149.18
736.68	43291.32
737.021	43043.87
737.361	42915.51
737.702	43095.62
738.042	43075.05
738.383	42707.83
738.723	42852.01
739.063	42636.65
739.404	42765.46
739.744	42663.09
740.084	42327.95
740.424	42450.44
740.764	42381.51
741.104	42465.35
741.444	42300.61
741.784	42139.03
742.124	42199.82
742.464	41979.72
742.804	41907.85
743.143	41939.72
743.483	41900.17
743.823	41700.85
744.162	41685.71
744.502	41921.86
744.841	41482.1
745.181	41621.76
745.52	41605.04
745.86	41602.1
746.199	41361.43
746.538	41293.18
746.877	41444.36
747.216	41188.32
747.556	41077.59
747.895	41213.18
748.234	40808.22
748.573	40936.58
748.911	40904.72
749.25	40789.01
749.589	40698.17
749.928	40660.43
750.267	40692.74
750.605	40479.87
750.944	40397.38
751.283	40287.1
751.621	40348.12
751.96	40067
752.298	40003.72
752.636	40152.19
752.975	39754.24
