Data from plate_ceramic_FLMS001491_056.txt Node
Date: Tue Feb 07 11:16:59 GMT 2017
User: dcchb
Spectrometer: FLMS00149
Trigger mode: 0
Integration Time (sec): 2.000000E-2
Scans to average: 10
Electric dark correction enabled: true
Nonlinearity correction enabled: false
Boxcar width: 0
XAxis mode: Wavelengths
Number of Pixels in Spectrum: 2048
>>>>>Begin Spectral Data<<<<<
341.393	-14.14
341.776	-14.14
342.16	-14.14
342.543	-63.4
342.927	-66.34
343.31	-59.11
343.693	-39.67
344.077	-58.43
344.46	-47.36
344.843	-67.92
345.226	-43.29
345.61	-33.12
345.993	-3.97
346.376	1.23
346.759	-9.62
347.142	16.37
347.525	43.71
347.908	58.63
348.291	65.86
348.674	88.46
349.057	88.23
349.44	128.68
349.823	130.94
350.206	148.12
350.588	212.3
350.971	227.44
351.354	249.13
351.737	241.67
352.119	268.34
352.502	289.58
352.884	293.88
353.267	301.79
353.65	307.21
354.032	309.92
354.414	330.71
354.797	342.01
355.179	337.72
355.562	322.35
355.944	359.86
356.326	344.04
356.709	356.93
357.091	352.63
357.473	358.28
357.855	364.38
358.238	369.81
358.62	386.76
359.002	361.22
359.384	365.96
359.766	358.73
360.148	344.95
360.53	358.28
360.912	346.53
361.294	342.46
361.676	367.09
362.057	362.58
362.439	362.35
362.821	365.74
363.203	346.3
363.584	359.64
363.966	357.83
364.348	366.42
364.729	366.19
365.111	360.09
365.493	354.44
365.874	366.87
366.256	351.5
366.637	367.55
367.019	339.98
367.4	353.08
367.781	363.71
368.163	338.17
368.544	363.93
368.925	369.81
369.306	370.26
369.688	360.09
370.069	332.52
370.45	361.9
370.831	342.24
371.212	377.94
371.593	362.12
371.974	362.58
372.355	363.71
372.736	362.35
373.117	388.11
373.498	380.65
373.879	360.54
374.26	360.54
374.641	365.29
375.021	366.64
375.402	374.1
375.783	383.59
376.163	407.09
376.544	415.46
376.925	400.09
377.305	387.66
377.686	392.4
378.066	381.33
378.447	406.64
378.827	407.55
379.208	420.65
379.588	414.33
379.968	397.6
380.349	379.75
380.729	414.78
381.109	427.88
381.489	421.1
381.87	442.35
382.25	429.92
382.63	433.08
383.01	453.42
383.39	436.02
383.77	454.78
384.15	445.96
384.53	469.47
384.91	453.65
385.29	464.04
385.67	459.75
386.049	451.61
386.429	462.23
386.809	471.5
387.189	462.69
387.568	461.1
387.948	479.18
388.328	491.84
388.707	489.35
389.087	505.85
389.466	480.54
389.846	496.58
390.225	525.73
390.605	502.46
390.984	506.07
391.363	522.35
391.743	511.05
392.122	508.56
392.501	535.9
392.881	534.77
393.26	568.45
393.639	551.5
394.018	549.46
394.397	553.08
394.776	574.55
395.155	564.15
395.534	578.39
395.913	574.32
396.292	594.89
396.671	619.52
397.05	581.1
397.429	618.84
397.808	599.86
398.186	613.87
398.565	647.31
398.944	627.65
399.323	624.72
399.701	619.97
400.08	625.17
400.458	630.36
400.837	655.9
401.215	633.98
401.594	655.22
401.972	661.55
402.351	680.08
402.729	664.04
403.107	695.22
403.486	669.23
403.864	688.44
404.242	724.83
404.62	693.87
404.999	725.96
405.377	726.86
405.755	754.88
406.133	766.41
406.511	749.68
406.889	741.77
407.267	768.67
407.645	768.89
408.023	814.77
408.401	828.78
408.779	795.78
409.156	795.33
409.534	823.81
409.912	850.7
410.29	839.62
410.667	871.94
411.045	864.93
411.422	889.34
411.8	887.76
412.178	909
412.555	915.1
412.933	938.15
413.31	904.93
413.687	932.28
414.065	951.94
414.442	980.64
414.819	991.03
415.197	1006.17
415.574	976.8
415.951	1011.37
416.328	1005.04
416.705	1030.13
417.082	1022.67
417.46	1048.21
417.837	1053.63
418.214	1081.88
418.591	1052.27
418.967	1089.11
419.344	1122.56
419.721	1121.43
420.098	1117.81
420.475	1166.4
420.852	1172.05
421.228	1159.16
421.605	1144.93
421.982	1182.44
422.358	1182.67
422.735	1225.6
423.111	1195.1
423.488	1214.53
423.864	1238.26
424.241	1252.5
424.617	1290.69
424.994	1285.49
425.37	1290.91
425.746	1287.07
426.123	1310.35
426.499	1336.56
426.875	1345.6
427.251	1366.62
427.627	1405.71
428.003	1408.42
428.379	1442.09
428.756	1423.34
429.132	1461.3
429.507	1464.69
429.883	1506.27
430.259	1525.48
430.635	1537.23
431.011	1553.28
431.387	1583.79
431.763	1611.58
432.138	1605.93
432.514	1655.2
432.89	1657.68
433.265	1726.83
433.641	1734.74
434.016	1756.89
434.392	1774.52
434.767	1755.98
435.143	1790.56
435.518	1809.54
435.894	1791.69
436.269	1845.47
436.644	1876.66
437.02	1896.55
437.395	1883.44
437.77	1938.13
438.145	1935.19
438.52	1973.83
438.895	1991.23
439.271	1995.07
439.646	2027.16
440.021	1999.82
440.395	2062.64
440.77	2047.05
441.145	2084.11
441.52	2117.78
441.895	2111.23
442.27	2128.63
442.645	2125.92
443.019	2164.56
443.394	2154.39
443.769	2196.88
444.143	2181.74
444.518	2232.13
444.892	2245.69
445.267	2245.46
445.641	2265.8
446.016	2287.04
446.39	2305.35
446.764	2301.96
447.139	2335.18
447.513	2375.4
447.887	2350.77
448.262	2371.11
448.636	2426.93
449.01	2429.41
449.384	2468.06
449.758	2465.12
450.132	2495.85
450.506	2509.19
450.88	2517.09
451.254	2553.25
451.628	2593.93
452.002	2606.58
452.376	2619.24
452.75	2671.67
453.123	2710.08
453.497	2736.3
453.871	2677.77
454.244	2818.33
454.618	2814.71
454.992	2875.05
455.365	2877.54
455.739	2947.37
456.112	2962.28
456.486	2960.25
456.859	3018.78
457.232	3064.88
457.606	3116.63
457.979	3134.25
458.352	3190.52
458.725	3245.66
459.099	3251.99
459.472	3305.32
459.845	3367.92
460.218	3395.26
460.591	3425.55
460.964	3417.41
461.337	3509.16
461.71	3546.67
462.083	3589.83
462.456	3636.39
462.829	3643.17
463.201	3720.45
463.574	3729.27
463.947	3791.86
464.32	3866.66
464.692	3890.17
465.065	3910.96
465.438	3980.11
465.81	4017.62
466.183	4057.62
466.555	4178.52
466.928	4199.54
467.3	4190.05
467.672	4219.2
468.045	4345.52
468.417	4429.81
468.789	4449.25
469.161	4459.87
469.534	4543.71
469.906	4713.65
470.278	4704.38
470.65	4779.86
471.022	4832.74
471.394	4914.32
471.766	4980.98
472.138	5050.81
472.51	5138.72
472.882	5209.45
473.253	5291.94
473.625	5343.24
473.997	5442.67
474.369	5550.91
474.74	5636.56
475.112	5667.97
475.484	5784.81
475.855	5848.08
476.227	5936.21
476.598	6069.77
476.97	6146.38
477.341	6294.17
477.713	6418.46
478.084	6427.5
478.455	6588.85
478.827	6671.79
479.198	6847.15
479.569	6881.95
479.94	7075.17
480.311	7118.78
480.682	7327.14
481.053	7456.4
481.424	7598.77
481.795	7596.96
482.166	7780.23
482.537	7907.24
482.908	8010.74
483.279	8073.78
483.65	8278.98
484.021	8400.78
484.391	8517.62
484.762	8688.01
485.133	8730.26
485.503	8845.52
485.874	9013.87
486.244	9121.67
486.615	9311.49
486.985	9464.03
487.356	9584.25
487.726	9713.52
488.097	9879.84
488.467	9901.76
488.837	10167.97
489.207	10231.92
489.578	10359.6
489.948	10489.31
490.318	10680.27
490.688	10714.17
491.058	10908.96
491.428	10950.55
491.798	11163.42
492.168	11341.72
492.538	11332.23
492.908	11466.01
493.278	11659.45
493.648	11724.76
494.017	11845.21
494.387	12019.67
494.757	12112.77
495.126	12276.39
495.496	12300.57
495.866	12381.02
496.235	12519.54
496.605	12676.6
496.974	12773.32
497.344	12816.03
497.713	12966.99
498.082	12981.9
498.452	13184.84
498.821	13293.99
499.19	13298.96
499.559	13578.5
499.928	13577.59
500.298	13629.8
500.667	13754.54
501.036	13778.04
501.405	13983.01
501.774	13969.22
502.143	14167.86
502.512	14152.95
502.88	14409.89
503.249	14284.47
503.618	14518.81
503.987	14554.07
504.356	14687.17
504.724	14808.3
505.093	14881.06
505.462	14881.52
505.83	15070.66
506.199	15164.67
506.567	15418
506.936	15375.74
507.304	15581.38
507.672	15665.68
508.041	15788.38
508.409	15855.5
508.777	16033.35
509.145	16110.18
509.514	16088.04
509.882	16269.5
510.25	16351.53
510.618	16490.51
510.986	16691.19
511.354	16846.21
511.722	16974.79
512.09	17108.8
512.458	17006.66
512.826	17244.17
513.193	17297.5
513.561	17470.37
513.929	17550.6
514.297	17816.81
514.664	17865.39
515.032	18052.96
515.4	18071.94
515.767	18220.18
516.135	18414.08
516.502	18239.85
516.869	18607.75
517.237	18763.9
517.604	18624.92
517.972	18906.49
518.339	19129.99
518.706	19179.48
519.073	19258.8
519.44	19481.85
519.808	19732.69
520.175	19717.55
520.542	19985.56
520.909	20164.54
521.276	20095.16
521.643	20243.63
522.009	20533.34
522.376	20705.54
522.743	20762.94
523.11	20963.84
523.477	21168.13
523.843	21389.37
524.21	21575.58
524.577	21758.85
524.943	21843.37
525.31	22020.31
525.676	22128.33
526.043	22355.67
526.409	22388.66
526.776	22683.34
527.142	22804.25
527.508	22926.73
527.874	23231.13
528.241	23278.13
528.607	23413.49
528.973	23670.21
529.339	23593.83
529.705	23862.97
530.071	24074.95
530.437	24249.18
530.803	24349.29
531.169	24426.35
531.535	24456.18
531.901	24469.51
532.267	24724.19
532.632	24828.37
532.998	25086.67
533.364	25197.18
533.73	25430.62
534.095	25555.81
534.461	25512.65
534.826	25721
535.192	25967.1
535.557	26153.31
535.923	26023.37
536.288	26083.25
536.653	26308.11
537.019	26373.87
537.384	26462
537.749	26530.25
538.114	26664.03
538.479	26764.14
538.845	27020.86
539.21	26940.63
539.575	27151.02
539.94	27187.18
540.305	27359.38
540.67	27319.83
541.034	27434.63
541.399	27570.22
541.764	27708.52
542.129	27798.69
542.494	28094.28
542.858	28032.13
543.223	28088.85
543.587	28340.82
543.952	28272.35
544.316	28368.62
544.681	28448.84
545.045	28583.53
545.41	28779
545.774	28760.25
546.138	28914.59
546.503	29047.24
546.867	28932.45
547.231	29336.73
547.595	29288.37
547.959	29384.64
548.324	29515.03
548.688	29509.15
549.052	29646.55
549.416	29784.4
549.779	29900.33
550.143	29910.95
550.507	30108.46
550.871	30287.21
551.235	30332.41
551.599	30492.63
551.962	30468.22
552.326	30574.21
552.689	30885.16
553.053	30732.62
553.417	30854.88
553.78	31295.55
554.143	31174.19
554.507	31334.64
554.87	31517.46
555.234	31791.35
555.597	31735.08
555.96	31832.26
556.323	32041.97
556.686	32135.07
557.05	32300.94
557.413	32429.98
557.776	32592.46
558.139	32791.55
558.502	32853.02
558.865	33004.88
559.228	33219.79
559.59	33281.03
559.953	33360.35
560.316	33653.9
560.679	33692.09
561.041	33930.05
561.404	34064.74
561.767	34371.62
562.129	34143.38
562.492	34646.19
562.854	34735
563.217	34736.13
563.579	34859.75
563.941	35233.75
564.304	35245.05
564.666	35502.89
565.028	35488.43
565.39	35559.16
565.753	35857.69
566.115	35993.5
566.477	36144.23
566.839	36152.14
567.201	36410.67
567.563	36473.72
567.925	36767.72
568.287	36774.95
568.648	36812.92
569.01	37090.88
569.372	37295.84
569.734	37353.47
570.095	37576.96
570.457	37679.79
570.819	37759.56
571.18	37883.62
571.542	38084.75
571.903	38186.89
572.265	38243.16
572.626	38233.67
572.987	38445.87
573.349	38580.78
573.71	38683.83
574.071	38763.15
574.432	38847.66
574.794	39128.79
575.155	39049.92
575.516	38980.77
575.877	39353.19
576.238	39386.18
576.599	39631.83
576.96	39405.16
577.32	39620.07
577.681	39655.1
578.042	39743.01
578.403	39753.4
578.763	39931.48
579.124	40094.64
579.485	40032.04
579.845	40143.9
580.206	40068.88
580.566	40207.18
580.927	40254.41
581.287	40356.55
581.648	40252.15
582.008	40483.1
582.368	40461.18
582.728	40409.66
583.089	40503.67
583.449	40405.14
583.809	40586.38
584.169	40539.15
584.529	40475.19
584.889	40816.2
585.249	40468.87
585.609	40524.91
585.969	40660.95
586.329	40671.12
586.688	40669.99
587.048	40734.85
587.408	40623.89
587.768	40775.07
588.127	40655.75
588.487	40651.46
588.846	40797.9
589.206	40579.14
589.565	40636.54
589.925	40803.09
590.284	40527.17
590.643	40844.45
591.003	40956.99
591.362	40920.15
591.721	40889.42
592.08	40951.56
592.44	40965.8
592.799	41144.1
593.158	40984.11
593.517	41054.84
593.876	41008.06
594.235	40920.83
594.593	40990.66
594.952	41264.78
595.311	41032.92
595.67	41135.97
596.029	41326.92
596.387	41119.02
596.746	41398.11
597.104	41130.54
597.463	41316.53
597.822	41471.78
598.18	41192.24
598.538	41342.29
598.897	41533.7
599.255	41237.21
599.613	41701.83
599.972	41445.79
600.33	41663.64
600.688	41549.06
601.046	41661.83
601.404	41730.53
601.762	41617.99
602.12	41792.45
602.478	41826.8
602.836	41939.79
603.194	41712.9
603.552	41785.44
603.91	41708.15
604.268	41964.42
604.625	41909.51
604.983	42052.1
605.341	41900.92
605.698	41986.79
606.056	42135.71
606.413	42078.99
606.771	42309.95
607.128	42311.53
607.485	42244.19
607.843	42185.88
608.2	42321.92
608.557	42384.52
608.914	42309.49
609.272	42507.91
609.629	42575.93
609.986	42845.07
610.343	42530.51
610.7	42711.29
611.057	42761.91
611.414	42727.79
611.771	42775.25
612.127	42884.17
612.484	43027.89
612.841	42936.82
613.198	42904.06
613.554	43059.31
613.911	43225.63
614.267	43071.51
614.624	43042.58
614.98	43154.67
615.337	43346.53
615.693	43407.09
616.05	43296.14
616.406	43537.71
616.762	43485.28
617.118	43355.57
617.475	43540.42
617.831	43691.15
618.187	43636.92
618.543	43580.2
618.899	43941.09
619.255	43630.82
619.611	43502.46
619.967	43822
620.323	43960.98
620.678	43797.14
621.034	43691.15
621.39	43605.05
621.746	43798.72
622.101	44011.37
622.457	43697.48
622.812	43828.55
623.168	43934.54
623.523	43893.86
623.879	44168.88
624.234	43804.14
624.589	44024.7
624.945	43960.75
625.3	43987.64
625.655	43858.15
626.01	44043.46
626.365	44027.87
626.72	43912.16
627.075	43888.44
627.43	43738.16
627.785	43708.55
628.14	43740.19
628.495	43888.21
628.85	43789.46
629.205	43652.96
629.559	43936.34
629.914	43608.67
630.269	43634.43
630.623	43578.16
630.978	43446.64
631.332	43616.35
631.687	43644.6
632.041	43477.6
632.396	43503.81
632.75	43491.16
633.104	43341.33
633.459	43309.47
633.813	43265.4
634.167	43295.23
634.521	43286.87
634.875	43281.22
635.229	43062.47
635.583	42996.71
635.937	43059.76
636.291	42849.14
636.645	42877.16
636.999	42803.95
637.352	42994.9
637.706	42728.01
638.06	42786.77
638.413	42745.87
638.767	42723.27
639.121	42712.65
639.474	42388.59
639.828	42488.7
640.181	42524.18
640.534	42585.87
640.888	42472.88
641.241	42061.37
641.594	42316.95
641.947	42297.29
642.301	42187.92
642.654	42202.38
643.007	42187.46
643.36	42078.09
643.713	42053.23
644.066	42297.74
644.419	41958.09
644.771	41608.95
645.124	41242.18
645.477	41264.55
645.83	40916.99
646.182	40779.59
646.535	40563.78
646.888	40666.6
647.24	40739.14
647.593	40935.52
647.945	40952.24
648.298	40720.61
648.65	40460.5
649.002	40187.06
649.355	40391.81
649.707	40431.35
650.059	40538.69
650.411	41022.98
650.763	41041.28
651.115	41441.27
651.467	41233.82
651.819	41332.8
652.171	41110.66
652.523	41020.94
652.875	41069.98
653.227	40873.37
653.578	41136.64
653.93	41092.58
654.282	40806.48
654.633	40846.03
654.985	40848.06
655.337	40914.96
655.688	41000.15
656.039	40781.4
656.391	40500.73
656.742	40575.76
657.094	40538.02
657.445	40835.41
657.796	40577.11
658.147	40575.98
658.498	40507.73
658.849	40619.14
659.2	40477.9
659.551	40490.79
659.902	40644.23
660.253	40428.87
660.604	40558.35
660.955	40333.5
661.306	40541.86
661.656	40321.75
662.007	40384.12
662.358	40297.34
662.708	40213.73
663.059	40171.25
663.409	39883.34
663.76	40211.24
664.11	40154.3
664.461	40057.35
664.811	40208.99
665.161	40199.95
665.511	40171.7
665.862	40175.31
666.212	40236.78
666.562	40265.25
666.912	40205.14
667.262	40293.95
667.612	40070.68
667.962	40153.39
668.312	39933.29
668.662	40113.17
669.011	40151.81
669.361	40059.84
669.711	40085.37
670.06	39925.83
670.41	39879.28
670.76	39788.88
671.109	39910.46
671.459	39708.66
671.808	39694.65
672.157	39919.5
672.507	39622.11
672.856	39626.63
673.205	39703.91
673.554	39780.07
673.904	39499.85
674.253	39844.47
674.602	39656.01
674.951	39180.31
675.3	38976.02
675.649	39540.08
675.998	39440.42
676.346	39439.51
676.695	39497.14
677.044	39299.4
677.393	39428.44
677.741	39394.32
678.09	39254.43
678.438	39276.81
678.787	39352.28
679.135	39297.82
679.484	39119.75
679.832	39340.53
680.181	38904.16
680.529	39037.04
680.877	38788.23
681.225	38886.99
681.573	39050.6
681.922	38875.91
682.27	38772.64
682.618	38761.57
682.966	38617.61
683.314	38689.03
683.661	38624.39
684.009	38407
684.357	38191.64
684.705	38173.56
685.053	38149.38
685.4	38139.89
685.748	38049.95
686.095	38046.78
686.443	37919.55
686.79	37817.86
687.138	37887.24
687.485	37857.18
687.832	37716.62
688.18	37811.53
688.527	37596.85
688.874	37579.68
689.221	37343.3
689.568	37151.21
689.915	37075.28
690.262	37170.87
690.609	37102.17
690.956	37136.3
691.303	36957.09
691.65	36674.84
691.997	36754.16
692.344	36675.52
692.69	36636.88
693.037	36678.23
693.383	36440.04
693.73	36422.19
694.077	36234.85
694.423	36298.13
694.769	36240.95
695.116	36140.17
695.462	36024.46
695.808	35819.95
696.155	35873.05
696.501	35496.57
696.847	35599.61
697.193	35365.95
697.539	35579.73
697.885	35261.32
698.231	35141.55
698.577	35269.68
698.923	35144.94
699.269	34880.31
699.614	34623.14
699.96	34602.58
700.306	34673.99
700.651	34606.65
700.997	34485.52
701.342	34434.9
701.688	34356.71
702.033	34233.32
702.379	34153.78
702.724	34075.36
703.069	34078.07
703.415	33767.57
703.76	33671.98
704.105	33723.51
704.45	33657.74
704.795	33431.54
705.14	33360.13
705.485	33285.33
705.83	33160.58
706.175	33218.21
706.52	33089.62
706.865	32984.54
707.209	32967.59
707.554	32853.47
707.899	32987.93
708.243	32765.11
708.588	32713.81
708.932	32533.93
709.277	32420.04
709.621	32588.17
709.966	32337.33
710.31	32427.49
710.654	32342.07
710.998	32296.88
711.342	32084.9
711.687	32076.77
712.031	31947.73
712.375	31888.07
712.719	31995.64
713.063	31834.74
713.407	31864.35
713.75	31648.53
714.094	31603.79
714.438	31507.29
714.782	31518.59
715.125	31458.03
715.469	31306.62
715.812	31197.92
716.156	31152.27
716.499	31064.37
716.843	31159.73
717.186	30924.48
717.53	31070.92
717.873	31198.15
718.216	30959.96
718.559	30944.6
718.902	30685.85
719.246	30812.85
719.589	30708.22
719.932	30598.84
720.275	30563.59
720.617	30477.04
720.96	30333.99
721.303	30442.24
721.646	30332.86
721.989	30193.2
722.331	30383.71
722.674	30207.44
723.016	30291.28
723.359	30058.29
723.701	30118.85
724.044	29832.99
724.386	29721.13
724.729	29937.84
725.071	29763.61
725.413	29750.28
725.755	29699.43
726.097	29589.15
726.439	29393.45
726.782	29390.29
727.124	29691.07
727.465	29265.09
727.807	29386.67
728.149	29320.68
728.491	29279.78
728.833	29256.96
729.175	29102.16
729.516	29056.28
729.858	29129.95
730.199	28933.8
730.541	29044.76
730.882	28950.3
731.224	29063.29
731.565	28755.05
731.906	28951.65
732.248	28809.51
732.589	28755.27
732.93	28591.66
733.271	28586.69
733.612	28664.66
733.953	28658.1
734.294	28463.53
734.635	28377.88
734.976	28533.59
735.317	28261.05
735.658	28239.13
735.999	28226.93
736.339	28175.18
736.68	28349.41
737.021	28140.6
737.361	28040.49
737.702	28174.5
738.042	28051.11
738.383	28068.74
738.723	28057.89
739.063	28003.88
739.404	27943.77
739.744	27937.67
740.084	27695.42
740.424	27896.54
740.764	27785.13
741.104	27821.06
741.444	27585.81
741.784	27547.62
742.124	27598.24
742.464	27697.68
742.804	27425.37
743.143	27440.73
743.483	27530.9
743.823	27330
744.162	27226.95
744.502	27279.83
744.841	27226.5
745.181	27170.01
745.52	27145.6
745.86	27062.21
746.199	27038.48
746.538	26932.05
746.877	27002.1
747.216	26869.9
747.556	26781.54
747.895	26743.58
748.234	26743.58
748.573	26582.9
748.911	26660.87
749.25	26666.74
749.589	26477.59
749.928	26595.33
750.267	26504.49
750.605	26477.37
750.944	26430.59
751.283	26374.55
751.621	26366.41
751.96	26162.35
752.298	26119.19
752.636	26208.22
752.975	26046.87
753.313	25898.4
753.651	25950.15
