Data from plate_ceramic_FLMS001491_096.txt Node
Date: Tue Feb 07 11:17:35 GMT 2017
User: dcchb
Spectrometer: FLMS00149
Trigger mode: 0
Integration Time (sec): 2.000000E-2
Scans to average: 10
Electric dark correction enabled: true
Nonlinearity correction enabled: false
Boxcar width: 0
XAxis mode: Wavelengths
Number of Pixels in Spectrum: 2048
>>>>>Begin Spectral Data<<<<<
341.393	7.58
341.776	7.58
342.16	7.58
342.543	-63.6
342.927	-80.55
343.31	-80.55
343.693	-69.7
344.077	-62.7
344.46	-57.5
344.843	-71.06
345.226	-43.71
345.61	-34.22
345.993	-34.9
346.376	-15.69
346.759	2.84
347.142	53.91
347.525	30.63
347.908	65.66
348.291	104.31
348.674	82.84
349.057	129.84
349.44	137.98
349.823	145.21
350.206	181.82
350.588	223.62
350.971	254.58
351.354	247.35
351.737	267.46
352.119	266.33
352.502	269.95
352.884	301.81
353.267	305.43
353.65	325.77
354.032	335.03
354.414	315.37
354.797	351.98
355.179	347.46
355.562	338.2
355.944	353.11
356.326	369.16
356.709	364.86
357.091	358.08
357.473	359.21
357.855	338.65
358.238	365.99
358.62	351.08
359.002	376.61
359.384	364.64
359.766	363.28
360.148	361.02
360.53	370.06
360.912	384.07
361.294	378.65
361.676	364.41
362.057	342.72
362.439	366.67
362.821	347.91
363.203	376.84
363.584	370.74
363.966	352.66
364.348	352.66
364.729	357.86
365.111	349.72
365.493	367.8
365.874	374.58
366.256	347.46
366.637	322.38
367.019	359.67
367.4	370.96
367.781	347.91
368.163	364.19
368.544	375.71
368.925	351.98
369.306	385.43
369.688	375.48
370.069	363.96
370.45	370.29
370.831	372.09
371.212	368.03
371.593	387.01
371.974	373.22
372.355	388.37
372.736	371.19
373.117	373.9
373.498	388.37
373.879	372.55
374.26	368.7
374.641	373.22
375.021	366.22
375.402	401.25
375.783	382.26
376.163	398.76
376.544	388.14
376.925	392.43
377.305	415.26
377.686	403.05
378.066	402.83
378.447	414.13
378.827	421.36
379.208	424.07
379.588	424.3
379.968	416.61
380.349	435.82
380.729	451.41
381.109	428.82
381.489	437.18
381.87	437.86
382.25	428.82
382.63	443.51
383.01	418.2
383.39	420.68
383.77	443.73
384.15	447.35
384.53	461.36
384.91	463.17
385.29	479.21
385.67	471.98
386.049	483.96
386.429	488.93
386.809	498.19
387.189	473.34
387.568	465.88
387.948	510.85
388.328	501.81
388.707	498.42
389.087	498.87
389.466	508.81
389.846	534.58
390.225	512.43
390.605	532.32
390.984	536.38
391.363	533.9
391.743	548.59
392.122	536.16
392.501	548.81
392.881	558.98
393.26	571.19
393.639	556.95
394.018	584.07
394.397	551.3
394.776	558.3
395.155	579.77
395.534	570.06
395.913	579.32
396.292	575.71
396.671	606.44
397.05	603.73
397.429	604.86
397.808	612.09
398.186	615.48
398.565	615.48
398.944	642.6
399.323	636.72
399.701	643.73
400.08	662.48
400.458	629.26
400.837	670.17
401.215	694.12
401.594	672.65
401.972	671.07
402.351	702.93
402.729	681.01
403.107	698.19
403.486	703.84
403.864	725.98
404.242	705.19
404.62	717.17
404.999	751.29
405.377	732.99
405.755	751.75
406.133	754.91
406.511	751.97
406.889	782.03
407.267	787
407.645	802.14
408.023	798.3
408.401	812.99
408.779	829.03
409.156	833.1
409.534	834.68
409.912	873.1
410.29	864.51
410.667	870.16
411.045	882.36
411.422	894.34
411.8	917.84
412.178	948.8
412.555	931.63
412.933	949.25
413.31	984.28
413.687	984.51
414.065	993.55
414.442	967.11
414.819	999.65
415.197	1011.4
415.574	1024.51
415.951	1026.77
416.328	1041.23
416.705	1050.49
417.082	1045.98
417.46	1068.8
417.837	1056.14
418.214	1096.6
418.591	1116.93
418.967	1127.78
419.344	1147.67
419.721	1128.91
420.098	1147.22
420.475	1147.44
420.852	1165.75
421.228	1201
421.605	1203.26
421.982	1197.16
422.358	1217.04
422.735	1233.77
423.111	1231.28
423.488	1244.84
423.864	1282.13
424.241	1299.3
424.617	1297.04
424.994	1326.19
425.37	1332.52
425.746	1344.05
426.123	1354.22
426.499	1356.25
426.875	1395.34
427.251	1391.73
427.627	1408.23
428.003	1430.6
428.379	1480.09
428.756	1461.33
429.132	1506.08
429.507	1509.01
429.883	1523.25
430.259	1560.31
430.635	1577.49
431.011	1582.91
431.387	1637.15
431.763	1626.75
432.138	1647.77
432.514	1659.29
432.89	1722.57
433.265	1714.88
433.641	1726.64
434.016	1761.21
434.392	1819.06
434.767	1823.81
435.143	1831.94
435.518	1852.06
435.894	1850.7
436.269	1887.76
436.644	1920.98
437.02	1947.19
437.395	1951.49
437.77	1972.28
438.145	2033.29
438.52	2022.45
438.895	2052.05
439.271	2021.99
439.646	2069.45
440.021	2119.17
440.395	2087.3
440.77	2091.6
441.145	2127.75
441.52	2151.93
441.895	2146.74
442.27	2185.83
442.645	2209.33
443.019	2233.06
443.394	2212.95
443.769	2229.45
444.143	2216.11
444.518	2299.28
444.892	2246.85
445.267	2295.21
445.641	2333.4
446.016	2312.38
446.39	2371.59
446.764	2393.51
447.139	2404.13
447.513	2433.28
447.887	2441.42
448.262	2440.74
448.636	2481.87
449.01	2509.21
449.384	2509.67
449.758	2519.16
450.132	2583.34
450.506	2574.52
450.88	2576.56
451.254	2610
451.628	2636.22
452.002	2677.12
452.376	2694.75
452.75	2724.8
453.123	2717.34
453.497	2764.12
453.871	2815.42
454.244	2866.72
454.618	2890.22
454.992	2911.01
455.365	2908.75
455.739	3023.78
456.112	3025.36
456.486	3068.3
456.859	3131.8
457.232	3177.67
457.606	3160.72
457.979	3150.78
458.352	3276.65
458.725	3300.83
459.099	3303.77
459.472	3379.7
459.845	3438.23
460.218	3454.05
460.591	3498.34
460.964	3499.02
461.337	3579.47
461.71	3626.25
462.083	3688.17
462.456	3699.01
462.829	3740.82
463.201	3814.72
463.574	3819.01
463.947	3886.13
464.32	3923.87
464.692	3991.66
465.065	4001.15
465.438	4045.9
465.81	4100.36
466.183	4193.69
466.555	4261.03
466.928	4277.3
467.3	4257.19
467.672	4369.96
468.045	4520.46
468.417	4430.75
468.789	4534.7
469.161	4590.29
469.534	4663.96
469.906	4779.89
470.278	4799.55
470.65	4842.94
471.022	4943.27
471.394	5058.3
471.766	5068.02
472.138	5140.78
472.51	5275.02
472.882	5304.62
473.253	5359.99
473.625	5463.71
473.997	5588.23
474.369	5617.83
474.74	5671.62
475.112	5811.95
475.484	5851.27
475.855	6009.23
476.227	6092.4
476.598	6236.12
476.97	6273.86
477.341	6446.96
477.713	6463.46
478.084	6546.85
478.455	6746.84
478.827	6786.16
479.198	6984.8
479.569	7003.78
479.94	7151.35
480.311	7321.74
480.682	7436.77
481.053	7619.81
481.424	7758.34
481.795	7773.03
482.166	8007.15
482.537	8047.83
482.908	8193.13
483.279	8330.98
483.65	8444.2
484.021	8631.09
484.391	8693.68
484.762	8819.78
485.133	8926.45
485.503	8992.43
485.874	9225.87
486.244	9277.85
486.615	9481.46
486.985	9597.39
487.356	9757.38
487.726	9834.9
488.097	10124.83
488.467	10047.32
488.837	10300.2
489.207	10457.25
489.578	10617.48
489.948	10733.18
490.318	10871.93
490.688	10828.32
491.058	11067.86
491.428	11133.39
491.798	11337.46
492.168	11511.91
492.538	11546.49
492.908	11724.34
493.278	11803.66
493.648	11909.19
494.017	12090.2
494.387	12142.18
494.757	12369.75
495.126	12469.63
495.496	12533.81
495.866	12701.49
496.235	12679.79
496.605	12926.79
496.974	13017.19
497.344	13102.16
497.713	13180.35
498.082	13243.39
498.452	13369.27
498.821	13516.16
499.19	13614.23
499.559	13702.37
499.928	13796.83
500.298	13901.68
500.667	14120.66
501.036	14009.48
501.405	14242.01
501.774	14197.27
502.143	14391.16
502.512	14489.46
502.88	14538.73
503.249	14609.01
503.618	14753.19
503.987	14914.76
504.356	14940.07
504.724	15029.79
505.093	15063.69
505.462	15219.16
505.83	15405.15
506.199	15482.66
506.567	15611.24
506.936	15595.42
507.304	15863.21
507.672	15956.54
508.041	16051.91
508.409	16105.24
508.777	16310.21
509.145	16391.56
509.514	16433.37
509.882	16567.83
510.25	16616.64
510.618	16797.43
510.986	16893.24
511.354	17126.23
511.722	17131.43
512.09	17405.55
512.458	17366.45
512.826	17602.6
513.193	17645.31
513.561	17680.57
513.929	17999.65
514.297	18048.69
514.664	18212.98
515.032	18278.74
515.4	18492.07
515.767	18555.35
516.135	18655.23
516.502	18613.87
516.869	18873.3
517.237	19021.55
517.604	19056.58
517.972	19305.16
518.339	19386.06
518.706	19435.1
519.073	19608.43
519.44	19904.69
519.808	19923.45
520.175	19978.36
520.542	20413.6
520.909	20407.27
521.276	20382.42
521.643	20606.82
522.009	20816.3
522.376	20969.52
522.743	21132
523.11	21386.68
523.477	21598.88
523.843	21668.71
524.21	21909.83
524.577	22004.07
524.943	22172.65
525.31	22334.46
525.676	22516.6
526.043	22576.26
526.409	22755.69
526.776	22986.64
527.142	23051.5
527.508	23259.18
527.874	23524.03
528.241	23580.52
528.607	23608.32
528.973	23948.88
529.339	23951.81
529.705	24222.32
530.071	24385.7
530.437	24463.89
530.803	24695.3
531.169	24952.47
531.535	24801.73
531.901	25011.9
532.267	25051.67
532.632	25319.69
532.998	25324.43
533.364	25586.8
533.73	25764.2
534.095	25934.59
534.461	25910.63
534.826	26168.25
535.192	26249.83
535.557	26457.51
535.923	26341.81
536.288	26603.27
536.653	26648.92
537.019	26759.88
537.384	26858.18
537.749	26941.79
538.114	27038.51
538.479	27028.79
538.845	27274.89
539.21	27309.01
539.575	27438.05
539.94	27658.61
540.305	27755.78
540.67	27634.88
541.034	27895.89
541.399	27996.91
541.764	28036.9
542.129	28113.06
542.494	28235.77
542.858	28366.16
543.223	28456.33
543.587	28543.33
543.952	28521.64
544.316	28610.22
544.681	28746.04
545.045	29030.55
545.41	29108.74
545.774	29225.35
546.138	29228.29
546.503	29380.15
546.867	29509.63
547.231	29712.79
547.595	29649.52
547.959	29910.08
548.324	29890.87
548.688	29913.46
549.052	30172.67
549.416	30306.22
549.779	30325.66
550.143	30289.95
550.507	30520.45
550.871	30712.09
551.235	30714.8
551.599	30975.13
551.962	30982.59
552.326	31113.89
552.689	31309.59
553.053	31293.99
553.417	31359.98
553.78	31888.55
554.143	31633.65
554.507	32025.5
554.87	31919.51
555.234	32281.09
555.597	32101.2
555.96	32446.05
556.323	32567.18
556.686	32493.96
557.05	32708.19
557.413	32888.98
557.776	33053.04
558.139	33287.84
558.502	33333.71
558.865	33335.97
559.228	33728.73
559.59	33746.36
559.953	33857.32
560.316	34196.97
560.679	34191.54
561.041	34414.36
561.404	34636.96
561.767	34831.53
562.129	34760.8
562.492	35134.57
562.854	35075.36
563.217	35277.84
563.579	35431.51
563.941	35698.4
564.304	35911.27
564.666	35914.44
565.028	36111.49
565.39	36282.34
565.753	36397.59
566.115	36615.66
566.477	36718.48
566.839	36723.46
567.201	37012.04
567.563	37071.02
567.925	37305.81
568.287	37356.21
568.648	37381.52
569.01	37665.13
569.372	37882.52
569.734	37921.16
570.095	38062.86
570.457	38352.79
570.819	38316.41
571.18	38381.72
571.542	38586.01
571.903	38736.28
572.265	38804.53
572.626	38926.56
572.987	39006.33
573.349	39173.56
573.71	39332.2
574.071	39312.99
574.432	39539.2
574.794	39597.96
575.155	39577.62
575.516	39692.87
575.877	39896.03
576.238	39945.29
576.599	40112.74
576.96	40120.43
577.32	40170.37
577.681	40235.23
578.042	40442.68
578.403	40410.82
578.763	40531.04
579.124	40628.66
579.485	40783.01
579.845	40895.1
580.206	40777.81
580.566	40796.34
580.927	40797.7
581.287	40968.99
581.648	40872.72
582.008	41077.47
582.368	41009.44
582.728	41022.55
583.089	40938.71
583.449	41031.14
583.809	41109.1
584.169	41170.12
584.529	41155.43
584.889	41439.04
585.249	41323.56
585.609	41070.01
585.969	41269.78
586.329	41286.95
586.688	41396.55
587.048	41300.28
587.408	41183.23
587.768	41169.21
588.127	41064.58
588.487	41162.89
588.846	41460.28
589.206	41195.2
589.565	41241.3
589.925	41489.43
590.284	41325.14
590.643	41487.85
591.003	41568.53
591.362	41545.93
591.721	41458.02
592.08	41447.4
592.44	41708.63
592.799	41675.19
593.158	41647.85
593.517	41667.05
593.876	41591.8
594.235	41635.42
594.593	41750.44
594.952	41937.1
595.311	41790.67
595.67	41838.8
596.029	41985.92
596.387	41942.3
596.746	41943.66
597.104	41897.56
597.463	41834.96
597.822	42069.53
598.18	41806.49
598.538	41910.44
598.897	42145.69
599.255	41792.47
599.613	42425.45
599.972	42107.27
600.33	42320.14
600.688	42199.7
601.046	42241.28
601.404	42439.92
601.762	42327.6
602.12	42536.41
602.478	42508.84
602.836	42576.86
603.194	42304.1
603.552	42384.55
603.91	42325.57
604.268	42554.94
604.625	42463.42
604.983	42646.69
605.341	42561.27
605.698	42699.57
606.056	42843.75
606.413	42889.17
606.771	42930.98
607.128	42900.47
607.485	42849.17
607.843	42763.52
608.2	43093.23
608.557	43132.1
608.914	43171.87
609.272	43242.61
609.629	43224.53
609.986	43349.27
610.343	43236.5
610.7	43590.85
611.057	43480.34
611.414	43412.09
611.771	43429.72
612.127	43569.83
612.484	43566.44
612.841	43636.49
613.198	43636.27
613.554	43637.4
613.911	43865.41
614.267	43791.97
614.624	43835.58
614.98	43891.4
615.337	44118.74
615.693	44001.23
616.05	43937.05
616.406	44217.5
616.762	43914
617.118	44001.68
617.475	43910.84
617.831	44169.36
618.187	44122.36
618.543	44262.01
618.899	44368.45
619.255	44369.13
619.611	44270.6
619.967	44452.52
620.323	44615.9
620.678	44363.71
621.034	44495
621.39	44442.12
621.746	44324.39
622.101	44823.81
622.457	44434.66
622.812	44573.42
623.168	44548.33
623.523	44617.71
623.879	44609.8
624.234	44360.54
624.589	44492.29
624.945	44546.53
625.3	44563.93
625.655	44465.62
626.01	44538.39
626.365	44617.03
626.72	44538.17
627.075	44612.51
627.43	44578.62
627.785	44344.05
628.14	44490.48
628.495	44616.58
628.85	44373.42
629.205	44260.21
629.559	44486.42
629.914	44266.08
630.269	44348.34
630.623	44296.59
630.978	44083.49
631.332	44357.6
631.687	44390.82
632.041	44286.87
632.396	44247.55
632.75	44027.22
633.104	44106.76
633.459	43874.91
633.813	43878.97
634.167	43858.86
634.521	43826.32
634.875	43856.38
635.229	43848.69
635.583	43571.86
635.937	43526.44
636.291	43685.08
636.645	43515.59
636.999	43507.68
637.352	43657.96
637.706	43375.71
638.06	43523.28
638.413	43311.3
638.767	43325.32
639.121	43323.73
639.474	43186.79
639.828	43155.38
640.181	43246.9
640.534	43236.5
640.888	43028.15
641.241	42911.99
641.594	42900.47
641.947	42982.05
642.301	42897.08
642.654	43000.8
643.007	42870.41
643.36	42824.09
643.713	42754.48
644.066	42927.59
644.419	42566.69
644.771	42357.43
645.124	41869.08
645.477	41975.97
645.83	41603.1
646.182	41475.87
646.535	41370.34
646.888	41498.25
647.24	41244.24
647.593	41622.76
647.945	41539.6
648.298	41279.72
648.65	41085.6
649.002	41002.66
649.355	41100.52
649.707	40998.6
650.059	41272.04
650.411	41643.55
650.763	41729.88
651.115	41969.19
651.467	41766.94
651.819	41815.07
652.171	41665.02
652.523	41735.53
652.875	41691.01
653.227	41534.18
653.578	41783.21
653.93	41570.33
654.282	41479.94
654.633	41485.36
654.985	41610.33
655.337	41552.03
655.688	41470.22
656.039	41598.58
656.391	41161.98
656.742	41260.29
657.094	41254.18
657.445	41306.16
657.796	41303.22
658.147	41054.87
658.498	41222.77
658.849	41252.83
659.2	41133.73
659.551	41125.37
659.902	41259.38
660.253	41039.05
660.604	41133.96
660.955	40965.83
661.306	41000.18
661.656	41112.49
662.007	41100.74
662.358	40957.92
662.708	41089.22
663.059	40797.7
663.409	40659.4
663.76	40950.69
664.11	40731.94
664.461	40851.03
664.811	40871.59
665.161	40855.32
665.511	40725.16
665.862	40751.37
666.212	40781.43
666.562	40933.29
666.912	40706.4
667.262	40811.26
667.612	40817.13
667.962	40754.31
668.312	40797.92
668.662	40886.74
669.011	40722.9
669.361	40878.6
669.711	40478.16
670.06	40505.73
670.41	40551.38
670.76	40371.49
671.109	40444.26
671.459	40442.91
671.808	40440.65
672.157	40647.42
672.507	40331.5
672.856	40252.4
673.205	40289.69
673.554	40411.95
673.904	40143.25
674.253	40381.89
674.602	40343.02
674.951	39699.2
675.3	39543.72
675.649	40151.16
675.998	40051.05
676.346	40057.6
676.695	40136.02
677.044	39912.3
677.393	40063.03
677.741	40104.84
678.09	39961.79
678.438	39840.21
678.787	39964.05
679.135	39969.47
679.484	39834.79
679.832	39932.64
680.181	39666.43
680.529	39777.16
680.877	39460.33
681.225	39392.76
681.573	39780.78
681.922	39489.03
682.27	39376.27
682.618	39343.27
682.966	39308.92
683.314	39373.56
683.661	39197.29
684.009	38854.47
684.357	38961.36
684.705	38910.06
685.053	39056.5
685.4	38834.13
685.748	38752.1
686.095	38866.68
686.443	38593.46
686.79	38363.19
687.138	38545.33
687.485	38598.43
687.832	38419.46
688.18	38381.94
688.527	38170.2
688.874	38116.19
689.221	37945.57
689.568	37852.24
689.915	37894.72
690.262	37884.55
690.609	37854.5
690.956	37592.58
691.303	37660.38
691.65	37362.76
691.997	37446.15
692.344	37313.04
692.69	37350.78
693.037	37311.69
693.383	36987.63
693.73	37147.4
694.077	36885.94
694.423	36942.88
694.769	36897.91
695.116	36810.68
695.462	36720.97
695.808	36583.57
696.155	36634.64
696.501	36280.98
696.847	36333.64
697.193	36208.44
697.539	36157.14
697.885	35890.93
698.231	35891.39
698.577	35779.98
698.923	35722.8
699.269	35421.79
699.614	35269.93
699.96	35313.1
700.306	35275.58
700.651	35292.31
700.997	35142.93
701.342	35036.27
701.688	34921.92
702.033	34869.04
702.379	34842.83
702.724	34805.54
703.069	34820.23
703.415	34457.07
703.76	34253.69
704.105	34322.39
704.45	34298.21
704.795	34018.44
705.14	33929.4
705.485	33875.85
705.83	33812.12
706.175	33782.29
706.52	33759.01
706.865	33605.35
707.209	33561.73
707.554	33504.78
707.899	33641.28
708.243	33392.7
708.588	33319.03
708.932	33074.06
709.277	33000.39
709.621	33049.88
709.966	32896.21
710.31	32882.88
710.654	32725.82
710.998	32800.62
711.342	32792.26
711.687	32643.79
712.031	32579.16
712.375	32556.11
712.719	32543
713.063	32359.05
713.407	32409.22
713.75	32267.75
714.094	32310.24
714.438	32288.54
714.782	32178.04
715.125	32030.02
715.469	32214.87
715.812	32103.46
716.156	31787.54
716.499	31691.27
716.843	31735.56
717.186	31555.91
717.53	31606.53
717.873	31581.9
718.216	31592.29
718.559	31472.29
718.902	31222.36
719.246	31284.73
719.589	31176.48
719.932	31242.7
720.275	31213.09
720.617	31019.2
720.96	31070.27
721.303	31035.02
721.646	30934.23
721.989	30757.06
722.331	30788.92
722.674	30720
723.016	30800.45
723.359	30652.65
723.701	30717.06
724.044	30383.51
724.386	30427.12
724.729	30525.43
725.071	30300.35
725.413	30329.95
725.755	30218.99
726.097	30134.7
726.439	30015.16
726.782	30013.35
727.124	30053.57
727.465	29845.44
727.807	29891.77
728.149	29787.59
728.491	29847.03
728.833	29887.02
729.175	29697.65
729.516	29563.87
729.858	29574.94
730.199	29641.16
730.541	29486.13
730.882	29633.7
731.224	29648.61
731.565	29368.85
731.906	29369.52
732.248	29391.22
732.589	29211.79
732.93	29081.62
733.271	28975.86
733.612	29112.13
733.953	29202.98
734.294	29004.79
734.635	28997.78
734.976	29108.06
735.317	28890.89
735.658	28947.16
735.999	28834.62
736.339	28806.6
736.68	28849.31
737.021	28704.01
737.361	28642.54
737.702	28710.11
738.042	28551.01
738.383	28511.24
738.723	28682.31
739.063	28555.76
739.404	28538.59
739.744	28429.66
740.084	28458.14
740.424	28466.5
740.764	28349.89
741.104	28411.58
741.444	28145.38
741.784	28059.73
742.124	28192.61
742.464	28136.11
742.804	28009.11
743.143	27988.77
743.483	28016.79
743.823	27809.57
744.162	27692.96
744.502	27812.5
744.841	27646.18
745.181	27808.44
745.52	27654.09
745.86	27525.28
746.199	27614.77
746.538	27494.55
746.877	27637.37
747.216	27391.27
747.556	27398.05
747.895	27387.88
748.234	27345.4
748.573	27252.07
748.911	27157.83
749.25	27210.49
749.589	27065.18
749.928	27013.65
750.267	26980.89
750.605	26986.76
750.944	26848.01
751.283	26805.3
751.621	26888.91
751.96	26609.82
752.298	26722.14
752.636	26684.17
752.975	26438.75
753.313	26383.61
753.651	26584.74
753.989	26432.2
