Data from plate_ceramic_FLMS001491_027.txt Node
Date: Tue Feb 07 11:16:32 GMT 2017
User: dcchb
Spectrometer: FLMS00149
Trigger mode: 0
Integration Time (sec): 2.000000E-2
Scans to average: 10
Electric dark correction enabled: true
Nonlinearity correction enabled: false
Boxcar width: 0
XAxis mode: Wavelengths
Number of Pixels in Spectrum: 2048
>>>>>Begin Spectral Data<<<<<
341.393	-18.38
341.776	-18.38
342.16	-18.38
342.543	-56.57
342.927	-45.04
343.31	-54.31
343.693	-68.77
344.077	-69.22
344.46	-54.98
344.843	-59.73
345.226	-39.62
345.61	-46.85
345.993	-21.99
346.376	-9.34
346.759	23.66
347.142	24.11
347.525	36.54
347.908	64.79
348.291	60.04
348.674	102.75
349.057	112.92
349.44	111.56
349.823	133.94
350.206	163.54
350.588	211.9
350.971	219.13
351.354	231.11
351.737	250.77
352.119	260.04
352.502	271.56
352.884	285.12
353.267	303.88
353.65	316.31
354.032	317.89
354.414	313.14
354.797	334.61
355.179	330.99
355.562	333.25
355.944	330.32
356.326	350.88
356.709	353.82
357.091	338.9
357.473	352.91
357.855	361.73
358.238	369.41
358.62	351.78
359.002	359.47
359.384	352.91
359.766	346.59
360.148	350.88
360.53	368.73
360.912	347.04
361.294	345.01
361.676	331.9
362.057	339.13
362.439	350.2
362.821	351.56
363.203	355.63
363.584	333.25
363.966	332.12
364.348	340.26
364.729	360.37
365.111	345.23
365.493	353.14
365.874	349.75
366.256	341.16
366.637	344.33
367.019	342.52
367.4	345.91
367.781	338.45
368.163	340.71
368.544	346.36
368.925	359.02
369.306	354.04
369.688	335.51
370.069	323.99
370.45	357.43
370.831	368.73
371.212	329.86
371.593	341.16
371.974	346.13
372.355	343.65
372.736	353.14
373.117	331.45
373.498	347.26
373.879	347.04
374.26	357.89
374.641	339.58
375.021	359.69
375.402	359.02
375.783	367.38
376.163	375.29
376.544	369.86
376.925	374.38
377.305	360.15
377.686	380.48
378.066	376.64
378.447	375.51
378.827	362.41
379.208	396.76
379.588	389.3
379.968	383.87
380.349	365.8
380.729	391.78
381.109	408.05
381.489	408.96
381.87	411.9
382.25	380.48
382.63	393.14
383.01	390.2
383.39	414.16
383.77	409.86
384.15	410.77
384.53	408.96
384.91	401.05
385.29	429.3
385.67	434.72
386.049	440.6
386.429	429.52
386.809	439.01
387.189	420.03
387.568	446.47
387.948	451.89
388.328	463.19
388.707	458.22
389.087	457.32
389.466	473.59
389.846	458.22
390.225	461.84
390.605	467.94
390.984	465.23
391.363	468.84
391.743	478.56
392.122	479.69
392.501	488.5
392.881	478.11
393.26	480.82
393.639	508.16
394.018	506.81
394.397	494.38
394.776	502.52
395.155	525.57
395.534	498.45
395.913	499.8
396.292	506.58
396.671	545
397.05	532.57
397.429	556.07
397.808	525.34
398.186	547.49
398.565	562.85
398.944	555.4
399.323	565.79
399.701	577.09
400.08	603.3
400.458	575.51
400.837	585.68
401.215	580.03
401.594	606.92
401.972	596.98
402.351	593.81
402.729	632.91
403.107	598.33
403.486	610.53
403.864	607.6
404.242	624.77
404.62	635.62
404.999	636.97
405.377	630.42
405.755	615.05
406.133	664.32
406.511	661.83
406.889	650.53
407.267	684.66
407.645	679.23
408.023	707.71
408.401	705.22
408.779	700.02
409.156	733.7
409.534	734.83
409.912	727.14
410.29	740.47
410.667	760.14
411.045	752.9
411.422	760.81
411.8	761.27
412.178	782.06
412.555	779.57
412.933	805.33
413.31	818.66
413.687	846.01
414.065	817.99
414.442	820.25
414.819	821.6
415.197	860.02
415.574	864.31
415.951	873.13
416.328	894.82
416.705	881.26
417.082	909.51
417.46	926.91
417.837	920.13
418.214	932.11
418.591	935.27
418.967	932.56
419.344	988.6
419.721	948.83
420.098	980.69
420.475	989.73
420.852	991.54
421.228	1022.28
421.605	998.55
421.982	1033.8
422.358	1038.77
422.735	1019.11
423.111	1034.7
423.488	1061.82
423.864	1058.88
424.241	1080.35
424.617	1074.93
424.994	1103.18
425.37	1082.39
425.746	1101.14
426.123	1151.76
426.499	1139.56
426.875	1140.24
427.251	1169.62
427.627	1163.06
428.003	1175.27
428.379	1205.77
428.756	1217.52
429.132	1248.26
429.507	1246.22
429.883	1266.34
430.259	1277.18
430.635	1299.33
431.011	1334.13
431.387	1346.56
431.763	1362.38
432.138	1343.85
432.514	1366.45
432.89	1384.07
433.265	1421.13
433.641	1439.89
434.016	1435.15
434.392	1437.18
434.767	1483.28
435.143	1487.35
435.518	1517.63
435.894	1550.85
436.269	1522.15
436.644	1579.77
437.02	1558.31
437.395	1561.92
437.77	1602.6
438.145	1640.79
438.52	1634.91
438.895	1681.69
439.271	1642.6
439.646	1690.28
440.021	1686.66
440.395	1708.81
440.77	1712.65
441.145	1717.62
441.52	1741.58
441.895	1753.1
442.27	1792.65
442.645	1785.19
443.019	1785.42
443.394	1784.74
443.769	1825.64
444.143	1808.7
444.518	1851.41
444.892	1834.01
445.267	1864.74
445.641	1880.78
446.016	1870.61
446.39	1888.69
446.764	1895.47
447.139	1915.13
447.513	1960.33
447.887	1978.18
448.262	1953.1
448.636	1980.89
449.01	2013.89
449.384	2061.8
449.758	2023.38
450.132	2047.33
450.506	2049.82
450.88	2078.97
451.254	2075.81
451.628	2081.23
452.002	2162.13
452.376	2159.42
452.75	2184.28
453.123	2175.24
453.497	2216.59
453.871	2224.73
454.244	2253.2
454.618	2295.24
454.992	2329.81
455.365	2337.04
455.739	2396.25
456.112	2429.02
456.486	2414.56
456.859	2464.5
457.232	2540.65
457.606	2474.44
457.979	2539.75
458.352	2586.75
458.725	2639.86
459.099	2655.45
459.472	2667.66
459.845	2680.99
460.218	2708.33
460.591	2773.42
460.964	2793.3
461.337	2846.18
461.71	2840.98
462.083	2952.17
462.456	2934.54
462.829	2972.28
463.201	2972.05
463.574	3011.38
463.947	3047.53
464.32	3127.08
464.692	3138.38
465.065	3174.31
465.438	3216.79
465.81	3281.65
466.183	3308.32
466.555	3370.46
466.928	3414.75
467.3	3390.35
467.672	3471.25
468.045	3525.49
468.417	3595.54
468.789	3598.25
469.161	3618.37
469.534	3713.05
469.906	3791.47
470.278	3777.01
470.65	3860.62
471.022	3910.79
471.394	4028.52
471.766	4025.81
472.138	4030.56
472.51	4149.2
472.882	4239.14
473.253	4268.74
473.625	4283.21
473.997	4403.2
474.369	4424.67
474.74	4482.3
475.112	4580.15
475.484	4657.43
475.855	4707.38
476.227	4788.28
476.598	4942.85
476.97	4932
477.341	5064.65
477.713	5176.97
478.084	5179.91
478.455	5275.95
478.827	5358.43
479.198	5525.43
479.569	5524.3
479.94	5658.09
480.311	5662.38
480.682	5847.23
481.053	5974.69
481.424	6000.45
481.795	6103.72
482.166	6215.59
482.537	6258.52
482.908	6444.51
483.279	6511.85
483.65	6585.74
484.021	6777.83
484.391	6833.2
484.762	6891.5
485.133	6990.71
485.503	7079.07
485.874	7177.82
486.244	7316.35
486.615	7416.23
486.985	7560.86
487.356	7628.2
487.726	7782.32
488.097	7936.22
488.467	7904.13
488.837	8062.09
489.207	8182.31
489.578	8308.19
489.948	8405.13
490.318	8501.63
490.688	8562.64
491.058	8714.05
491.428	8783.88
491.798	8825.23
492.168	9050.54
492.538	9134.38
492.908	9240.82
493.278	9317.42
493.648	9274.94
494.017	9472.67
494.387	9601.03
494.757	9686.68
495.126	9729.84
495.496	9775.27
495.866	9929.39
496.235	10021.81
496.605	10156.95
496.974	10101.58
497.344	10257.74
497.713	10323.95
498.082	10439.65
498.452	10519.88
498.821	10625.41
499.19	10677.61
499.559	10752.64
499.928	10802.58
500.298	10811.85
500.667	11016.59
501.036	10998.51
501.405	11127.32
501.774	11162.8
502.143	11237.37
502.512	11376.35
502.88	11442.57
503.249	11446.18
503.618	11572.51
503.987	11626.97
504.356	11713.29
504.724	11802.56
505.093	11877.81
505.462	11937.47
505.83	12020.86
506.199	12208.2
506.567	12290.91
506.936	12271.92
507.304	12439.83
507.672	12439.6
508.041	12632.14
508.409	12624.91
508.777	12765.92
509.145	12806.37
509.514	12903.32
509.882	13049.08
510.25	13084.78
510.618	13130.21
510.986	13251.33
511.354	13390.99
511.722	13520.7
512.09	13615.62
512.458	13669.4
512.826	13790.53
513.193	13835.27
513.561	13913.46
513.929	14057.64
514.297	14110.97
514.664	14283.62
515.032	14404.97
515.4	14432.54
515.767	14561.58
516.135	14548.02
516.502	14524.75
516.869	14867.11
517.237	14930.16
517.604	14890.61
517.972	15110.04
518.339	15211.51
518.706	15264.84
519.073	15423.7
519.44	15466.19
519.808	15662.12
520.175	15696.01
520.542	15955.44
520.909	15997.93
521.276	16016.46
521.643	16185.04
522.009	16343.68
522.376	16497.35
522.743	16519.95
523.11	16722.2
523.477	16860.05
523.843	17004.91
524.21	17221.62
524.577	17347.5
524.943	17426.14
525.31	17535.74
525.676	17671.78
526.043	17768.5
526.409	17897.31
526.776	18086.46
527.142	18176.4
527.508	18230.41
527.874	18411.87
528.241	18595.15
528.607	18594.24
528.973	18748.14
529.339	18784.75
529.705	18970.5
530.071	19141.35
530.437	19210.95
530.803	19363.71
531.169	19571.39
531.535	19528.46
531.901	19658.85
532.267	19653.88
532.632	19892.74
532.998	19968.44
533.364	19972.51
533.73	20177.03
534.095	20354.65
534.461	20339.06
534.826	20557.58
535.192	20580.18
535.557	20734.53
535.923	20794.18
536.288	20868.53
536.653	20948.31
537.019	20886.39
537.384	21021.75
537.749	21187.62
538.114	21207.28
538.479	21171.58
538.845	21486.14
539.21	21372.02
539.575	21547.84
539.94	21597.33
540.305	21689.75
540.67	21709.87
541.034	21907.38
541.399	21930.43
541.764	22055.62
542.129	22110.08
542.494	22216.52
542.858	22221.04
543.223	22339.45
543.587	22541.03
543.952	22424.2
544.316	22496.74
544.681	22522.05
545.045	22710.97
545.41	22996.61
545.774	22909.61
546.138	22924.75
546.503	23057.4
546.867	23028.48
547.231	23361.12
547.595	23372.87
547.959	23436.38
548.324	23427.79
548.688	23548.24
549.052	23694
549.416	23793.65
549.779	23783.03
550.143	23937.83
550.507	24089.47
550.871	24107.54
551.235	24196.36
551.599	24378.72
551.962	24357.26
552.326	24416.69
552.689	24569
553.053	24493.75
553.417	24624.59
553.78	24985.94
554.143	24826.17
554.507	25065.03
554.87	25154.3
555.234	25341.18
555.597	25180.06
555.96	25394.97
556.323	25559.48
556.686	25624.79
557.05	25788.4
557.413	25964.44
557.776	25856.88
558.139	26116.76
558.502	26087.83
558.865	26271.1
559.228	26507.93
559.59	26548.61
559.953	26596.29
560.316	26987.69
560.679	26917.41
561.041	27037.64
561.404	27136.62
561.767	27283.28
562.129	27262.94
562.492	27621.8
562.854	27677.85
563.217	27612.31
563.579	27886.2
563.941	28020.44
564.304	28202.8
564.666	28331.16
565.028	28330.48
565.39	28496.13
565.753	28608.44
566.115	28695.22
566.477	28799.85
566.839	28956
567.201	29229.9
567.563	29299.05
567.925	29359.16
568.287	29490.68
568.648	29412.72
569.01	29579.26
569.372	29930.89
569.734	29933.61
570.095	29981.97
570.457	30175.86
570.819	30178.34
571.18	30272.81
571.542	30360.94
571.903	30541.27
572.265	30736.3
572.626	30719.57
572.987	30694.04
573.349	30888.38
573.71	30969.06
574.071	31043.41
574.432	31152.78
574.794	31433.45
575.155	31364.3
575.516	31420.12
575.877	31522.94
576.238	31575.82
576.599	31642.04
576.96	31533.34
577.32	31697.4
577.681	31819.66
578.042	31875.48
578.403	31928.36
578.763	31895.59
579.124	32052.42
579.485	32267.1
579.845	32277.72
580.206	32198.86
580.566	32254.45
580.927	32212.64
581.287	32345.75
581.648	32344.16
582.008	32391.62
582.368	32423.71
582.728	32445.63
583.089	32342.36
583.449	32491.28
583.809	32546.19
584.169	32662.35
584.529	32565.17
584.889	32745.06
585.249	32539.86
585.609	32591.39
585.969	32848.11
586.329	32735.57
586.688	32872.06
587.048	32666.64
587.408	32712.74
587.768	32666.64
588.127	32664.16
588.487	32686.3
588.846	32877.03
589.206	32578.73
589.565	32723.59
589.925	32880.65
590.284	32606.08
590.643	32756.13
591.003	32933.53
591.362	32935.56
591.721	32822.57
592.08	32732.85
592.44	32976.24
592.799	33046.07
593.158	32999.97
593.517	33023.02
593.876	33074.09
594.235	33088.1
594.593	32971.04
594.952	33161.54
595.311	32936.92
595.67	33138.04
596.029	33325.61
596.387	33236.12
596.746	33326.96
597.104	33147.76
597.463	33144.37
597.822	33361.09
598.18	33152.5
598.538	33201.99
598.897	33422.1
599.255	33144.59
599.613	33636.33
599.972	33335.78
600.33	33476.34
600.688	33331.48
601.046	33615.54
601.404	33650.57
601.762	33491.25
602.12	33814.86
602.478	33893.5
602.836	33711.13
603.194	33418.71
603.552	33634.3
603.91	33552.27
604.268	33778.25
604.625	33592.49
604.983	33758.59
605.341	33636.33
605.698	33894.63
606.056	33883.78
606.413	33934.86
606.771	33983.44
607.128	34174.4
607.485	34070.67
607.843	34081.52
608.2	34134.4
608.557	34363.77
608.914	34190.44
609.272	34201.06
609.629	34432.47
609.986	34410.55
610.343	34389.08
610.7	34640.83
611.057	34567.61
611.414	34509.3
611.771	34562.18
612.127	34674.72
612.484	34650.32
612.841	34765.12
613.198	34724.67
613.554	34708.62
613.911	34846.24
614.267	34745.68
614.624	34700.03
614.98	35033.36
615.337	35061.61
615.693	34923.08
616.05	34912.91
616.406	35290.75
616.762	35172.56
617.118	35048.95
617.475	35002.17
617.831	35145.45
618.187	35292.33
618.543	35268.83
618.899	35379.79
619.255	35377.3
619.611	35255.27
619.967	35390.41
620.323	35366.46
620.678	35360.58
621.034	35308.38
621.39	35221.83
621.746	35224.31
622.101	35641.93
622.457	35208.72
622.812	35284.2
623.168	35352.9
623.523	35520.35
623.879	35580.91
624.234	35118.78
624.589	35527.81
624.945	35478.09
625.3	35587.69
625.655	35347.47
626.01	35528.49
626.365	35581.14
626.72	35341.82
627.075	35411.2
627.43	35396.74
627.785	35290.75
628.14	35489.39
628.495	35555.38
628.85	35502.27
629.205	35196.97
629.559	35305.67
629.914	35361.03
630.269	35157.65
630.623	35216.63
630.978	35207.14
631.332	35293.01
631.687	35235.16
632.041	35003.53
632.396	35262.73
632.75	35052.12
633.104	35074.71
633.459	34864.78
633.813	34811.22
634.167	34783.65
634.521	34879.01
634.875	34865.45
635.229	34806.47
635.583	34599.02
635.937	34766.7
636.291	34671.79
636.645	34717.43
636.999	34612.13
637.352	34697.32
637.706	34443.32
638.06	34540.72
638.413	34348.18
638.767	34360.61
639.121	34429.31
639.474	34204
639.828	34355.64
640.181	34333.26
640.534	34242.87
640.888	34241.29
641.241	33935.31
641.594	34033.16
641.947	34061.63
642.301	34039.26
642.654	34048.98
643.007	33985.93
643.36	33877
643.713	33855.31
644.066	33973.5
644.419	33738.93
644.771	33469.56
645.124	33184.14
645.477	33120.41
645.83	32915.45
646.182	32819.86
646.535	32728.33
646.888	32727.2
647.24	32566.53
647.593	32912.74
647.945	32864.6
648.298	32639.75
648.65	32428.23
649.002	32399.98
649.355	32614.89
649.707	32520.66
650.059	32644.27
650.411	32942.11
650.763	32955.45
651.115	33205.16
651.467	33232.5
651.819	33132.62
652.171	33168.32
652.523	32976.69
652.875	32930.14
653.227	32838.84
653.578	33185.72
653.93	33006.29
654.282	32833.87
654.633	32801.78
654.985	32886.3
655.337	32877.48
655.688	32961.1
656.039	32905.5
656.391	32689.47
656.742	32790.25
657.094	32809.69
657.445	32823.47
657.796	32706.87
658.147	32717.49
658.498	32566.53
658.849	32645.17
659.2	32537.38
659.551	32467.1
659.902	32675.23
660.253	32545.29
660.604	32529.02
660.955	32414.67
661.306	32452.41
661.656	32444.27
662.007	32338.74
662.358	32380.55
662.708	32369.25
663.059	32436.14
663.409	32109.82
663.76	32479.53
664.11	32389.36
664.461	32271.85
664.811	32364.5
665.161	32252.64
665.511	32206.09
665.862	32202.25
666.212	32256.71
666.562	32329.93
666.912	32256.26
667.262	32265.97
667.612	32135.13
667.962	32050.61
668.312	32082.48
668.662	32244.96
669.011	32198.86
669.361	32174.9
669.711	31970.84
670.06	32007
670.41	31959.09
670.76	32114.34
671.109	32060.78
671.459	32018.3
671.808	31948.47
672.157	32049.26
672.507	31800.22
672.856	31831.41
673.205	31808.81
673.554	31955.93
673.904	31858.75
674.253	31957.73
674.602	31920.45
674.951	31331.99
675.3	31273.91
675.649	31685.2
675.998	31681.58
676.346	31745.76
676.695	31837.96
677.044	31614.92
677.393	31554.81
677.741	31614.01
678.09	31447.24
678.438	31554.35
678.787	31539.67
679.135	31565.88
679.484	31334.92
679.832	31394.81
680.181	31195.04
680.529	31235.94
680.877	31146.91
681.225	31144.42
681.573	31263.29
681.922	31066.68
682.27	30976.74
682.618	31076.17
682.966	30981.49
683.314	30952.79
683.661	30861.94
684.009	30820.59
684.357	30663.76
684.705	30634.6
685.053	30695.62
685.4	30606.58
685.748	30434.16
686.095	30487.94
686.443	30470.99
686.79	30254.05
687.138	30310.09
687.485	30398.23
687.832	30370.66
688.18	30238.91
688.527	30085.01
688.874	30097.9
689.221	29912.82
689.568	29755.53
689.915	29950.55
690.262	29756.21
690.609	29669.66
690.956	29666.27
691.303	29584.91
691.65	29447.52
691.997	29515.54
692.344	29257.69
692.69	29335.2
693.037	29302.21
693.383	29193.29
693.73	29351.02
694.077	29110.35
694.423	29265.6
694.769	29071.26
695.116	28950.35
695.462	28838.72
695.808	28728.67
696.155	28761.88
696.501	28502.68
696.847	28479.63
697.193	28331.16
697.539	28332.52
697.885	28156.48
698.231	28101.56
698.577	27997.61
698.923	28004.84
699.269	27891.17
699.614	27742.48
699.96	27721.46
700.306	27822.47
700.651	27630.16
700.997	27568.92
701.342	27562.37
701.688	27416.61
702.033	27399.21
702.379	27386.1
702.724	27226.11
703.069	27328.48
703.415	26952.22
703.76	26974.36
704.105	27000.35
704.45	26963.06
704.795	26846.91
705.14	26721.49
705.485	26794.48
705.83	26601.04
706.175	26573.47
706.52	26553.81
706.865	26459.35
707.209	26414.15
707.554	26253.02
707.899	26403.53
708.243	26250.99
708.588	26143.87
708.932	25973.94
709.277	26020.49
709.621	26050.32
709.966	25905.46
710.31	25900.27
710.654	25657.11
710.998	25770.78
711.342	25752.25
711.687	25637.9
712.031	25544.79
712.375	25424.12
712.719	25514.06
713.063	25356.32
713.407	25519.94
713.75	25343.44
714.094	25277.91
714.438	25127.86
714.782	25283.33
715.125	25177.57
715.469	25097.57
715.812	25051.25
716.156	24877.47
716.499	24937.58
716.843	24950.01
717.186	24753.4
717.53	24806.06
717.873	24841.54
718.216	24746.62
718.559	24549.11
718.902	24511.83
719.246	24463.47
719.589	24455.11
719.932	24352.96
720.275	24366.97
720.617	24373.75
720.96	24187.99
721.303	24313.41
721.646	24179.18
721.989	24072.06
722.331	24221.89
722.674	23992.29
723.016	24029.35
723.359	23967.66
723.701	23930.83
724.044	23873.43
724.386	23743.71
724.729	23763.37
725.071	23822.35
725.413	23667.78
725.755	23725.18
726.097	23621.91
726.439	23526.09
726.782	23536.03
727.124	23705.29
727.465	23492.19
727.807	23457.84
728.149	23506.88
728.491	23308.47
728.833	23436.6
729.175	23244.97
729.516	23329.94
729.858	23126.55
730.199	23224.18
730.541	23183.95
730.882	23120.68
731.224	23050.4
731.565	23018.76
731.906	23102.6
732.248	22981.92
732.589	22871.42
732.93	22841.14
733.271	22871.19
733.612	22845.43
733.953	22897.86
734.294	22704.87
734.635	22662.84
734.976	22788.71
735.317	22578.09
735.658	22637.75
735.999	22567.02
736.339	22560.47
736.68	22492.9
737.021	22474.82
737.361	22320.47
737.702	22461.49
738.042	22446.57
738.383	22367.02
738.723	22354.14
739.063	22235.28
739.404	22251.32
739.744	22254.26
740.084	22195.28
740.424	22108.27
740.764	22057.88
741.104	22149.4
741.444	22036.86
741.784	21949.41
742.124	22009.97
742.464	21955.96
742.804	21828.51
743.143	21838.45
743.483	21899.01
743.823	21663.77
744.162	21668.96
744.502	21743.76
744.841	21662.86
745.181	21745.35
745.52	21448.4
745.86	21674.16
746.199	21457.44
746.538	21505.8
746.877	21641.17
747.216	21489.31
747.556	21348.97
747.895	21434.85
748.234	21326.37
748.573	21306.94
748.911	21235.76
749.25	21167.06
749.589	21167.28
749.928	21107.4
750.267	21103.1
750.605	21147.85
750.944	21050.9
751.283	20856.78
751.621	20959.6
751.96	20892.04
752.298	20852.94
752.636	20843
752.975	20680.97
753.313	20633.29
753.651	20802.77
753.989	20519.84
754.327	20430.35
