Data from plate_ceramic_FLMS001491_031.txt Node
Date: Tue Feb 07 11:16:39 GMT 2017
User: dcchb
Spectrometer: FLMS00149
Trigger mode: 0
Integration Time (sec): 2.000000E-2
Scans to average: 10
Electric dark correction enabled: true
Nonlinearity correction enabled: false
Boxcar width: 0
XAxis mode: Wavelengths
Number of Pixels in Spectrum: 2048
>>>>>Begin Spectral Data<<<<<
341.393	7.91
341.776	7.91
342.16	7.91
342.543	-49.04
342.927	-62.15
343.31	-72.09
343.693	-73.22
344.077	-88.81
344.46	-71.86
344.843	-52.65
345.226	-44.52
345.61	-58.76
345.993	-14.01
346.376	4.29
346.759	34.8
347.142	41.81
347.525	50.17
347.908	63.05
348.291	85.87
348.674	91.97
349.057	103.95
349.44	118.87
349.823	156.38
350.206	169.04
350.588	208.58
350.971	223.04
351.354	247.45
351.737	256.72
352.119	275.25
352.502	287.22
352.884	310.05
353.267	315.02
353.65	315.25
354.032	316.15
354.414	317.28
354.797	355.47
355.179	343.27
355.562	354.34
355.944	341.23
356.326	355.7
356.709	366.09
357.091	361.57
357.473	362.48
357.855	380.78
358.238	353.89
358.62	340.56
359.002	365.19
359.384	390.5
359.766	363.83
360.148	379.65
360.53	376.94
360.912	369.03
361.294	368.58
361.676	362.25
362.057	376.71
362.439	351.63
362.821	349.14
363.203	355.02
363.584	354.11
363.966	362.7
364.348	395.92
364.729	362.02
365.111	368.58
365.493	342.36
365.874	361.35
366.256	373.78
366.637	359.09
367.019	352.08
367.4	361.12
367.781	352.76
368.163	364.74
368.544	369.48
368.925	365.41
369.306	376.94
369.688	389.14
370.069	363.83
370.45	361.35
370.831	372.42
371.212	359.54
371.593	350.95
371.974	376.49
372.355	378.52
372.736	380.1
373.117	384.17
373.498	374.45
373.879	395.02
374.26	387.79
374.641	359.76
375.021	406.09
375.402	398.18
375.783	409.25
376.163	394.34
376.544	387.56
376.925	424.85
377.305	406.09
377.686	413.77
378.066	409.93
378.447	436.6
378.827	413.1
379.208	430.05
379.588	428.01
379.968	417.39
380.349	404.74
380.729	425.53
381.109	429.82
381.489	448.12
381.87	449.03
382.25	449.03
382.63	443.6
383.01	431.63
383.39	443.83
383.77	466.65
384.15	469.14
384.53	463.94
384.91	470.5
385.29	459.2
385.67	465.75
386.049	482.02
386.429	464.85
386.809	490.38
387.189	467.33
387.568	494.45
387.948	491.51
388.328	500.78
388.707	520.44
389.087	515.69
389.466	516.6
389.846	519.53
390.225	508.69
390.605	541.45
390.984	539.87
391.363	540.55
391.743	529.25
392.122	548.91
392.501	546.65
392.881	568.57
393.26	571.28
393.639	576.03
394.018	581.45
394.397	579.42
394.776	586.65
395.155	611.06
395.534	606.99
395.913	625.07
396.292	611.51
396.671	617.61
397.05	612.41
397.429	633.2
397.808	638.4
398.186	624.84
398.565	647.21
398.944	637.5
399.323	646.99
399.701	645.86
400.08	648.34
400.458	663.71
400.837	682.92
401.215	685.41
401.594	693.77
401.972	688.12
402.351	704.61
402.729	726.08
403.107	714.56
403.486	737.16
403.864	739.64
404.242	745.52
404.62	722.01
404.999	738.06
405.377	769.47
405.755	773.09
406.133	761.79
406.511	795.46
406.889	802.92
407.267	798.4
407.645	827.32
408.023	831.39
408.401	837.72
408.779	821
409.156	884.27
409.534	853.99
409.912	879.52
410.29	893.08
410.667	889.92
411.045	916.59
411.422	942.8
411.8	937.15
412.178	939.86
412.555	960.43
412.933	963.14
413.31	989.35
413.687	1004.49
414.065	1003.59
414.442	1035.9
414.819	1020.09
415.197	1047.88
415.574	1073.64
415.951	1066.19
416.328	1074.1
416.705	1087.2
417.082	1125.62
417.46	1119.74
417.837	1133.3
418.214	1142.12
418.591	1141.66
418.967	1117.71
419.344	1152.74
419.721	1178.95
420.098	1183.25
420.475	1204.94
420.852	1216.47
421.228	1224.37
421.605	1248.78
421.982	1227.09
422.358	1251.04
422.735	1264.83
423.111	1293.53
423.488	1308.21
423.864	1307.54
424.241	1326.29
424.617	1323.58
424.994	1377.36
425.37	1349.12
425.746	1395.9
426.123	1412.17
426.499	1391.6
426.875	1429.57
427.251	1439.06
427.627	1486.97
428.003	1508.21
428.379	1520.64
428.756	1532.62
429.132	1520.64
429.507	1594.31
429.883	1592.05
430.259	1620.75
430.635	1607.42
431.011	1626.17
431.387	1697.81
431.763	1692.16
432.138	1703.01
432.514	1740.07
432.89	1737.13
433.265	1763.57
433.641	1780.29
434.016	1834.75
434.392	1838.37
434.767	1905.71
435.143	1886.5
435.518	1905.49
435.894	1928.76
436.269	1963.56
436.644	1994.07
437.02	2003.79
437.395	2014.41
437.77	2053.51
438.145	2063.22
438.52	2081.75
438.895	2133.96
439.271	2121.98
439.646	2172.6
440.021	2177.57
440.395	2185.93
440.77	2185.71
441.145	2224.12
441.52	2252.82
441.895	2255.08
442.27	2289.43
442.645	2284.23
443.019	2350.22
443.394	2322.2
443.769	2361.07
444.143	2336.89
444.518	2381.41
444.892	2375.76
445.267	2357.23
445.641	2424.8
446.016	2414.4
446.39	2420.28
446.764	2444.46
447.139	2486.04
447.513	2495.08
447.887	2507.28
448.262	2548.18
448.636	2516.54
449.01	2586.37
449.384	2586.37
449.758	2612.59
450.132	2629.08
450.506	2665.24
450.88	2687.84
451.254	2680.16
451.628	2758.8
452.002	2732.36
452.376	2805.8
452.75	2787.5
453.123	2855.52
453.497	2922.18
453.871	2897.78
454.244	2934.61
454.618	2988.4
454.992	3009.19
455.365	3013.25
455.739	3117.66
456.112	3152.23
456.486	3170.54
456.859	3171.44
457.232	3268.39
457.606	3279.91
457.979	3314.26
458.352	3395.62
458.725	3454.37
459.099	3482.85
459.472	3526.01
459.845	3555.84
460.218	3601.26
460.591	3610.07
460.964	3636.97
461.337	3723.29
461.71	3774.36
462.083	3839.67
462.456	3824.31
462.829	3848.94
463.201	3959.22
463.574	3966.68
463.947	4021.36
464.32	4080.34
464.692	4137.97
465.065	4161.47
465.438	4255.03
465.81	4289.38
466.183	4345.42
466.555	4450.05
466.928	4451.18
467.3	4457.06
467.672	4551.29
468.045	4670.61
468.417	4688.46
468.789	4724.17
469.161	4759.65
469.534	4827.22
469.906	4966.2
470.278	4953.99
470.65	5044.39
471.022	5126.87
471.394	5276.25
471.766	5358.28
472.138	5397.82
472.51	5484.38
472.882	5580.19
473.253	5648.44
473.625	5732.73
473.997	5845.04
474.369	5917.81
474.74	5926.17
475.112	6018.6
475.484	6160.97
475.855	6207.97
476.227	6318.48
476.598	6470.56
476.97	6536.33
477.341	6688.41
477.713	6838.92
478.084	6816.54
478.455	7036.88
478.827	7083.2
479.198	7335.4
479.569	7314.84
479.94	7482.29
480.311	7580.37
480.682	7756.18
481.053	7938.1
481.424	8007.93
481.795	8085.21
482.166	8261.7
482.537	8365.2
482.908	8544.63
483.279	8682.94
483.65	8812.2
484.021	9063.26
484.391	9069.59
484.762	9188.23
485.133	9361.56
485.503	9404.05
485.874	9570.14
486.244	9666.86
486.615	9936.24
486.985	10039.51
487.356	10232.73
487.726	10245.83
488.097	10578.48
488.467	10545.94
488.837	10757.23
489.207	10989.99
489.578	11048.52
489.948	11125.36
490.318	11274.51
490.688	11399.93
491.058	11603.31
491.428	11716.08
491.798	11859.8
492.168	12085.11
492.538	12128.95
492.908	12338.88
493.278	12414.81
493.648	12517.41
494.017	12631.76
494.387	12717.41
494.757	12975.48
495.126	13069.94
495.496	13044.85
495.866	13276.26
496.235	13364.17
496.605	13491.85
496.974	13563.03
497.344	13676.02
497.713	13856.13
498.082	13953.98
498.452	14065.62
498.821	14155.11
499.19	14168.67
499.559	14319.85
499.928	14472.39
500.298	14502.44
500.667	14679.39
501.036	14643
501.405	14870.12
501.774	14861.53
502.143	15080.06
502.512	15112.82
502.88	15300.84
503.249	15284.57
503.618	15440.5
503.987	15567.95
504.356	15682.07
504.724	15786.03
505.093	15799.36
505.462	15823.09
505.83	16038.67
506.199	16225.34
506.567	16355.5
506.936	16411.77
507.304	16641.14
507.672	16640.92
508.041	16734.25
508.409	16841.59
508.777	17033.68
509.145	17232.09
509.514	17151.19
509.882	17390.5
510.25	17413.1
510.618	17556.83
510.986	17723.6
511.354	17905.07
511.722	17877.72
512.09	18206.75
512.458	18134.21
512.826	18418.95
513.193	18432.74
513.561	18515.9
513.929	18761.31
514.297	18824.82
514.664	19014.87
515.032	19172.38
515.4	19375.99
515.767	19395.65
516.135	19520.84
516.502	19428.64
516.869	19873.6
517.237	19894.62
517.604	19959.93
517.972	20141.39
518.339	20352.91
518.706	20332.12
519.073	20479.24
519.44	20702.73
519.808	20934.82
520.175	21033.35
520.542	21291.87
520.909	21304.75
521.276	21249.84
521.643	21610.28
522.009	21789.71
522.376	21970.5
522.743	22121.68
523.11	22238.06
523.477	22553.08
523.843	22699.97
524.21	22828.1
524.577	23012.73
524.943	23231.48
525.31	23319.84
525.676	23490.91
526.043	23569.55
526.409	23758.25
526.776	24115.52
527.142	24216.76
527.508	24395.06
527.874	24603.65
528.241	24663.98
528.607	24856.75
528.973	25149.62
529.339	25119.57
529.705	25329.5
530.071	25530.85
530.437	25734.92
530.803	25853.78
531.169	26141.91
531.535	25952.99
531.901	26080.22
532.267	26278.63
532.632	26324.05
532.998	26549.13
533.364	26720.43
533.73	26969.91
534.095	27120.42
534.461	27230.24
534.826	27251.94
535.192	27501.42
535.557	27695.32
535.923	27659.16
536.288	27818.03
536.653	27889.89
537.019	27963.78
537.384	28048.75
537.749	28164.46
538.114	28265.92
538.479	28290.33
538.845	28481.74
539.21	28525.13
539.575	28620.72
539.94	28770.54
540.305	28976.87
540.67	28924.21
541.034	29141.38
541.399	29431.09
541.764	29322.39
542.129	29473.35
542.494	29501.82
542.858	29708.82
543.223	29717.41
543.587	30088.47
543.952	29929.83
544.316	30060.68
544.681	30112.65
545.045	30328.02
545.41	30354
545.774	30478.29
546.138	30632.41
546.503	30833.09
546.867	30742.47
547.231	31188.78
547.595	31102.23
547.959	31283.92
548.324	31199.18
548.688	31386.75
549.052	31551.71
549.416	31617.47
549.779	31659.51
550.143	31712.61
550.507	31998.71
550.871	32233.95
551.235	32021.53
551.599	32341.52
551.962	32449.09
552.326	32469.2
552.689	32856.09
553.053	32601.85
553.417	32771.34
553.78	33270.31
554.143	32937.44
554.507	33267.15
554.87	33410.65
555.234	33712.79
555.597	33630.75
555.96	33939.67
556.323	33942.38
556.686	34039.33
557.05	34346.67
557.413	34501.69
557.776	34555.48
558.139	34733.78
558.502	34893.09
558.865	34955.69
559.228	35284.95
559.59	35267.32
559.953	35476.81
560.316	35815.1
560.679	35773.07
561.041	36095.55
561.404	36261.65
561.767	36368.31
562.129	36283.79
562.492	36863.89
562.854	36726.27
563.217	36833.83
563.579	37002.42
563.941	37237.89
564.304	37467.72
564.666	37593.81
565.028	37671.33
565.39	37961.04
565.753	38147.47
566.115	38238.09
566.477	38391.53
566.839	38393.11
567.201	38713.11
567.563	38726.44
567.925	38929.82
568.287	39022.02
568.648	39081.68
569.01	39459.53
569.372	39620.43
569.734	39535.91
570.095	39941.1
570.457	40023.35
570.819	40081.43
571.18	40222.9
571.542	40391.71
571.903	40576.33
572.265	40591.02
572.626	40803.9
572.987	40836.67
573.349	40896.55
573.71	41154.4
574.071	41187.84
574.432	41226.03
574.794	41519.36
575.155	41591
575.516	41399.82
575.877	41653.59
576.238	41783.31
576.599	41895.17
576.96	41945.79
577.32	42121.6
577.681	42218.78
578.042	42313.01
578.403	42275.5
578.763	42466.45
579.124	42637.97
579.485	42596.17
579.845	42825.77
580.206	42561.59
580.566	42607.92
580.927	42658.09
581.287	42741.25
581.648	42622.61
582.008	42945.09
582.368	42803.62
582.728	43024.41
583.089	42870.06
583.449	42805.2
583.809	42941.92
584.169	43080.45
584.529	42984.41
584.889	43301.91
585.249	43094.01
585.609	42987.57
585.969	43198.41
586.329	43058.75
586.688	43165.19
587.048	43192.31
587.408	43217.39
587.768	43119.09
588.127	43158.41
588.487	43204.51
588.846	43476.14
589.206	43321.35
589.565	43152.31
589.925	43364.06
590.284	43285.87
590.643	43447.67
591.003	43441.34
591.362	43425.75
591.721	43470.95
592.08	43405.86
592.44	43636.37
592.799	43488.12
593.158	43589.59
593.517	43486.99
593.876	43575.58
594.235	43482.02
594.593	43591.4
594.952	43810.37
595.311	43518.18
595.67	43643.82
596.029	43930.82
596.387	43735.35
596.746	43882.46
597.104	43667.55
597.463	43828
597.822	43972.86
598.18	43828.45
598.538	43849.24
598.897	44013.53
599.255	43777.83
599.613	44298.5
599.972	44225.28
600.33	44280.19
600.688	44141.44
601.046	44138.95
601.404	44332.85
601.762	44341.88
602.12	44400.41
602.478	44424.37
602.836	44480.19
603.194	44201.55
603.552	44375.56
603.91	44307.08
604.268	44573.29
604.625	44451.03
604.983	44646.96
605.341	44575.78
605.698	44706.85
606.056	44874.53
606.413	44762.44
606.771	44875.43
607.128	44912.49
607.485	44741.2
607.843	44871.14
608.2	45142.77
608.557	45112.94
608.914	45030.91
609.272	45188.87
609.629	45181.64
609.986	45276.1
610.343	45079.49
610.7	45414.17
611.057	45345.02
611.414	45354.06
611.771	45525.81
612.127	45681.51
612.484	45522.64
612.841	45608.52
613.198	45674.73
613.554	45650.55
613.911	45910.21
614.267	45914.5
614.624	45832.69
614.98	46032.01
615.337	46130.54
615.693	46113.14
616.05	45968.96
616.406	46117.21
616.762	46030.88
617.118	46055.51
617.475	45991.33
617.831	46140.26
618.187	46091.67
618.543	46191.78
618.899	46327.82
619.255	46378.44
619.611	46166.24
619.967	46457.99
620.323	46625.89
620.678	46345.22
621.034	46357.43
621.39	46343.41
621.746	46397.88
622.101	46637.87
622.457	46398.1
622.812	46401.49
623.168	46594.26
623.523	46530.75
623.879	46578.21
624.234	46412.79
624.589	46550.41
624.945	46659.11
625.3	46507.25
625.655	46497.99
626.01	46525.1
626.365	46611.66
626.72	46623.63
627.075	46589.96
627.43	46485.56
627.785	46383.64
628.14	46495.05
628.495	46523.3
628.85	46494.14
629.205	46507.03
629.559	46669.06
629.914	46346.8
630.269	46415.73
630.623	46288.73
630.978	46227.49
631.332	46391.55
631.687	46383.19
632.041	46241.5
632.396	46301.16
632.75	46099.35
633.104	46203.76
633.459	46059.13
633.813	45957.66
634.167	46031.11
634.521	46050.99
634.875	45928.74
635.229	45852.13
635.583	45814.16
635.937	45778.46
636.291	45701.85
636.645	45594.28
636.999	45599.25
637.352	45656.65
637.706	45477
638.06	45572.81
638.413	45474.96
638.767	45437.22
639.121	45411.69
639.474	45215.76
639.828	45150.68
640.181	45173.73
640.534	45158.81
640.888	45129.21
641.241	44970.57
641.594	45091.24
641.947	45119.04
642.301	44966.28
642.654	44957.24
643.007	44914.75
643.36	44911.59
643.713	44853.51
644.066	44901.42
644.419	44676.34
644.771	44267.76
645.124	43822.8
645.477	43730.38
645.83	43619.64
646.182	43391.63
646.535	43421.46
646.888	43432.08
647.24	43294.23
647.593	43531.28
647.945	43492.64
648.298	43306.66
648.65	43249.48
649.002	43007.23
649.355	43182.14
649.707	43090.84
650.059	43204.74
650.411	43829.36
650.763	43605.41
651.115	44049.69
651.467	43930.14
651.819	43853.76
652.171	43846.08
652.523	43657.38
652.875	43836.59
653.227	43604.5
653.578	43851.28
653.93	43803.82
654.282	43591.17
654.633	43593.66
654.985	43721.34
655.337	43601.34
655.688	43576.48
656.039	43738.51
656.391	43198.41
656.742	43462.59
657.094	43390.95
657.445	43460.78
657.796	43347.79
658.147	43228.47
658.498	43197.96
658.849	43160.9
659.2	43099.66
659.551	43071.41
659.902	43209.26
660.253	43192.54
660.604	43139.43
660.955	42820.12
661.306	43116.83
661.656	43039.77
662.007	43069.15
662.358	42959.55
662.708	43117.51
663.059	43004.52
663.409	42736.28
663.76	43035.93
664.11	42861.25
664.461	43089.71
664.811	43040.45
665.161	43008.59
665.511	42886.78
665.862	42867.12
666.212	42946.22
666.562	42995.93
666.912	42821.25
667.262	42805.43
667.612	42788.71
667.962	42795.26
668.312	42713.45
668.662	43018.3
669.011	42837.74
669.361	42789.38
669.711	42690.63
670.06	42662.61
670.41	42508.49
670.76	42501.26
671.109	42599.33
671.459	42637.52
671.808	42475.49
672.157	42614.25
672.507	42334.03
672.856	42324.99
673.205	42276.18
673.554	42438.66
673.904	42343.07
674.253	42503.29
674.602	42379
674.951	41821.27
675.3	41743.54
675.649	42238.44
675.998	42095.16
676.346	42112.11
676.695	42295.16
677.044	41919.12
677.393	42086.8
677.741	42184.65
678.09	41992.12
678.438	41948.95
678.787	42001.38
679.135	42078.89
679.484	41814.72
679.832	41940.37
680.181	41621.5
680.529	41866.7
680.877	41661.05
681.225	41594.84
681.573	41752.35
681.922	41516.2
682.27	41342.87
682.618	41334.05
682.966	41336.09
683.314	41360.49
683.661	41272.81
684.009	41026.27
684.357	41009.54
684.705	40906.04
685.053	40997.57
685.4	40996.44
685.748	40878.02
686.095	40916.66
686.443	40600.97
686.79	40527.52
687.138	40480.97
687.485	40494.98
687.832	40500.4
688.18	40394.64
688.527	40386.06
688.874	40150.58
689.221	39911.04
689.568	39797.37
689.915	39850.25
690.262	39805.96
690.609	39763.93
690.956	39692.29
691.303	39565.97
691.65	39320.1
691.997	39353.99
692.344	39325.07
692.69	39186.77
693.037	39367.78
693.383	39107.9
693.73	39137.73
694.077	38989.48
694.423	38874.91
694.769	38765.31
695.116	38848.24
695.462	38615.71
695.808	38536.61
696.155	38545.2
696.501	38244.64
696.847	38257.75
697.193	37946.57
697.539	38179.34
697.885	37709.74
698.231	37803.53
698.577	37763.07
698.923	37719.46
699.269	37356.08
699.614	37147.95
699.96	37118.8
700.306	37260.72
700.651	37154.73
700.997	37136.65
701.342	36940.05
701.688	36928.52
702.033	36681.52
702.379	36758.58
702.724	36523.79
703.069	36765.14
703.415	36294.86
703.76	36343.9
704.105	36264.58
704.45	36115.89
704.795	35893.75
705.14	35830.47
705.485	35869.79
705.83	35685.84
706.175	35800.41
706.52	35585.96
706.865	35500.31
707.209	35564.94
707.554	35358.39
707.899	35406.3
708.243	35263.93
708.588	35119.53
708.932	34921.57
709.277	34846.99
709.621	34913.21
709.966	34592.08
710.31	34819.88
710.654	34524.52
710.998	34573.78
711.342	34640.22
711.687	34546.89
712.031	34331.98
712.375	34369.49
712.719	34325.43
713.063	34232.32
713.407	34371.3
713.75	34049.27
714.094	33972.67
714.438	33929.96
714.782	34038.65
715.125	33731.54
715.469	33896.28
715.812	33682.5
716.156	33574.26
716.499	33541.72
716.843	33589.63
717.186	33332.91
717.53	33491.32
717.873	33401.83
718.216	33352.57
718.559	33092.92
718.902	33028.74
719.246	33072.12
719.589	33024.89
719.932	32837.33
720.275	32778.57
720.617	32705.13
720.96	32713.49
721.303	32655.19
721.646	32727.73
721.989	32466.04
722.331	32443.89
722.674	32345.36
723.016	32398.24
723.359	32398.92
723.701	32405.7
724.044	32092.26
724.386	31963.45
724.729	32096.11
725.071	31927.3
725.413	32101.3
725.755	31937.24
726.097	31730.69
726.439	31649.79
726.782	31653.86
727.124	31809.79
727.465	31623.12
727.807	31568.89
728.149	31571.15
728.491	31447.08
728.833	31490.47
729.175	31436.69
729.516	31238.95
729.858	31219.97
730.199	31385.16
730.541	31236.92
730.882	31229.46
731.224	31129.13
731.565	31076.47
731.906	31033.31
732.248	31030.82
732.589	30860.88
732.93	30841.45
733.271	30784.28
733.612	30900.2
733.953	30779.53
734.294	30673.32
734.635	30680.1
734.976	30705.86
735.317	30488.92
735.658	30554.9
735.999	30623.38
736.339	30432.65
736.68	30594.45
737.021	30306.55
737.361	30283.95
737.702	30424.28
738.042	30199.88
738.383	30082.15
738.723	30217.96
739.063	30089.38
739.404	30133.67
739.744	30005.99
740.084	30005.76
740.424	30027.23
740.764	29897.52
741.104	30036.5
741.444	29739.56
741.784	29663.85
742.124	29800.57
742.464	29638.32
742.804	29579.56
743.143	29518.55
743.483	29469.51
743.823	29292.34
744.162	29339.34
744.502	29506.34
744.841	29256.41
745.181	29382.28
745.52	29226.58
745.86	29065.45
746.199	29104.32
746.538	29025.68
746.877	29123.08
747.216	29117.65
747.556	28899.35
747.895	28778
748.234	28856.42
748.573	28783.2
748.911	28716.08
749.25	28800.82
749.589	28578.91
749.928	28599.7
750.267	28587.72
750.605	28472.25
750.944	28472.92
751.283	28225.25
751.621	28373.04
751.96	28199.94
752.298	28103.67
752.636	28139.15
752.975	28110.22
753.313	27956.33
