Data from plate_porcelain_FLMS001491_065.txt Node
Date: Tue Feb 07 11:19:41 GMT 2017
User: dcchb
Spectrometer: FLMS00149
Trigger mode: 0
Integration Time (sec): 2.000000E-2
Scans to average: 10
Electric dark correction enabled: true
Nonlinearity correction enabled: false
Boxcar width: 0
XAxis mode: Wavelengths
Number of Pixels in Spectrum: 2048
>>>>>Begin Spectral Data<<<<<
341.393	-19.76
341.776	-19.76
342.16	-19.76
342.543	-51.62
342.927	-86.2
343.31	-69.25
343.693	-65.18
344.077	-62.7
344.46	-69.25
344.843	-52.75
345.226	-45.3
345.61	-55.24
345.993	-14.56
346.376	-1.23
346.759	38.77
347.142	16.4
347.525	38.77
347.908	63.4
348.291	74.7
348.674	110.86
349.057	92.55
349.44	122.61
349.823	140.24
350.206	160.57
350.588	218.43
350.971	239.44
351.354	255.04
351.737	267.46
352.119	288.93
352.502	285.32
352.884	310.63
353.267	323.06
353.65	334.36
354.032	360.8
354.414	343.39
354.797	321.25
355.179	368.03
355.562	356.05
355.944	354.69
356.326	385.88
356.709	371.19
357.091	367.35
357.473	384.07
357.855	380.23
358.238	404.18
358.62	398.99
359.002	374.81
359.384	395.82
359.766	384.3
360.148	367.8
360.53	387.24
360.912	418.2
361.294	407.12
361.676	380
362.057	390.4
362.439	396.5
362.821	412.77
363.203	362.6
363.584	391.08
363.966	397.4
364.348	390.17
364.729	393.11
365.111	370.96
365.493	374.35
365.874	387.01
366.256	396.95
366.637	392.21
367.019	389.27
367.4	396.95
367.781	410.29
368.163	405.31
368.544	390.85
368.925	380.68
369.306	388.37
369.688	415.48
370.069	387.01
370.45	382.26
370.831	395.37
371.212	404.41
371.593	421.13
371.974	432.66
372.355	408.7
372.736	423.62
373.117	414.35
373.498	411.19
373.879	428.59
374.26	416.61
374.641	408.48
375.021	414.81
375.402	429.04
375.783	445.31
376.163	478.31
376.544	458.65
376.925	456.84
377.305	429.27
377.686	465.88
378.066	466.78
378.447	490.06
378.827	464.52
379.208	450.51
379.588	461.81
379.968	484.63
380.349	496.16
380.729	486.22
381.109	478.53
381.489	488.02
381.87	501.13
382.25	502.26
382.63	494.13
383.01	509.04
383.39	516.95
383.77	522.83
384.15	524.18
384.53	502.94
384.91	535.93
385.29	544.52
385.67	543.16
386.049	588.13
386.429	561.47
386.809	575.25
387.189	563.73
387.568	581.81
387.948	604.18
388.328	601.47
388.707	594.46
389.087	615.7
389.466	610.51
389.846	636.49
390.225	619.77
390.605	620.9
390.984	614.57
391.363	664.74
391.743	652.54
392.122	671.07
392.501	679.21
392.881	683.05
393.26	678.53
393.639	683.05
394.018	711.97
394.397	668.81
394.776	741.12
395.155	715.59
395.534	723.72
395.913	740.45
396.292	748.13
396.671	734.35
397.05	753.1
397.429	765.53
397.808	758.07
398.186	760.33
398.565	785.64
398.944	782.48
399.323	804.4
399.701	804.85
400.08	792.87
400.458	816.38
400.837	843.49
401.215	859.54
401.594	845.08
401.972	873.55
402.351	853.44
402.729	895.7
403.107	877.62
403.486	890.5
403.864	895.7
404.242	927.79
404.62	926.2
404.999	935.02
405.377	933.44
405.755	947.22
406.133	965.75
406.511	991.29
406.889	989.25
407.267	993.55
407.645	1022.25
408.023	1049.82
408.401	1063.6
408.779	1061.12
409.156	1078.74
409.534	1104.05
409.912	1099.53
410.29	1165.07
410.667	1131.17
411.045	1167.55
411.422	1175.69
411.8	1177.95
412.178	1207.78
412.555	1234.44
412.933	1256.14
413.31	1260.21
413.687	1268.57
414.065	1305.18
414.442	1320.32
414.819	1328.91
415.197	1323.48
415.574	1382.46
415.951	1375.23
416.328	1382.69
416.705	1389.02
417.082	1402.58
417.46	1437.38
417.837	1436.7
418.214	1451.84
418.591	1481.67
418.967	1472.18
419.344	1490.48
419.721	1530.26
420.098	1514.89
420.475	1553.98
420.852	1556.7
421.228	1578.39
421.605	1586.98
421.982	1627.88
422.358	1618.39
422.735	1651.61
423.111	1669.91
423.488	1669.46
423.864	1700.65
424.241	1761.66
424.617	1761.44
424.994	1763.92
425.37	1815.9
425.746	1794.88
426.123	1837.59
426.499	1825.62
426.875	1848.21
427.251	1902.22
427.627	1937.03
428.003	1966.4
428.379	1982.67
428.756	2003.01
429.132	2045.5
429.507	2084.37
429.883	2087.76
430.259	2122.78
430.635	2147.64
431.011	2160.52
431.387	2210.24
431.763	2251.37
432.138	2284.59
432.514	2288.88
432.89	2294.98
433.265	2360.74
433.641	2396.45
434.016	2427.63
434.392	2477.8
434.767	2501.08
435.143	2519.38
435.518	2546.05
435.894	2561.64
436.269	2593.73
436.644	2659.49
437.02	2689.32
437.395	2664.92
437.77	2738.59
438.145	2755.99
438.52	2813.61
438.895	2812.71
439.271	2799.6
439.646	2912.82
440.021	2946.26
440.395	2930.45
440.77	2892.25
441.145	2996.88
441.52	3073.27
441.895	3034.17
442.27	3049.31
442.645	3047.73
443.019	3097.22
443.394	3133.6
443.769	3155.3
444.143	3155.3
444.518	3198.46
444.892	3205.01
445.267	3215.64
445.641	3248.63
446.016	3281.85
446.39	3312.81
446.764	3316.2
447.139	3350.55
447.513	3390.09
447.887	3432.58
448.262	3439.81
448.636	3501.28
449.01	3479.58
449.384	3573.82
449.758	3557.55
450.132	3635.74
450.506	3653.36
450.88	3714.15
451.254	3660.82
451.628	3752.12
452.002	3815.17
452.376	3805.9
452.75	3830.31
453.123	3854.04
453.497	3951.44
453.871	3976.97
454.244	4061.49
454.618	4077.31
454.992	4145.78
455.365	4213.8
455.739	4268.49
456.112	4264.65
456.486	4343.29
456.859	4395.04
457.232	4497.64
457.606	4508.71
457.979	4557.07
458.352	4641.14
458.725	4701.47
459.099	4753.67
459.472	4843.62
459.845	4863.05
460.218	4980.56
460.591	4983.05
460.964	5013.33
461.337	5128.13
461.71	5210.39
462.083	5280.21
462.456	5295.81
462.829	5316.82
463.201	5396.82
463.574	5455.35
463.947	5493.77
464.32	5679.53
464.692	5690.15
465.065	5735.57
465.438	5824.83
465.81	5947.09
466.183	5996.58
466.555	6095.11
466.928	6126.75
467.3	6173.98
467.672	6277.02
468.045	6427.75
468.417	6499.39
468.789	6524.02
469.161	6594.98
469.534	6704.36
469.906	6870.91
470.278	6891.47
470.65	6963.56
471.022	7157.68
471.394	7258.69
471.766	7334.17
472.138	7441.51
472.51	7607.38
472.882	7685.12
473.253	7815.06
473.625	7933.7
473.997	8105
474.369	8087.82
474.74	8253.02
475.112	8400.13
475.484	8538.89
475.855	8639.22
476.227	8769.16
476.598	9027.23
476.97	9099.32
477.341	9321.01
477.713	9402.14
478.084	9574.34
478.455	9809.13
478.827	9921.9
479.198	10179.07
479.569	10124.83
479.94	10492.96
480.311	10596.01
480.682	10867.41
481.053	11097.46
481.424	11266.05
481.795	11312.37
482.166	11471.01
482.537	11711.68
482.908	11984.22
483.279	12059.92
483.65	12308.05
484.021	12566.35
484.391	12701.49
484.762	12800.92
485.133	12859.45
485.503	13122.04
485.874	13452.2
486.244	13519.32
486.615	13789.6
486.985	13968.57
487.356	14139.42
487.726	14316.36
488.097	14766.97
488.467	14697.82
488.837	15008.09
489.207	15231.14
489.578	15487.86
489.948	15617.12
490.318	15854.4
490.688	15880.39
491.058	16210.55
491.428	16434.05
491.798	16499.81
492.168	16836.29
492.538	16931.89
492.908	17242.84
493.278	17434.92
493.648	17494.13
494.017	17626.33
494.387	17829.71
494.757	18012.31
495.126	18256.14
495.496	18316.03
495.866	18486.65
496.235	18680.54
496.605	18847.32
496.974	18979.29
497.344	19171.15
497.713	19290.47
498.082	19433.51
498.452	19693.17
498.821	19850.23
499.19	19880.28
499.559	20043.22
499.928	20229.88
500.298	20407.5
500.667	20490.66
501.036	20588.06
501.405	20753.71
501.774	20842.97
502.143	21157.76
502.512	21113.02
502.88	21346.68
503.249	21350.75
503.618	21607.24
503.987	21724.98
504.356	21810.63
504.724	22033.67
505.093	22148.7
505.462	22220.33
505.83	22375.81
506.199	22601.11
506.567	22941.44
506.936	22952.97
507.304	23178.5
507.672	23347.08
508.041	23300.31
508.409	23628.21
508.777	23697.58
509.145	23968.99
509.514	23967.86
509.882	24171.02
510.25	24210.34
510.618	24510.22
510.986	24524.91
511.354	24905.69
511.722	25136.87
512.09	25213.93
512.458	25342.96
512.826	25599.68
513.193	25692.78
513.561	25885.32
513.929	26125.99
514.297	26330.28
514.664	26500.9
515.032	26609.6
515.4	26841.23
515.767	26959.19
516.135	27155.8
516.502	27078.29
516.869	27591.94
517.237	27697.7
517.604	27794.42
517.972	28222.44
518.339	28402.09
518.706	28472.15
519.073	28551.24
519.44	28805.92
519.808	29261.05
520.175	29174.73
520.542	29457.66
520.909	29770.64
521.276	29742.4
521.643	30000.69
522.009	30360.23
522.376	30586.22
522.743	30821.92
523.11	31008.13
523.477	31374.9
523.843	31561.78
524.21	31792.51
524.577	32112.5
524.943	32206.29
525.31	32428.65
525.676	32718.59
526.043	32912.71
526.409	32984.34
526.776	33348.18
527.142	33552.47
527.508	33796.07
527.874	34082.17
528.241	34331.2
528.607	34287.14
528.973	34768.7
529.339	34761.7
529.705	35093.22
530.071	35489.59
530.437	35500.66
530.803	35855.91
531.169	36012.97
531.535	35964.38
531.901	36147.88
532.267	36375.44
532.632	36671.71
532.998	36726.85
533.364	36980.62
533.73	37320.28
534.095	37473.49
534.461	37579.48
534.826	37821.05
535.192	37964.55
535.557	38227.37
535.923	37970.2
536.288	38417.2
536.653	38576.51
537.019	38607.93
537.384	38651.09
537.749	38827.81
538.114	39038.2
538.479	39032.32
538.845	39449.71
539.21	39336.49
539.575	39655.13
539.94	39791.62
540.305	39923.15
540.67	39989.13
541.034	40185.29
541.399	40338.95
541.764	40338.5
542.129	40690.58
542.494	40744.37
542.858	40884.02
543.223	40919.5
543.587	41293.28
543.952	41199.95
544.316	41247.63
544.681	41406.27
545.045	41655.53
545.41	41795.41
545.774	41859.82
546.138	41882.87
546.503	42114.95
546.867	42126.93
547.231	42660.7
547.595	42556.75
547.959	42702.51
548.324	42830.64
548.688	42923.74
549.052	43215.26
549.416	43144.3
549.779	43333.23
550.143	43351.76
550.507	43673.1
550.871	43829.48
551.235	43867.67
551.599	44177.27
551.962	44248.91
552.326	44394.44
552.689	44614.55
553.053	44624.04
553.417	44731.15
553.78	45130.01
554.143	45142.89
554.507	45353.06
554.87	45478.25
555.234	45777.91
555.597	45649.77
555.96	45967.96
556.323	46015.19
556.686	46010.22
557.05	46360.26
557.413	46449.98
557.776	46679.58
558.139	46829.63
558.502	46932.68
558.865	47132.9
559.228	47439.56
559.59	47454.92
559.953	47476.39
560.316	47908.7
560.679	48023.05
561.041	48187.79
561.404	48447.21
561.767	48490.83
562.129	48576.03
562.492	48882.01
562.854	48898.5
563.217	48988.67
563.579	49138.95
563.941	49450.35
564.304	49553.63
564.666	49847.18
565.028	49975.31
565.39	50086.95
565.753	50274.51
566.115	50316.77
566.477	50396.54
566.839	50591.34
567.201	50908.39
567.563	50893.03
567.925	51070.42
568.287	51170.31
568.648	51275.16
569.01	51362.84
569.372	51606.23
569.734	51516.06
570.095	51776.39
570.457	51818.43
570.819	51994.69
571.18	52055.71
571.542	52200.56
571.903	52252.31
572.265	52381.57
572.626	52376.6
572.987	52488.46
573.349	52704.28
573.71	52774.11
574.071	52721.23
574.432	52786.08
574.794	53059.52
575.155	53021.11
575.516	53024.5
575.877	53197.37
576.238	53219.29
576.599	53395.56
576.96	53334.32
577.32	53472.85
577.681	53485.73
578.042	53528.66
578.403	53603.01
578.763	53556.69
579.124	53744.25
579.485	53754.42
579.845	53886.17
580.206	53849.11
580.566	53872.83
580.927	53917.58
581.287	54102.21
581.648	53885.49
582.008	53972.04
582.368	53924.58
582.728	54153.96
583.089	53983.57
583.449	54033.73
583.809	54046.62
584.169	54131.81
584.529	54047.07
584.889	54279.83
585.249	54112.15
585.609	54079.38
585.969	54192.15
586.329	54118.48
586.688	54207.97
587.048	54199.38
587.408	54220.62
587.768	54177.23
588.127	54083.22
588.487	54139.72
588.846	54346.49
589.206	54128.87
589.565	54133.39
589.925	54288.64
590.284	54181.75
590.643	54316.44
591.003	54313.05
591.362	54368.19
591.721	54304.01
592.08	54348.98
592.44	54426.04
592.799	54352.14
593.158	54447.74
593.517	54365.03
593.876	54487.73
594.235	54359.38
594.593	54386.27
594.952	54474.63
595.311	54449.32
595.67	54457.45
596.029	54565.92
596.387	54572.25
596.746	54612.7
597.104	54509.88
597.463	54521.63
597.822	54638.24
598.18	54514.85
598.538	54593.95
598.897	54768.4
599.255	54547.17
599.613	54849.98
599.972	54722.53
600.33	54776.09
600.688	54732.47
601.046	54846.82
601.404	54879.14
601.762	54881.4
602.12	54991
602.478	54997.1
602.836	55003.43
603.194	54895.41
603.552	54859.93
603.91	54850.66
604.268	55008.4
604.625	54889.31
604.983	55072.13
605.341	54967.27
605.698	55113.03
606.056	55210.43
606.413	55162.97
606.771	55263.31
607.128	55249.07
607.485	55262.18
607.843	55138.79
608.2	55367.94
608.557	55409.29
608.914	55360.03
609.272	55445.45
609.629	55553.24
609.986	55581.94
610.343	55531.77
610.7	55656.52
611.057	55608.38
611.414	55572.23
611.771	55592.79
612.127	55772.67
612.484	55726.12
612.841	55779
613.198	55787.13
613.554	55776.74
613.911	55834.14
614.267	55802.05
614.624	55831.65
614.98	55907.13
615.337	56005.66
615.693	55958.66
616.05	55900.58
616.406	56092.44
616.762	55990.75
617.118	55974.47
617.475	56054.47
617.831	56127.92
618.187	56063.29
618.543	56110.06
618.899	56231.64
619.255	56251.08
619.611	56186.67
619.967	56264.64
620.323	56256.05
620.678	56169.95
621.034	56088.6
621.39	56138.76
621.746	56160.01
622.101	56458.76
622.457	56210.4
622.812	56186.9
623.168	56331.53
623.523	56317.74
623.879	56375.37
624.234	56232.77
624.589	56425.31
624.945	56278.2
625.3	56409.49
625.655	56333.34
626.01	56335.59
626.365	56376.05
626.72	56336.95
627.075	56314.8
627.43	56226.22
627.785	56162.27
628.14	56253.11
628.495	56191.64
628.85	56216.28
629.205	56078.88
629.559	56291.53
629.914	56100.35
630.269	56167.01
630.623	56119.1
630.978	56085.21
631.332	56202.72
631.687	56103.96
632.041	56090.63
632.396	56029.84
632.75	55859.9
633.104	56064.19
633.459	55898.09
633.813	55915.04
634.167	55885.66
634.521	55850.41
634.875	55883.4
635.229	55865.1
635.583	55697.87
635.937	55622.85
636.291	55630.08
636.645	55742.16
636.999	55587.14
637.352	55667.36
637.706	55404.09
638.06	55581.94
638.413	55567.25
638.767	55386.02
639.121	55526.35
639.474	55345.79
639.828	55290.88
640.181	55353.47
640.534	55281.84
640.888	55268.5
641.241	55113.03
641.594	55127.27
641.947	55311.22
642.301	55200.26
642.654	55176.53
643.007	55104.44
643.36	55050.66
643.713	55133.37
644.066	55100.6
644.419	54800.04
644.771	54703.32
645.124	54495.19
645.477	54434.4
645.83	54153.51
646.182	54067.18
646.535	53877.58
646.888	54027.18
647.24	53838.26
647.593	54002.1
647.945	53972.27
648.298	53829.9
648.65	53738.6
649.002	53601.88
649.355	53840.52
649.707	53700.18
650.059	53829.22
650.411	54237.8
650.763	54175.65
651.115	54476.43
651.467	54304.46
651.819	54312.6
652.171	54242.09
652.523	54244.35
652.875	54172.49
653.227	54075.99
653.578	54208.19
653.93	54027.63
654.282	54047.07
654.633	53908.09
654.985	54002.55
655.337	53933.85
655.688	54005.26
656.039	54049.55
656.391	53819.28
656.742	53869.22
657.094	53977.24
657.445	54024.47
657.796	53885.26
658.147	53774.98
658.498	53852.27
658.849	53901.99
659.2	53822.21
659.551	53763.69
659.902	53850.69
660.253	53712.61
660.604	53871.7
660.955	53738.15
661.306	53785.38
661.656	53658.15
662.007	53654.31
662.358	53653.86
662.708	53594.42
663.059	53588.1
663.409	53382.23
663.76	53610.02
664.11	53550.58
664.461	53587.42
664.811	53564.37
665.161	53617.7
665.511	53561.43
665.862	53605.27
666.212	53559.4
666.562	53520.08
666.912	53505.84
667.262	53525.95
667.612	53546.52
667.962	53510.81
668.312	53476.24
668.662	53551.71
669.011	53441.89
669.361	53374.32
669.711	53350.81
670.06	53309.91
670.41	53297.26
670.76	53274.88
671.109	53374.09
671.459	53186.3
671.808	53228.11
672.157	53330.7
672.507	53034.21
672.856	53168.22
673.205	53198.05
673.554	53278.95
673.904	53012.52
674.253	53282.12
674.602	53165.73
674.951	52645.07
675.3	52476.26
675.649	53026.53
675.998	52954.67
676.346	52980.65
676.695	53053.42
677.044	52886.65
677.393	52996.02
677.741	52960.09
678.09	52900.66
678.438	52821.34
678.787	52844.84
679.135	52805.74
679.484	52713.09
679.832	52796.93
680.181	52625.41
680.529	52675.58
680.877	52497.96
681.225	52469.03
681.573	52663.38
681.922	52456.15
682.27	52320.79
682.618	52346.32
682.966	52292.54
683.314	52346.32
683.661	52215.25
684.009	52100
684.357	52052.32
684.705	51968.25
685.053	51982.94
685.4	51900.91
685.748	51762.83
686.095	51730.07
686.443	51518.32
686.79	51497.08
687.138	51650.97
687.485	51574.82
687.832	51479.45
688.18	51533.69
688.527	51311.55
688.874	51331.66
689.221	51204.2
689.568	51020.48
689.915	50843.54
690.262	50970.76
690.609	50895.51
690.956	50685.12
691.303	50769.41
691.65	50525.35
691.997	50525.58
692.344	50379.14
692.69	50360.38
693.037	50387.05
693.383	49975.99
693.73	50164.91
694.077	49906.39
694.423	49925.14
694.769	49840.17
695.116	49823.9
695.462	49804.02
695.808	49681.76
696.155	49764.47
696.501	49477.7
696.847	49506.62
697.193	49120.64
697.539	49222.79
697.885	49014.66
698.231	48961.78
698.577	48936.47
698.923	48863.7
699.269	48559.3
699.614	48462.13
699.96	48305.98
700.306	48459.42
700.651	48277.05
700.997	48150.27
701.342	48052.87
701.688	47947.57
702.033	47866.67
702.379	47810.17
702.724	47582.83
703.069	47763.39
703.415	47416.51
703.76	47363.63
704.105	47380.58
704.45	47106.46
704.795	46929.29
705.14	46693.59
705.485	46815.85
705.83	46667.15
706.175	46742.17
706.52	46524.55
706.865	46470.09
707.209	46566.36
707.554	46238.91
707.899	46308.06
708.243	46106.26
708.588	46016.77
708.932	45923.21
709.277	45728.64
709.621	45835.98
709.966	45498.59
710.31	45736.78
710.654	45263.8
710.998	45378.82
711.342	45333.62
711.687	45269.9
712.031	45214.31
712.375	45017.7
712.719	45026.29
713.063	44914.2
713.407	44895.22
713.75	44705.17
714.094	44777.03
714.438	44367.32
714.782	44682.34
715.125	44450.03
715.469	44295.69
715.812	44106.99
716.156	43922.81
716.499	43870.84
716.843	43904.74
717.186	43604.86
717.53	44024.96
717.873	43978.63
718.216	43825.42
718.559	43528.02
718.902	43329.61
719.246	43524.63
719.589	43420.45
719.932	43169.16
720.275	43214.81
720.617	43103.17
720.96	43074.25
721.303	43040.13
721.646	43044.19
721.989	42621.83
722.331	42888.72
722.674	42780.7
723.016	42783.41
723.359	42656.63
723.701	42629.29
724.044	42411.22
724.386	42115.86
724.729	42368.96
725.071	42204.67
725.413	42098.23
725.755	42029.3
726.097	41935.07
726.439	41844.45
726.782	41885.81
727.124	41919.93
727.465	41839.03
727.807	41578.47
728.149	41471.13
728.491	41436.78
728.833	41558.13
729.175	41371.47
729.516	41266.39
729.858	41264.58
730.199	41199.04
730.541	41053.74
730.882	41100.29
731.224	41163.34
731.565	40816
731.906	40986.85
732.248	40890.8
732.589	40784.59
732.93	40554.09
733.271	40561.55
733.612	40883.35
733.953	40711.15
734.294	40430.02
734.635	40365.85
734.976	40484.03
735.317	40206.53
735.658	40079.53
735.999	40311.38
736.339	40093.08
736.68	40183.7
737.021	40006.31
737.361	39890.38
737.702	40013.31
738.042	39820.77
738.383	39693.32
738.723	39926.76
739.063	39710.72
739.404	39722.47
739.744	39593.21
740.084	39367.45
740.424	39441.12
740.764	39308.25
741.104	39524.29
741.444	39221.92
741.784	39015.6
742.124	39035.03
742.464	39073.22
742.804	38916.84
743.143	38872.55
743.483	38894.47
743.823	38760.69
744.162	38680.01
744.502	38665.33
744.841	38610.86
745.181	38741.26
745.52	38334.71
745.86	38463.75
746.199	38257.43
746.538	38215.39
746.877	38345.56
747.216	38275.73
747.556	38037.32
747.895	38031.44
748.234	37977.21
748.573	37899.7
748.911	37858.57
749.25	37799.13
749.589	37641.85
749.928	37626.26
750.267	37596.2
750.605	37563.21
750.944	37389.65
751.283	37311.46
751.621	37352.37
751.96	36984.01
752.298	37020.4
752.636	37238.24
