Data from plate_ceramic_FLMS001491_075.txt Node
Date: Tue Feb 07 11:17:16 GMT 2017
User: dcchb
Spectrometer: FLMS00149
Trigger mode: 0
Integration Time (sec): 2.000000E-2
Scans to average: 10
Electric dark correction enabled: true
Nonlinearity correction enabled: false
Boxcar width: 0
XAxis mode: Wavelengths
Number of Pixels in Spectrum: 2048
>>>>>Begin Spectral Data<<<<<
341.393	-10.44
341.776	-10.44
342.16	-10.44
342.543	-64
342.927	-68.29
343.31	-57.44
343.693	-71
344.077	-75.29
344.46	-79.36
344.843	-49.76
345.226	-26.48
345.61	-33.94
345.993	-2.98
346.376	-15.41
346.759	26.4
347.142	28.66
347.525	37.02
347.908	51.93
348.291	64.36
348.674	87.19
349.057	116.11
349.44	124.25
349.823	129.9
350.206	173.51
350.588	201.08
350.971	221.65
351.354	258.03
351.737	237.69
352.119	274.07
352.502	265.94
352.884	281.31
353.267	285.15
353.65	316.79
354.032	319.72
354.414	321.98
354.797	319.27
355.179	331.93
355.562	307.75
355.944	338.03
356.326	329.21
356.709	351.59
357.091	349.33
357.473	363.79
357.855	370.8
358.238	368.99
358.62	361.08
359.002	364.24
359.384	353.85
359.766	374.64
360.148	350.68
360.53	344.81
360.912	364.47
361.294	344.58
361.676	369.89
362.057	346.39
362.439	358.82
362.821	367.18
363.203	350
363.584	360.63
363.966	350
364.348	337.8
364.729	352.04
365.111	350.68
365.493	354.3
365.874	335.54
366.256	346.39
366.637	359.95
367.019	344.36
367.4	356.33
367.781	353.62
368.163	354.3
368.544	340.74
368.925	335.32
369.306	342.32
369.688	337.35
370.069	368.99
370.45	354.75
370.831	363.56
371.212	372.83
371.593	361.98
371.974	375.99
372.355	366.5
372.736	348.88
373.117	344.36
373.498	360.85
373.879	356.78
374.26	351.36
374.641	371.7
375.021	368.08
375.402	377.57
375.783	371.47
376.163	397.69
376.544	398.14
376.925	363.11
377.305	392.49
377.686	406.95
378.066	387.07
378.447	388.42
378.827	399.27
379.208	407.63
379.588	395.65
379.968	401.75
380.349	405.6
380.729	418.03
381.109	410.79
381.489	432.94
381.87	411.02
382.25	419.61
382.63	413.73
383.01	433.39
383.39	427.97
383.77	454.63
384.15	437.23
384.53	449.44
384.91	449.89
385.29	473.84
385.67	443.56
386.049	466.61
386.429	453.73
386.809	462.77
387.189	468.19
387.568	477.91
387.948	485.82
388.328	498.25
388.707	484.24
389.087	488.76
389.466	469.1
389.846	500.51
390.225	509.1
390.605	514.97
390.984	510.45
391.363	506.38
391.743	500.51
392.122	528.08
392.501	508.64
392.881	523.56
393.26	537.12
393.639	545.48
394.018	537.8
394.397	539.6
394.776	573.73
395.155	554.75
395.534	579.15
395.913	574.18
396.292	580.28
396.671	596.33
397.05	597
397.429	582.77
397.808	620.73
398.186	578.02
398.565	613.73
398.944	605.37
399.323	625.48
399.701	620.05
400.08	607.85
400.458	637.23
400.837	645.36
401.215	667.96
401.594	681.07
401.972	668.64
402.351	674.97
402.729	684.01
403.107	699.83
403.486	702.54
403.864	689.88
404.242	682.88
404.62	714.29
404.999	717.23
405.377	702.99
405.755	736.89
406.133	743.89
406.511	768.3
406.889	771.69
407.267	775.08
407.645	762.88
408.023	787.28
408.401	807.85
408.779	790.9
409.156	831.57
409.534	799.94
409.912	835.64
410.29	831.8
410.667	852.59
411.045	863.44
411.422	884.91
411.8	901.18
412.178	909.76
412.555	901.4
412.933	945.92
413.31	946.15
413.687	941.63
414.065	974.85
414.442	963.55
414.819	997.67
415.197	996.99
415.574	1000.16
415.951	1025.92
416.328	1027.5
416.705	1020.27
417.082	1034.05
417.46	1080.16
417.837	1056.43
418.214	1088.74
418.591	1119.25
418.967	1110.21
419.344	1106.6
419.721	1128.29
420.098	1130.1
420.475	1163.54
420.852	1165.35
421.228	1188.63
421.605	1169.87
421.982	1210.77
422.358	1203.09
422.735	1205.58
423.111	1215.74
423.488	1250.09
423.864	1275.4
424.241	1277.44
424.617	1284.67
424.994	1289.64
425.37	1299.81
425.746	1291
426.123	1322.41
426.499	1339.13
426.875	1385.91
427.251	1375.29
427.627	1431.56
428.003	1418.68
428.379	1436.76
428.756	1443.99
429.132	1506.81
429.507	1506.58
429.883	1527.6
430.259	1513.36
430.635	1568.28
431.011	1580.48
431.387	1615.73
431.763	1665.45
432.138	1640.82
432.514	1664.77
432.89	1678.33
433.265	1690.99
433.641	1728.95
434.016	1751.32
434.392	1750.65
434.767	1787.48
435.143	1782.51
435.518	1824.99
435.894	1852.79
436.269	1865.45
436.644	1889.63
437.02	1915.16
437.395	1921.26
437.77	1930.08
438.145	1948.83
438.52	1976.18
438.895	2038.55
439.271	2030.19
439.646	2039.9
440.021	2062.73
440.395	2091.43
440.77	2067.93
441.145	2123.52
441.52	2137.3
441.895	2166.23
442.27	2179.11
442.645	2151.77
443.019	2190.41
443.394	2232.22
443.769	2246.9
444.143	2195.38
444.518	2266.34
444.892	2246.23
445.267	2261.14
445.641	2315.15
446.016	2304.3
446.39	2322.38
446.764	2368.48
447.139	2371.87
447.513	2360.57
447.887	2375.04
448.262	2406.45
448.636	2442.15
449.01	2404.87
449.384	2462.94
449.758	2509.5
450.132	2527.57
450.506	2516.5
450.88	2523.28
451.254	2564.64
451.628	2584.97
452.002	2645.99
452.376	2647.12
452.75	2688.93
453.123	2715.14
453.497	2750.85
453.871	2774.12
454.244	2873.33
454.618	2843.95
454.992	2864.97
455.365	2910.84
455.739	2953.33
456.112	3015.7
456.486	3057.28
456.859	3049.14
457.232	3086.88
457.606	3096.37
457.979	3162.81
458.352	3196.94
458.725	3247.56
459.099	3297.72
459.472	3330.94
459.845	3401.22
460.218	3408.91
460.591	3424.27
460.964	3438.51
461.337	3533.42
461.71	3582.46
462.083	3649.35
462.456	3665.85
462.829	3653.65
463.201	3741.78
463.574	3745.85
463.947	3850.7
464.32	3978.38
464.692	3910.36
465.065	3959.18
465.438	4020.42
465.81	4071.04
466.183	4101.77
466.555	4251.82
466.928	4265.83
467.3	4264.03
467.672	4362.1
468.045	4453.17
468.417	4464.47
468.789	4451.14
469.161	4556.45
469.534	4643.68
469.906	4697.24
470.278	4768.42
470.65	4802.54
471.022	4899.49
471.394	5029.2
471.766	5071.91
472.138	5113.04
472.51	5207.28
472.882	5242.76
473.253	5320.5
473.625	5413.15
473.997	5512.36
474.369	5554.84
474.74	5651.33
475.112	5795.96
475.484	5833.02
475.855	5980.37
476.227	6006.81
476.598	6162.73
476.97	6191.43
477.341	6328.15
477.713	6461.03
478.084	6467.81
478.455	6661.03
478.827	6747.12
479.198	6897.63
479.569	7006.33
479.94	7089.49
480.311	7268.69
480.682	7407.22
481.053	7537.84
481.424	7691.05
481.795	7731.05
482.166	7915.46
482.537	8001.33
482.908	8213.53
483.279	8269.34
483.65	8378.27
484.021	8574.65
484.391	8652.16
484.762	8700.07
485.133	8794.75
485.503	8925.82
485.874	9242.65
486.244	9220.73
486.615	9431.35
486.985	9540.95
487.356	9755.63
487.726	9791.34
488.097	10008.51
488.467	10052.12
488.837	10274.04
489.207	10410.98
489.578	10595.61
489.948	10631.32
490.318	10755.61
490.688	10749.73
491.058	10966.67
491.428	11095.26
491.798	11278.76
492.168	11493.89
492.538	11514.23
492.908	11666.09
493.278	11880.32
493.648	11934.79
494.017	12003.48
494.387	12155.34
494.757	12218.62
495.126	12421.78
495.496	12370.93
495.866	12542.68
496.235	12740.19
496.605	12794.2
496.974	12938.37
497.344	13071.03
497.713	13057.02
498.082	13207.07
498.452	13393.28
498.821	13440.51
499.19	13502.88
499.559	13704.68
499.928	13753.95
500.298	13768.86
500.667	13887.5
501.036	13913.72
501.405	14069.19
501.774	14080.27
502.143	14291.79
502.512	14350.99
502.88	14479.12
503.249	14527.26
503.618	14599.35
503.987	14724.54
504.356	14829.62
504.724	14870.3
505.093	14970.19
505.462	15135.38
505.83	15172.67
506.199	15366.56
506.567	15520.45
506.936	15582.15
507.304	15716.38
507.672	15857.17
508.041	15924.28
508.409	16013.77
508.777	16054
509.145	16223.94
509.514	16243.82
509.882	16454.89
510.25	16465.29
510.618	16666.86
510.986	16717.03
511.354	16910.7
511.722	17066.4
512.09	17141.2
512.458	17190.01
512.826	17481.31
513.193	17469.1
513.561	17581.64
513.929	17646.95
514.297	17894.63
514.664	17976.43
515.032	18065.92
515.4	18225.47
515.767	18363.32
516.135	18399.47
516.502	18340.72
516.869	18752.23
517.237	18969.85
517.604	18889.86
517.972	19079.23
518.339	19152.9
518.706	19248.72
519.073	19467.47
519.44	19464.53
519.808	19730.96
520.175	19743.39
520.542	20095.7
520.909	20107.45
521.276	20114.91
521.643	20457.05
522.009	20598.06
522.376	20711.5
522.743	20781.11
523.11	20990.14
523.477	21214.32
523.843	21208.89
524.21	21620.18
524.577	21752.61
524.943	21831.02
525.31	21976.78
525.676	22267.85
526.043	22180.84
526.409	22503.77
526.776	22644.33
527.142	22803.88
527.508	22979.47
527.874	23150.54
528.241	23304.88
528.607	23250.19
528.973	23679.79
529.339	23545.55
529.705	23840.46
530.071	24037.52
530.437	24261.47
530.803	24350.5
531.169	24435.25
531.535	24431.18
531.901	24554.57
532.267	24665.07
532.632	24917.72
532.998	24931.96
533.364	25140.99
533.73	25215.11
534.095	25474.99
534.461	25395
534.826	25581.21
535.192	25772.16
535.557	25916.79
535.923	26019.61
536.288	26147.74
536.653	26318.81
537.019	26279.94
537.384	26474.97
537.749	26546.6
538.114	26579.37
538.479	26600.84
538.845	26827.5
539.21	26899.14
539.575	27021.39
539.94	27104.56
540.305	27226.59
540.67	27241.05
541.034	27335.28
541.399	27561.27
541.764	27568.05
542.129	27706.12
542.494	27715.39
542.858	27911.09
543.223	27962.39
543.587	28101.59
543.952	28034.02
544.316	28133.91
544.681	28223.62
545.045	28374.35
545.41	28618.41
545.774	28673.1
546.138	28533.67
546.503	28771.4
546.867	28761.91
547.231	29018.18
547.595	29137.04
547.959	29235.8
548.324	29236.93
548.688	29400.77
549.052	29651.38
549.416	29685.73
549.779	29777.93
550.143	29759.85
550.507	30046.63
550.871	29968.89
551.235	30025.38
551.599	30337.47
551.962	30361.65
552.326	30407.97
552.689	30687.51
553.053	30521.19
553.417	30701.98
553.78	31143.32
554.143	30950.78
554.507	31169.99
554.87	31219.7
555.234	31512.35
555.597	31418.34
555.96	31606.13
556.323	31857.65
556.686	31874.15
557.05	32043.63
557.413	32065.56
557.776	32137.64
558.139	32470.97
558.502	32682.26
558.865	32642.04
559.228	32975.59
559.59	33040.22
559.953	33120.44
560.316	33332.64
560.679	33394.56
561.041	33615.34
561.404	33750.26
561.767	34125.39
562.129	33910.7
562.492	34326.96
562.854	34272.95
563.217	34353.18
563.579	34597.69
563.941	34740.74
564.304	34959.94
564.666	35006.27
565.028	35159.71
565.39	35330.1
565.753	35487.84
566.115	35551.34
566.477	35737.1
566.839	35830.88
567.201	36058.9
567.563	36084.43
567.925	36444.42
568.287	36527.81
568.648	36461.82
569.01	36805.32
569.372	37019.1
569.734	36857.29
570.095	37131.41
570.457	37257.74
570.819	37478.52
571.18	37526.2
571.542	37617.05
571.903	37671.74
572.265	37935.46
572.626	37965.51
572.987	38082.57
573.349	38222.23
573.71	38533.86
574.071	38377.03
574.432	38500.41
574.794	38726.62
575.155	38786.28
575.516	38591.26
575.877	38766.62
576.238	38993.06
576.599	39123.9
576.96	39109.21
577.32	39253.16
577.681	39283.44
578.042	39526.38
578.403	39513.04
578.763	39593.72
579.124	39675.07
579.485	39873.26
579.845	39794.39
580.206	39758.69
580.566	39782.87
580.927	39765.69
581.287	39965.23
581.648	39695.86
582.008	40056.08
582.368	39995.52
582.728	39921.39
583.089	40027.15
583.449	40066.25
583.809	40089.07
584.169	40271.22
584.529	40222.85
584.889	40336.07
585.249	40129.3
585.609	40123.2
585.969	40414.71
586.329	40292.23
586.688	40470.98
587.048	40203.19
587.408	40219.01
587.768	40259.69
588.127	40179.69
588.487	40176.53
588.846	40643.18
589.206	40326.13
589.565	40193.93
589.925	40431.66
590.284	40296.3
590.643	40491.1
591.003	40523.64
591.362	40657.65
591.721	40548.5
592.08	40490.19
592.44	40738.1
592.799	40799.56
593.158	40688.15
593.517	40686.57
593.876	40600.02
594.235	40577.65
594.593	40757.98
594.952	40772.67
595.311	40561.6
595.67	40787.36
596.029	40978.32
596.387	40946.68
596.746	41098.31
597.104	40738.77
597.463	40775.16
597.822	41040.69
598.18	40851.31
598.538	40990.74
598.897	41134.47
599.255	40975.83
599.613	41484.97
599.972	41164.07
600.33	41381.47
600.688	41087.46
601.046	41387.8
601.404	41390.51
601.762	41280.45
602.12	41449.49
602.478	41492.2
602.836	41520.67
603.194	41334.69
603.552	41401.35
603.91	41364.75
604.268	41551.41
604.625	41413.56
604.983	41559.09
605.341	41350.06
605.698	41629.82
606.056	41804.51
606.413	41619.2
606.771	41868.46
607.128	41905.07
607.485	41793.89
607.843	41872.98
608.2	41920.89
608.557	42001.34
608.914	41875.47
609.272	42171.5
609.629	42153.43
609.986	42348
610.343	42201.79
610.7	42487.2
611.057	42406.53
611.414	42385.28
611.771	42320.65
612.127	42408.11
612.484	42546.18
612.841	42666.86
613.198	42633.19
613.554	42627.31
613.911	42824.59
614.267	42846.51
614.624	42720.19
614.98	42762
615.337	43091.03
615.693	42885.16
616.05	42962.44
616.406	43150.01
616.762	42991.6
617.118	42993.4
617.475	43083.34
617.831	43125.83
618.187	43161.31
618.543	43129.9
618.899	43273.62
619.255	43295.54
619.611	43168.31
619.967	43139.84
620.323	43493.96
620.678	43404.47
621.034	43209.22
621.39	43205.83
621.746	43244.47
622.101	43662.99
622.457	43321.53
622.812	43458.02
623.168	43594.29
623.523	43492.15
623.879	43618.47
624.234	43267.75
624.589	43523.56
624.945	43516.33
625.3	43583.67
625.655	43585.25
626.01	43509.1
626.365	43496.22
626.72	43487.18
627.075	43446.95
627.43	43422.54
627.785	43442.43
628.14	43518.81
628.495	43382.55
628.85	43362.66
629.205	43212.61
629.559	43567.17
629.914	43376.9
630.269	43348.87
630.623	43279.05
630.978	43199.27
631.332	43306.16
631.687	43177.58
632.041	43137.13
632.396	43171.48
632.75	43072.27
633.104	42968.77
633.459	42853.75
633.813	42782.56
634.167	42740.75
634.521	42813.75
634.875	42674.32
635.229	42675.9
635.583	42559.74
635.937	42606.75
636.291	42537.37
636.645	42596.13
636.999	42521.55
637.352	42685.61
637.706	42531.95
638.06	42545.51
638.413	42387.77
638.767	42187.77
639.121	42342.12
639.474	42019.42
639.828	42095.35
640.181	42110.94
640.534	42158.85
640.888	42070.49
641.241	41820.78
641.594	41916.14
641.947	42007.21
642.301	41945.3
642.654	41959.31
643.007	41827.78
643.36	41791.4
643.713	41707.56
644.066	41802.47
644.419	41440
644.771	41219.89
645.124	40811.54
645.477	40621.71
645.83	40600.47
646.182	40427.37
646.535	40198.45
646.888	40451.78
647.24	40185.57
647.593	40525.22
647.945	40270.31
648.298	40092.24
648.65	39988.06
649.002	39833.94
649.355	40082.07
649.707	39936.08
650.059	40047.94
650.411	40485.9
650.763	40606.35
651.115	41051.76
651.467	40877.53
651.819	40913.68
652.171	40713.69
652.523	40671.88
652.875	40633.24
653.227	40471.89
653.578	40807.25
653.93	40672.33
654.282	40470.98
654.633	40352.79
654.985	40408.39
655.337	40485.22
655.688	40518.89
656.039	40351.66
656.391	40096.3
656.742	40148.73
657.094	40245.91
657.445	40346.92
657.796	40119.81
658.147	40160.48
658.498	40221.72
658.849	40164.78
659.2	40257.66
659.551	39951.9
659.902	40130.43
660.253	40021.96
660.604	40090.43
660.955	39936.08
661.306	40051.56
661.656	39941.28
662.007	40026.02
662.358	39841.4
662.708	39844.33
663.059	40005.46
663.409	39721.17
663.76	39921.39
664.11	39844.11
664.461	39809.53
664.811	39876.42
665.161	39776.76
665.511	39761.17
665.862	39676.65
666.212	39971.79
666.562	39741.96
666.912	39713.26
667.262	39676.2
667.612	39695.64
667.962	39572.93
668.312	39571.12
668.662	39621.06
669.011	39587.84
669.361	39471.46
669.711	39560.95
670.06	39457
670.41	39400.73
670.76	39378.58
671.109	39466.04
671.459	39311.24
671.808	39446.15
672.157	39247.51
672.507	39053.62
672.856	39102.21
673.205	39294.74
673.554	39328.64
673.904	39117.8
674.253	39377.23
674.602	39163.22
674.951	38838.71
675.3	38541.09
675.649	39072.15
675.998	39081.64
676.346	39024.92
676.695	39047.97
677.044	38851.59
677.393	39095.88
677.741	38978.59
678.09	38794.64
678.438	38865.15
678.787	38717.58
679.135	38916.9
679.484	38645.04
679.832	38851.14
680.181	38427.42
680.529	38604.59
680.877	38410.93
681.225	38364.82
681.573	38648.66
681.922	38312.85
682.27	38205.05
682.618	38377.03
682.966	38212.74
683.314	38285.28
683.661	38233.3
684.009	37901.56
684.357	38017.26
684.705	37866.53
685.053	37768
685.4	37790.38
685.748	37617.5
686.095	37668.35
686.443	37499.31
686.79	37423.83
687.138	37436.71
687.485	37491.18
687.832	37302.48
688.18	37282.82
688.527	37287.11
688.874	37128.25
689.221	37000.34
689.568	36869.95
689.915	36882.38
690.262	36880.8
690.609	36786.11
690.956	36692.55
691.303	36628.6
691.65	36436.29
691.997	36453.24
692.344	36300.7
692.69	36270.42
693.037	36377.76
693.383	36031.1
693.73	36228.38
694.077	35910.88
694.423	35844.66
694.769	35853.25
695.116	35757.66
695.462	35692.8
695.808	35472.25
696.155	35460.95
696.501	35240.84
696.847	35079.26
697.193	34950.9
697.539	35068.87
697.885	34801.98
698.231	34789.33
698.577	34799.49
698.923	34644.02
699.269	34484.02
699.614	34401.09
699.96	34214.88
700.306	34326.74
700.651	34151.38
700.997	34105.95
701.342	34103.92
701.688	34063.24
702.033	33878.16
702.379	33882.91
702.724	33767.66
703.069	33752.74
703.415	33359.98
703.76	33415.8
704.105	33496.03
704.45	33278.4
704.795	33169.93
705.14	33112.99
705.485	32952.99
705.83	32991.41
706.175	32969.49
706.52	32920.9
706.865	32724.75
707.209	32758.64
707.554	32673.22
707.899	32680.23
708.243	32553.45
708.588	32485.88
708.932	32196.17
709.277	32221.03
709.621	32175.38
709.966	32009.51
710.31	32120.24
710.654	31822.17
710.998	31877.99
711.342	31805
711.687	31709.41
712.031	31518
712.375	31520.94
712.719	31683.87
713.063	31461.73
713.407	31627.15
713.75	31268.51
714.094	31271.45
714.438	31199.59
714.782	31313.26
715.125	31104.22
715.469	31201.17
715.812	30971.8
716.156	30912.82
716.499	30894.96
716.843	30830.11
717.186	30709.21
717.53	30791.01
717.873	30749.43
718.216	30704.91
718.559	30496.33
718.902	30238.94
719.246	30569.32
719.589	30382.66
719.932	30199.16
720.275	30128.66
720.617	30163.01
720.96	29997.81
721.303	29991.94
721.646	30016.8
721.989	29848.21
722.331	29916.01
722.674	29762.79
723.016	29881.88
723.359	29730.02
723.701	29803.24
724.044	29495.45
724.386	29292.07
724.729	29569.58
725.071	29503.81
725.413	29457.04
725.755	29400.54
726.097	29260.21
726.439	29038.06
726.782	29086.2
727.124	29276.7
727.465	29033.77
727.807	29033.77
728.149	29025.18
728.491	28861.8
728.833	28962.13
729.175	28860.89
729.516	28891.4
729.858	28808.69
730.199	28774.79
730.541	28762.37
730.882	28624.97
731.224	28678.75
731.565	28514.46
731.906	28647.34
732.248	28462.49
732.589	28300
732.93	28307.91
733.271	28317.86
733.612	28374.35
733.953	28266.79
734.294	28167.58
734.635	28074.93
734.976	28171.65
735.317	28066.11
735.658	28077.64
735.999	27955.61
736.339	27997.64
736.68	28042.84
737.021	27926.23
737.361	27820.92
737.702	27902.73
738.042	27736.86
738.383	27726.01
738.723	27674.48
739.063	27636.07
739.404	27557.88
739.744	27544.32
740.084	27415.51
740.424	27482.17
740.764	27446.02
741.104	27599.46
741.444	27298.67
741.784	27215.29
742.124	27341.84
742.464	27137.1
742.804	27064.78
743.143	27159.92
743.483	27028.4
743.823	26893.04
744.162	26983.65
744.502	27007.61
744.841	26910.89
745.181	26928.52
745.52	26783.89
745.86	26903.66
746.199	26816.88
746.538	26679.03
746.877	26629.77
747.216	26654.17
747.556	26505.48
747.895	26553.16
748.234	26491.24
748.573	26334.63
748.911	26340.96
749.25	26372.37
749.589	26230.23
749.928	26223.22
750.267	26292.15
750.605	26039.72
750.944	26077.69
751.283	26001.53
751.621	26112.27
751.96	25912.5
752.298	25827.75
752.636	25867.3
752.975	25671.15
753.313	25604.71
753.651	25734.87
753.989	25516.12
