Data from plate_ceramic_FLMS001491_009.txt Node
Date: Tue Feb 07 11:16:14 GMT 2017
User: dcchb
Spectrometer: FLMS00149
Trigger mode: 0
Integration Time (sec): 2.000000E-2
Scans to average: 10
Electric dark correction enabled: true
Nonlinearity correction enabled: false
Boxcar width: 0
XAxis mode: Wavelengths
Number of Pixels in Spectrum: 2048
>>>>>Begin Spectral Data<<<<<
341.393	-2.77
341.776	-2.77
342.16	-2.77
342.543	-71.92
342.927	-69.43
343.31	-76.21
343.693	-47.74
344.077	-66.27
344.46	-56.78
344.843	-46.16
345.226	-50.68
345.61	-29.43
345.993	-11.13
346.376	-15.2
346.759	17.8
347.142	29.77
347.525	31.81
347.908	71.13
348.291	77.46
348.674	73.16
349.057	98.47
349.44	120.84
349.823	128.75
350.206	159.04
350.588	209.88
350.971	222.54
351.354	238.81
351.737	243.55
352.119	277.9
352.502	267.28
352.884	289.88
353.267	284.23
353.65	301.4
354.032	301.4
354.414	309.54
354.797	342.53
355.179	340.73
355.562	337.11
355.944	336.43
356.326	350.89
356.709	334.85
357.091	346.15
357.473	367.39
357.855	353.15
358.238	370.33
358.62	369.43
359.002	369.43
359.384	357.9
359.766	362.42
360.148	361.97
360.53	377.33
360.912	364
361.294	349.76
361.676	356.32
362.057	378.69
362.439	348.41
362.821	353.61
363.203	364
363.584	329.65
363.966	343.21
364.348	351.12
364.729	341.63
365.111	341.86
365.493	352.93
365.874	334.85
366.256	349.76
366.637	338.92
367.019	361.97
367.4	354.06
367.781	360.61
368.163	355.64
368.544	336.21
368.925	342.76
369.306	342.08
369.688	360.84
370.069	349.31
370.45	360.16
370.831	332.36
371.212	359.93
371.593	360.61
371.974	367.39
372.355	371.69
372.736	362.87
373.117	366.04
373.498	388.86
373.879	391.12
374.26	355.87
374.641	368.3
375.021	378.92
375.402	382.08
375.783	368.75
376.163	402.87
376.544	400.61
376.925	399.03
377.305	401.29
377.686	402.87
378.066	369.2
378.447	375.98
378.827	384.34
379.208	413.72
379.588	420.27
379.968	387.96
380.349	408.07
380.729	427.28
381.109	409.65
381.489	392.02
381.87	445.36
382.25	404.45
382.63	404
383.01	436.09
383.39	466.6
383.77	446.26
384.15	459.82
384.53	456.65
384.91	458.91
385.29	445.81
385.67	481.29
386.049	443.55
386.429	458.01
386.809	481.96
387.189	455.75
387.568	494.85
387.948	480.61
388.328	479.25
388.707	486.71
389.087	497.56
389.466	496.43
389.846	497.11
390.225	518.57
390.605	535.97
390.984	529.2
391.363	522.87
391.743	522.87
392.122	507.95
392.501	547.73
392.881	545.24
393.26	556.09
393.639	569.19
394.018	552.7
394.397	542.53
394.776	556.54
395.155	557.22
395.534	572.36
395.913	580.72
396.292	568.74
396.671	604
397.05	599.93
397.429	639.02
397.808	593.6
398.186	618.01
398.565	624.11
398.944	628.63
399.323	633.37
399.701	639.02
400.08	646.48
400.458	651
400.837	665.01
401.215	675.18
401.594	668.85
401.972	669.3
402.351	691.9
402.729	678.57
403.107	703.43
403.486	703.88
403.864	698.46
404.242	709.53
404.62	734.84
404.999	735.97
405.377	737.55
405.755	758.79
406.133	738.68
406.511	778.45
406.889	792.47
407.267	829.3
407.645	787.95
408.023	791.56
408.401	825.23
408.779	845.35
409.156	834.27
409.534	852.8
409.912	875.4
410.29	878.56
410.667	902.74
411.045	896.19
411.422	893.03
411.8	926.02
412.178	926.7
412.555	969.41
412.933	965.79
413.31	966.47
413.687	980.48
414.065	984.1
414.442	978.67
414.819	994.27
415.197	1015.06
415.574	1056.19
415.951	1062.74
416.328	1075.85
416.705	1062.29
417.082	1056.41
417.46	1067.94
417.837	1099.35
418.214	1110.42
418.591	1113.81
418.967	1111.33
419.344	1156.3
419.721	1144.55
420.098	1152.91
420.475	1166.01
420.852	1178.9
421.228	1206.92
421.605	1208.73
421.982	1217.99
422.358	1242.4
422.735	1257.09
423.111	1263.19
423.488	1279.91
423.864	1320.13
424.241	1292.11
424.617	1296.63
424.994	1311.1
425.37	1342.96
425.746	1357.65
426.123	1349.74
426.499	1359.91
426.875	1392.45
427.251	1434.93
427.627	1442.17
428.003	1427.02
428.379	1482.16
428.756	1503.63
429.132	1563.52
429.507	1527.13
429.883	1570.52
430.259	1597.64
430.635	1632.44
431.011	1630.86
431.387	1654.36
431.763	1661.59
432.138	1688.03
432.514	1715.38
432.89	1734.81
433.265	1761.48
433.641	1745.43
434.016	1760.12
434.392	1819.56
434.767	1808.71
435.143	1852.32
435.518	1915.37
435.894	1903.85
436.269	1923.06
436.644	1973.22
437.02	1968.48
437.395	1978.42
437.77	2064.97
438.145	2024.52
438.52	2043.73
438.895	2097.74
439.271	2090.74
439.646	2120.11
440.021	2172.09
440.395	2154.92
440.77	2153.79
441.145	2199.43
441.52	2222.71
441.895	2229.94
442.27	2241.01
442.645	2234.46
443.019	2325.08
443.394	2270.84
443.769	2318.3
444.143	2295.93
444.518	2378.19
444.892	2372.54
445.267	2405.08
445.641	2412.54
446.016	2403.72
446.39	2421.35
446.764	2438.75
447.139	2441.01
447.513	2454.57
447.887	2506.32
448.262	2534.57
448.636	2539.76
449.01	2613.21
449.384	2619.54
449.758	2609.82
450.132	2652.53
450.506	2662.7
450.88	2703.83
451.254	2670.16
451.628	2726.88
452.002	2751.51
452.376	2767.33
452.75	2812.52
453.123	2849.81
453.497	2889.36
453.871	2874.67
454.244	2979.98
454.618	2964.61
454.992	3040.09
455.365	3038.51
455.739	3098.62
456.112	3150.6
456.486	3157.6
456.859	3181.78
457.232	3281.21
457.606	3278.73
457.979	3301.78
458.352	3402.57
458.725	3433.98
459.099	3476.24
459.472	3482.56
459.845	3538.16
460.218	3551.94
460.591	3635.78
460.964	3691.6
461.337	3716.46
461.71	3741.09
462.083	3814.98
462.456	3830.58
462.829	3832.61
463.201	3951.7
463.574	3946.51
463.947	4039.61
464.32	4064.47
464.692	4147.63
465.065	4173.17
465.438	4188.53
465.81	4311.02
466.183	4364.57
466.555	4456.78
466.928	4468.53
467.3	4477.34
467.672	4566.38
468.045	4658.8
468.417	4691.35
468.789	4728.63
469.161	4789.87
469.534	4886.82
469.906	4949.19
470.278	4994.84
470.65	5061.96
471.022	5158.68
471.394	5271.67
471.766	5329.07
472.138	5369.97
472.51	5478.67
472.882	5558.44
473.253	5649.51
473.625	5733.58
473.997	5861.48
474.369	5908.49
474.74	5945.1
475.112	6087.02
475.484	6196.84
475.855	6274.58
476.227	6361.58
476.598	6501.47
476.97	6618.75
477.341	6726.32
477.713	6759.99
478.084	6820.78
478.455	7031.62
478.827	7143.71
479.198	7390.94
479.569	7350.71
479.94	7557.48
480.311	7654.43
480.682	7802.9
481.053	8009.22
481.424	8163.34
481.795	8200.63
482.166	8318.82
482.537	8385.94
482.908	8615.54
483.279	8718.13
483.65	8877.68
484.021	9066.15
484.391	9216.42
484.762	9222.07
485.133	9290.09
485.503	9439.02
485.874	9642.85
486.244	9799.69
486.615	9957.2
486.985	10077.19
487.356	10306.11
487.726	10359.22
488.097	10591.3
488.467	10550.4
488.837	10846.21
489.207	10987.68
489.578	11198.52
489.948	11249.14
490.318	11405.07
490.688	11427.44
491.058	11683.48
491.428	11851.38
491.798	11865.62
492.168	12190.13
492.538	12315.1
492.908	12456.34
493.278	12540.18
493.648	12617.01
494.017	12845.93
494.387	12847.52
494.757	13000.28
495.126	13127.96
495.496	13275.98
495.866	13287.73
496.235	13547.61
496.605	13598.68
496.974	13650.66
497.344	13820.82
497.713	13935.62
498.082	13950.31
498.452	14224.2
498.821	14362.96
499.19	14294.48
499.559	14433.91
499.928	14631.42
500.298	14661.93
500.667	14801.59
501.036	14767.69
501.405	14985.31
501.774	15030.73
502.143	15304.63
502.512	15220.11
502.88	15424.4
503.249	15433.44
503.618	15591.17
503.987	15681.57
504.356	15769.92
504.724	15894.44
505.093	15936.47
505.462	16178.05
505.83	16255.79
506.199	16300.76
506.567	16531.03
506.936	16540.53
507.304	16784.13
507.672	16878.37
508.041	16984.58
508.409	17062.32
508.777	17220.73
509.145	17298.92
509.514	17399.26
509.882	17554.51
510.25	17550.89
510.618	17705.69
510.986	17769.19
511.354	18064.78
511.722	18318.78
512.09	18352.68
512.458	18356.97
512.826	18536.18
513.193	18636.06
513.561	18806.91
513.929	18935.04
514.297	19087.13
514.664	19208.7
515.032	19368.25
515.4	19514.01
515.767	19650.05
516.135	19698.41
516.502	19675.81
516.869	20055.46
517.237	20148.57
517.604	20123.71
517.972	20386.75
518.339	20583.36
518.706	20565.5
519.073	20672.62
519.44	20822.67
519.808	21051.59
520.175	21203.23
520.542	21412.71
520.909	21464.01
521.276	21558.92
521.643	21741.29
522.009	21905.36
522.376	22199.36
522.743	22264.89
523.11	22560.25
523.477	22830.53
523.843	22896.97
524.21	23197.98
524.577	23279.56
524.943	23311.19
525.31	23530.85
525.676	23813.33
526.043	24003.15
526.409	24035.7
526.776	24306.2
527.142	24443.14
527.508	24483.82
527.874	24776.24
528.241	24917.03
528.607	25031.6
528.973	25157.25
529.339	25271.37
529.705	25577.35
530.071	25764.24
530.437	25907.74
530.803	26213.04
531.169	26150.44
531.535	26227.05
531.901	26356.76
532.267	26404
532.632	26656.87
532.998	26879.69
533.364	26985.45
533.73	27184.09
534.095	27438.09
534.461	27241.04
534.826	27680.12
535.192	27596.96
535.557	27920.57
535.923	27908.59
536.288	28030.84
536.653	28378.18
537.019	28192.42
537.384	28243.49
537.749	28480.1
538.114	28516.93
538.479	28665.18
538.845	28756.25
539.21	28794.67
539.575	28844.38
539.94	29052.96
540.305	29231.04
540.67	29263.58
541.034	29355.33
541.399	29503.8
541.764	29591.93
542.129	29760.06
542.494	29807.52
542.858	29876.22
543.223	29965.26
543.587	30072.37
543.952	30137.91
544.316	30389.88
544.681	30245.48
545.045	30576.09
545.41	30676.65
545.774	30732.69
546.138	30871.22
546.503	31009.98
546.867	30957.55
547.231	31235.73
547.595	31323.41
547.959	31362.73
548.324	31479.79
548.688	31596.4
549.052	31512.11
549.416	31783.97
549.779	31887.92
550.143	32054.69
550.507	32181.92
550.871	32213.11
551.235	32345.53
551.599	32556.15
551.962	32590.5
552.326	32696.03
552.689	32900.55
553.053	32778.29
553.417	32972.18
553.78	33275.23
554.143	33282.91
554.507	33427.31
554.87	33539.4
555.234	34004.02
555.597	33650.58
555.96	34038.82
556.323	34169.21
556.686	34131.25
557.05	34409.89
557.413	34585.02
557.776	34650.11
558.139	34909.31
558.502	34925.58
558.865	34925.58
559.228	35470.2
559.59	35438.33
559.953	35519.24
560.316	35805.1
560.679	35902.95
561.041	35985.89
561.404	36333.23
561.767	36492.77
562.129	36452.32
562.492	36821.8
562.854	36884.85
563.217	36966.66
563.579	37040.1
563.941	37411.62
564.304	37468.34
564.666	37833.07
565.028	37705.39
565.39	37895.22
565.753	38085.95
566.115	38296.11
566.477	38498.37
566.839	38344.25
567.201	38679.38
567.563	38708.08
567.925	38925.47
568.287	39033.27
568.648	39047.73
569.01	39375.63
569.372	39624.66
569.734	39621.73
570.095	39729.75
570.457	39900.59
570.819	40081.6
571.18	40122.05
571.542	40380.58
571.903	40474.36
572.265	40534.7
572.626	40732.43
572.987	40711.42
573.349	40934.91
573.71	41019.88
574.071	40981.69
574.432	41098.98
574.794	41432.98
575.155	41402.02
575.516	41303.49
575.877	41623.48
576.238	41706.19
576.599	41817.15
576.96	41883.81
577.32	41918.39
577.681	41974.21
578.042	42274.54
578.403	42293.52
578.763	42265.95
579.124	42380.07
579.485	42364.71
579.845	42533.74
580.206	42402.67
580.566	42655.55
580.927	42693.51
581.287	42729.67
581.648	42610.12
582.008	42742.55
582.368	42696
582.728	42837.46
583.089	42592.04
583.449	42671.82
583.809	42815.54
584.169	43015.54
584.529	42918.14
584.889	43161.97
585.249	42895.09
585.609	42642.44
585.969	43072.71
586.329	42985.25
586.688	43061.41
587.048	43065.03
587.408	42857.12
587.768	42949.32
588.127	42983.9
588.487	42918.59
588.846	43307.73
589.206	43024.8
589.565	42983.22
589.925	43344.34
590.284	43185.7
590.643	43276.77
591.003	43382.08
591.362	43391.8
591.721	43288.75
592.08	43392.93
592.44	43518.57
592.799	43425.24
593.158	43586.14
593.517	43359.48
593.876	43397.22
594.235	43377.33
594.593	43539.36
594.952	43541.17
595.311	43441.97
595.67	43461.63
596.029	43692.35
596.387	43684.9
596.746	43764.89
597.104	43599.7
597.463	43740.04
597.822	43868.85
598.18	43646.93
598.538	43620.94
598.897	43883.08
599.255	43643.77
599.613	44312.9
599.972	43964.21
600.33	43946.36
600.688	43872.01
601.046	44090.99
601.404	44152.23
601.762	44089.86
602.12	44318.55
602.478	44236.29
602.836	44353.13
603.194	44027.03
603.552	44147.26
603.91	44071.55
604.268	44336.86
604.625	44235.84
604.983	44521.03
605.341	44299.57
605.698	44455.5
606.056	44517.19
606.413	44501.82
606.771	44481.94
607.128	44694.14
607.485	44433.35
607.843	44500.47
608.2	44859.33
608.557	44777.52
608.914	44805.09
609.272	44966.9
609.629	45130.73
609.986	45146.78
610.343	45010.96
610.7	45258.41
611.057	45208.47
611.414	45152.43
611.771	45187.23
612.127	45323.05
612.484	45289.37
612.841	45397.62
613.198	45284.63
613.554	45195.82
613.911	45646.65
614.267	45644.39
614.624	45484.85
614.98	45647.1
615.337	45848.23
615.693	45732.3
616.05	45636.26
616.406	45937.27
616.762	45744.96
617.118	45770.27
617.475	45789.02
617.831	45920.32
618.187	45972.52
618.543	45948.11
618.899	46104.49
619.255	46231.27
619.611	45974.33
619.967	46108.11
620.323	46295.45
620.678	46187.66
621.034	46156.24
621.39	46108.34
621.746	46035.57
622.101	46592.84
622.457	46193.53
622.812	46332.51
623.168	46436.01
623.523	46304.26
623.879	46243.02
624.234	46244.38
624.589	46391.27
624.945	46302
625.3	46459.51
625.655	46309.01
626.01	46407.76
626.365	46376.35
626.72	46340.87
627.075	46352.62
627.43	46205.96
627.785	46103.36
628.14	46261.55
628.495	46213.19
628.85	46097.71
629.205	46092.06
629.559	46119.41
629.914	45934.33
630.269	46105.4
630.623	45993.08
630.978	45855.69
631.332	46098.84
631.687	46114.21
632.041	45927.1
632.396	46156.92
632.75	45801.68
633.104	45701.11
633.459	45700.66
633.813	45603.49
634.167	45606.65
634.521	45598.29
634.875	45521.68
635.229	45429.03
635.583	45291.41
635.937	45366.89
636.291	45245.08
636.645	45358.3
636.999	45082.37
637.352	45374.57
637.706	45018.42
638.06	45383.61
638.413	45087.12
638.767	44937.29
639.121	45148.59
639.474	44844.64
639.828	44998.76
640.181	44813.23
640.534	44986.33
640.888	44815.26
641.241	44492.78
641.594	44658.66
641.947	44845.09
642.301	44712.89
642.654	44653.46
643.007	44601.48
643.36	44582.05
643.713	44448.94
644.066	44531.88
644.419	44302.73
644.771	44049.41
645.124	43729.42
645.477	43680.83
645.83	43328.97
646.182	43213.04
646.535	42968.31
646.888	43021.41
647.24	42942.09
647.593	43293.95
647.945	42958.14
648.298	42932.6
648.65	42803.56
649.002	42630.46
649.355	42758.37
649.707	42733.51
650.059	43013.28
650.411	43426.6
650.763	43354.51
651.115	43772.8
651.467	43506.14
651.819	43448.07
652.171	43505.92
652.523	43438.58
652.875	43308.18
653.227	43192.25
653.578	43525.8
653.93	43349.31
654.282	43251.69
654.633	43111.13
654.985	43227.28
655.337	43141.41
655.688	43135.31
656.039	43200.84
656.391	42836.11
656.742	42999.26
657.094	42938.02
657.445	43054.86
657.796	42947.74
658.147	42960.62
658.498	42878.59
658.849	42876.1
659.2	42749.78
659.551	42821.64
659.902	42826.39
660.253	42655.09
660.604	42760.4
660.955	42598.82
661.306	42800.85
661.656	42597.02
662.007	42508.2
662.358	42507.75
662.708	42580.29
663.059	42547.3
663.409	42260.53
663.76	42484.25
664.11	42408.77
664.461	42358.38
664.811	42530.35
665.161	42537.36
665.511	42374.65
665.862	42334.88
666.212	42413.97
666.562	42602.67
666.912	42516.34
667.262	42304.59
667.612	42364.71
667.962	42363.58
668.312	42277.25
668.662	42505.04
669.011	42422.33
669.361	42476.57
669.711	42203.58
670.06	42264.59
670.41	42187.99
670.76	42025.51
671.109	42234.54
671.459	42059.4
671.808	42118.61
672.157	42198.16
672.507	41980.53
672.856	42023.7
673.205	42009.91
673.554	41992.06
673.904	41855.79
674.253	42096.01
674.602	41992.51
674.951	41339.2
675.3	41238.18
675.649	41776.7
675.998	41642.24
676.346	41694.21
676.695	41980.08
677.044	41349.14
677.393	41686.76
677.741	41652.41
678.09	41491.28
678.438	41612.63
678.787	41609.24
679.135	41530.15
679.484	41272.76
679.832	41556.82
680.181	41336.26
680.529	41357.73
680.877	41183.04
681.225	41081.35
681.573	41372.87
681.922	41192.08
682.27	41019.2
682.618	40945.53
682.966	40892.65
683.314	40906.44
683.661	40858.98
684.009	40631.42
684.357	40573.57
684.705	40413.34
685.053	40444.08
685.4	40454.7
685.748	40265.55
686.095	40313.69
686.443	40013.81
686.79	39942.62
687.138	39993.69
687.485	40020.36
687.832	39980.59
688.18	39928.16
688.527	39778.56
688.874	39707.6
689.221	39629.18
689.568	39465.8
689.915	39354.39
690.262	39458.79
690.609	39442.97
690.956	39149.2
691.303	39245.01
691.65	38851.13
691.997	38915.08
692.344	38682.99
692.69	38624.01
693.037	38762.09
693.383	38560.06
693.73	38631.7
694.077	38409.78
694.423	38416.56
694.769	38400.06
695.116	38228.09
695.462	38043.91
695.808	38062.45
696.155	38116.23
696.501	37673.3
696.847	37633.3
697.193	37419.3
697.539	37601.21
697.885	37217.72
698.231	37252.75
698.577	37257.04
698.923	37234.9
699.269	36888.47
699.614	36653.67
699.96	36631.75
700.306	36695.93
700.651	36588.36
700.997	36584.07
701.342	36383.85
701.688	36271.08
702.033	36221.82
702.379	36150.86
702.724	36164.64
703.069	36103.4
703.415	35601.95
703.76	35825.89
704.105	35756.07
704.45	35543.42
704.795	35325.79
705.14	35286.7
705.485	35314.27
705.83	35216.64
706.175	35263.65
706.52	35093.03
706.865	35080.83
707.209	35064.56
707.554	34833.83
707.899	35002.19
708.243	34683.33
708.588	34724
708.932	34607.4
709.277	34514.06
709.621	34470.45
709.966	34174.41
710.31	34375.08
710.654	34023.68
710.998	34081.31
711.342	34084.92
711.687	33958.37
712.031	33757.7
712.375	33733.75
712.719	33693.97
713.063	33542.34
713.407	33794.31
713.75	33540.08
714.094	33388.44
714.438	33403.81
714.782	33436.8
715.125	33271.39
715.469	33362.46
715.812	33203.14
716.156	33021.67
716.499	32980.32
716.843	33021
717.186	32821.91
717.53	32943.48
717.873	32871.85
718.216	32743.49
718.559	32684.51
718.902	32425.98
719.246	32572.19
719.589	32521.35
719.932	32274.58
720.275	32413.78
720.617	32226.44
720.96	32322.48
721.303	32250.85
721.646	32172.66
721.989	32039.55
722.331	32072.32
722.674	31944.19
723.016	31982.38
723.359	31904.42
723.701	31860.8
724.044	31537.19
724.386	31440.7
724.729	31684.31
725.071	31501.49
725.413	31514.82
725.755	31357.76
726.097	31424.43
726.439	31103.76
726.782	31212.91
727.124	31265.34
727.465	31136.53
727.807	31063.53
728.149	31096.98
728.491	31027.15
728.833	31153.93
729.175	30953.93
729.516	30868.51
729.858	30782.64
730.199	30742.64
730.541	30733.6
730.882	30700.61
731.224	30765.24
731.565	30622.64
731.906	30525.47
732.248	30453.83
732.589	30372.7
732.93	30300.84
733.271	30268.98
733.612	30316.43
733.953	30393.72
734.294	30148.76
734.635	30044.13
734.976	30127.06
735.317	29947.63
735.658	29950.79
735.999	29992.15
736.339	29949.21
736.68	30084.12
737.021	29928.87
737.361	29774.08
737.702	29911.93
738.042	29779.05
738.383	29616.34
738.723	29711.48
739.063	29587.41
739.404	29527.75
739.744	29621.09
740.084	29363.47
740.424	29518.94
740.764	29396.46
741.104	29476.68
741.444	29231.72
741.784	29127.99
742.124	29350.58
742.464	29149.23
742.804	29124.83
743.143	29071.27
743.483	29048.67
743.823	28794.67
744.162	28727.1
744.502	28888.45
744.841	28829.47
745.181	28931.39
745.52	28641.9
745.86	28731.17
746.199	28546.54
746.538	28553.54
746.877	28504.73
747.216	28390.38
747.556	28405.52
747.895	28483.26
748.234	28182.93
748.573	28174.57
748.911	28147.45
749.25	28249.82
749.589	28104.74
749.928	28088.7
750.267	28050.51
750.605	28043.27
750.944	27922.37
751.283	27970.73
751.621	27863.62
751.96	27767.35
752.298	27749.04
752.636	27733.23
752.975	27504.76
753.313	27463.63
753.651	27614.13
