Data from plate_ceramic_FLMS001491_040.txt Node
Date: Tue Feb 07 11:16:41 GMT 2017
User: dcchb
Spectrometer: FLMS00149
Trigger mode: 0
Integration Time (sec): 2.000000E-2
Scans to average: 10
Electric dark correction enabled: true
Nonlinearity correction enabled: false
Boxcar width: 0
XAxis mode: Wavelengths
Number of Pixels in Spectrum: 2048
>>>>>Begin Spectral Data<<<<<
341.393	-3.84
341.776	-3.84
342.16	-3.84
342.543	-54.46
342.927	-58.3
343.31	-76.16
343.693	-67.34
344.077	-58.98
344.46	-62.15
344.843	-58.08
345.226	-21.47
345.61	-14.46
345.993	-15.82
346.376	-18.3
346.759	2.49
347.142	18.3
347.525	37.97
347.908	60.11
348.291	81.35
348.674	87.23
349.057	105.31
349.44	119.09
349.823	139.88
350.206	160.67
350.588	201.12
350.971	215.14
351.354	250.84
351.737	239.99
352.119	279.09
352.502	283.16
352.884	298.75
353.267	282.7
353.65	311.4
354.032	298.07
354.414	331.52
354.797	337.62
355.179	345.08
355.562	341.01
355.944	351.86
356.326	345.98
356.709	356.37
357.091	354.34
357.473	364.28
357.855	370.39
358.238	389.82
358.62	367.67
359.002	375.36
359.384	366.77
359.766	378.97
360.148	387.79
360.53	358.63
360.912	361.8
361.294	371.06
361.676	371.06
362.057	361.8
362.439	335.58
362.821	359.76
363.203	375.58
363.584	363.38
363.966	380.55
364.348	359.99
364.729	371.97
365.111	353.89
365.493	360.89
365.874	378.07
366.256	345.75
366.637	337.39
367.019	344.17
367.4	366.54
367.781	358.86
368.163	379.2
368.544	385.3
368.925	375.58
369.306	399.09
369.688	349.82
370.069	372.19
370.45	358.86
370.831	365.87
371.212	376.94
371.593	378.97
371.974	395.24
372.355	352.53
372.736	344.17
373.117	381.01
373.498	376.94
373.879	384.62
374.26	391.63
374.641	351.18
375.021	374.68
375.402	387.33
375.783	404.06
376.163	421.91
376.544	409.25
376.925	399.76
377.305	412.64
377.686	421.23
378.066	422.81
378.447	390.27
378.827	414
379.208	425.98
379.588	407.45
379.968	431.85
380.349	439.76
380.729	418.52
381.109	432.53
381.489	415.58
381.87	442.47
382.25	453.55
382.63	426.43
383.01	451.51
383.39	443.83
383.77	453.55
384.15	453.77
384.53	467.11
384.91	482.47
385.29	463.49
385.67	473.43
386.049	480.21
386.429	465.98
386.809	492.42
387.189	485.86
387.568	489.48
387.948	486.31
388.328	467.56
388.707	500.55
389.087	515.47
389.466	502.81
389.846	515.01
390.225	516.6
390.605	520.44
390.984	533.32
391.363	532.87
391.743	539.87
392.122	555.92
392.501	544.62
392.881	577.84
393.26	582.13
393.639	578.74
394.018	572.19
394.397	585.75
394.776	576.93
395.155	599.76
395.534	602.7
395.913	602.47
396.292	600.89
396.671	602.24
397.05	618.06
397.429	627.1
397.808	632.3
398.186	630.94
398.565	624.84
398.944	630.04
399.323	633.43
399.701	649.47
400.08	673.88
400.458	692.86
400.837	676.59
401.215	688.34
401.594	688.34
401.972	698.96
402.351	707.1
402.729	677.04
403.107	713.2
403.486	719.08
403.864	739.19
404.242	740.09
404.62	757.72
404.999	727.21
405.377	753.2
405.755	752.07
406.133	777.61
406.511	784.39
406.889	793.65
407.267	804.05
407.645	806.08
408.023	834.1
408.401	820.32
408.779	839.07
409.156	837.49
409.534	881.78
409.912	877.27
410.29	894.21
410.667	905.51
411.045	947.77
411.422	919.07
411.8	944.83
412.178	954.33
412.555	986.87
412.933	966.98
413.31	986.87
413.687	1008.79
414.065	1026.64
414.442	1005.4
414.819	1063.47
415.197	1045.4
415.574	1060.99
415.951	1052.18
416.328	1093.08
416.705	1060.31
417.082	1078.39
417.46	1110.71
417.837	1115
418.214	1134.66
418.591	1140.99
418.967	1150.48
419.344	1178.73
419.721	1172.4
420.098	1204.94
420.475	1187.99
420.852	1215.79
421.228	1217.14
421.605	1232.51
421.982	1239.06
422.358	1267.76
422.735	1283.13
423.111	1267.31
423.488	1266.63
423.864	1310.7
424.241	1331.49
424.617	1374.2
424.994	1305.95
425.37	1367.2
425.746	1367.2
426.123	1391.6
426.499	1413.07
426.875	1426.4
427.251	1414.43
427.627	1493.07
428.003	1474.99
428.379	1493.07
428.756	1547.3
429.132	1523.12
429.507	1558.38
429.883	1564.93
430.259	1625.95
430.635	1637.92
431.011	1657.81
431.387	1687.87
431.763	1669.79
432.138	1726.06
432.514	1722.89
432.89	1734.64
433.265	1784.13
433.641	1800.63
434.016	1814.87
434.392	1870.91
434.767	1887.63
435.143	1873.85
435.518	1899.39
435.894	1945.71
436.269	1952.27
436.644	1980.51
437.02	2014.86
437.395	2004.24
437.77	2041.3
438.145	2048.31
438.52	2087.85
438.895	2120.17
439.271	2087.85
439.646	2157.68
440.021	2165.59
440.395	2195.65
440.77	2166.5
441.145	2200.85
441.52	2213.05
441.895	2241.75
442.27	2255.99
442.645	2267.96
443.019	2325.14
443.394	2312.03
443.769	2346.15
444.143	2333.72
444.518	2373.5
444.892	2376.21
445.267	2401.29
445.641	2394.97
446.016	2433.16
446.39	2457.79
446.764	2437.9
447.139	2510.44
447.513	2509.09
447.887	2486.04
448.262	2508.18
448.636	2543.44
449.01	2573.27
449.384	2593.38
449.758	2586.82
450.132	2635.64
450.506	2658.46
450.88	2713.37
451.254	2699.82
451.628	2698.23
452.002	2778.23
452.376	2799.02
452.75	2833.82
453.123	2816.42
453.497	2869.76
453.871	2880.6
454.244	2955.85
454.618	2980.71
454.992	3037.21
455.365	3046.25
455.739	3152.69
456.112	3138.22
456.486	3190.42
456.859	3211.22
457.232	3275.85
457.606	3217.32
457.979	3298.9
458.352	3385.22
458.725	3447.59
459.099	3380.7
459.472	3516.74
459.845	3539.79
460.218	3599.68
460.591	3637.19
460.964	3623.41
461.337	3715.38
461.71	3771.88
462.083	3845.1
462.456	3815.72
462.829	3841.03
463.201	3925.55
463.574	3949.27
463.947	4034.02
464.32	4087.35
464.692	4099.33
465.065	4163.73
465.438	4231.53
465.81	4283.5
466.183	4328.93
466.555	4410.28
466.928	4474.23
467.3	4512.88
467.672	4545.87
468.045	4659.31
468.417	4690.72
468.789	4703.38
469.161	4812.08
469.534	4909.7
469.906	4952.64
470.278	4987.21
470.65	5085.52
471.022	5125.74
471.394	5245.06
471.766	5296.81
472.138	5353.98
472.51	5444.83
472.882	5573.19
473.253	5624.26
473.625	5692.05
473.997	5832.84
474.369	5836.46
474.74	5957.13
475.112	6075.77
475.484	6107.41
475.855	6198.71
476.227	6263.11
476.598	6447.51
476.97	6554.63
477.341	6678.24
477.713	6798.69
478.084	6835.3
478.455	7041.4
478.827	7039.36
479.198	7298.34
479.569	7287.72
479.94	7485.23
480.311	7546.02
480.682	7753.02
481.053	7937.19
481.424	8058.55
481.795	8074.36
482.166	8254.02
482.537	8429.83
482.908	8533.33
483.279	8721.35
483.65	8829.82
484.021	8988.92
484.391	9127.22
484.762	9167.89
485.133	9315.69
485.503	9392.97
485.874	9581.22
486.244	9657.6
486.615	9880.64
486.985	9967.42
487.356	10191.6
487.726	10227.98
488.097	10547.75
488.467	10540.29
488.837	10824.35
489.207	10960.62
489.578	11056.88
489.948	11225.47
490.318	11359.25
490.688	11398.34
491.058	11532.58
491.428	11620.49
491.798	11821.16
492.168	12070.19
492.538	12116.74
492.908	12323.74
493.278	12491.42
493.648	12514.47
494.017	12641.7
494.387	12710.4
494.757	12872.88
495.126	13038.08
495.496	13124.4
495.866	13188.58
496.235	13379.08
496.605	13490.94
496.974	13526.65
497.344	13697.94
497.713	13769.58
498.082	13870.6
498.452	13972.51
498.821	14092.06
499.19	14214.99
499.559	14372.5
499.928	14456.8
500.298	14515.1
500.667	14670.8
501.036	14595.77
501.405	14913.96
501.774	14909.89
502.143	15106.72
502.512	15122.54
502.88	15277.34
503.249	15282.31
503.618	15415.64
503.987	15499.03
504.356	15663.09
504.724	15728.85
505.093	15860.37
505.462	15944.21
505.83	16062.63
506.199	16141.95
506.567	16354.15
506.936	16351.89
507.304	16620.58
507.672	16740.8
508.041	16753.01
508.409	16877.75
508.777	17049.95
509.145	17150.96
509.514	17219.66
509.882	17375.81
510.25	17418.53
510.618	17636.37
510.986	17601.35
511.354	17930.6
511.722	17986.19
512.09	18233.87
512.458	18147.09
512.826	18291.04
513.193	18477.48
513.561	18495.78
513.929	18787.08
514.297	18841.54
514.664	18985.72
515.032	19008.31
515.4	19258.25
515.767	19402.65
516.135	19450.11
516.502	19479.26
516.869	19816.88
517.237	19871.79
517.604	19946.82
517.972	20173.03
518.339	20421.16
518.706	20375.51
519.073	20491.21
519.44	20679.23
519.808	20941.82
520.175	20887.36
520.542	21313.79
520.909	21328.93
521.276	21399.66
521.643	21621.8
522.009	21850.05
522.376	21935.92
522.743	22041.45
523.11	22307.89
523.477	22478.05
523.843	22672.17
524.21	22874.2
524.577	23104.48
524.943	23185.15
525.31	23290.24
525.676	23409.33
526.043	23724.57
526.409	23821.52
526.776	24111.23
527.142	24281.85
527.508	24373.6
527.874	24673.7
528.241	24666.7
528.607	24740.59
528.973	25170.19
529.339	25045.44
529.705	25253.35
530.071	25625.09
530.437	25587.35
530.803	25863.05
531.169	26032.31
531.535	25944.85
531.901	26188.46
532.267	26252.87
532.632	26510.49
532.998	26548
533.364	26881.78
533.73	26791.39
534.095	27143.02
534.461	27129.46
534.826	27377.81
535.192	27462.78
535.557	27735.54
535.923	27595.43
536.288	27903.67
536.653	27804.01
537.019	27982.77
537.384	28011.92
537.749	28278.35
538.114	28283.78
538.479	28327.39
538.845	28513.6
539.21	28475.64
539.575	28681.28
539.94	28685.35
540.305	29029.29
540.67	28948.62
541.034	29063.87
541.399	29348.15
541.764	29461.6
542.129	29445.33
542.494	29598.77
542.858	29771.19
543.223	29777.97
543.587	30055.25
543.952	29984.07
544.316	30177.06
544.681	30087.12
545.045	30260.9
545.41	30310.39
545.774	30513.77
546.138	30584.96
546.503	30704.28
546.867	30874.44
547.231	31137.03
547.595	31128.22
547.959	31244.38
548.324	31274.21
548.688	31262.68
549.052	31499.96
549.416	31650.02
549.779	31598.27
550.143	31784.47
550.507	32097.01
550.871	32117.57
551.235	32110.34
551.599	32395.08
551.962	32526.6
552.326	32599.82
552.689	32816.54
553.053	32669.65
553.417	32834.39
553.78	33216.3
554.143	33026.93
554.507	33277.09
554.87	33461.27
555.234	33773.35
555.597	33633.01
555.96	33839.34
556.323	33973.12
556.686	34037.3
557.05	34275.03
557.413	34601.8
557.776	34595.93
558.139	34834.56
558.502	34889.48
558.865	35008.35
559.228	35188.68
559.59	35345.29
559.953	35487.88
560.316	35819.17
560.679	35813.97
561.041	36025.95
561.404	36189.78
561.767	36489.21
562.129	36335.54
562.492	36728.75
562.854	36752.93
563.217	36893.72
563.579	36992.7
563.941	37317.66
564.304	37396.08
564.666	37692.34
565.028	37765.79
565.39	37837.65
565.753	38031.99
566.115	38272.44
566.477	38360.8
566.839	38557.86
567.201	38746.33
567.563	38770.28
567.925	39029.93
568.287	39138.41
568.648	39123.94
569.01	39277.39
569.372	39549.24
569.734	39536.59
570.095	39861.1
570.457	40040.76
570.819	40048.89
571.18	40101.09
571.542	40417.02
571.903	40605.26
572.265	40750.34
572.626	40733.39
572.987	40815.42
573.349	40959.38
573.71	41046.38
574.071	41175.87
574.432	41187.84
574.794	41504.67
575.155	41512.81
575.516	41430.78
575.877	41696.76
576.238	41706.7
576.599	41928.16
576.96	41869.41
577.32	41985.34
577.681	42093.81
578.042	42219.23
578.403	42324.54
578.763	42302.84
579.124	42518.2
579.485	42690.18
579.845	42759.1
580.206	42647.69
580.566	42581.93
580.927	42661.03
581.287	42776.95
581.648	42518.43
582.008	42986.21
582.368	42878.65
582.728	42985.08
583.089	42940.57
583.449	42962.26
583.809	43012.65
584.169	43103.95
584.529	42987.12
584.889	43224.63
585.249	43076.61
585.609	43040
585.969	43274.34
586.329	43105.99
586.688	43114.12
587.048	43273.66
587.408	43108.47
587.768	43124.06
588.127	43130.84
588.487	43237.51
588.846	43430.72
589.206	43190.73
589.565	43181.46
589.925	43405.64
590.284	43258.07
590.643	43444.06
591.003	43461.91
591.362	43653.54
591.721	43400.89
592.08	43489.25
592.44	43682.02
592.799	43554.11
593.158	43581.45
593.517	43385.53
593.876	43485.86
594.235	43479.53
594.593	43731.73
594.952	43734.22
595.311	43582.81
595.67	43668.91
596.029	43912.07
596.387	43782.13
596.746	43948.45
597.104	43752.3
597.463	43862.8
597.822	44128.78
598.18	43783.71
598.538	43823.93
598.897	43961.56
599.255	43752.07
599.613	44339.85
599.972	43976.47
600.33	44109.12
600.688	44011.5
601.046	44129.01
601.404	44453.07
601.762	44268.67
602.12	44507.53
602.478	44405.16
602.836	44496.23
603.194	44221.89
603.552	44350.47
603.91	44203.81
604.268	44439.51
604.625	44485.84
604.983	44634.08
605.341	44499.85
605.698	44750.91
606.056	44776
606.413	44780.29
606.771	44980.06
607.128	44980.51
607.485	44713.63
607.843	44985.48
608.2	45008.53
608.557	45179.6
608.914	44973.96
609.272	45085.82
609.629	45150
609.986	45264.12
610.343	45162.65
610.7	45399.26
611.057	45361.97
611.414	45233.61
611.771	45417.56
612.127	45675.41
612.484	45562.42
612.841	45731.68
613.198	45491.46
613.554	45657.33
613.911	45903.88
614.267	45797.89
614.624	45832.47
614.98	45956.98
615.337	46054.16
615.693	46042.18
616.05	45857.78
616.406	46232.46
616.762	45953.82
617.118	46053.48
617.475	46032.91
617.831	46196.75
618.187	46180.93
618.543	46111.56
618.899	46361.94
619.255	46334.15
619.611	46277.43
619.967	46519.68
620.323	46566.69
620.678	46404.66
621.034	46309.74
621.39	46333.25
621.746	46297.09
622.101	46640.58
622.457	46433.81
622.812	46515.61
623.168	46565.1
623.523	46593.58
623.879	46586.57
624.234	46461.38
624.589	46582.96
624.945	46551.54
625.3	46603.29
625.655	46495.27
626.01	46627.47
626.365	46669.51
626.72	46720.81
627.075	46608.94
627.43	46565.56
627.785	46361.72
628.14	46586.57
628.495	46598.77
628.85	46441.94
629.205	46294.6
629.559	46559.23
629.914	46340.48
630.269	46377.76
630.623	46358.78
630.978	46331.44
631.332	46305.45
631.687	46449.4
632.041	46269.29
632.396	46356.07
632.75	46000.82
633.104	46248.73
633.459	45996.08
633.813	45932.8
634.167	45984.55
634.521	46002.86
634.875	46000.15
635.229	45924.22
635.583	45716.54
635.937	45827.27
636.291	45628.86
636.645	45556.99
636.999	45487.62
637.352	45784.33
637.706	45413.72
638.06	45585.69
638.413	45382.08
638.767	45351.12
639.121	45467.73
639.474	45154.29
639.828	45219.38
640.181	45232.71
640.534	45382.54
640.888	45102.77
641.241	44863.68
641.594	45003.34
641.947	45180.05
642.301	44991.81
642.654	45050.57
643.007	45014.18
643.36	44807.18
643.713	44887.18
644.066	44942.32
644.419	44597.25
644.771	44265.28
645.124	43772.86
645.477	43763.82
645.83	43676.14
646.182	43463.72
646.535	43427.33
646.888	43502.13
647.24	43335.81
647.593	43563.83
647.945	43575.8
648.298	43394.57
648.65	43149.15
649.002	43118.19
649.355	43256.26
649.707	43220.11
650.059	43215.36
650.411	43820.09
650.763	43705.07
651.115	44102.57
651.467	43858.96
651.819	44020.54
652.171	43872.07
652.523	43803.14
652.875	43706.65
653.227	43494
653.578	43845.4
653.93	43763.37
654.282	43655.12
654.633	43522.92
654.985	43701
655.337	43606.09
655.688	43643.15
656.039	43589.36
656.391	43226.66
656.742	43371.74
657.094	43324.96
657.445	43448.35
657.796	43272.53
658.147	43189.15
658.498	43245.42
658.849	43227.34
659.2	43103.95
659.551	43166.32
659.902	43189.82
660.253	43277.28
660.604	43088.36
660.955	42873.22
661.306	43180.11
661.656	43098.3
662.007	43130.39
662.358	42990.73
662.708	43009.49
663.059	42921.58
663.409	42616.73
663.76	42953.45
664.11	42888.59
664.461	43027.34
664.811	43045.2
665.161	43015.59
665.511	42781.93
665.862	42818.99
666.212	43021.69
666.562	43030.73
666.912	42954.58
667.262	42849.49
667.612	42715.26
667.962	42799.1
668.312	42701.02
668.662	42863.73
669.011	42661.03
669.361	42762.27
669.711	42811.08
670.06	42690.85
670.41	42555.94
670.76	42438.66
671.109	42646.79
671.459	42375.83
671.808	42482.95
672.157	42512.55
672.507	42232.56
672.856	42255.61
673.205	42290.41
673.554	42448.38
673.904	42313.69
674.253	42521.14
674.602	42328.38
674.951	41752.57
675.3	41603.43
675.649	42162.96
675.998	42157.76
676.346	42173.58
676.695	42335.84
677.044	41938.56
677.393	42120.7
677.741	42173.35
678.09	42025.34
678.438	41852.91
678.787	42062.4
679.135	42061.04
679.484	41779.24
679.832	41969.97
680.181	41665.35
680.529	41854.72
680.877	41656.08
681.225	41543.54
681.573	41809.3
681.922	41499.25
682.27	41477.55
682.618	41423.77
682.966	41317.56
683.314	41299.25
683.661	41226.71
684.009	40945.59
684.357	41037.79
684.705	40839.15
685.053	41028.53
685.4	40957.34
685.748	40916.89
686.095	40847.06
686.443	40565.94
686.79	40445.49
687.138	40520.52
687.485	40461.53
687.832	40281.65
688.18	40357.36
688.527	40219.28
688.874	40197.59
689.221	40032.62
689.568	39883.25
689.915	39843.92
690.262	39900.42
690.609	39787.43
690.956	39675.57
691.303	39540.2
691.65	39377.04
691.997	39358.29
692.344	39290.04
692.69	39412.52
693.037	39415.46
693.383	39125.3
693.73	39175.69
694.077	38949.03
694.423	38978.41
694.769	38937.06
695.116	38813.44
695.462	38721.92
695.808	38447.35
696.155	38464.53
696.501	38144.53
696.847	38283.51
697.193	37895.27
697.539	38191.76
697.885	37890.76
698.231	37875.61
698.577	37794.94
698.923	37649.18
699.269	37452.12
699.614	37261.85
699.96	37166.71
700.306	37281.96
700.651	37087.16
700.997	37052.81
701.342	37071.12
701.688	36730.79
702.033	36799.03
702.379	36836.09
702.724	36690.11
703.069	36767.17
703.415	36203.12
703.76	36373.28
704.105	36280.85
704.45	36042.67
704.795	35964.93
705.14	35836.12
705.485	35805.61
705.83	35571.27
706.175	35762.68
706.52	35606.07
706.865	35527.65
707.209	35396.81
707.554	35348
707.899	35330.82
708.243	35216.02
708.588	35203.59
708.932	34901
709.277	34789.82
709.621	34958.85
709.966	34648.13
710.31	34918.4
710.654	34534.91
710.998	34557.51
711.342	34669.82
711.687	34423.95
712.031	34418.98
712.375	34241.13
712.719	34423.05
713.063	34172.43
713.407	34226.9
713.75	34029.61
714.094	33908.49
714.438	33889.96
714.782	33970.41
715.125	33760.47
715.469	33890.86
715.812	33627.59
716.156	33522.96
716.499	33539.46
716.843	33633.01
717.186	33268.05
717.53	33467.37
717.873	33422.62
718.216	33211.78
718.559	33135.63
718.902	33091.11
719.246	33037.1
719.589	33036.65
719.932	32851.79
720.275	32850.21
720.617	32739.25
720.96	32785.35
721.303	32703.55
721.646	32651.8
721.989	32463.1
722.331	32603.89
722.674	32491.58
723.016	32438.92
723.359	32344.69
723.701	32341.07
724.044	31996.22
724.386	32056.11
724.729	32090
725.071	32020.18
725.413	31972.27
725.755	31919.84
726.097	31764.59
726.439	31631.94
726.782	31625.16
727.124	31749.67
727.465	31571.37
727.807	31517.59
728.149	31477.14
728.491	31463.58
728.833	31632.39
729.175	31487.31
729.516	31277.37
729.858	31310.59
730.199	31334.09
730.541	31227.88
730.882	31107.66
731.224	31164.38
731.565	31090.93
731.906	31030.82
732.248	31000.54
732.589	30967.32
732.93	30758.74
733.271	30936.81
733.612	30934.55
733.953	30697.05
734.294	30599.87
734.635	30601.23
734.976	30704.28
735.317	30513.55
735.658	30482.81
735.999	30534.11
736.339	30442.14
736.68	30539.99
737.021	30269.94
737.361	30194.01
737.702	30455.24
738.042	30260.67
738.383	30119.43
738.723	30232.65
739.063	30003.73
739.404	30123.05
739.744	29957.4
740.084	30013.45
740.424	29930.96
740.764	29893
741.104	29924.41
741.444	29787.92
741.784	29676.28
742.124	29663.17
742.464	29632.22
742.804	29590.63
743.143	29535.95
743.483	29549.28
743.823	29359.23
744.162	29385.22
744.502	29444.88
744.841	29243.98
745.181	29365.78
745.52	29166.46
745.86	29261.15
746.199	29006.92
746.538	29053.93
746.877	29149.06
747.216	29087.6
747.556	29001.05
747.895	28968.73
748.234	28705.01
748.573	28800.6
748.911	28733.93
749.25	28660.72
749.589	28535.75
749.928	28543.66
750.267	28571.23
750.605	28466.82
750.944	28286.49
751.283	28370.33
751.621	28444.68
751.96	28304.34
752.298	28189.54
752.636	28206.26
752.975	28045.36
753.313	27895.31
753.651	27967.63
