Data from plate_porcelain_FLMS001491_052.txt Node
Date: Tue Feb 07 11:19:32 GMT 2017
User: dcchb
Spectrometer: FLMS00149
Trigger mode: 0
Integration Time (sec): 2.000000E-2
Scans to average: 10
Electric dark correction enabled: true
Nonlinearity correction enabled: false
Boxcar width: 0
XAxis mode: Wavelengths
Number of Pixels in Spectrum: 2048
>>>>>Begin Spectral Data<<<<<
341.393	-3.09
341.776	-3.09
342.16	-3.09
342.543	-41.74
342.927	-58.46
343.31	-62.98
343.693	-71.34
344.077	-69.76
344.46	-67.72
344.843	-32.24
345.226	-33.83
345.61	-27.05
345.993	-30.21
346.376	0.52
346.759	17.02
347.142	26.51
347.525	22.67
347.908	53.85
348.291	84.59
348.674	90.92
349.057	99.05
349.44	148.09
349.823	152.61
350.206	177.92
350.588	238.71
350.971	251.82
351.354	282.32
351.737	282.32
352.119	292.49
352.502	313.51
352.884	320.97
353.267	311.47
353.65	334.98
354.032	346.05
354.414	348.99
354.797	371.36
355.179	344.47
355.562	382.43
355.944	366.39
356.326	375.2
356.709	381.08
357.091	367.29
357.473	398.03
357.855	385.15
358.238	392.38
358.62	383.79
359.002	401.87
359.384	406.39
359.766	407.07
360.148	370.68
360.53	387.63
360.912	426.95
361.294	403.22
361.676	383.56
362.057	391.47
362.439	398.7
362.821	405.71
363.203	383.79
363.584	395.54
363.966	421.98
364.348	383.56
364.729	390.34
365.111	379.95
365.493	386.73
365.874	388.76
366.256	388.53
366.637	392.83
367.019	409.1
367.4	407.97
367.781	406.61
368.163	402.32
368.544	386.73
368.925	407.74
369.306	410.68
369.688	430.57
370.069	417.46
370.45	394.18
370.831	419.72
371.212	424.24
371.593	399.38
371.974	412.49
372.355	417.46
372.736	406.39
373.117	433.96
373.498	428.76
373.879	444.58
374.26	439.83
374.641	423.34
375.021	429.89
375.402	453.17
375.783	446.84
376.163	464.24
376.544	462.21
376.925	467.18
377.305	461.53
377.686	464.24
378.066	461.3
378.447	484.13
378.827	489.1
379.208	482.54
379.588	477.57
379.968	504.01
380.349	492.04
380.729	497.01
381.109	480.51
381.489	501.75
381.87	488.42
382.25	494.97
382.63	518.7
383.01	551.24
383.39	514.41
383.77	531.13
384.15	523.22
384.53	542.2
384.91	542.66
385.29	551.24
385.67	581.07
386.049	577.23
386.429	583.78
386.809	595.08
387.189	580.62
387.568	564.8
387.948	591.24
388.328	590.11
388.707	605.93
389.087	596.89
389.466	634.86
389.846	626.49
390.225	633.05
390.605	646.61
390.984	645.93
391.363	673.27
391.743	659.71
392.122	656.78
392.501	690.45
392.881	688.41
393.26	695.65
393.639	704.01
394.018	696.78
394.397	716.44
394.776	713.5
395.155	734.74
395.534	727.28
395.913	769.54
396.292	741.75
396.671	751.92
397.05	755.08
397.429	793.72
397.808	788.07
398.186	777.45
398.565	807.06
398.944	793.95
399.323	800.28
399.701	812.48
400.08	819.26
400.458	842.31
400.837	861.74
401.215	871.91
401.594	868.07
401.972	854.51
402.351	883.21
402.729	892.48
403.107	915.98
403.486	903.32
403.864	913.72
404.242	925.92
404.62	932.48
404.999	949.2
405.377	955.75
405.755	970.67
406.133	1009.99
406.511	991.23
406.889	1037.78
407.267	1021.29
407.645	1053.6
408.023	1069.2
408.401	1057.9
408.779	1083.66
409.156	1127.05
409.534	1088.4
409.912	1132.47
410.29	1154.16
410.667	1159.59
411.045	1189.87
411.422	1193.94
411.8	1220.38
412.178	1215.63
412.555	1233.71
412.933	1262.41
413.31	1295.86
413.687	1298.34
414.065	1305.8
414.442	1291.34
414.819	1331.11
415.197	1383.09
415.574	1398.23
415.951	1383.31
416.328	1396.64
416.705	1444.78
417.082	1451.33
417.46	1459.69
417.837	1483.87
418.214	1475.06
418.591	1490.88
418.967	1525.45
419.344	1531.1
419.721	1536.53
420.098	1536.75
420.475	1560.03
420.852	1591.22
421.228	1612.01
421.605	1614.94
421.982	1623.3
422.358	1680.25
422.735	1689.74
423.111	1679.57
423.488	1715.96
423.864	1737.88
424.241	1762.28
424.617	1781.94
424.994	1797.76
425.37	1826.01
425.746	1834.6
426.123	1854.03
426.499	1868.95
426.875	1908.95
427.251	1923.86
427.627	1988.04
428.003	1993.01
428.379	2019.23
428.756	2021.03
429.132	2059.45
429.507	2076.85
429.883	2125.21
430.259	2158.43
430.635	2200.46
431.011	2193.01
431.387	2238.66
431.763	2299.9
432.138	2281.59
432.514	2332.89
432.89	2341.48
433.265	2420.35
433.641	2447.69
434.016	2456.05
434.392	2507.12
434.767	2576.95
435.143	2559.1
435.518	2582.6
435.894	2621.47
436.269	2646.55
436.644	2692.2
437.02	2701.24
437.395	2731.52
437.77	2786.89
438.145	2813.1
438.52	2886.55
438.895	2881.8
439.271	2887.45
439.646	2963.16
440.021	2979.2
440.395	3004.96
440.77	3001.12
441.145	3025.3
441.52	3110.72
441.895	3071.85
442.27	3093.77
442.645	3139.2
443.019	3195.69
443.394	3160.89
443.769	3206.09
444.143	3201.34
444.518	3296.26
444.892	3267.33
445.267	3283.6
445.641	3343.49
446.016	3350.94
446.39	3403.82
446.764	3410.83
447.139	3382.35
447.513	3506.42
447.887	3497.38
448.262	3457.15
448.636	3551.39
449.01	3559.53
449.384	3609.69
449.758	3623.7
450.132	3638.39
450.506	3722.46
450.88	3756.58
451.254	3763.81
451.628	3790.25
452.002	3844.26
452.376	3873.42
452.75	3908.22
453.123	3988.67
453.497	3995.22
453.871	4045.61
454.244	4131.26
454.618	4137.14
454.992	4210.36
455.365	4234.08
455.739	4380.75
456.112	4367.41
456.486	4408.09
456.859	4486.73
457.232	4569.44
457.606	4548.65
457.979	4615.77
458.352	4730.79
458.725	4777.8
459.099	4838.59
459.472	4927.85
459.845	4990.45
460.218	5018.02
460.591	4995.19
460.964	5079.94
461.337	5275.86
461.71	5261.85
462.083	5327.61
462.456	5370.78
462.829	5434.73
463.201	5509.98
463.574	5598.12
463.947	5625.01
464.32	5737.77
464.692	5763.31
465.065	5862.97
465.438	5898.9
465.81	6007.37
466.183	6111.1
466.555	6224.31
466.928	6240.13
467.3	6280.36
467.672	6411.43
468.045	6489.84
468.417	6581.37
468.789	6678.99
469.161	6708.82
469.534	6751.53
469.906	6926.22
470.278	7012.54
470.65	7132.31
471.022	7284.4
471.394	7409.59
471.766	7482.13
472.138	7545.86
472.51	7693.65
472.882	7871.5
473.253	7919.86
473.625	8042.8
473.997	8232.4
474.369	8266.75
474.74	8409.57
475.112	8534.31
475.484	8790.35
475.855	8826.28
476.227	8993.73
476.598	9097.46
476.97	9241.64
477.341	9444.34
477.713	9633.72
478.084	9661.96
478.455	10014.5
478.827	10023.76
479.198	10324.77
479.569	10401.61
479.94	10762.95
480.311	10798.88
480.682	11000.91
481.053	11304.18
481.424	11460.56
481.795	11487.68
482.166	11661.68
482.537	11808.57
482.908	12128.11
483.279	12246.3
483.65	12500.53
484.021	12781.88
484.391	13000.41
484.762	13000.86
485.133	13178.71
485.503	13368.08
485.874	13719.94
486.244	13825.47
486.615	14059.36
486.985	14309.07
487.356	14493.7
487.726	14653.7
488.097	14973.24
488.467	14994.25
488.837	15367.58
489.207	15435.14
489.578	15733.67
489.948	15890.5
490.318	16128.69
490.688	16168.91
491.058	16491.16
491.428	16711.95
491.798	16818.84
492.168	17271.93
492.538	17257.47
492.908	17495.43
493.278	17766.16
493.648	17773.61
494.017	18050.9
494.387	18209.54
494.757	18385.12
495.126	18503.54
495.496	18632.35
495.866	18788.05
496.235	19076.63
496.605	19221.71
496.974	19292.67
497.344	19448.37
497.713	19620.12
498.082	19802.26
498.452	19978.3
498.821	20056.72
499.19	20219.43
499.559	20375.13
499.928	20493.32
500.298	20723.14
500.667	20875.68
501.036	20954.77
501.405	21101.44
501.774	21195.22
502.143	21445.16
502.512	21487.64
502.88	21764.7
503.249	21765.83
503.618	21938.02
503.987	22178.02
504.356	22275.87
504.724	22363.1
505.093	22469.08
505.462	22653.49
505.83	22792.69
506.199	22940.03
506.567	23266.35
506.936	23215.51
507.304	23604.2
507.672	23765.1
508.041	23825.66
508.409	24033.34
508.777	24282.37
509.145	24432.65
509.514	24467
509.882	24732.75
510.25	24784.73
510.618	24937.72
510.986	25055.46
511.354	25241.89
511.722	25539.74
512.09	25803.69
512.458	25744.48
512.826	25946.51
513.193	26228.31
513.561	26252.94
513.929	26597.34
514.297	26861.96
514.664	26969.53
515.032	27163.65
515.4	27352.57
515.767	27449.74
516.135	27640.25
516.502	27554.15
516.869	28030.97
517.237	28267.58
517.604	28162.04
517.972	28597.28
518.339	28809.93
518.706	28833.66
519.073	29121.34
519.44	29328.56
519.808	29637.48
520.175	29738.5
520.542	30033.41
520.909	30189.33
521.276	30329.67
521.643	30627.74
522.009	30790.45
522.376	31048.52
522.743	31286.93
523.11	31522.18
523.477	31883.07
523.843	32079.68
524.21	32325.55
524.577	32612.32
524.943	32831.98
525.31	33058.86
525.676	33260.44
526.043	33581.33
526.409	33692.52
526.776	34151.72
527.142	34154.2
527.508	34424.48
527.874	34711.93
528.241	34866.05
528.607	35027.4
528.973	35295.19
529.339	35300.16
529.705	35792.35
530.071	35999.35
530.437	36198.89
530.803	36391.43
531.169	36685.43
531.535	36608.37
531.901	36714.81
532.267	36991.64
532.632	37205.42
532.998	37471.18
533.364	37612.19
533.73	37751.17
534.095	38185.96
534.461	38130.82
534.826	38527.65
535.192	38495.78
535.557	38885.83
535.923	38823
536.288	38964.24
536.653	39163.56
537.019	39199.49
537.384	39386.15
537.749	39547.05
538.114	39670.21
538.479	39785.69
538.845	40168.05
539.21	39974.39
539.575	40226.58
539.94	40349.29
540.305	40621.83
540.67	40557.87
541.034	40758.32
541.399	40906.34
541.764	41022.27
542.129	41299.78
542.494	41277.63
542.858	41619.54
543.223	41491.41
543.587	41972.75
543.952	41875.13
544.316	41964.62
544.681	42143.6
545.045	42390.59
545.41	42469.91
545.774	42558.95
546.138	42539.52
546.503	42780.64
546.867	42678.95
547.231	43235.77
547.595	43264.02
547.959	43322.55
548.324	43343.11
548.688	43529.1
549.052	43648.87
549.416	43781.07
549.779	44010.66
550.143	43942.64
550.507	44224.44
550.871	44555.28
551.235	44498.56
551.599	44957.76
551.962	44854.94
552.326	44994.37
552.689	45218.54
553.053	45277.52
553.417	45445.43
553.78	45838.64
554.143	45708.25
554.507	45933.78
554.87	46088.35
555.234	46416.03
555.597	46404.27
555.96	46545.51
556.323	46702.12
556.686	46678.17
557.05	47083.35
557.413	47124.48
557.776	47210.13
558.139	47525.37
558.502	47519.05
558.865	47630.23
559.228	48038.36
559.59	48119.03
559.953	48221.85
560.316	48556.31
560.679	48597.44
561.041	48872.68
561.404	48961.72
561.767	49204.43
562.129	49048.5
562.492	49600.57
562.854	49629.5
563.217	49665.43
563.579	49805.09
563.941	50063.39
564.304	50274.23
564.666	50452.3
565.028	50447.78
565.39	50695.23
565.753	50789.02
566.115	50884.38
566.477	51082.34
566.839	51152.62
567.201	51290.25
567.563	51384.03
567.925	51568.21
568.287	51591.71
568.648	51656.57
569.01	51918.48
569.372	52090.68
569.734	52057.68
570.095	52243.44
570.457	52413.16
570.819	52382.87
571.18	52507.84
571.542	52659.02
571.903	52751
572.265	52871.67
572.626	52894.73
572.987	53031.9
573.349	53118.22
573.71	53234.15
574.071	53333.58
574.432	53315.73
574.794	53521.83
575.155	53634.59
575.516	53444.54
575.877	53664.65
576.238	53720.92
576.599	53866
576.96	53806.79
577.32	53811.31
577.681	53934.47
578.042	54046.79
578.403	54107.57
578.763	54153.22
579.124	54213.11
579.485	54279.1
579.845	54321.35
580.206	54296.72
580.566	54373.78
580.927	54476.38
581.287	54475.02
581.648	54372.2
582.008	54479.99
582.368	54589.6
582.728	54452.42
583.089	54502.37
583.449	54497.39
583.809	54574.68
584.169	54593.66
584.529	54515.7
584.889	54762.02
585.249	54556.6
585.609	54487.23
585.969	54647
586.329	54674.34
586.688	54590.5
587.048	54643.38
587.408	54656.26
587.768	54593.66
588.127	54571.07
588.487	54622.36
588.846	54795.69
589.206	54584.4
589.565	54558.18
589.925	54798.86
590.284	54660.33
590.643	54773.77
591.003	54747.56
591.362	54884.28
591.721	54755.69
592.08	54722.47
592.44	54882.24
592.799	54893.09
593.158	54744.17
593.517	54811.96
593.876	54844.28
594.235	54773.32
594.593	54799.99
594.952	54915.01
595.311	54860.78
595.67	54916.37
596.029	55044.72
596.387	54996.82
596.746	54999.53
597.104	54938.29
597.463	55017.61
597.822	55087.21
598.18	55028.91
598.538	55049.7
598.897	55214.44
599.255	54944.16
599.613	55322.68
599.972	55167.89
600.33	55171.95
600.688	55173.99
601.046	55297.83
601.404	55370.82
601.762	55344.83
602.12	55378.95
602.478	55414.66
602.836	55460.31
603.194	55248.34
603.552	55346.41
603.91	55229.58
604.268	55419.86
604.625	55405.85
604.983	55587.31
605.341	55355.23
605.698	55570.81
606.056	55523.58
606.413	55609.68
606.771	55693.07
607.128	55686.29
607.485	55527.42
607.843	55585.73
608.2	55730.81
608.557	55826.17
608.914	55709.79
609.272	55839.28
609.629	55899.39
609.986	56010.8
610.343	55879.51
610.7	56098.48
611.057	56027.75
611.414	55970.8
611.771	56017.58
612.127	56127.41
612.484	56110.23
612.841	56249.89
613.198	56048.09
613.554	56181.42
613.911	56287.63
614.267	56313.39
614.624	56220.51
614.98	56340.06
615.337	56455.76
615.693	56392.26
616.05	56333.05
616.406	56523.1
616.762	56425.71
617.118	56436.78
617.475	56445.37
617.831	56572.37
618.187	56486.95
618.543	56530.11
618.899	56620.95
619.255	56569.66
619.611	56592.25
619.967	56672.03
620.323	56689.2
620.678	56727.39
621.034	56554.52
621.39	56695.98
621.746	56642.65
622.101	56860.27
622.457	56626.38
622.812	56638.81
623.168	56761.74
623.523	56774.85
623.879	56827.95
624.234	56624.34
624.589	56703.89
624.945	56757
625.3	56694.4
625.655	56738.01
626.01	56698.92
626.365	56735.3
626.72	56762.87
627.075	56725.58
627.43	56676.09
627.785	56642.42
628.14	56681.52
628.495	56724.68
628.85	56653.27
629.205	56526.27
629.559	56618.24
629.914	56498.02
630.269	56534.86
630.623	56482.65
630.978	56439.04
631.332	56500.28
631.687	56579.37
632.041	56495.08
632.396	56504.57
632.75	56434.07
633.104	56456.21
633.459	56359.72
633.813	56308.65
634.167	56305.48
634.521	56281.3
634.875	56335.54
635.229	56195.43
635.583	56115.66
635.937	56159.5
636.291	56116.56
636.645	56025.49
636.999	55983.23
637.352	56162.66
637.706	55920.41
638.06	56011.03
638.413	55994.76
638.767	55857.58
639.121	55908.66
639.474	55743.46
639.828	55789.11
640.181	55715.67
640.534	55772.16
640.888	55679.28
641.241	55636.12
641.594	55585.5
641.947	55650.13
642.301	55617.14
642.654	55565.62
643.007	55607.2
643.36	55482
643.713	55507.31
644.066	55561.55
644.419	55355
644.771	55245.4
645.124	54888.34
645.477	54830.27
645.83	54666.66
646.182	54536.94
646.535	54389.83
646.888	54481.8
647.24	54339.21
647.593	54559.99
647.945	54369.49
648.298	54222.37
648.65	54151.19
649.002	54089.27
649.355	54233.9
649.707	54177.18
650.059	54347.79
650.411	54675.47
650.763	54677.73
651.115	54909.59
651.467	54681.34
651.819	54752.76
652.171	54674.57
652.523	54633.21
652.875	54728.12
653.227	54487.45
653.578	54651.29
653.93	54662.14
654.282	54421.24
654.633	54352.31
654.985	54448.36
655.337	54400.9
655.688	54398.64
656.039	54470.5
656.391	54272.09
656.742	54379.88
657.094	54404.06
657.445	54455.59
657.796	54432.76
658.147	54282.26
658.498	54235.03
658.849	54317.06
659.2	54213.11
659.551	54109.16
659.902	54276.38
660.253	54254.92
660.604	54178.99
660.955	54128.14
661.306	54196.39
661.656	54086.11
662.007	54104.41
662.358	54065.54
662.708	54064.86
663.059	53909.84
663.409	53792.55
663.76	54007.01
664.11	53955.04
664.461	53973.79
664.811	54049.5
665.161	53969.95
665.511	53931.99
665.862	53920.46
666.212	54016.96
666.562	53953.23
666.912	53990.29
667.262	53977.41
667.612	53963.17
667.962	53951.19
668.312	53919.56
668.662	54093.34
669.011	53892.44
669.361	53782.61
669.711	53842.27
670.06	53764.53
670.41	53615.16
670.76	53652.9
671.109	53688.83
671.459	53686.57
671.808	53698.77
672.157	53778.77
672.507	53481.83
672.856	53549.62
673.205	53592.33
673.554	53647.93
673.904	53497.2
674.253	53663.97
674.602	53563.86
674.951	53130.88
675.3	53104.89
675.649	53502.39
675.998	53385.11
676.346	53518.44
676.695	53578.55
677.044	53268.5
677.393	53407.48
677.741	53387.37
678.09	53445.44
678.438	53241.38
678.787	53275.96
679.135	53356.63
679.484	53200.03
679.832	53268.05
680.181	53156.87
680.529	53156.41
680.877	52974.5
681.225	52984.44
681.573	53221.95
681.922	52903.99
682.27	52816.53
682.618	52886.36
682.966	52712.13
683.314	52811.11
683.661	52640.95
684.009	52567.95
684.357	52532.02
684.705	52502.42
685.053	52504.45
685.4	52455.87
685.748	52219.71
686.095	52182.65
686.443	52080.96
686.79	52000.96
687.138	52092.26
687.485	51960.29
687.832	52043.22
688.18	52057.01
688.527	51863.11
688.874	51782.66
689.221	51750.8
689.568	51607.98
689.915	51498.83
690.262	51614.53
690.609	51356.91
690.956	51339.06
691.303	51193.07
691.65	51035.79
691.997	50961.89
692.344	50837.6
692.69	50897.72
693.037	51024.72
693.383	50652.75
693.73	50773.2
694.077	50514.45
694.423	50554.9
694.769	50375.92
695.116	50336.6
695.462	50175.02
695.808	50161.24
696.155	50197.39
696.501	49869.49
696.847	49933.22
697.193	49664.75
697.539	49833.11
697.885	49626.34
698.231	49526.9
698.577	49500.24
698.923	49381.82
699.269	49091.21
699.614	48887.37
699.96	48966.92
700.306	48853.48
700.651	48926.47
700.997	48646.25
701.342	48690.77
701.688	48375.52
702.033	48409.65
702.379	48343.88
702.724	48280.84
703.069	48328.74
703.415	47842.2
703.76	47889.21
704.105	47841.75
704.45	47719.95
704.795	47433.85
705.14	47331.26
705.485	47412.38
705.83	47246.51
706.175	47433.85
706.52	47326.96
706.865	47009.23
707.209	46909.8
707.554	46859.18
707.899	46845.62
708.243	46682.23
708.588	46628
708.932	46354.78
709.277	46358.85
709.621	46302.13
709.966	46213.09
710.31	46151.63
710.654	45780.79
710.998	45973.33
711.342	45903.04
711.687	45793.22
712.031	45696.5
712.375	45404.98
712.719	45561.81
713.063	45439.78
713.407	45574.92
713.75	45312.55
714.094	45242.95
714.438	45171.99
714.782	45088.15
715.125	44970.87
715.469	45073.91
715.812	44675.51
716.156	44582.4
716.499	44623.76
716.843	44499.24
717.186	44323.2
717.53	44515.51
717.873	44400.71
718.216	44388.51
718.559	44227.61
718.902	43976.99
719.246	44227.16
719.589	44025.58
719.932	43858.58
720.275	43823.78
720.617	43715.76
720.96	43573.39
721.303	43645.48
721.646	43664.01
721.989	43452.94
722.331	43518.02
722.674	43300.85
723.016	43448.19
723.359	43264.7
723.701	43232.38
724.044	42949.22
724.386	42860.64
724.729	43044.81
725.071	42783.58
725.413	42680.3
725.755	42706.74
726.097	42505.39
726.439	42336.13
726.782	42437.15
727.124	42437.6
727.465	42259.98
727.807	42109.7
728.149	42223.14
728.491	42027.67
728.833	42210.49
729.175	42059.53
729.516	41843.49
729.858	41723.95
730.199	41680.78
730.541	41746.32
730.882	41616.6
731.224	41702.93
731.565	41344.29
731.906	41437.85
732.248	41546.77
732.589	41227.46
732.93	41086.22
733.271	41200.12
733.612	41390.17
733.953	41062.95
734.294	41000.57
734.635	40962.84
734.976	40945.89
735.317	40727.59
735.658	40822.05
735.999	40775.72
736.339	40755.38
736.68	40649.17
737.021	40586.12
737.361	40279.24
737.702	40476.97
738.042	40466.13
738.383	40357.43
738.723	40294.83
739.063	40225.45
739.404	40205.57
739.744	40146.81
740.084	40046.48
740.424	39941.85
740.764	39919.25
741.104	40089.19
741.444	39790.66
741.784	39586.37
742.124	39718.8
742.464	39483.1
742.804	39569.88
743.143	39354.97
743.483	39398.36
743.823	39288.08
744.162	39204.01
744.502	39352.26
744.841	39038.14
745.181	39234.97
745.52	39061.19
745.86	39093.96
746.199	38957.46
746.538	39031.81
746.877	38801.08
747.216	38738.04
747.556	38631.15
747.895	38630.92
748.234	38382.34
748.573	38345.28
748.911	38431.15
749.25	38364.26
749.589	38259.4
749.928	38107.54
750.267	38140.99
750.605	38142.12
750.944	37946.64
751.283	37752.75
751.621	37861.9
751.96	37618.29
752.298	37793.2
752.636	37575.58
