Data from plate_porcelain_FLMS001491_090.txt Node
Date: Tue Feb 07 11:20:03 GMT 2017
User: dcchb
Spectrometer: FLMS00149
Trigger mode: 0
Integration Time (sec): 2.000000E-2
Scans to average: 10
Electric dark correction enabled: true
Nonlinearity correction enabled: false
Boxcar width: 0
XAxis mode: Wavelengths
Number of Pixels in Spectrum: 2048
>>>>>Begin Spectral Data<<<<<
341.393	8.38
341.776	8.38
342.16	8.38
342.543	-59.87
342.927	-37.27
343.31	-77.72
343.693	-52.87
344.077	-68.91
344.46	-40.21
344.843	-64.39
345.226	-39.08
345.61	-21
345.993	-34.56
346.376	-6.09
346.759	2.05
347.142	28.71
347.525	37.75
347.908	51.09
348.291	61.26
348.674	108.49
349.057	115.49
349.44	132.44
349.823	135.15
350.206	169.28
350.588	212.21
350.971	238.65
351.354	259.22
351.737	259.89
352.119	295.37
352.502	307.35
352.884	301.93
353.267	320.68
353.65	330.85
354.032	325.2
354.414	347.12
354.797	348.93
355.179	346.22
355.562	366.11
355.944	358.87
356.326	382.6
356.709	369.27
357.091	367.24
357.473	366.33
357.855	397.97
358.238	370.17
358.62	370.63
359.002	402.49
359.384	388.7
359.766	407.24
360.148	381.25
360.53	388.03
360.912	376.73
361.294	403.17
361.676	389.16
362.057	409.95
362.439	376.28
362.821	383.96
363.203	377.41
363.584	385.31
363.966	385.54
364.348	384.18
364.729	382.15
365.111	385.09
365.493	388.48
365.874	399.1
366.256	372.66
366.637	395.71
367.019	388.93
367.4	407.69
367.781	385.99
368.163	405.43
368.544	385.99
368.925	389.38
369.306	383.05
369.688	395.71
370.069	397.97
370.45	382.6
370.831	400.68
371.212	406.56
371.593	400.91
371.974	389.61
372.355	414.24
372.736	406.33
373.117	420.34
373.498	396.39
373.879	408.36
374.26	401.13
374.641	389.38
375.021	414.01
375.402	428.7
375.783	437.74
376.163	464.86
376.544	453.11
376.925	446.1
377.305	442.71
377.686	440
378.066	456.73
378.447	472.77
378.827	452.88
379.208	480
379.588	465.54
379.968	486.56
380.349	471.64
380.729	481.36
381.109	480.91
381.489	469.15
381.87	491.07
382.25	509.61
382.63	501.92
383.01	515.93
383.39	497.85
383.77	498.53
384.15	508.93
384.53	520
384.91	508.02
385.29	545.31
385.67	533.33
386.049	538.76
386.429	553.9
386.809	548.02
387.189	556.61
387.568	544.41
387.948	557.74
388.328	574.24
388.707	599.55
389.087	599.32
389.466	590.51
389.846	603.61
390.225	625.31
390.605	611.3
390.984	615.37
391.363	638.19
391.743	662.14
392.122	642.03
392.501	651.07
392.881	665.76
393.26	663.95
393.639	677.74
394.018	678.19
394.397	677.06
394.776	696.49
395.155	689.49
395.534	693.56
395.913	745.76
396.292	725.19
396.671	729.94
397.05	743.5
397.429	757.06
397.808	767
398.186	753.89
398.565	764.06
398.944	764.29
399.323	790.95
399.701	777.62
400.08	795.7
400.458	834.79
400.837	814.68
401.215	809.03
401.594	821.91
401.972	838.86
402.351	868.92
402.729	850.16
403.107	885.19
403.486	851.07
403.864	901.01
404.242	875.02
404.62	884.51
404.999	924.96
405.377	909.37
405.755	933.55
406.133	949.59
406.511	947.79
406.889	963.38
407.267	978.52
407.645	1010.61
408.023	988.46
408.401	1027.11
408.779	1017.39
409.156	1052.64
409.534	1050.16
409.912	1072.75
410.29	1094.9
410.667	1109.82
411.045	1143.26
411.422	1136.48
411.8	1152.75
412.178	1169.47
412.555	1176.71
412.933	1202.69
413.31	1215.35
413.687	1245.18
414.065	1230.94
414.442	1240.89
414.819	1276.36
415.197	1288.12
415.574	1311.62
415.951	1302.58
416.328	1354.33
416.705	1355.68
417.082	1354.55
417.46	1371.73
417.837	1385.74
418.214	1422.58
418.591	1436.13
418.967	1453.54
419.344	1444.5
419.721	1484.27
420.098	1505.06
420.475	1501.9
420.852	1513.19
421.228	1507.09
421.605	1525.17
421.982	1552.29
422.358	1575.79
422.735	1618.73
423.111	1611.27
423.488	1626.41
423.864	1633.19
424.241	1661.89
424.617	1696.01
424.994	1704.15
425.37	1712.51
425.746	1739.86
426.123	1763.36
426.499	1769.69
426.875	1841.1
427.251	1851.26
427.627	1882.22
428.003	1914.77
428.379	1921.77
428.756	1970.58
429.132	1954.76
429.507	1996.57
429.883	2010.13
430.259	2047.19
430.635	2070.47
431.011	2091.71
431.387	2116.34
431.763	2188.88
432.138	2197.92
432.514	2236.34
432.89	2212.84
433.265	2286.06
433.641	2321.31
434.016	2325.83
434.392	2365.6
434.767	2399.73
435.143	2404.02
435.518	2449.89
435.894	2504.36
436.269	2547.29
436.644	2534.64
437.02	2556.11
437.395	2576.44
437.77	2625.26
438.145	2665.48
438.52	2710.23
438.895	2754.97
439.271	2722.43
439.646	2792.71
440.021	2796.32
440.395	2858.24
440.77	2815.08
441.145	2877.68
441.52	2922.88
441.895	2935.98
442.27	2927.85
442.645	2962.65
443.019	3009.43
443.394	2984.79
443.769	3032.02
444.143	3047.84
444.518	3053.04
444.892	3106.6
445.267	3126.94
445.641	3119.25
446.016	3168.52
446.39	3203.55
446.764	3230.66
447.139	3242.41
447.513	3266.37
447.887	3297.33
448.262	3353.82
448.636	3347.95
449.01	3390.43
449.384	3442.18
449.758	3456.65
450.132	3459.13
450.506	3490.54
450.88	3507.27
451.254	3541.84
451.628	3589.52
452.002	3673.36
452.376	3685.34
452.75	3735.06
453.123	3765.79
453.497	3832.23
453.871	3853.7
454.244	3910.42
454.618	3990.19
454.992	4017.31
455.365	4054.82
455.739	4193.8
456.112	4195.84
456.486	4178.66
456.859	4239.22
457.232	4358.32
457.606	4310.18
457.979	4383.4
458.352	4493.46
458.725	4512.89
459.099	4587.46
459.472	4672.43
459.845	4722.15
460.218	4729.16
460.591	4777.97
460.964	4856.84
461.337	4963.73
461.71	5042.14
462.083	5145.87
462.456	5126.21
462.829	5121.46
463.201	5269.93
463.574	5255.7
463.947	5369.14
464.32	5483.26
464.692	5538.85
465.065	5593.77
465.438	5644.39
465.81	5782.91
466.183	5805.96
466.555	5923.93
466.928	5961.21
467.3	6001.89
467.672	6061.32
468.045	6187.87
468.417	6268.1
468.789	6335.44
469.161	6411.6
469.534	6497.92
469.906	6637.81
470.278	6681.65
470.65	6805.03
471.022	6894.07
471.394	7048.19
471.766	7115.53
472.138	7175.42
472.51	7341.29
472.882	7446.82
473.253	7599.81
473.625	7609.08
473.997	7845.68
474.369	7840.94
474.74	8026.24
475.112	8170.87
475.484	8346.24
475.855	8409.28
476.227	8482.73
476.598	8789.84
476.97	8864.19
477.341	8991.42
477.713	9141.69
478.084	9197.96
478.455	9538.52
478.827	9596.82
479.198	9843.37
479.569	9855.12
479.94	10177.37
480.311	10272.06
480.682	10492.62
481.053	10668.66
481.424	10907.3
481.795	11051.25
482.166	11194.97
482.537	11324.69
482.908	11574.4
483.279	11721.06
483.65	11948.63
484.021	12163.99
484.391	12298
484.762	12415.28
485.133	12601.04
485.503	12753.35
485.874	13020.91
486.244	13194.47
486.615	13405.54
486.985	13563.5
487.356	13850.5
487.726	14032.41
488.097	14224.95
488.467	14408.9
488.837	14577.03
489.207	14783.35
489.578	15086.4
489.948	15186.51
490.318	15446.16
490.688	15501.75
491.058	15718.24
491.428	15923.21
491.798	16095.18
492.168	16383.99
492.538	16478.45
492.908	16741.49
493.278	16951.88
493.648	16948.5
494.017	17255.61
494.387	17397.97
494.757	17404.3
495.126	17733.56
495.496	17799.55
495.866	17938.98
496.235	18118.18
496.605	18340.55
496.974	18461
497.344	18650.6
497.713	18737.6
498.082	18876.13
498.452	19166.29
498.821	19243.8
499.19	19221.88
499.559	19481.31
499.928	19655.54
500.298	19882.88
500.667	20029.54
501.036	20037
501.405	20169.65
501.774	20265.24
502.143	20471.11
502.512	20574.39
502.88	20762.18
503.249	20810.99
503.618	21000.37
503.987	21074.26
504.356	21288.04
504.724	21407.36
505.093	21542.05
505.462	21577.3
505.83	21750.63
506.199	21943.17
506.567	22289.6
506.936	22279.2
507.304	22487.56
507.672	22689.14
508.041	22781.34
508.409	22886.42
508.777	23124.83
509.145	23343.13
509.514	23420.19
509.882	23478.04
510.25	23630.35
510.618	23859.05
510.986	23965.26
511.354	24186.04
511.722	24282.54
512.09	24576.32
512.458	24574.06
512.826	24815.41
513.193	24996.42
513.561	25201.16
513.929	25510.98
514.297	25534.48
514.664	25853.35
515.032	25864.87
515.4	26226.44
515.767	26160.68
516.135	26520.9
516.502	26398.64
516.869	26800.21
517.237	26937.61
517.604	26940.77
517.972	27322.46
518.339	27582.79
518.706	27506.64
519.073	27759.28
519.44	28060.07
519.808	28331.02
520.175	28276.33
520.542	28739.82
520.909	28961.51
521.276	28879.03
521.643	29278.11
522.009	29549.07
522.376	29711.1
522.743	29892.11
523.11	30142.5
523.477	30584.07
523.843	30677.63
524.21	31044.4
524.577	31199.65
524.943	31343.37
525.31	31654.78
525.676	31766.64
526.043	32094.76
526.409	32160.3
526.776	32469.22
527.142	32635.31
527.508	32976.77
527.874	33222.64
528.241	33336.99
528.607	33377.67
528.973	33855.85
529.339	33784.66
529.705	34182.62
530.071	34408.15
530.437	34621.02
530.803	34793
531.169	35111.41
531.535	35081.8
531.901	35041.35
532.267	35387.33
532.632	35653.77
532.998	35781.67
533.364	36145.28
533.73	36105.96
534.095	36623.01
534.461	36499.17
534.826	36783
535.192	36837.01
535.557	37215.98
535.923	37209.88
536.288	37273.38
536.653	37650.1
537.019	37425.47
537.384	37776.87
537.749	37928.51
538.114	37941.16
538.479	37990.2
538.845	38140.25
539.21	38225
539.575	38360.36
539.94	38599
540.305	38946.56
540.67	38833.12
541.034	39001.47
541.399	39203.05
541.764	39320.79
542.129	39457.73
542.494	39589.03
542.858	39831.28
543.223	39727.11
543.587	40123.7
543.952	40078.73
544.316	40349.91
544.681	40083.25
545.045	40510.59
545.41	40685.95
545.774	40877.13
546.138	40846.85
546.503	40893.4
546.867	41065.38
547.231	41325.48
547.595	41477.79
547.959	41534.29
548.324	41625.81
548.688	41734.51
549.052	41882.98
549.416	42005.01
549.779	42054.95
550.143	42276.19
550.507	42489.29
550.871	42673.47
551.235	42778.1
551.599	43014.93
551.962	42998.43
552.326	43233.23
552.689	43568.36
553.053	43351.87
553.417	43494.24
553.78	43995.02
554.143	43839.31
554.507	44025.07
554.87	44221
555.234	44660.99
555.597	44456.7
555.96	44747.09
556.323	44940.08
556.686	44995.89
557.05	45311.59
557.413	45480.85
557.776	45471.81
558.139	45728.53
558.502	45856.21
558.865	45901.41
559.228	46224.11
559.59	46426.82
559.953	46525.34
560.316	46831.78
560.679	46879.46
561.041	47079.91
561.404	47168.27
561.767	47437.41
562.129	47425.89
562.492	47846.67
562.854	47784.97
563.217	47763.28
563.579	47982.48
563.941	48327.33
564.304	48584.27
564.666	48722.35
565.028	48778.39
565.39	48960.76
565.753	49210.02
566.115	49231.94
566.477	49403.23
566.839	49495.44
567.201	49806.84
567.563	49783.34
567.925	50036.44
568.287	50137.68
568.648	50131.35
569.01	50443.43
569.372	50602.3
569.734	50579.25
570.095	50747.83
570.457	50909.41
570.819	50932.46
571.18	50981.5
571.542	51246.35
571.903	51295.39
572.265	51429.4
572.626	51490.19
572.987	51585.1
573.349	51632.55
573.71	51853.11
574.071	51837.52
574.432	51985.54
574.794	52171.98
575.155	52188.92
575.516	52046.1
575.877	52258.53
576.238	52335.81
576.599	52338.98
576.96	52418.3
577.32	52391.86
577.681	52632.75
578.042	52703.49
578.403	52720.21
578.763	52729.25
579.124	52810.83
579.485	52948.9
579.845	52902.58
580.206	52972.63
580.566	52954.78
580.927	53010.15
581.287	53105.74
581.648	53046.75
582.008	53166.3
582.368	53136.24
582.728	53189.8
583.089	53076.81
583.449	53113.19
583.809	53253.08
584.169	53227.09
584.529	53174.21
584.889	53428.44
585.249	53156.13
585.609	53120.43
585.969	53264.6
586.329	53209.69
586.688	53308.22
587.048	53288.33
587.408	53232.51
587.768	53266.64
588.127	53304.38
588.487	53158.84
588.846	53427.76
589.206	53222.34
589.565	53291.04
589.925	53520.64
590.284	53400.87
590.643	53410.36
591.003	53509.57
591.362	53618.04
591.721	53465.73
592.08	53432.96
592.44	53646.51
592.799	53602.22
593.158	53512.73
593.517	53507.76
593.876	53586.18
594.235	53448.33
594.593	53524.26
594.952	53652.16
595.311	53522
595.67	53599.06
596.029	53798.6
596.387	53745.95
596.746	53795.89
597.104	53620.53
597.463	53710.92
597.822	53806.73
598.18	53695.33
598.538	53678.15
598.897	53985.71
599.255	53615.55
599.613	54074.3
599.972	53889.44
600.33	53944.81
600.688	53864.36
601.046	53996.56
601.404	54132.83
601.762	54066.16
602.12	54144.81
602.478	54147.52
602.836	54170.34
603.194	54060.97
603.552	54091.02
603.91	53954.3
604.268	54185.03
604.625	54067.97
604.983	54328.53
605.341	54171.02
605.698	54309.09
606.056	54333.27
606.413	54327.4
606.771	54432.03
607.128	54495.53
607.485	54341.86
607.843	54332.14
608.2	54491.91
608.557	54644.23
608.914	54458.24
609.272	54650.33
609.629	54675.86
609.986	54716.32
610.343	54712.02
610.7	54839.93
611.057	54794.73
611.414	54748.86
611.771	54847.39
612.127	54935.74
612.484	54932.36
612.841	54968.06
613.198	54905.24
613.554	54927.16
613.911	55094.38
614.267	55050.77
614.624	55021.84
614.98	55093.25
615.337	55297.54
615.693	55200.82
616.05	55184.1
616.406	55357.65
616.762	55238.79
617.118	55197.43
617.475	55254.61
617.831	55354.49
618.187	55339.8
618.543	55328.73
618.899	55466.35
619.255	55414.38
619.611	55366.02
619.967	55532.11
620.323	55566.91
620.678	55427.71
621.034	55389.07
621.39	55442.85
621.746	55413.92
622.101	55648.72
622.457	55477.65
622.812	55536.86
623.168	55520.81
623.523	55647.36
623.879	55610.3
624.234	55452.12
624.589	55560.59
624.945	55604.65
625.3	55542.06
625.655	55520.81
626.01	55556.52
626.365	55650.98
626.72	55546.8
627.075	55559.23
627.43	55519.23
627.785	55422.51
628.14	55505.22
628.495	55482.62
628.85	55402.63
629.205	55489.85
629.559	55515.62
629.914	55410.76
630.269	55467.48
630.623	55379.35
630.978	55202.18
631.332	55396.75
631.687	55482.62
632.041	55279.01
632.396	55457.99
632.75	55246.7
633.104	55254.15
633.459	55114.95
633.813	55219.58
634.167	55093.71
634.521	55171.67
634.875	55097.77
635.229	55045.57
635.583	54943.2
635.937	54935.29
636.291	54927.84
636.645	54970.32
636.999	54829.76
637.352	55053.03
637.706	54709.99
638.06	54866.59
638.413	54782.08
638.767	54726.03
639.121	54778.91
639.474	54609.43
639.828	54583.44
640.181	54643.78
640.534	54573.04
640.888	54446.49
641.241	54367.4
641.594	54425.25
641.947	54554.06
642.301	54342.77
642.654	54346.38
643.007	54368.98
643.36	54349.55
643.713	54308.87
644.066	54431.35
644.419	54237.68
644.771	54005.6
645.124	53738.71
645.477	53593.63
645.83	53520.19
646.182	53399.06
646.535	53163.59
646.888	53310.25
647.24	53045.4
647.593	53307.77
647.945	53185.51
648.298	53014.89
648.65	52912.52
649.002	52882.47
649.355	52993.42
649.707	52971.73
650.059	53086.3
650.411	53422.56
650.763	53443.81
651.115	53629.79
651.467	53590.92
651.819	53558.83
652.171	53456.46
652.523	53423.24
652.875	53399.51
653.227	53275
653.578	53526.74
653.93	53319.52
654.282	53148.22
654.633	53125.62
654.985	53196.58
655.337	53137.15
655.688	53161.1
656.039	53249.01
656.391	53011.28
656.742	53047.88
657.094	53157.26
657.445	53291.72
657.796	53138.5
658.147	53091.27
658.498	53019.41
658.849	53131.5
659.2	53084.95
659.551	53009.92
659.902	53057.38
660.253	53035.46
660.604	52963.82
660.955	52916.36
661.306	52973.08
661.656	52899.41
662.007	52843.14
662.358	52862.58
662.708	52913.43
663.059	52830.04
663.409	52683.15
663.76	52919.3
664.11	52905.97
664.461	52861.68
664.811	52762.92
665.161	52796.14
665.511	52769.47
665.862	52724.96
666.212	52812.86
666.562	52766.76
666.912	52726.76
667.262	52645.86
667.612	52686.09
667.962	52750.49
668.312	52718.18
668.662	52801.79
669.011	52648.12
669.361	52621.23
669.711	52578.07
670.06	52598.18
670.41	52441.12
670.76	52490.84
671.109	52574.45
671.459	52523.38
671.808	52505.3
672.157	52534.23
672.507	52372.42
672.856	52411.29
673.205	52403.16
673.554	52459.65
673.904	52237.28
674.253	52406.32
674.602	52291.07
674.951	51892.21
675.3	51806.79
675.649	52302.59
675.998	52207.45
676.346	52197.51
676.695	52209.04
677.044	52096.95
677.393	52186.21
677.741	52289.49
678.09	52041.36
678.438	51998.65
678.787	52064.41
679.135	52085.42
679.484	51710.29
679.832	51982.83
680.181	51804.3
680.529	51855.83
680.877	51790.29
681.225	51685.43
681.573	51785.32
681.922	51654.7
682.27	51673.23
682.618	51621.48
682.966	51440.7
683.314	51532.9
683.661	51421.71
684.009	51227.82
684.357	51159.8
684.705	51190.76
685.053	51270.08
685.4	51157.09
685.748	51024.66
686.095	50888.62
686.443	50753.93
686.79	50670.55
687.138	50831.67
687.485	50760.49
687.832	50706.48
688.18	50649.98
688.527	50466.48
688.874	50497.67
689.221	50405.47
689.568	50224.23
689.915	50261.29
690.262	50122.76
690.609	50000.73
690.956	49939.27
691.303	49934.97
691.65	49751.93
691.997	49721.42
692.344	49452.73
692.69	49529.79
693.037	49447.75
693.383	49144.26
693.73	49334.31
694.077	49107.88
694.423	49042.57
694.769	49045.05
695.116	48912.85
695.462	48807.09
695.808	48680.77
696.155	48808.45
696.501	48422.24
696.847	48536.14
697.193	48147.9
697.539	48459.76
697.885	48262.47
698.231	48046.43
698.577	48017.51
698.923	47955.59
699.269	47678.53
699.614	47600.12
699.96	47439.22
700.306	47450.74
700.651	47284.87
700.997	47286.23
701.342	47247.81
701.688	47115.61
702.033	46895.05
702.379	46895.5
702.724	46723.98
703.069	46734.6
703.415	46314.73
703.76	46424.1
704.105	46322.64
704.45	46227.95
704.795	45895.08
705.14	45822.99
705.485	45851.69
705.83	45743.22
706.175	45830
706.52	45564.47
706.865	45542.77
707.209	45433.17
707.554	45370.8
707.899	45406.73
708.243	45181.43
708.588	45226.17
708.932	44814.2
709.277	44744.37
709.621	44918.38
709.966	44625.51
710.31	44677.94
710.654	44309.81
710.998	44503.25
711.342	44385.97
711.687	44242.24
712.031	44067.1
712.375	43939.42
712.719	44014
713.063	43866.66
713.407	44005.18
713.75	43868.01
714.094	43809.26
714.438	43544.41
714.782	43681.58
715.125	43510.51
715.469	43489.49
715.812	43225.54
716.156	42943.97
716.499	43037.53
716.843	43004.99
717.186	42734.71
717.53	42923.86
717.873	42996.4
718.216	42895.84
718.559	42644.54
718.902	42487.94
719.246	42611.1
719.589	42432.34
719.932	42318.9
720.275	42294.95
720.617	42188.06
720.96	42059.7
721.303	42139.47
721.646	42150.32
721.989	41776.32
722.331	42000.04
722.674	41826.26
723.016	41849.99
723.359	41699.71
723.701	41586.04
724.044	41394.63
724.386	41306.95
724.729	41506.27
725.071	41238.48
725.413	41253.62
725.755	41129.55
726.097	41043.45
726.439	40830.13
726.782	40799.39
727.124	40979.05
727.465	40803.46
727.807	40821.31
728.149	40654.99
728.491	40645.5
728.833	40677.36
729.175	40498.61
729.516	40356.02
729.858	40377.03
730.199	40436.01
730.541	40338.84
730.882	40141.11
731.224	40273.53
731.565	39916.48
731.906	40074.44
732.248	40000.09
732.589	39844.62
732.93	39822.24
733.271	39866.76
733.612	39738.86
733.953	39773.88
734.294	39545.42
734.635	39487.56
734.976	39637.84
735.317	39459.99
735.658	39443.04
735.999	39228.14
736.339	39213.67
736.68	39349.94
737.021	39014.81
737.361	39011.64
737.702	39174.35
738.042	39001.47
738.383	38884.87
738.723	38915.38
739.063	38676.29
739.404	38896.39
739.744	38688.26
740.084	38552.67
740.424	38579.34
740.764	38386.8
741.104	38530.98
741.444	38265.67
741.784	38186.13
742.124	38338.44
742.464	38239.01
742.804	38113.81
743.143	38073.36
743.483	38185.9
743.823	37786.14
744.162	37814.61
744.502	37760.38
744.841	37787.95
745.181	37775.52
745.52	37566.26
745.86	37774.16
746.199	37573.26
746.538	37393.16
746.877	37468.18
747.216	37468.63
747.556	37262.99
747.895	37287.4
748.234	37089.21
748.573	37114.97
748.911	36980.28
749.25	37007.85
749.589	36812.61
749.928	37011.47
750.267	36988.42
750.605	36709.33
750.944	36778.03
751.283	36552.73
751.621	36578.71
751.96	36266.86
752.298	36355.67
752.636	36319.29
752.975	36246.07
753.313	36042.23
