Data from plate_ceramic_FLMS001491_084.txt Node
Date: Tue Feb 07 11:17:24 GMT 2017
User: dcchb
Spectrometer: FLMS00149
Trigger mode: 0
Integration Time (sec): 2.000000E-2
Scans to average: 10
Electric dark correction enabled: true
Nonlinearity correction enabled: false
Boxcar width: 0
XAxis mode: Wavelengths
Number of Pixels in Spectrum: 2048
>>>>>Begin Spectral Data<<<<<
341.393	-6.47
341.776	-6.47
342.16	-6.47
342.543	-41.95
342.927	-65.9
343.31	-52.12
343.693	-64.55
344.077	-72
344.46	-69.74
344.843	-37.2
345.226	-39.91
345.61	-29.52
345.993	-10.76
346.376	-9.86
346.759	3.93
347.142	5.51
347.525	33.3
347.908	57.03
348.291	64.26
348.674	95
349.057	126.64
349.44	134.77
349.823	136.13
350.206	170.25
350.588	198.95
350.971	239.85
351.354	238.72
351.737	274.88
352.119	271.26
352.502	285.95
352.884	305.61
353.267	296.8
353.65	306.97
354.032	303.35
354.414	346.52
354.797	332.05
355.179	351.26
355.562	349.91
355.944	355.56
356.326	364.14
356.709	364.37
357.091	339.28
357.473	366.63
357.855	330.47
358.238	366.18
358.62	337.48
359.002	364.82
359.384	347.42
359.766	356.91
360.148	366.63
360.53	345.61
360.912	399.4
361.294	349
361.676	354.65
362.057	382.22
362.439	352.62
362.821	357.59
363.203	340.19
363.584	368.89
363.966	341.54
364.348	348.55
364.729	343.35
365.111	351.71
365.493	356.23
365.874	344.71
366.256	354.43
366.637	343.35
367.019	365.95
367.4	353.97
367.781	345.61
368.163	359.4
368.544	362.56
368.925	353.07
369.306	343.13
369.688	344.03
370.069	364.82
370.45	359.4
370.831	340.87
371.212	361.88
371.593	350.81
371.974	360.75
372.355	366.4
372.736	362.34
373.117	358.72
373.498	379.96
373.879	362.11
374.26	351.26
374.641	361.66
375.021	367.76
375.402	367.98
375.783	382.9
376.163	414.99
376.544	391.71
376.925	404.59
377.305	389.45
377.686	373.86
378.066	396.01
378.447	379.28
378.827	411.37
379.208	400.07
379.588	401.66
379.968	403.24
380.349	375.67
380.729	409.57
381.109	415.22
381.489	416.57
381.87	404.59
382.25	393.07
382.63	431.03
383.01	434.65
383.39	408.89
383.77	425.84
384.15	436.23
384.53	448.21
384.91	435.1
385.29	472.84
385.67	446.85
386.049	464.48
386.429	466.06
386.809	463.12
387.189	458.38
387.568	447.98
387.948	484.37
388.328	459.73
388.707	471.94
389.087	490.69
389.466	495.21
389.846	479.85
390.225	495.89
390.605	504.93
390.984	511.71
391.363	498.83
391.743	499.05
392.122	499.28
392.501	532.27
392.881	504.93
393.26	532.73
393.639	525.27
394.018	548.32
394.397	561.43
394.776	547.41
395.155	530.24
395.534	548.09
395.913	541.99
396.292	546.96
396.671	560.07
397.05	576.34
397.429	586.28
397.808	572.05
398.186	566.62
398.565	577.47
398.944	577.92
399.323	615.89
399.701	630.8
400.08	614.76
400.458	607.3
400.837	628.77
401.215	622.89
401.594	615.66
401.972	630.8
402.351	640.52
402.729	635.77
403.107	664.93
403.486	659.5
403.864	660.63
404.242	656.79
404.62	689.78
404.999	672.38
405.377	686.62
405.755	729.11
406.133	700.86
406.511	699.95
406.889	708.54
407.267	728.2
407.645	727.75
408.023	752.16
408.401	773.17
408.779	761.65
409.156	784.02
409.534	762.1
409.912	775.88
410.29	799.84
410.667	823.57
411.045	843.68
411.422	815.66
411.8	846.62
412.178	859.72
412.555	854.75
412.933	858.37
413.31	856.11
413.687	883.68
414.065	889.55
414.442	902.66
414.819	914.19
415.197	911.93
415.574	958.03
415.951	965.71
416.328	936.78
416.705	966.16
417.082	959.16
417.46	987.86
417.837	970.68
418.214	998.7
418.591	987.18
418.967	1012.04
419.344	1031.02
419.721	1035.54
420.098	1071.24
420.475	1057.91
420.852	1080.96
421.228	1092.49
421.605	1093.39
421.982	1101.98
422.358	1097.01
422.735	1101.52
423.111	1124.8
423.488	1141.07
423.864	1157.34
424.241	1179.71
424.617	1178.81
424.994	1186.95
425.37	1177.68
425.746	1194.63
426.123	1220.39
426.499	1229.2
426.875	1237.79
427.251	1292.03
427.627	1286.6
428.003	1304.46
428.379	1331.58
428.756	1344
429.132	1342.65
429.507	1369.99
429.883	1369.31
430.259	1393.72
430.635	1429.65
431.011	1437.79
431.387	1466.49
431.763	1488.18
432.138	1481.85
432.514	1517.56
432.89	1519.82
433.265	1568.63
433.641	1573.15
434.016	1597.33
434.392	1608.63
434.767	1635.3
435.143	1626.93
435.518	1653.6
435.894	1689.98
436.269	1672.13
436.644	1721.85
437.02	1720.72
437.395	1753.03
437.77	1768.17
438.145	1778.57
438.52	1788.06
438.895	1802.52
439.271	1812.24
439.646	1866.7
440.021	1905.35
440.395	1843.88
440.77	1898.79
441.145	1885.68
441.52	1935.4
441.895	1929.07
442.27	1958.23
442.645	1985.34
443.019	1975.4
443.394	1983.54
443.769	2014.27
444.143	2006.81
444.518	2042.52
444.892	2019.01
445.267	2064.21
445.641	2080.93
446.016	2087.49
446.39	2097.2
446.764	2126.81
447.139	2116.19
447.513	2148.05
447.887	2159.58
448.262	2133.14
448.636	2160.93
449.01	2234.15
449.384	2206.81
449.758	2220.82
450.132	2273.47
450.506	2299.01
450.88	2286.35
451.254	2316.18
451.628	2314.6
452.002	2363.41
452.376	2375.84
452.75	2402.06
453.123	2410.19
453.497	2462.84
453.871	2474.6
454.244	2557.53
454.618	2593.46
454.992	2584.2
455.365	2588.27
455.739	2640.24
456.112	2628.49
456.486	2704.87
456.859	2715.27
457.232	2790.52
457.606	2771.09
457.979	2831.42
458.352	2856.51
458.725	2894.02
459.099	2947.35
459.472	2997.75
459.845	2995.94
460.218	3065.09
460.591	3053.11
460.964	3106.67
461.337	3145.99
461.71	3197.06
462.083	3233.22
462.456	3252.88
462.829	3280.9
463.201	3318.64
463.574	3308.92
463.947	3418.07
464.32	3446.32
464.692	3487.9
465.065	3555.25
465.438	3645.41
465.81	3640.44
466.183	3659.2
466.555	3743.72
466.928	3724.28
467.3	3787.33
467.672	3825.29
468.045	3938.29
468.417	3978.96
468.789	3985.29
469.161	4031.62
469.534	4115.68
469.906	4167.88
470.278	4208.79
470.65	4233.87
471.022	4362.68
471.394	4447.43
471.766	4434.32
472.138	4532.17
472.51	4640.64
472.882	4648.55
473.253	4709.34
473.625	4806.51
473.997	4884.25
474.369	4950.46
474.74	4916.34
475.112	5067.3
475.484	5162.21
475.855	5257.57
476.227	5333.96
476.598	5451.24
476.97	5472.03
477.341	5601.52
477.713	5715.41
478.084	5744.57
478.455	5858.91
478.827	5940.95
479.198	6111.11
479.569	6116.08
479.94	6317.43
480.311	6351.1
480.682	6501.38
481.053	6598.78
481.424	6726.69
481.795	6799
482.166	6929.39
482.537	7017.53
482.908	7122.16
483.279	7252.32
483.65	7339.33
484.021	7488.25
484.391	7559.66
484.762	7669.71
485.133	7751.97
485.503	7878.3
485.874	8012.3
486.244	8125.52
486.615	8278.51
486.985	8328
487.356	8578.39
487.726	8627.65
488.097	8749.23
488.467	8787.65
488.837	9024.25
489.207	9091.6
489.578	9223.8
489.948	9304.02
490.318	9454.53
490.688	9463.11
491.058	9655.42
491.428	9751.47
491.798	9906.26
492.168	10005.7
492.538	10073.94
492.908	10212.25
493.278	10320.94
493.648	10445.91
494.017	10437.78
494.387	10600.71
494.757	10659.01
495.126	10875.96
495.496	10922.28
495.866	10964.99
496.235	11092.22
496.605	11249.96
496.974	11269.17
497.344	11455.38
497.713	11448.37
498.082	11546.9
498.452	11635.49
498.821	11667.35
499.19	11784.86
499.559	11808.59
499.928	11980.11
500.298	12049.94
500.667	12175.36
501.036	12223.94
501.405	12245.86
501.774	12382.58
502.143	12524.95
502.512	12630.26
502.88	12754.33
503.249	12637.27
503.618	12866.41
503.987	12864.83
504.356	13011.04
504.724	13063.7
505.093	13081.32
505.462	13171.49
505.83	13318.6
506.199	13446.28
506.567	13538.03
506.936	13537.58
507.304	13759.95
507.672	13730.35
508.041	13857.8
508.409	13958.81
508.777	14157.23
509.145	14225.93
509.514	14241.74
509.882	14384.57
510.25	14403.32
510.618	14651.68
510.986	14626.37
511.354	14702.3
511.722	14811.22
512.09	15071.1
512.458	15032.91
512.826	15206.24
513.193	15314.03
513.561	15340.7
513.929	15459.57
514.297	15711.08
514.664	15704.98
515.032	15720.58
515.4	16015.03
515.767	16022.94
516.135	16125.99
516.502	16093.22
516.869	16364.63
517.237	16530.5
517.604	16551.06
517.972	16598.07
518.339	16879.41
518.706	16852.97
519.073	16888.23
519.44	17103.14
519.808	17383.13
520.175	17318.95
520.542	17499.51
520.909	17665.16
521.276	17692.05
521.643	17941.76
522.009	18179.72
522.376	18175.65
522.743	18233.28
523.11	18404.35
523.477	18584.68
523.843	18738.35
524.21	18894.96
524.577	19111.9
524.943	19192.35
525.31	19364.55
525.676	19458.1
526.043	19534.26
526.409	19610.87
526.776	19904.65
527.142	19994.14
527.508	20095.83
527.874	20372.43
528.241	20541.01
528.607	20531.97
528.973	20774.68
529.339	20733.32
529.705	20872.53
530.071	21164.5
530.437	21179.19
530.803	21336.02
531.169	21472.06
531.535	21519.07
531.901	21631.83
532.267	21714.99
532.632	21846.97
532.998	21917.47
533.364	22160.41
533.73	22180.29
534.095	22366.73
534.461	22426.61
534.826	22571.69
535.192	22599.49
535.557	22869.99
535.923	22918.8
536.288	22992.93
536.653	23010.55
537.019	23045.35
537.384	23212.81
537.749	23300.49
538.114	23443.76
538.479	23318.57
538.845	23511.1
539.21	23479.92
539.575	23710.2
539.94	23719.91
540.305	23912.9
540.67	23926.91
541.034	24057.31
541.399	24228.83
541.764	24226.57
542.129	24337.98
542.494	24468.14
542.858	24598.76
543.223	24551.76
543.587	24732.09
543.952	24794.91
544.316	24863.39
544.681	24856.83
545.045	25009.14
545.41	25226.77
545.774	25101.12
546.138	25157.62
546.503	25348.57
546.867	25401.9
547.231	25587.21
547.595	25690.03
547.959	25838.5
548.324	25885.05
548.688	25843.7
549.052	26076.01
549.416	26134.99
549.779	26219.06
550.143	26251.6
550.507	26425.38
550.871	26681.19
551.235	26699.04
551.599	26721.19
551.962	26745.6
552.326	26883.22
552.689	27071.92
553.053	27036.21
553.417	27121.63
553.78	27443.66
554.143	27378.12
554.507	27473.94
554.87	27575.63
555.234	27921.84
555.597	27842.74
555.96	28023.3
556.323	28142.17
556.686	28229.4
557.05	28447.47
557.413	28527.24
557.776	28522.95
558.139	28880.46
558.502	28893.56
558.865	28917.97
559.228	29183.95
559.59	29355.02
559.953	29268.24
560.316	29576.93
560.679	29708.68
561.041	29822.58
561.404	30025.74
561.767	30179.4
562.129	30070.93
562.492	30569.9
562.854	30393.41
563.217	30563.35
563.579	30679.05
563.941	30854.19
564.304	30871.82
564.666	31135.31
565.028	31255.08
565.39	31377.79
565.753	31447.17
566.115	31639.93
566.477	31751.79
566.839	31884.9
567.201	31981.84
567.563	32045.8
567.925	32434.49
568.287	32429.29
568.648	32596.52
569.01	32720.35
569.372	32962.83
569.734	32849.16
570.095	33123.96
570.457	33187.01
570.819	33313.33
571.18	33279.44
571.542	33601.69
571.903	33688.92
572.265	33788.8
572.626	33828.57
572.987	33930.04
573.349	34053.65
573.71	34163.25
574.071	34274.21
574.432	34305.85
574.794	34617.25
575.155	34605.05
575.516	34609.57
575.877	34683.92
576.238	34818.6
576.599	34923.69
576.96	35034.42
577.32	35062.44
577.681	35168.43
578.042	35241.64
578.403	35223.57
578.763	35270.57
579.124	35514.63
579.485	35612.48
579.845	35603.22
580.206	35502.43
580.566	35576.55
580.927	35479.15
581.287	35675.08
581.648	35625.59
582.008	35680.73
582.368	35647.96
582.728	35714.63
583.089	35818.8
583.449	35895.19
583.809	35927.05
584.169	35994.39
584.529	35868.07
584.889	36153.03
585.249	35900.84
585.609	35896.32
585.969	36128.63
586.329	35945.58
586.688	36042.53
587.048	35996.43
587.408	35932.02
587.768	35980.16
588.127	35954.39
588.487	35907.62
588.846	36125.46
589.206	35928.63
589.565	36065.35
589.925	36208.4
590.284	36139.7
590.643	36164.11
591.003	36173.82
591.362	36316.42
591.721	36205.69
592.08	36323.88
592.44	36363.42
592.799	36418.11
593.158	36440.26
593.517	36376.3
593.876	36415.85
594.235	36296.53
594.593	36492.91
594.952	36416.98
595.311	36404.55
595.67	36391.9
596.029	36605.22
596.387	36699.23
596.746	36713.47
597.104	36574.49
597.463	36450.2
597.822	36844.99
598.18	36527.03
598.538	36562.06
598.897	36832.34
599.255	36563.19
599.613	37061.71
599.972	36873.69
600.33	36979.9
600.688	36836.63
601.046	37007.7
601.404	37073.23
601.762	37020.13
602.12	37115.49
602.478	37097.41
602.836	37167.7
603.194	37089.28
603.552	37139.67
603.91	36917.31
604.268	37126.79
604.625	37046.57
604.983	37286.79
605.341	37097.41
605.698	37396.62
606.056	37537.63
606.413	37395.94
606.771	37530.4
607.128	37567.01
607.485	37350.29
607.843	37598.87
608.2	37692.2
608.557	37741.47
608.914	37486.78
609.272	37637.29
609.629	37854
609.986	37940.1
610.343	37842.03
610.7	38151.17
611.057	38191.62
611.414	38012.87
611.771	37938.07
612.127	38295.57
612.484	38089.48
612.841	38233.43
613.198	38094.45
613.554	38157.95
613.911	38430.71
614.267	38345.97
614.624	38305.52
614.98	38404.5
615.337	38743.47
615.693	38599.07
616.05	38538.73
616.406	38760.87
616.762	38510.71
617.118	38585.51
617.475	38669.35
617.831	38780.08
618.187	38696.47
618.543	38726.98
618.899	38797.03
619.255	38724.04
619.611	38736.02
619.967	38807.65
620.323	39042.9
620.678	39091.71
621.034	38815.79
621.39	38800.65
621.746	38736.92
622.101	39217.36
622.457	38929
622.812	39030.02
623.168	39128.32
623.523	38996.35
623.879	39119.06
624.234	38830.02
624.589	38960.19
624.945	39016.69
625.3	39082.22
625.655	39064.82
626.01	39020.3
626.365	39164.48
626.72	39018.04
627.075	39022.79
627.43	38900.3
627.785	38841.78
628.14	38972.85
628.495	38911.15
628.85	38943.24
629.205	38789.57
629.559	39051.26
629.914	38814.66
630.269	38782.79
630.623	38812.4
630.978	38613.31
631.332	38779.18
631.687	38785.05
632.041	38601.1
632.396	38578.51
632.75	38515.46
633.104	38678.84
633.459	38508.68
633.813	38366.53
634.167	38385.97
634.521	38224.39
634.875	38556.59
635.229	38363.6
635.583	38065.07
635.937	38225.29
636.291	38196.14
636.645	38214
636.999	38203.15
637.352	38302.35
637.706	37992.53
638.06	38186.65
638.413	37908.47
638.767	37916.6
639.121	37962.48
639.474	37807.23
639.828	37736.04
640.181	37666.89
640.534	37864.17
640.888	37567.01
641.241	37504.41
641.594	37719.09
641.947	37636.16
642.301	37496.95
642.654	37481.36
643.007	37597.51
643.36	37395.94
643.713	37443.62
644.066	37431.64
644.419	37243.63
644.771	36929.28
645.124	36528.39
645.477	36414.04
645.83	36169.3
646.182	36236.65
646.535	36063.32
646.888	36237.32
647.24	36019.02
647.593	36201.39
647.945	36029.87
648.298	35941.29
648.65	35900.61
649.002	35791.91
649.355	35878.46
649.707	35866.71
650.059	35910.33
650.411	36324.55
650.763	36382.63
651.115	36722.06
651.467	36584.66
651.819	36578.11
652.171	36521.61
652.523	36466.02
652.875	36345.57
653.227	36302.63
653.578	36596.41
653.93	36481.61
654.282	36273.48
654.633	36263.76
654.985	36204.56
655.337	36283.2
655.688	36191.22
656.039	36330.88
656.391	36004.79
656.742	36002.08
657.094	36044.33
657.445	36061.51
657.796	36096.31
658.147	35990.55
658.498	36065.8
658.849	35987.84
659.2	35941.51
659.551	35782.42
659.902	36030.1
660.253	35842.53
660.604	35951
660.955	35736.32
661.306	35801.86
661.656	35689.09
662.007	35790.1
662.358	35788.97
662.708	35652.03
663.059	35798.24
663.409	35481.86
663.76	35676.66
664.11	35661.07
664.461	35712.37
664.811	35777.22
665.161	35727.73
665.511	35619.26
665.862	35626.72
666.212	35675.76
666.562	35714.85
666.912	35551.92
667.262	35547.17
667.612	35547.4
667.962	35521.86
668.312	35365.03
668.662	35657.45
669.011	35557.57
669.361	35376.56
669.711	35545.36
670.06	35384.69
670.41	35299.04
670.76	35261.53
671.109	35374.3
671.459	35250.91
671.808	35225.6
672.157	35280.06
672.507	34953.52
672.856	35057.47
673.205	35060.41
673.554	35244.81
673.904	35012.05
674.253	35296.11
674.602	35093.63
674.951	34677.37
675.3	34469.01
675.649	35187.18
675.998	35066.73
676.346	35030.8
676.695	35167.97
677.044	34775.44
677.393	34899.51
677.741	34979.28
678.09	34913.29
678.438	34765.27
678.787	34924.82
679.135	34784.03
679.484	34609.12
679.832	34682.34
680.181	34476.92
680.529	34526.18
680.877	34495.45
681.225	34473.53
681.573	34575.67
681.922	34291.39
682.27	34292.29
682.618	34292.74
682.966	34253.2
683.314	34333.19
683.661	34312.63
684.009	34109.92
684.357	33962.36
684.705	33883.26
685.053	34013.43
685.4	33877.39
685.748	33892.53
686.095	33706.32
686.443	33606.66
686.79	33384.07
687.138	33537.96
687.485	33469.26
687.832	33263.16
688.18	33416.38
688.527	33281.7
688.874	33233.79
689.221	33141.13
689.568	33014.58
689.915	32945.66
690.262	33068.59
690.609	32879.45
690.956	32794.93
691.303	32846.68
691.65	32665.44
691.997	32594.26
692.344	32386.58
692.69	32464.99
693.037	32567.36
693.383	32263.42
693.73	32361.95
694.077	32110.43
694.423	32114.49
694.769	32035.17
695.116	31912.92
695.462	31882.86
695.808	31623.21
696.155	31623.21
696.501	31531.01
696.847	31503.89
697.193	31281.07
697.539	31443.55
697.885	31234.74
698.231	31082.21
698.577	31124.01
698.923	30984.58
699.269	30928.76
699.614	30817.81
699.96	30683.57
700.306	30634.53
700.651	30593.86
700.997	30514.31
701.342	30519.06
701.688	30394.77
702.033	30313.19
702.379	30201.78
702.724	30178.73
703.069	30263.02
703.415	29827.78
703.76	29995.23
704.105	29961.56
704.45	29823.48
704.795	29639.98
705.14	29572.41
705.485	29569.7
705.83	29358.41
706.175	29531.06
706.52	29459.88
706.865	29282.25
707.209	29222.59
707.554	29262.59
707.899	29169.49
708.243	29060.79
708.588	29087
708.932	28812.66
709.277	28806.78
709.621	28859.89
709.966	28640.24
710.31	28703.06
710.654	28534.02
710.998	28508.94
711.342	28411.09
711.687	28341.94
712.031	28186.69
712.375	28157.54
712.719	28218.55
713.063	28167.71
713.407	28225.78
713.75	28032.12
714.094	27981.72
714.438	27908.73
714.782	28008.16
715.125	27842.74
715.469	27805.23
715.812	27587.61
716.156	27566.14
716.499	27515.07
716.843	27627.83
717.186	27473.49
717.53	27497.44
717.873	27471.23
718.216	27417.22
718.559	27244.79
718.902	27186.71
719.246	27124.34
719.589	26999.15
719.932	26935.87
720.275	26939.49
720.617	26917.34
720.96	26859.94
721.303	26861.07
721.646	26840.73
721.989	26632.38
722.331	26685.48
722.674	26654.07
723.016	26657.46
723.359	26510.35
723.701	26530.91
724.044	26454.53
724.386	26363.69
724.729	26422.89
725.071	26332.95
725.413	26290.24
725.755	26302.44
726.097	26198.27
726.439	26006.86
726.782	25993.07
727.124	26181.77
727.465	25918.95
727.807	25897.71
728.149	25843.02
728.491	25816.81
728.833	25875.34
729.175	25797.6
729.516	25770.93
729.858	25704.04
730.199	25810.93
730.541	25692.29
730.882	25613.2
731.224	25668.34
731.565	25459.75
731.906	25478.51
732.248	25466.53
732.589	25349.02
732.93	25325.29
733.271	25230.38
733.612	25337.72
733.953	25352.64
734.294	25282.81
734.635	25115.58
734.976	25229.03
735.317	25093.66
735.658	25127.79
735.999	25154.68
736.339	25064.06
736.68	25099.76
737.021	24877.4
737.361	24855.02
737.702	24990.39
738.042	24875.81
738.383	24869.49
738.723	24810.51
739.063	24637.86
739.404	24787.23
739.744	24696.61
740.084	24609.16
740.424	24541.36
740.764	24614.35
741.104	24609.16
741.444	24391.99
741.784	24449.61
742.124	24484.64
742.464	24474.24
742.804	24240.58
743.143	24292.33
743.483	24274.93
743.823	24119.45
744.162	24166.23
744.502	24091.88
744.841	23935.95
745.181	24049.17
745.52	24010.07
745.86	23930.3
746.199	23803.75
746.538	23875.84
746.877	23956.52
747.216	23844.43
747.556	23803.07
747.895	23774.83
748.234	23678.11
748.573	23553.36
748.911	23516.98
749.25	23596.53
749.589	23446.47
749.928	23420.49
750.267	23439.69
750.605	23309.08
750.944	23278.12
751.283	23180.49
751.621	23322.86
751.96	23122.64
752.298	23127.61
752.636	23033.6
752.975	22908.41
753.313	22876.09
753.651	22893.49
753.989	22865.47
754.327	22771.92
