Data from plate_porcelain_FLMS001491_008.txt Node
Date: Tue Feb 07 11:18:39 GMT 2017
User: dcchb
Spectrometer: FLMS00149
Trigger mode: 0
Integration Time (sec): 2.000000E-2
Scans to average: 10
Electric dark correction enabled: true
Nonlinearity correction enabled: false
Boxcar width: 0
XAxis mode: Wavelengths
Number of Pixels in Spectrum: 2048
>>>>>Begin Spectral Data<<<<<
341.393	-20.01
341.776	-20.01
342.16	-20.01
342.543	-64.31
342.927	-63.4
343.31	-55.49
343.693	-77.87
344.077	-65.89
344.46	-59.56
344.843	-66.79
345.226	-45.78
345.61	-27.47
345.993	-18.21
346.376	-3.06
346.759	8.91
347.142	19.53
347.525	46.88
347.908	67.67
348.291	83.49
348.674	86.65
349.057	106.99
349.44	136.59
349.823	133.88
350.206	179.98
350.588	234.89
350.971	247.1
351.354	265.63
351.737	273.99
352.119	290.03
352.502	306.53
352.884	305.4
353.267	315.12
353.65	327.77
354.032	318.96
354.414	347.66
354.797	335.46
355.179	356.25
355.562	370.71
355.944	364.84
356.326	374.1
356.709	387.43
357.091	353.76
357.473	386.3
357.855	360.32
358.238	402.8
358.62	393.76
359.002	371.61
359.384	388.34
359.766	389.69
360.148	391.95
360.53	417.04
360.912	404.16
361.294	373.87
361.676	397.83
362.057	396.25
362.439	374.55
362.821	387.21
363.203	398.05
363.584	393.76
363.966	378.17
364.348	369.58
364.729	375.23
365.111	388.56
365.493	386.98
365.874	393.08
366.256	375
366.637	396.47
367.019	397.83
367.4	385.4
367.781	384.95
368.163	383.14
368.544	403.03
368.925	394.21
369.306	420.65
369.688	408
370.069	417.72
370.45	428.11
370.831	411.84
371.212	404.16
371.593	389.92
371.974	418.17
372.355	432.86
372.736	408.9
373.117	417.04
373.498	421.56
373.879	451.61
374.26	418.62
374.641	410.26
375.021	427.43
375.402	430.37
375.783	453.19
376.163	452.97
376.544	453.87
376.925	459.07
377.305	474.66
377.686	460.88
378.066	448.22
378.447	463.59
378.827	495.45
379.208	489.13
379.588	455.45
379.968	493.65
380.349	476.24
380.729	497.26
381.109	489.8
381.489	471.5
381.87	495.23
382.25	527.54
382.63	520.76
383.01	518.73
383.39	508.11
383.77	536.81
384.15	516.02
384.53	551.5
384.91	559.86
385.29	538.62
385.67	552.17
386.049	574.55
386.429	571.16
386.809	588.56
387.189	601.66
387.568	605.73
387.948	565.73
388.328	574.32
388.707	609.35
389.087	606.18
389.466	611.16
389.846	626.52
390.225	633.75
390.605	649.12
390.984	663.36
391.363	641.21
391.743	659.29
392.122	675.34
392.501	685.5
392.881	680.98
393.26	713.07
393.639	746.52
394.018	696.13
394.397	704.26
394.776	747.42
395.155	737.25
395.534	732.96
395.913	753.07
396.292	748.1
396.671	779.29
397.05	779.06
397.429	798.27
397.808	763.02
398.186	789.46
398.565	793.98
398.944	789
399.323	828.55
399.701	826.29
400.08	836.24
400.458	845.27
400.837	850.02
401.215	850.47
401.594	848.89
401.972	889.34
402.351	902.22
402.729	896.35
403.107	906.97
403.486	915.56
403.864	907.19
404.242	924.37
404.62	963.46
404.999	956.01
405.377	949.68
405.755	964.37
406.133	983.8
406.511	996.91
406.889	1005.72
407.267	1045.5
407.645	1042.33
408.023	1052.27
408.401	1067.19
408.779	1091.82
409.156	1116.91
409.534	1117.36
409.912	1142.44
410.29	1168.2
410.667	1166.62
411.045	1162.78
411.422	1199.39
411.8	1219.5
412.178	1234.19
412.555	1249.33
412.933	1272.16
413.31	1277.58
413.687	1305.15
414.065	1353.51
414.442	1332.49
414.819	1370.01
415.197	1337.01
415.574	1375.88
415.951	1399.84
416.328	1417.24
416.705	1422.21
417.082	1446.84
417.46	1455.65
417.837	1493.62
418.214	1479.61
418.591	1525.93
418.967	1506.73
419.344	1556.44
419.721	1557.8
420.098	1555.09
420.475	1581.3
420.852	1607.74
421.228	1616.33
421.605	1614.75
421.982	1657.46
422.358	1673.95
422.735	1688.19
423.111	1700.39
423.488	1734.29
423.864	1737.23
424.241	1772.03
424.617	1788.07
424.994	1800.28
425.37	1778.36
425.746	1872.37
426.123	1880.95
426.499	1877.11
426.875	1884.34
427.251	1959.14
427.627	1997.11
428.003	1984.23
428.379	2033.27
428.756	2071.68
429.132	2100.83
429.507	2097.22
429.883	2148.52
430.259	2179.7
430.635	2195.3
431.011	2221.06
431.387	2266.48
431.763	2268.97
432.138	2341.28
432.514	2333.6
432.89	2389.41
433.265	2409.98
433.641	2454.5
434.016	2474.16
434.392	2513.03
434.767	2578.11
435.143	2565.91
435.518	2580.6
435.894	2639.13
436.269	2653.81
436.644	2725.68
437.02	2737.43
437.395	2766.35
437.77	2781.49
438.145	2802.06
438.52	2896.75
438.895	2878.44
439.271	2956.41
439.646	2981.49
440.021	3018.1
440.395	3022.17
440.77	3010.19
441.145	3039.57
441.52	3086.8
441.895	3091.09
442.27	3118.21
442.645	3170.86
443.019	3172.9
443.394	3202.05
443.769	3261.48
444.143	3223.74
444.518	3278.66
444.892	3264.42
445.267	3282.72
445.641	3350.29
446.016	3373.57
446.39	3366.11
446.764	3387.58
447.139	3384.42
447.513	3462.15
447.887	3539.44
448.262	3514.36
448.636	3533.11
449.01	3586.45
449.384	3631.64
449.758	3674.35
450.132	3715.03
450.506	3755.71
450.88	3727.23
451.254	3743.5
451.628	3840.45
452.002	3876.61
452.376	3929.94
452.75	3969.26
453.123	4018.98
453.497	4076.38
453.871	4093.55
454.244	4167.67
454.618	4183.04
454.992	4242.7
455.365	4265.52
455.739	4371.96
456.112	4431.85
456.486	4482.24
456.859	4497.38
457.232	4617.6
457.606	4604.72
457.979	4674.33
458.352	4793.65
458.725	4856.02
459.099	4818.73
459.472	4947.99
459.845	4998.84
460.218	5053.98
460.591	5144.37
460.964	5143.69
461.337	5270.69
461.71	5364.25
462.083	5404.93
462.456	5406.74
462.829	5430.69
463.201	5544.59
463.574	5584.58
463.947	5646.28
464.32	5797.91
464.692	5851.24
465.065	5881.07
465.438	5951.35
465.81	6099.15
466.183	6120.16
466.555	6262.99
466.928	6279.48
467.3	6326.71
467.672	6422.08
468.045	6556.99
468.417	6607.38
468.789	6680.15
469.161	6743.42
469.534	6876.75
469.906	7031.33
470.278	7092.12
470.65	7201.94
471.022	7333.47
471.394	7452.78
471.766	7523.52
472.138	7630.41
472.51	7822.27
472.882	7913.79
473.253	7971.41
473.625	8130.05
473.997	8294.12
474.369	8444.4
474.74	8474
475.112	8608.46
475.484	8748.12
475.855	9005.29
476.227	8987.21
476.598	9236.24
476.97	9344.71
477.341	9518.49
477.713	9681.43
478.084	9767.3
478.455	10100.62
478.827	10169.32
479.198	10398.02
479.569	10481.41
479.94	10758.69
480.311	10844.33
480.682	11150.99
481.053	11368.39
481.424	11556.41
481.795	11703.52
482.166	11835.72
482.537	11964.53
482.908	12270.74
483.279	12450.84
483.65	12625.08
484.021	12825.98
484.391	13039.98
484.762	13066.65
485.133	13313.42
485.503	13479.97
485.874	13796.57
486.244	13895.55
486.615	14160.86
486.985	14402.43
487.356	14622.99
487.726	14718.36
488.097	15106.82
488.467	15096.65
488.837	15410.77
489.207	15608.95
489.578	15855.5
489.948	15929.17
490.318	16295.04
490.688	16310.4
491.058	16620.45
491.428	16798.53
491.798	17014.34
492.168	17438.74
492.538	17394.9
492.908	17620.65
493.278	17880.31
493.648	17968.44
494.017	18132.28
494.387	18301.31
494.757	18658.59
495.126	18654.07
495.496	18788.76
495.866	18871.02
496.235	19141.29
496.605	19330.44
496.974	19456.99
497.344	19642.75
497.713	19756.19
498.082	19973.58
498.452	20150.76
498.821	20307.81
499.19	20376.51
499.559	20570.18
499.928	20753.45
500.298	20839.32
500.667	21059.88
501.036	20872.77
501.405	21227.79
501.774	21302.36
502.143	21586.65
502.512	21677.72
502.88	21962.23
503.249	21952.06
503.618	22173.98
503.987	22293.52
504.356	22429.57
504.724	22482.67
505.093	22692.84
505.462	22799.95
505.83	23037.91
506.199	23218.25
506.567	23527.39
506.936	23536.2
507.304	23862.52
507.672	23868.62
508.041	24121.27
508.409	24222.06
508.777	24384.99
509.145	24584.99
509.514	24696.4
509.882	24923.29
510.25	24886.22
510.618	25163.28
510.986	25208.7
511.354	25557.39
511.722	25812.08
512.09	25949.47
512.458	26055.91
512.826	26300.2
513.193	26468.56
513.561	26488.89
513.929	26762.79
514.297	27092.72
514.664	27289.78
515.032	27375.65
515.4	27668.07
515.767	27686.83
516.135	27975.86
516.502	27819.48
516.869	28406.13
517.237	28504.43
517.604	28507.82
517.972	28833.47
518.339	28969.28
518.706	29247.47
519.073	29331.76
519.44	29586.44
519.808	29836.6
520.175	29876.15
520.542	30340.32
520.909	30538.28
521.276	30574.21
521.643	30880.42
522.009	31120.64
522.376	31336.45
522.743	31558.82
523.11	31970.11
523.477	32150.44
523.843	32360.38
524.21	32717.2
524.577	32874.49
524.943	33012.56
525.31	33230.86
525.676	33617.97
526.043	33722.6
526.409	33959.43
526.776	34354
527.142	34569.59
527.508	34771.61
527.874	35182
528.241	35085.73
528.607	35260.87
528.973	35691.36
529.339	35572.04
529.705	35973.62
530.071	36276.66
530.437	36612.47
530.803	36748.29
531.169	36951.44
531.535	36995.96
531.901	37111.89
532.267	37367.03
532.632	37578.55
532.998	37724.08
533.364	38162.26
533.73	38146.67
534.095	38557.5
534.461	38535.36
534.826	38898.96
535.192	39015.8
535.557	39198.39
535.923	39171.72
536.288	39311.38
536.653	39685.84
537.019	39591.6
537.384	39805.83
537.749	39936.45
538.114	40067.07
538.479	40124.92
538.845	40284.46
539.21	40362.2
539.575	40575.3
539.94	40713.6
540.305	41196.3
540.67	40966.48
541.034	41252.8
541.399	41343.19
541.764	41530.98
542.129	41557.65
542.494	41801.03
542.858	41887.36
543.223	41838.32
543.587	42213.45
543.952	42263.85
544.316	42476.95
544.681	42480.34
545.045	42618.41
545.41	42797.39
545.774	42977.05
546.138	43026.54
546.503	43162.13
546.867	43258.4
547.231	43511.5
547.595	43702
547.959	43706.97
548.324	43834.43
548.688	43878.72
549.052	44124.36
549.416	44174.08
549.779	44366.16
550.143	44647.06
550.507	44817.23
550.871	44850.9
551.235	44991.23
551.599	45291.11
551.962	45173.37
552.326	45416.08
552.689	45605.23
553.053	45563.19
553.417	45697.65
553.78	46147.81
554.143	46033.01
554.507	46332.21
554.87	46462.15
555.234	46976.26
555.597	46614.92
555.96	46778.53
556.323	47045.64
556.686	46972.2
557.05	47511.17
557.413	47563.14
557.776	47716.81
558.139	47918.39
558.502	48089.46
558.865	48060.76
559.228	48446.28
559.59	48463.01
559.953	48656.9
560.316	49076.55
560.679	48907.97
561.041	49239.48
561.404	49434.51
561.767	49571.68
562.129	49430.21
562.492	49940.71
562.854	49932.35
563.217	49953.36
563.579	50093.7
563.941	50354.26
564.304	50588.6
564.666	50768.03
565.028	50841.47
565.39	50991.53
565.753	51132.31
566.115	51250.5
566.477	51379.54
566.839	51455.7
567.201	51657.72
567.563	51770.04
567.925	51899.07
568.287	51950.37
568.648	52043.93
569.01	52317.59
569.372	52411.6
569.734	52392.39
570.095	52538.15
570.457	52699.05
570.819	52675.1
571.18	52721.88
571.542	53050.91
571.903	53017.46
572.265	53148.53
572.626	53169.55
572.987	53274.4
573.349	53422.42
573.71	53554.62
574.071	53605.24
574.432	53650.21
574.794	53960.26
575.155	53770.21
575.516	53779.7
575.877	53983.09
576.238	54026.7
576.599	54133.14
576.96	54087.49
577.32	54112.12
577.681	54295.85
578.042	54317.99
578.403	54387.14
578.763	54499
579.124	54462.85
579.485	54564.09
579.845	54606.12
580.206	54497.87
580.566	54588.95
580.927	54628.72
581.287	54750.98
581.648	54619
582.008	54780.81
582.368	54698.55
582.728	54712.78
583.089	54789.84
583.449	54745.33
583.809	54815.83
584.169	54845.66
584.529	54824.19
584.889	55009.5
585.249	54808.83
585.609	54802.05
585.969	54945.32
586.329	54781.48
586.688	54930.63
587.048	54813.57
587.408	54841.14
587.768	54922.27
588.127	54804.53
588.487	54872.55
588.846	54984.19
589.206	54931.31
589.565	54921.59
589.925	55035.49
590.284	54889.28
590.643	54949.16
591.003	55160.46
591.362	55107.8
591.721	55048.82
592.08	55062.61
592.44	55111.42
592.799	55111.42
593.158	55096.05
593.517	55098.99
593.876	55183.96
594.235	55113.23
594.593	55127.69
594.952	55188.25
595.311	55138.76
595.67	55124.53
596.029	55338.53
596.387	55196.84
596.746	55292.43
597.104	55291.3
597.463	55256.95
597.822	55365.87
598.18	55224.18
598.538	55247.69
598.897	55470.28
599.255	55279.1
599.613	55577.85
599.972	55421.92
600.33	55480.45
600.688	55412.43
601.046	55525.64
601.404	55541.24
601.762	55506.89
602.12	55683.83
602.478	55700.33
602.836	55685.87
603.194	55550.28
603.552	55609.71
603.91	55514.57
604.268	55673.21
604.625	55635.7
604.983	55808.8
605.341	55635.47
605.698	55816.94
606.056	55880.66
606.413	55751.85
606.771	55866.43
607.128	55998.63
607.485	55798.41
607.843	55852.87
608.2	56008.12
608.557	55999.76
608.914	55948.91
609.272	56100.32
609.629	56207.21
609.986	56171.5
610.343	56096.48
610.7	56256.47
611.057	56247.66
611.414	56234.55
611.771	56225.29
612.127	56394.32
612.484	56372.4
612.841	56396.58
613.198	56338.5
613.554	56341.44
613.911	56533.53
614.267	56459.18
614.624	56485.39
614.98	56547.99
615.337	56707.99
615.693	56681.32
616.05	56529.01
616.406	56718.61
616.762	56566.3
617.118	56653.75
617.475	56648.33
617.831	56714.09
618.187	56716.35
618.543	56758.61
618.899	56920.18
619.255	56910.69
619.611	56859.39
619.967	56933.74
620.323	56960.64
620.678	56823.69
621.034	56828.44
621.39	56934.2
621.746	56838.15
622.101	57093.51
622.457	56859.62
622.812	56910.01
623.168	56912.95
623.523	56952.27
623.879	57006.28
624.234	56913.4
624.589	57005.15
624.945	56924.48
625.3	56993.4
625.655	56938.94
626.01	56917.92
626.365	57002.22
626.72	56967.87
627.075	56971.03
627.43	56907.76
627.785	56861.65
628.14	56913.4
628.495	56869.79
628.85	56880.19
629.205	56763.8
629.559	56878.83
629.914	56805.84
630.269	56828.66
630.623	56759.96
630.978	56707.76
631.332	56765.39
631.687	56783.01
632.041	56674.09
632.396	56743.69
632.75	56562.45
633.104	56696.69
633.459	56603.81
633.813	56463.7
634.167	56566.3
634.521	56520.87
634.875	56562.68
635.229	56491.95
635.583	56309.8
635.937	56401.78
636.291	56362.23
636.645	56326.08
636.999	56171.05
637.352	56282.69
637.706	56173.99
638.06	56252.18
638.413	56112.3
638.767	56173.31
639.121	56133.54
639.474	55967.21
639.828	55973.32
640.181	55996.59
640.534	56039.53
640.888	55934.22
641.241	55799.31
641.594	55831.85
641.947	55859.87
642.301	55797.95
642.654	55724.06
643.007	55886.99
643.36	55746.66
643.713	55737.62
644.066	55724.06
644.419	55631.86
644.771	55434.57
645.124	55200.68
645.477	55074.36
645.83	54951.87
646.182	54808.83
646.535	54696.97
646.888	54689.73
647.24	54694.93
647.593	54767.92
647.945	54694.03
648.298	54529.96
648.65	54560.02
649.002	54353.47
649.355	54540.13
649.707	54481.38
650.059	54670.07
650.411	54914.36
650.763	54973.34
651.115	55168.37
651.467	54969.27
651.819	55101.47
652.171	54922.72
652.523	54928.37
652.875	54897.41
653.227	54657.19
653.578	54953
653.93	54858.54
654.282	54625.78
654.633	54671.88
654.985	54678.66
655.337	54683.18
655.688	54618.78
656.039	54807.02
656.391	54541.72
656.742	54629.17
657.094	54607.48
657.445	54741.03
657.796	54633.69
658.147	54646.12
658.498	54572.68
658.849	54622.39
659.2	54442.06
659.551	54482.28
659.902	54552.79
660.253	54482.28
660.604	54491.77
660.955	54371.55
661.306	54423.07
661.656	54372.68
662.007	54362.06
662.358	54296.3
662.708	54375.39
663.059	54286.81
663.409	54104.44
663.76	54336.52
664.11	54327.94
664.461	54289.52
664.811	54332.23
665.161	54285
665.511	54165.68
665.862	54296.52
666.212	54310.08
666.562	54254.72
666.912	54191.22
667.262	54224.89
667.612	54229.41
667.962	54198.22
668.312	54270.08
668.662	54333.36
669.011	54168.39
669.361	54200.26
669.711	54172.01
670.06	54121.16
670.41	53972.69
670.76	54028.51
671.109	54022.63
671.459	54037.77
671.808	54004.78
672.157	54066.02
672.507	53828.74
672.856	53851.11
673.205	54032.8
673.554	54000.26
673.904	53839.59
674.253	53980.83
674.602	53848.85
674.951	53397.56
675.3	53326.83
675.649	53851.79
675.998	53699.25
676.346	53738.12
676.695	53769.76
677.044	53642.53
677.393	53723.66
677.741	53784.9
678.09	53708.52
678.438	53569.76
678.787	53610.21
679.135	53610.67
679.484	53368.64
679.832	53455.64
680.181	53315.31
680.529	53453.38
680.877	53254.74
681.225	53257
681.573	53497.45
681.922	53180.4
682.27	53141.98
682.618	53156.44
682.966	53043.9
683.314	53096.1
683.661	52944.24
684.009	52854.53
684.357	52740.86
684.705	52810.01
685.053	52747.41
685.4	52707.41
685.748	52565.27
686.095	52517.59
686.443	52462.45
686.79	52318.72
687.138	52418.38
687.485	52397.14
687.832	52170.03
688.18	52358.04
688.527	52103.14
688.874	52110.59
689.221	51920.99
689.568	51770.49
689.915	51758.74
690.262	51828.79
690.609	51743.6
690.956	51534.56
691.303	51580.66
691.65	51415.47
691.997	51374.34
692.344	51188.58
692.69	51111.3
693.037	51253.21
693.383	50925.31
693.73	51036.05
694.077	50770.52
694.423	50765.77
694.769	50719.67
695.116	50608.94
695.462	50513.8
695.808	50365.33
696.155	50583.63
696.501	50283.97
696.847	50350.19
697.193	49963.3
697.539	50273.58
697.885	49891.89
698.231	49871.33
698.577	49805.57
698.923	49732.8
699.269	49525.8
699.614	49291.46
699.96	49307.28
700.306	49269.99
700.651	49125.36
700.997	49072.71
701.342	49073.16
701.688	48915.65
702.033	48672.49
702.379	48717.69
702.724	48533.96
703.069	48655.54
703.415	48138.72
703.76	48259.39
704.105	48135.33
704.45	48038.61
704.795	47749.35
705.14	47745.06
705.485	47693.08
705.83	47604.72
706.175	47703.25
706.52	47433.2
706.865	47399.53
707.209	47282.92
707.554	47235.02
707.899	47405.18
708.243	46991.86
708.588	46949.6
708.932	46742.37
709.277	46626.44
709.621	46743.28
709.966	46551.19
710.31	46614.01
710.654	46248.83
710.998	46273.91
711.342	46374.47
711.687	46219.67
712.031	46053.58
712.375	45864.66
712.719	45897.65
713.063	45910.76
713.407	45809.74
713.75	45672.12
714.094	45630.76
714.438	45379.02
714.782	45558
715.125	45300.6
715.469	45399.13
715.812	44976.77
716.156	44884.34
716.499	44972.93
716.843	44846.83
717.186	44690.9
717.53	44789.66
717.873	44892.03
718.216	44740.84
718.559	44593.73
718.902	44404.13
719.246	44453.17
719.589	44396.67
719.932	44058.83
720.275	43986.29
720.617	44030.81
720.96	44005.72
721.303	44012.27
721.646	43864.71
721.989	43721.66
722.331	43734.99
722.674	43668.56
723.016	43835.78
723.359	43624.49
723.701	43440.09
724.044	43346.98
724.386	43001.91
724.729	43449.58
725.071	43112.19
725.413	43068.57
725.755	43050.72
726.097	42921
726.439	42658.41
726.782	42747.45
727.124	42811.4
727.465	42552.88
727.807	42542.94
728.149	42321.7
728.491	42294.13
728.833	42533.22
729.175	42230.85
729.516	42229.5
729.858	42316.73
730.199	42191.76
730.541	41989.05
730.882	42016.62
731.224	42109.27
731.565	41853.01
731.906	42004.42
732.248	41817.08
732.589	41695.73
732.93	41491.44
733.271	41635.61
733.612	41538.67
733.953	41558.78
734.294	41344.32
734.635	41325.11
734.976	41394.72
735.317	41148.85
735.658	41213.93
735.999	41075.63
736.339	41013.26
736.68	41071.34
737.021	40844.45
737.361	40725.13
737.702	40939.14
738.042	40802.42
738.383	40580.95
738.723	40708.18
739.063	40511.8
739.404	40585.47
739.744	40366.5
740.084	40310.23
740.424	40361.3
740.764	40388.19
741.104	40352.94
741.444	40143.9
741.784	39965.15
742.124	40031.59
742.464	39912.95
742.804	39773.52
743.143	39719.51
743.483	39887.64
743.823	39505.73
744.162	39612.16
744.502	39599.96
744.841	39519.06
745.181	39572.84
745.52	39352.96
745.86	39474.54
746.199	39355.22
746.538	39234.55
746.877	39293.3
747.216	39195.23
747.556	39051.5
747.895	39044.72
748.234	38849.02
748.573	38800.89
748.911	38641.12
749.25	38572.87
749.589	38562.02
749.928	38598.18
750.267	38459.88
750.605	38332.2
750.944	38350.05
751.283	38281.58
751.621	38320
751.96	38022.6
752.298	38133.33
752.636	37997.07
752.975	37719.79
