Data from plate_porcelain_FLMS001491_027.txt Node
Date: Tue Feb 07 11:19:02 GMT 2017
User: dcchb
Spectrometer: FLMS00149
Trigger mode: 0
Integration Time (sec): 2.000000E-2
Scans to average: 10
Electric dark correction enabled: true
Nonlinearity correction enabled: false
Boxcar width: 0
XAxis mode: Wavelengths
Number of Pixels in Spectrum: 2048
>>>>>Begin Spectral Data<<<<<
341.393	1.47
341.776	1.47
342.16	1.47
342.543	-66.55
342.927	-78.53
343.31	-77.17
343.693	-90.05
344.077	-60
344.46	-55.48
344.843	-42.37
345.226	-46.44
345.61	-17.29
345.993	-22.71
346.376	-3.5
346.759	10.51
347.142	10.51
347.525	53.22
347.908	48.25
348.291	88.25
348.674	85.08
349.057	119.21
349.44	151.52
349.823	159.43
350.206	169.6
350.588	219.09
350.971	250.95
351.354	269.03
351.737	271.52
352.119	299.54
352.502	288.24
352.884	314.46
353.267	327.34
353.65	331.18
354.032	352.19
354.414	352.19
354.797	362.36
355.179	365.3
355.562	373.44
355.944	361.69
356.326	383.83
356.709	384.96
357.091	389.26
357.473	384.96
357.855	397.62
358.238	396.94
358.62	392.42
359.002	390.16
359.384	403.72
359.766	393.1
360.148	382.7
360.53	391.52
360.912	403.27
361.294	395.36
361.676	385.64
362.057	374.57
362.439	398.75
362.821	389.48
363.203	379.54
363.584	396.26
363.966	395.36
364.348	399.2
364.729	394
365.111	396.49
365.493	382.25
365.874	385.19
366.256	406.66
366.637	373.21
367.019	394.23
367.4	387.9
367.781	375.47
368.163	405.07
368.544	387.45
368.925	391.29
369.306	427.67
369.688	408.46
370.069	371.85
370.45	389.71
370.831	410.05
371.212	398.29
371.593	425.64
371.974	397.39
372.355	447.78
372.736	397.84
373.117	436.94
373.498	402.81
373.879	433.55
374.26	417.28
374.641	406.88
375.021	420.67
375.402	432.87
375.783	448.91
376.163	480.33
376.544	461.8
376.925	475.35
377.305	455.02
377.686	458.63
378.066	462.93
378.447	457.73
378.827	490.72
379.208	467.9
379.588	474.68
379.968	475.13
380.349	483.49
380.729	487.33
381.109	525.75
381.489	481.91
381.87	518.07
382.25	514.68
382.63	513.55
383.01	516.94
383.39	529.82
383.77	509.93
384.15	550.83
384.53	529.59
384.91	533.66
385.29	538.86
385.67	570.72
386.049	578.85
386.429	551.06
386.809	571.17
387.189	558.97
387.568	589.7
387.948	587.22
388.328	587.67
388.707	626.54
389.087	606.42
389.466	599.65
389.846	626.99
390.225	639.87
390.605	666.31
390.984	638.06
391.363	651.4
391.743	666.76
392.122	653.88
392.501	660.66
392.881	668.12
393.26	682.58
393.639	718.74
394.018	692.3
394.397	710.83
394.776	717.16
395.155	701.34
395.534	713.54
395.913	741.79
396.292	745.4
396.671	738.17
397.05	760.32
397.429	754.44
397.808	761.67
398.186	780.88
398.565	789.92
398.944	784.27
399.323	796.93
399.701	800.54
400.08	822.92
400.458	832.86
400.837	858.4
401.215	855.46
401.594	859.75
401.972	854.33
402.351	892.74
402.729	892.74
403.107	894.55
403.486	924.16
403.864	907.89
404.242	910.37
404.62	942.01
404.999	962.8
405.377	974.78
405.755	959.41
406.133	1011.39
406.511	1012.52
406.889	1010.26
407.267	1030.82
407.645	1040.99
408.023	1047.77
408.401	1050.03
408.779	1069.01
409.156	1093.19
409.534	1095
409.912	1113.3
410.29	1164.6
410.667	1170.25
411.045	1160.53
411.422	1198.5
411.8	1186.97
412.178	1213.19
412.555	1246.86
412.933	1244.83
413.31	1254.32
413.687	1295.45
414.065	1273.3
414.442	1310.81
414.819	1312.17
415.197	1331.6
415.574	1368.44
415.951	1398.72
416.328	1414.99
416.705	1406.18
417.082	1414.99
417.46	1451.83
417.837	1462.22
418.214	1489.57
418.591	1500.86
418.967	1478.94
419.344	1512.84
419.721	1541.09
420.098	1522.11
420.475	1589.68
420.852	1578.15
421.228	1607.08
421.605	1607.98
421.982	1633.97
422.358	1647.75
422.735	1662.22
423.111	1695.66
423.488	1709.22
423.864	1712.16
424.241	1763.68
424.617	1747.41
424.994	1812.49
425.37	1828.99
425.746	1849.1
426.123	1826.28
426.499	1869.67
426.875	1898.37
427.251	1922.1
427.627	1970.23
428.003	2000.74
428.379	2022.21
428.756	2039.61
429.132	2041.87
429.507	2075.31
429.883	2114.86
430.259	2136.1
430.635	2179.26
431.011	2178.81
431.387	2260.39
431.763	2280.05
432.138	2304.23
432.514	2318.7
432.89	2320.96
433.265	2422.87
433.641	2421.29
434.016	2436.89
434.392	2493.15
434.767	2527.28
435.143	2527.73
435.518	2573.83
435.894	2559.59
436.269	2660.83
436.644	2675.75
437.02	2703.32
437.395	2728.4
437.77	2753.03
438.145	2803.66
438.52	2796.88
438.895	2875.74
439.271	2876.87
439.646	2925.91
440.021	2935.86
440.395	2994.84
440.77	2936.31
441.145	2996.64
441.52	3045
441.895	3066.02
442.27	3091.11
442.645	3145.34
443.019	3170.65
443.394	3169.97
443.769	3181.95
444.143	3174.27
444.518	3253.81
444.892	3240.71
445.267	3290.2
445.641	3334.71
446.016	3348.95
446.39	3363.87
446.764	3407.48
447.139	3379.91
447.513	3438.44
447.887	3454.03
448.262	3450.19
448.636	3507.59
449.01	3503.07
449.384	3593.24
449.758	3628.72
450.132	3667.59
450.506	3692.45
450.88	3729.96
451.254	3757.3
451.628	3792.56
452.002	3807.24
452.376	3850.18
452.75	3865.32
453.123	3975.38
453.497	4039.33
453.871	4012.89
454.244	4135.6
454.618	4166.56
454.992	4201.81
455.365	4244.52
455.739	4341.02
456.112	4419.66
456.486	4401.81
456.859	4445.42
457.232	4517.96
457.606	4540.56
457.979	4602.7
458.352	4724.28
458.725	4737.16
459.099	4826.43
459.472	4924.73
459.845	4954.56
460.218	4965.18
460.591	5082.47
460.964	5061.9
461.337	5211.95
461.71	5260.99
462.083	5388.45
462.456	5409.69
462.829	5424.15
463.201	5517.48
463.574	5531.49
463.947	5674.31
464.32	5771.03
464.692	5776.01
465.065	5873.18
465.438	5911.82
465.81	6011.48
466.183	6120.4
466.555	6259.84
466.928	6251.47
467.3	6194.98
467.672	6382.32
468.045	6538.92
468.417	6569.66
468.789	6584.12
469.161	6772.82
469.534	6791.12
469.906	6990.89
470.278	7042.19
470.65	7098.68
471.022	7284.22
471.394	7335.06
471.766	7479.69
472.138	7493.7
472.51	7769.63
472.882	7873.58
473.253	7950.86
473.625	8071.77
473.997	8248.26
474.369	8323.74
474.74	8422.72
475.112	8619.77
475.484	8653.67
475.855	8870.61
476.227	8937.96
476.598	9164.39
476.97	9314.67
477.341	9486.87
477.713	9657.49
478.084	9704.04
478.455	10036.69
478.827	10079.4
479.198	10391.48
479.569	10402.33
479.94	10653.17
480.311	10779.94
480.682	11015.87
481.053	11298.35
481.424	11532.47
481.795	11584.44
482.166	11705.79
482.537	12039.34
482.908	12152.56
483.279	12263.07
483.65	12550.97
484.021	12774.24
484.391	12935.14
484.762	13054.01
485.133	13188.47
485.503	13428.01
485.874	13681.34
486.244	13766.08
486.615	14127.2
486.985	14292.62
487.356	14581.65
487.726	14657.58
488.097	14939.38
488.467	14980.96
488.837	15436.09
489.207	15562.19
489.578	15858
489.948	15963.31
490.318	16183.64
490.688	16266.35
491.058	16492.56
491.428	16661.6
491.798	16965.32
492.168	17267.91
492.538	17340
492.908	17509.48
493.278	17836.03
493.648	17813.43
494.017	18140.43
494.387	18196.92
494.757	18362.79
495.126	18703.35
495.496	18718.72
495.866	18811.37
496.235	19049.78
496.605	19266.95
496.974	19318.93
497.344	19507.62
497.713	19629.88
498.082	19856.31
498.452	20090.66
498.821	20130.21
499.19	20257.43
499.559	20451.55
499.928	20600.7
500.298	20754.82
500.667	20924.53
501.036	21013.12
501.405	21275.71
501.774	21322.49
502.143	21539.66
502.512	21607.68
502.88	21778.52
503.249	21926.77
503.618	22020.78
503.987	22182.13
504.356	22415.34
504.724	22391.16
505.093	22635.22
505.462	22739.63
505.83	22901.88
506.199	23096.68
506.567	23457.8
506.936	23371.02
507.304	23646.04
507.672	23829.54
508.041	23948.64
508.409	24101.63
508.777	24299.59
509.145	24573.03
509.514	24578.45
509.882	24741.16
510.25	24899.12
510.618	25017.76
510.986	25098.44
511.354	25427.69
511.722	25548.59
512.09	25837.4
512.458	25890.73
512.826	26126.43
513.193	26286.43
513.561	26498.4
513.929	26769.8
514.297	26980.42
514.664	27266.51
515.032	27294.99
515.4	27513.51
515.767	27659.5
516.135	27945.82
516.502	27757.8
516.869	28254.96
517.237	28315.75
517.604	28426.71
517.972	28902.18
518.339	28964.78
518.706	29099.69
519.073	29246.8
519.44	29489.51
519.808	29680.24
520.175	29839.1
520.542	30119.55
520.909	30321.12
521.276	30463.04
521.643	30726.54
522.009	30929.92
522.376	31339.85
522.743	31493.52
523.11	31812.38
523.477	31940.52
523.843	32263.67
524.21	32558.58
524.577	32801.06
524.943	33014.39
525.31	33166.7
525.676	33499.57
526.043	33710.64
526.409	33903.18
526.776	34323.96
527.142	34434.46
527.508	34697.73
527.874	34963.71
528.241	35198.28
528.607	35250.94
528.973	35549.23
529.339	35575.22
529.705	36008.88
530.071	36266.96
530.437	36461.75
530.803	36668.75
531.169	36841.18
531.535	36857.22
531.901	37003.21
532.267	37216.54
532.632	37536.98
532.998	37675.73
533.364	37954.82
533.73	38019.45
534.095	38430.29
534.461	38478.65
534.826	38684.97
535.192	38931.97
535.557	39098.07
535.923	39045.41
536.288	39304.62
536.653	39394.11
537.019	39393.43
537.384	39688.33
537.749	39823.47
538.114	39908.89
538.479	40133.3
538.845	40302.56
539.21	40300.52
539.575	40422.78
539.94	40591.36
540.305	40901.64
540.67	40856.67
541.034	40972.37
541.399	41119.48
541.764	41361.29
542.129	41423.66
542.494	41568.06
542.858	41698.9
543.223	41844.66
543.587	42027.48
543.952	42120.14
544.316	42342.05
544.681	42282.62
545.045	42472.44
545.41	42759.89
545.774	42758.54
546.138	42869.04
546.503	42916.95
546.867	43089.38
547.231	43523.04
547.595	43531.62
547.959	43742.92
548.324	43750.6
548.688	43757.38
549.052	44016.81
549.416	44104.04
549.779	44224.03
550.143	44404.37
550.507	44739.28
550.871	44763.91
551.235	44831.02
551.599	45028.53
551.962	45266.49
552.326	45251.35
552.689	45519.82
553.053	45455.64
553.417	45608.41
553.78	46079.13
554.143	45891.79
554.507	46239.8
554.87	46359.35
555.234	46723.18
555.597	46460.13
555.96	46709.62
556.323	46997.75
556.686	47059.21
557.05	47289.94
557.413	47447.68
557.776	47495.36
558.139	47700.55
558.502	47790.04
558.865	47908.46
559.228	48247.66
559.59	48301.89
559.953	48456.92
560.316	48816.68
560.679	48824.37
561.041	49073.17
561.404	49333.28
561.767	49527.4
562.129	49307.52
562.492	49863.89
562.854	49687.62
563.217	49874.06
563.579	50011
563.941	50278.34
564.304	50344.1
564.666	50723.3
565.028	50613.7
565.39	50979.11
565.753	51070.63
566.115	51137.75
566.477	51271.99
566.839	51387.01
567.201	51676.04
567.563	51685.08
567.925	51759.66
568.287	51935.24
568.648	51886.88
569.01	52160.55
569.372	52251.17
569.734	52243.71
570.095	52477.83
570.457	52601.89
570.819	52666.3
571.18	52751.72
571.542	52916.69
571.903	52938.61
572.265	53005.05
572.626	53105.38
572.987	53223.8
573.349	53318.26
573.71	53344.7
574.071	53470.35
574.432	53625.6
574.794	53814.07
575.155	53818.13
575.516	53664.92
575.877	53753.73
576.238	53918.24
576.599	54027.62
576.96	54041.4
577.32	54062.65
577.681	54216.54
578.042	54257.9
578.403	54309.87
578.763	54327.95
579.124	54407.5
579.485	54420.83
579.845	54507.15
580.206	54529.3
580.566	54594.84
580.927	54582.86
581.287	54692.69
581.648	54566.81
582.008	54692.46
582.368	54673.7
582.728	54651.78
583.089	54739.92
583.449	54615.4
583.809	54719.13
584.169	54823.08
584.529	54748.5
584.889	54973.13
585.249	54769.29
585.609	54576.98
585.969	54807.49
586.329	54796.19
586.688	54886.35
587.048	54800.25
587.408	54844.77
587.768	54759.35
588.127	54809.07
588.487	54835.96
588.846	54970.42
589.206	54857.88
589.565	54801.61
589.925	54926.13
590.284	54943.53
590.643	54931.78
591.003	55023.52
591.362	55075.95
591.721	55007.71
592.08	55000.47
592.44	55057.2
592.799	55080.02
593.158	54991.89
593.517	55056.29
593.876	55141.26
594.235	55022.4
594.593	55057.65
594.952	55061.49
595.311	55053.13
595.67	55094.48
596.029	55275.04
596.387	55302.16
596.746	55192.11
597.104	55155.95
597.463	55282.95
597.822	55305.1
598.18	55225.78
598.538	55213.8
598.897	55381.71
599.255	55120.7
599.613	55520.24
599.972	55364.31
600.33	55463.97
600.688	55315.95
601.046	55517.98
601.404	55585.32
601.762	55602.27
602.12	55669.61
602.478	55583.96
602.836	55708.93
603.194	55565.88
603.552	55530.86
603.91	55475.26
604.268	55619.22
604.625	55605.2
604.983	55712.55
605.341	55618.54
605.698	55771.53
606.056	55745.99
606.413	55780.12
606.771	55858.53
607.128	55901.02
607.485	55771.08
607.843	55824.18
608.2	55964.74
608.557	56068.47
608.914	55984.4
609.272	56080.9
609.629	56143.72
609.986	56186.66
610.343	56050.39
610.7	56308.91
611.057	56230.05
611.414	56211.52
611.771	56232.08
612.127	56311.63
612.484	56285.64
612.841	56414.67
613.198	56309.14
613.554	56346.43
613.911	56548.91
614.267	56457.39
614.624	56496.25
614.98	56468.46
615.337	56655.12
615.693	56575.57
616.05	56546.2
616.406	56756.81
616.762	56665.29
617.118	56628.91
617.475	56649.47
617.831	56739.41
618.187	56686.98
618.543	56778.73
618.899	56904.61
619.255	56858.73
619.611	56839.97
619.967	56882.69
620.323	56916.36
620.678	56858.5
621.034	56743.93
621.39	56832.06
621.746	56840.43
622.101	57084.49
622.457	56836.58
622.812	56900.54
623.168	56960.88
623.523	56956.36
623.879	56980.08
624.234	56849.47
624.589	56958.16
624.945	57079.06
625.3	56937.37
625.655	56943.47
626.01	57006.98
626.365	57022.57
626.72	56960.88
627.075	56943.02
627.43	56993.42
627.785	56909.8
628.14	56941.89
628.495	56930.82
628.85	56804.27
629.205	56729.47
629.559	56857.6
629.914	56879.97
630.269	56868.9
630.623	56743.71
630.978	56707.77
631.332	56797.94
631.687	56877.49
632.041	56691.5
632.396	56734.21
632.75	56616.25
633.104	56627.78
633.459	56515.69
633.813	56461
634.167	56557.72
634.521	56515.24
634.875	56545.52
635.229	56448.35
635.583	56311.17
635.937	56357.05
636.291	56278.41
636.645	56343.94
636.999	56218.07
637.352	56325.64
637.706	56146.89
638.06	56244.51
638.413	56148.02
638.767	56143.04
639.121	56167
639.474	55937.85
639.828	55987.57
640.181	56005.19
640.534	56019.21
640.888	55901.69
641.241	55775.37
641.594	55840
641.947	55927.91
642.301	55790.51
642.654	55850.17
643.007	55830.74
643.36	55778.53
643.713	55691.98
644.066	55767.01
644.419	55590.52
644.771	55438.2
645.124	55141.71
645.477	55066.91
645.83	54979.01
646.182	54801.16
646.535	54709.63
646.888	54746.7
647.24	54551.22
647.593	54726.13
647.945	54652.46
648.298	54489.3
648.65	54480.26
649.002	54376.99
649.355	54485.91
649.707	54485.23
650.059	54645
650.411	54925.22
650.763	54931.78
651.115	55190.07
651.467	55163.63
651.819	55045.22
652.171	55000.02
652.523	54967.26
652.875	54902.62
653.227	54844.32
653.578	54894.71
653.93	54852.91
654.282	54720.93
654.633	54659.24
654.985	54743.76
655.337	54617.43
655.688	54738.11
656.039	54761.38
656.391	54504.67
656.742	54638.68
657.094	54696.98
657.445	54722.97
657.796	54655.63
658.147	54569.3
658.498	54573.37
658.849	54660.6
659.2	54529.3
659.551	54441.39
659.902	54630.54
660.253	54519.81
660.604	54559.13
660.955	54353.03
661.306	54465.57
661.656	54349.64
662.007	54354.16
662.358	54402.07
662.708	54358.46
663.059	54333.83
663.409	54198.01
663.76	54332.02
664.11	54295.18
664.461	54265.58
664.811	54329.98
665.161	54249.31
665.511	54226.03
665.862	54240.04
666.212	54392.13
666.562	54313.49
666.912	54301.96
667.262	54189.65
667.612	54266.26
667.962	54275.97
668.312	54250.89
668.662	54324.33
669.011	54136.32
669.361	54130.67
669.711	54157.79
670.06	54105.81
670.41	54021.29
670.76	53989.88
671.109	54160.5
671.459	53997.34
671.808	53966.15
672.157	54073.72
672.507	53903.33
672.856	53858.13
673.205	53847.28
673.554	53979.94
673.904	53837.12
674.253	53911.46
674.602	53862.88
674.951	53450.23
675.3	53312.61
675.649	53731.13
675.998	53757.8
676.346	53721.64
676.695	53849.77
677.044	53610.23
677.393	53692.26
677.741	53741.07
678.09	53618.36
678.438	53505.6
678.787	53583.11
679.135	53589.89
679.484	53487.07
679.832	53637.35
680.181	53345.38
680.529	53490.46
680.877	53265.38
681.225	53233.52
681.573	53492.04
681.922	53256.34
682.27	53141.09
682.618	53168.66
682.966	53066.51
683.314	53157.59
683.661	53017.93
684.009	52839.18
684.357	52736.35
684.705	52856.12
685.053	52914.65
685.4	52733.64
685.748	52559.41
686.095	52597.83
686.443	52520.31
686.79	52365.06
687.138	52513.31
687.485	52409.36
687.832	52322.58
688.18	52288.46
688.527	52184.73
688.874	52149.25
689.221	52029.93
689.568	51858.86
689.915	51947.22
690.262	51954.91
690.609	51732.31
690.956	51663.39
691.303	51610.51
691.65	51417.74
691.997	51438.99
692.344	51262.72
692.69	51168.71
693.037	51217.52
693.383	50926.68
693.73	51098.66
694.077	50895.27
694.423	50928.27
694.769	50775.95
695.116	50678.55
695.462	50694.15
695.808	50514.94
696.155	50640.82
696.501	50275.4
696.847	50241.73
697.193	50019.36
697.539	50233.59
697.885	49960.16
698.231	49909.54
698.577	49776.66
698.923	49724.23
699.269	49518.58
699.614	49309.1
699.96	49303.22
700.306	49368.98
700.651	49257.8
700.997	49139.61
701.342	49029.11
701.688	48978.94
702.033	48677.25
702.379	48708.21
702.724	48661.88
703.069	48690.58
703.415	48387.99
703.76	48314.32
704.105	48330.14
704.45	48122.69
704.795	47858.97
705.14	47733.1
705.485	47702.14
705.83	47646.54
706.175	47815.13
706.52	47476.15
706.865	47437.74
707.209	47491.75
707.554	47375.14
707.899	47362.71
708.243	47213.33
708.588	47044.98
708.932	46836.17
709.277	46893.57
709.621	46922.5
709.966	46625.1
710.31	46742.39
710.654	46254.72
710.998	46478.44
711.342	46373.81
711.687	46242.51
712.031	46021.28
712.375	45955.51
712.719	45991.45
713.063	45961.84
713.407	46037.55
713.75	45637.33
714.094	45849.08
714.438	45480.27
714.782	45620.16
715.125	45333.16
715.469	45422.42
715.812	45288.64
716.156	44946.28
716.499	45062.66
716.843	45062.88
717.186	44889.55
717.53	44872.38
717.873	44824.7
718.216	44771.82
718.559	44664.7
718.902	44505.16
719.246	44578.15
719.589	44400.75
719.932	44204.6
720.275	44276.01
720.617	44231.27
720.96	44083.47
721.303	43976.81
721.646	44041.44
721.989	43807.55
722.331	43986.53
722.674	43791.96
723.016	43940.88
723.359	43651.39
723.701	43575.24
724.044	43266.09
724.386	43365.3
724.729	43533.43
725.071	43111.07
725.413	43215.47
725.755	43251.86
726.097	43068.36
726.439	42764.86
726.782	42868.14
727.124	42925.31
727.465	42720.57
727.807	42719.44
728.149	42647.35
728.491	42564.19
728.833	42615.72
729.175	42412.78
729.516	42313.12
729.858	42334.82
730.199	42266.8
730.541	42347.7
730.882	42133.69
731.224	42089.4
731.565	41952.23
731.906	41930.99
732.248	42044.21
732.589	41728.96
732.93	41577.32
733.271	41700.94
733.612	41721.5
733.953	41648.06
734.294	41459.14
734.635	41365.35
734.976	41442.87
735.317	41219.14
735.658	41079.48
735.999	41202.42
736.339	41118.58
736.68	41174.4
737.021	41015.98
737.361	40865.48
737.702	40986.38
738.042	40772.37
738.383	40807.4
738.723	41108.18
739.063	40701.19
739.404	40697.8
739.744	40513.62
740.084	40359.96
740.424	40595.2
740.764	40330.35
741.104	40391.37
741.444	40300.07
741.784	40218.49
742.124	40135.33
742.464	40044.03
742.804	39989.34
743.143	39919.06
743.483	39966.29
743.823	39749.58
744.162	39756.13
744.502	39877.48
744.841	39606.53
745.181	39669.8
745.52	39457.83
745.86	39636.13
746.199	39600.43
746.538	39401.56
746.877	39315.24
747.216	39250.15
747.556	39059.2
747.895	39121.57
748.234	38907.56
748.573	38928.35
748.911	38827.34
749.25	38757.06
749.589	38686.1
749.928	38581.7
750.267	38605.43
750.605	38487.24
750.944	38333.34
751.283	38325.88
751.621	38408.14
751.96	38136.51
752.298	38166.34
752.636	38049.06
752.975	37824.2
