Data from plate_ceramic_FLMS001491_016.txt Node
Date: Tue Feb 07 11:16:23 GMT 2017
User: dcchb
Spectrometer: FLMS00149
Trigger mode: 0
Integration Time (sec): 2.000000E-2
Scans to average: 10
Electric dark correction enabled: true
Nonlinearity correction enabled: false
Boxcar width: 0
XAxis mode: Wavelengths
Number of Pixels in Spectrum: 2048
>>>>>Begin Spectral Data<<<<<
341.393	-27.3
341.776	-27.3
342.16	-27.3
342.543	-65.72
342.927	-68.43
343.31	-61.2
343.693	-73.63
344.077	-60.07
344.46	-47.64
344.843	-65.72
345.226	-39.05
345.61	-39.96
345.993	-28.43
346.376	-16.23
346.759	14.28
347.142	40.49
347.525	30.1
347.908	75.97
348.291	82.98
348.674	87.72
349.057	100.38
349.44	111.23
349.823	132.24
350.206	154.39
350.588	223.09
350.971	250.66
351.354	240.94
351.737	252.01
352.119	266.7
352.502	272.58
352.884	298.11
353.267	298.34
353.65	310.99
354.032	314.84
354.414	325.46
354.797	343.08
355.179	360.03
355.562	364.33
355.944	332.24
356.326	359.81
356.709	346.47
357.091	347.6
357.473	360.48
357.855	381.05
358.238	340.37
358.62	366.59
359.002	354.84
359.384	379.02
359.766	357.1
360.148	368.17
360.53	334.04
360.912	369.98
361.294	379.02
361.676	357.32
362.057	365.91
362.439	354.16
362.821	383.08
363.203	365.91
363.584	343.76
363.966	353.25
364.348	353.25
364.729	360.71
365.111	350.32
365.493	359.13
365.874	367.94
366.256	342.18
366.637	349.19
367.019	371.56
367.4	369.98
367.781	358.9
368.163	399.35
368.544	373.37
368.925	356.19
369.306	364.78
369.688	352.8
370.069	380.15
370.45	353.71
370.831	371.78
371.212	368.17
371.593	358.23
371.974	360.48
372.355	390.77
372.736	370.43
373.117	359.35
373.498	360.71
373.879	355.97
374.26	366.36
374.641	374.04
375.021	378.56
375.402	365.91
375.783	403.2
376.163	402.29
376.544	395.51
376.925	408.62
377.305	402.52
377.686	379.69
378.066	414.49
378.447	420.14
378.827	413.59
379.208	410.2
379.588	405
379.968	407.49
380.349	425.57
380.729	411.56
381.109	431.44
381.489	430.31
381.87	434.83
382.25	437.77
382.63	424.89
383.01	439.8
383.39	462.18
383.77	448.17
384.15	440.26
384.53	466.47
384.91	461.5
385.29	469.41
385.67	474.61
386.049	480.26
386.429	479.8
386.809	506.47
387.189	484.78
387.568	475.96
387.948	498.56
388.328	477.77
388.707	505.57
389.087	492.68
389.466	507.37
389.846	516.64
390.225	531.1
390.605	495.62
390.984	553.02
391.363	525.45
391.743	531.78
392.122	537.43
392.501	555.28
392.881	563.64
393.26	579.01
393.639	571.78
394.018	585.11
394.397	553.7
394.776	586.92
395.155	585.79
395.534	572.91
395.913	578.11
396.292	601.61
396.671	626.92
397.05	633.25
397.429	616.3
397.808	620.59
398.186	626.47
398.565	629.86
398.944	615.85
399.323	630.53
399.701	633.25
400.08	656.07
400.458	684.77
400.837	687.26
401.215	690.19
401.594	675.05
401.972	684.77
402.351	670.31
402.729	713.02
403.107	717.31
403.486	710.98
403.864	710.98
404.242	696.07
404.62	718.44
404.999	747.14
405.377	752.79
405.755	736.75
406.133	756.41
406.511	770.87
406.889	787.59
407.267	794.15
407.645	797.99
408.023	829.4
408.401	814.71
408.779	811.55
409.156	823.98
409.534	859.68
409.912	858.78
410.29	883.63
410.667	882.05
411.045	900.58
411.422	917.76
411.8	926.8
412.178	899
412.555	950.75
412.933	954.14
413.31	950.3
413.687	974.03
414.065	944.2
414.442	1003.86
414.819	1021.26
415.197	1025.1
415.574	1026.91
415.951	1043.86
416.328	1029.62
416.705	1065.78
417.082	1066.46
417.46	1105.32
417.837	1100.13
418.214	1114.14
418.591	1105.32
418.967	1129.5
419.344	1124.08
419.721	1135.83
420.098	1178.99
420.475	1183.74
420.852	1192.1
421.228	1199.11
421.605	1228.03
421.982	1235.26
422.358	1217.86
422.735	1271.42
423.111	1247.47
423.488	1272.55
423.864	1277.97
424.241	1286.11
424.617	1295.15
424.994	1330.4
425.37	1339.89
425.746	1355.94
426.123	1368.37
426.499	1344.64
426.875	1390.51
427.251	1409.04
427.627	1452.43
428.003	1442.72
428.379	1472.55
428.756	1489.95
429.132	1501.92
429.507	1532.66
429.883	1574.92
430.259	1581.92
430.635	1572.88
431.011	1602.94
431.387	1654.01
431.763	1673.9
432.138	1673.67
432.514	1727.45
432.89	1711.41
433.265	1733.1
433.641	1760.67
434.016	1808.36
434.392	1816.27
434.767	1825.53
435.143	1815.59
435.518	1863.27
435.894	1878.86
436.269	1897.39
436.644	1928.13
437.02	1933.78
437.395	1956.38
437.77	1972.19
438.145	2020.55
438.52	2015.58
438.895	2045.86
439.271	2066.65
439.646	2123.83
440.021	2140.55
440.395	2126.54
440.77	2112.08
441.145	2141.68
441.52	2221.45
441.895	2215.58
442.27	2179.42
442.645	2200.89
443.019	2261.68
443.394	2263.26
443.769	2289.93
444.143	2271.4
444.518	2322.02
444.892	2312.75
445.267	2353.43
445.641	2372.41
446.016	2439.3
446.39	2397.49
446.764	2436.81
447.139	2399.75
447.513	2444.5
447.887	2462.8
448.262	2470.94
448.636	2459.19
449.01	2520.43
449.384	2567.66
449.758	2580.09
450.132	2608.11
450.506	2597.49
450.88	2627.32
451.254	2624.38
451.628	2661.22
452.002	2725.62
452.376	2722.68
452.75	2751.38
453.123	2777.37
453.497	2839.74
453.871	2823.47
454.244	2901.89
454.618	2940.98
454.992	2984.37
455.365	2964.03
455.739	3032.96
456.112	3072.5
456.486	3111.37
456.859	3096.91
457.232	3188.66
457.606	3179.85
457.979	3220.3
458.352	3311.82
458.725	3366.96
459.099	3338.26
459.472	3432.04
459.845	3429.33
460.218	3477.47
460.591	3528.54
460.964	3514.07
461.337	3632.49
461.71	3693.28
462.083	3734.63
462.456	3712.04
462.829	3718.14
463.201	3808.08
463.574	3841.75
463.947	3892.82
464.32	4034.96
464.692	4020.5
465.065	4048.3
465.438	4125.81
465.81	4180.72
466.183	4232.02
466.555	4312.7
466.928	4326.48
467.3	4363.09
467.672	4440.83
468.045	4538
468.417	4580.94
468.789	4587.94
469.161	4683.76
469.534	4771.67
469.906	4855.96
470.278	4933.47
470.65	4874.72
471.022	5014.37
471.394	5129.85
471.766	5179.34
472.138	5224.31
472.51	5322.61
472.882	5394.7
473.253	5518.77
473.625	5584.75
473.997	5691.19
474.369	5717.41
474.74	5811.41
475.112	5867.01
475.484	5956.27
475.855	6061.35
476.227	6161.46
476.598	6311.97
476.97	6359.65
477.341	6544.96
477.713	6628.34
478.084	6659.53
478.455	6852.74
478.827	6941.1
479.198	7080.53
479.569	7104.49
479.94	7318.49
480.311	7393.29
480.682	7565.04
481.053	7723.23
481.424	7862.89
481.795	7917.8
482.166	8047.97
482.537	8160.73
482.908	8324.34
483.279	8371.12
483.65	8530.44
484.021	8739.47
484.391	8841.84
484.762	8908.96
485.133	8998.45
485.503	9131.55
485.874	9353.24
486.244	9434.37
486.615	9651.99
486.985	9702.16
487.356	9943.74
487.726	10084.07
488.097	10182.6
488.467	10268.47
488.837	10466.43
489.207	10671.85
489.578	10867.33
489.948	10864.39
490.318	11005.85
490.688	11125.4
491.058	11215.57
491.428	11417.82
491.798	11519.97
492.168	11790.92
492.538	11792.73
492.908	11916.11
493.278	12005.38
493.648	12111.14
494.017	12278.82
494.387	12313.84
494.757	12537.57
495.126	12662.99
495.496	12756.54
495.866	12789.99
496.235	12953.15
496.605	13138.68
496.974	13178.68
497.344	13263.87
497.713	13384.32
498.082	13432.91
498.452	13610.31
498.821	13726.01
499.19	13763.07
499.559	13919.22
499.928	14033.35
500.298	14126.45
500.667	14294.36
501.036	14193.12
501.405	14431.3
501.774	14422.71
502.143	14630.62
502.512	14660.9
502.88	14790.61
503.249	14796.72
503.618	14976.37
503.987	15105.18
504.356	15164.62
504.724	15341.11
505.093	15370.71
505.462	15407.09
505.83	15535.45
506.199	15661.1
506.567	15989.68
506.936	15918.49
507.304	16117.13
507.672	16234.64
508.041	16277.35
508.409	16414.3
508.777	16516.44
509.145	16671.24
509.514	16718.25
509.882	16878.92
510.25	16910.11
510.618	17072.81
510.986	17128.41
511.354	17352.35
511.722	17490.43
512.09	17668.05
512.458	17646.36
512.826	17849.29
513.193	17946.69
513.561	18037.99
513.929	18254.7
514.297	18390.52
514.664	18513.68
515.032	18600.68
515.4	18805.65
515.767	18903.27
516.135	19021.69
516.502	19026.43
516.869	19208.58
517.237	19361.34
517.604	19354.11
517.972	19416.26
518.339	19702.58
518.706	19825.06
519.073	19944.15
519.44	20014.43
519.808	20373.52
520.175	20380.3
520.542	20644.02
520.909	20788.87
521.276	20739.84
521.643	20967.63
522.009	21145.02
522.376	21265.7
522.743	21443.09
523.11	21631.56
523.477	21908.17
523.843	22077.88
524.21	22243.98
524.577	22449.62
524.943	22540.01
525.31	22629.96
525.676	22919.44
526.043	23059.32
526.409	23162.6
526.776	23465.87
527.142	23455.92
527.508	23750.15
527.874	23818.17
528.241	24004.16
528.607	24062.91
528.973	24354.43
529.339	24385.84
529.705	24690.24
530.071	24793.74
530.437	24954.87
530.803	25181.53
531.169	25300.17
531.535	25318.25
531.901	25334.07
532.267	25562.08
532.632	25654.28
532.998	25809.99
533.364	26022.63
533.73	26165.23
534.095	26386.02
534.461	26508.72
534.826	26639.12
535.192	26708.94
535.557	27007.02
535.923	26897.41
536.288	27108.26
536.653	27226.22
537.019	27033.46
537.384	27262.15
537.749	27401.58
538.114	27461.24
538.479	27552.99
538.845	27752.76
539.21	27729.93
539.575	27972.41
539.94	28011.51
540.305	28246.53
540.67	28110.49
541.034	28338.96
541.399	28418.05
541.764	28540.31
542.129	28652.85
542.494	28733.75
542.858	28805.61
543.223	28918.6
543.587	29049.22
543.952	29132.84
544.316	29234.98
544.681	29366.73
545.045	29493.73
545.41	29606.04
545.774	29670.45
546.138	29733.95
546.503	29842.87
546.867	29969.65
547.231	30203.99
547.595	30269.75
547.959	30246.93
548.324	30342.52
548.688	30478.79
549.052	30569.63
549.416	30669.07
549.779	30791.32
550.143	30802.85
550.507	31148.15
550.871	31304.76
551.235	31247.81
551.599	31508.59
551.962	31486.9
552.326	31686.67
552.689	31812.09
553.053	31745.2
553.417	31911.75
553.78	32267.44
554.143	32145.64
554.507	32322.13
554.87	32508.34
555.234	32897.03
555.597	32772.06
555.96	33000.76
556.323	33181.54
556.686	33142.67
557.05	33310.58
557.413	33516.9
557.776	33562.1
558.139	33824.01
558.502	33955.08
558.865	34087.51
559.228	34215.19
559.59	34372.02
559.953	34393.94
560.316	34783.53
560.679	34785.57
561.041	35041.83
561.404	35307.81
561.767	35336.51
562.129	35331.77
562.492	35783.28
562.854	35710.52
563.217	35787.12
563.579	36025.31
563.941	36207.9
564.304	36357.5
564.666	36570.15
565.028	36679.76
565.39	36898.73
565.753	37083.14
566.115	37130.59
566.477	37277.25
566.839	37315.67
567.201	37860.74
567.563	37677.24
567.925	37922.89
568.287	37907.75
568.648	38020.06
569.01	38256.21
569.372	38528.07
569.734	38374.4
570.095	38814.39
570.457	38963.31
570.819	39009.19
571.18	39046.25
571.542	39176.41
571.903	39364.88
572.265	39467.71
572.626	39590.41
572.987	39614.14
573.349	39669.51
573.71	39857.3
574.071	39923.06
574.432	40052.77
574.794	40242.15
575.155	40287.8
575.516	40258.19
575.877	40537.28
576.238	40547.45
576.599	40594.68
576.96	40752.42
577.32	40776.37
577.681	40937.5
578.042	40995.35
578.403	41057.72
578.763	41185.4
579.124	41254.32
579.485	41320.09
579.845	41414.77
580.206	41366.19
580.566	41434.66
580.927	41554.66
581.287	41669.46
581.648	41645.95
582.008	41720.08
582.368	41628.55
582.728	41709.23
583.089	41667.87
583.449	41572.28
583.809	41693.64
584.169	41755.78
584.529	41713.75
584.889	42038.03
585.249	41607.08
585.609	41707.42
585.969	41840.3
586.329	41871.48
586.688	42045.49
587.048	41904.25
587.408	41951.03
587.768	41986.73
588.127	41894.53
588.487	41934.31
588.846	42220.85
589.206	41894.76
589.565	41857.02
589.925	42165.49
590.284	42077.58
590.643	42109.44
591.003	42332.94
591.362	42254.75
591.721	42046.39
592.08	42130.01
592.44	42430.34
592.799	42389.66
593.158	42394.18
593.517	42333.62
593.876	42341.08
594.235	42216.56
594.593	42435.31
594.952	42478.93
595.311	42353.05
595.67	42421.3
596.029	42638.02
596.387	42569.54
596.746	42695.19
597.104	42362.77
597.463	42593.05
597.822	42671.01
598.18	42545.82
598.538	42564.35
598.897	42751.01
599.255	42572.26
599.613	43108.51
599.972	42874.62
600.33	42895.19
600.688	42669.65
601.046	42972.02
601.404	43084.79
601.762	42969.31
602.12	43242.07
602.478	43187.38
602.836	43216.31
603.194	42873.27
603.552	43016.99
603.91	42988.06
604.268	43229.87
604.625	43186.48
604.983	43361.39
605.341	43239.81
605.698	43446.13
606.056	43517.32
606.413	43385.12
606.771	43547.15
607.128	43566.81
607.485	43381.73
607.843	43471.44
608.2	43660.36
608.557	43850.87
608.914	43593.47
609.272	43895.39
609.629	43816.97
609.986	44012.9
610.343	43840.02
610.7	44136.73
611.057	44051.99
611.414	44122.95
611.771	44051.54
612.127	44305.09
612.484	44172.67
612.841	44250.4
613.198	44329.95
613.554	44298.99
613.911	44506.67
614.267	44428.25
614.624	44506.89
614.98	44606.78
615.337	44834.12
615.693	44753.22
616.05	44625.99
616.406	44808.13
616.762	44696.49
617.118	44621.47
617.475	44861.01
617.831	44877.73
618.187	44910.05
618.543	44900.56
618.899	45057.39
619.255	44978.07
619.611	44855.81
619.967	45131.74
620.323	45339.64
620.678	45056.71
621.034	45082.02
621.39	45014
621.746	44912.08
622.101	45600.2
622.457	45112.3
622.812	45242.24
623.168	45323.37
623.523	45237.5
623.879	45380.09
624.234	45076.82
624.589	45366.99
624.945	45261.9
625.3	45309.36
625.655	45125.86
626.01	45175.8
626.365	45355.69
626.72	45267.55
627.075	45310.94
627.43	45242.47
627.785	45098.07
628.14	45107.78
628.495	45235.92
628.85	45190.49
629.205	44962.93
629.559	45254.67
629.914	44986.43
630.269	44987.79
630.623	44993.21
630.978	44892.87
631.332	45025.53
631.687	45006.09
632.041	44845.87
632.396	44843.16
632.75	44631.64
633.104	44709.83
633.459	44516.84
633.813	44544.41
634.167	44535.82
634.521	44595.93
634.875	44609.26
635.229	44469.83
635.583	44326.33
635.937	44313.91
636.291	44339.67
636.645	44296.73
636.999	44209.05
637.352	44340.12
637.706	44064.42
638.06	44294.24
638.413	44038.21
638.767	44037.98
639.121	44001.6
639.474	43788.72
639.828	43787.14
640.181	43869.62
640.534	43891.32
640.888	43754.15
641.241	43614.94
641.594	43618.56
641.947	43802.51
642.301	43703.98
642.654	43606.58
643.007	43592.34
643.36	43485
643.713	43548.73
644.066	43469.86
644.419	43367.94
644.771	43151.22
645.124	42545.14
645.477	42583.1
645.83	42320.29
646.182	41991.48
646.535	41967.75
646.888	42066.28
647.24	41973.4
647.593	42344.92
647.945	42057.47
648.298	41876.23
648.65	41830.58
649.002	41683.01
649.355	41878.72
649.707	41621.77
650.059	41991.48
650.411	42357.35
650.763	42339.49
651.115	42781.29
651.467	42466.95
651.819	42443.45
652.171	42462.43
652.523	42376.33
652.875	42310.12
653.227	42123.23
653.578	42483.9
653.93	42290.23
654.282	42173.85
654.633	42099.5
654.985	42174.53
655.337	42269.21
655.688	42239.38
656.039	42203
656.391	41881.2
656.742	41995.32
657.094	41935.66
657.445	41986.96
657.796	42017.92
658.147	41848.21
658.498	41843.24
658.849	42013.85
659.2	41884.14
659.551	41703.58
659.902	41827.64
660.253	41847.53
660.604	41718.95
660.955	41594.43
661.306	41882.1
661.656	41678.72
662.007	41584.71
662.358	41634.65
662.708	41524.6
663.059	41482.12
663.409	41226.08
663.76	41506.07
664.11	41481.89
664.461	41412.51
664.811	41387.43
665.161	41459.97
665.511	41421.1
665.862	41508.1
666.212	41542.68
666.562	41653.41
666.912	41404.6
667.262	41409.35
667.612	41440.99
667.962	41568.44
668.312	41252.07
668.662	41408.9
669.011	41387.88
669.361	41302.69
669.711	41312.4
670.06	41325.06
670.41	41359.63
670.76	41086.19
671.109	41169.81
671.459	41083.03
671.808	41189.02
672.157	41217.04
672.507	41004.61
672.856	41077.38
673.205	41035.57
673.554	41081.22
673.904	40795.13
674.253	41049.58
674.602	40906.76
674.951	40349.94
675.3	40341.35
675.649	40903.37
675.998	40777.5
676.346	40834
676.695	40912.41
677.044	40484.63
677.393	40823.38
677.741	40714.68
678.09	40709.71
678.438	40581.12
678.787	40651.63
679.135	40652.76
679.484	40539.99
679.832	40544.51
680.181	40236.72
680.529	40441.24
680.877	40347
681.225	40126.44
681.573	40451.41
681.922	40117.18
682.27	40198.99
682.618	40187.69
682.966	40039.89
683.314	40033.34
683.661	39787.7
684.009	39693.69
684.357	39734.82
684.705	39490.3
685.053	39623.41
685.4	39638.32
685.748	39453.24
686.095	39344.77
686.443	39200.37
686.79	39154.04
687.138	39150.43
687.485	39229.97
687.832	39035.4
688.18	39025
688.527	38995.4
688.874	38843.09
689.221	38742.53
689.568	38495.3
689.915	38314.52
690.262	38476.32
690.609	38430.44
690.956	38352.03
691.303	38237.46
691.65	38139.38
691.997	37990.91
692.344	37897.13
692.69	37826.39
693.037	38052.38
693.383	37749.78
693.73	37746.85
694.077	37542.33
694.423	37507.98
694.769	37535.1
695.116	37415.56
695.462	37336.01
695.808	37192.74
696.155	37174.88
696.501	36828.45
696.847	36903.7
697.193	36613.77
697.539	36861.45
697.885	36430.5
698.231	36443.83
698.577	36533.09
698.923	36438.41
699.269	36158.41
699.614	35952.32
699.96	35880.91
700.306	36149.6
700.651	35866.9
700.997	35809.95
701.342	35706
701.688	35531.31
702.033	35410.86
702.379	35422.84
702.724	35336.51
703.069	35426
703.415	35035.51
703.76	34995.28
704.105	34910.99
704.45	34812.69
704.795	34683.42
705.14	34445.01
705.485	34562.98
705.83	34394.84
706.175	34552.35
706.52	34429.42
706.865	34240.5
707.209	34250.22
707.554	34105.81
707.899	34229.65
708.243	34048.19
708.588	33994.85
708.932	33712.6
709.277	33560.74
709.621	33728.2
709.966	33551.7
710.31	33627.41
710.654	33302.67
710.998	33405.04
711.342	33483.23
711.687	33134.54
712.031	33152.39
712.375	33132.5
712.719	33137.02
713.063	32965.05
713.407	33130.92
713.75	32766.19
714.094	32885.96
714.438	32673.99
714.782	32791.5
715.125	32709.01
715.469	32707.2
715.812	32542.69
716.156	32431.28
716.499	32325.75
716.843	32302.92
717.186	32130.95
717.53	32313.54
717.873	32228.35
718.216	32181.8
718.559	32139.76
718.902	31883.27
719.246	31989.48
719.589	31778.42
719.932	31724.18
720.275	31644.86
720.617	31629.95
720.96	31697.74
721.303	31606.89
721.646	31570.51
721.989	31358.99
722.331	31395.6
722.674	31396.28
723.016	31297.3
723.359	31319.44
723.701	31193.8
724.044	31014.14
724.386	30924.88
724.729	31089.39
725.071	30915.16
725.413	30942.28
725.755	30816.86
726.097	30882.39
726.439	30627.94
726.782	30687.15
727.124	30740.48
727.465	30705.45
727.807	30586.81
728.149	30552.01
728.491	30523.08
728.833	30517.88
729.175	30324.22
729.516	30235.63
729.858	30268.17
730.199	30251.9
730.541	30134.84
730.882	30205.35
731.224	30311.79
731.565	30167.38
731.906	30001.74
732.248	30055.52
732.589	29845.81
732.93	29767.4
733.271	29712.03
733.612	29860.5
733.953	29747.51
734.294	29696.66
734.635	29580.96
734.976	29657.12
735.317	29582.77
735.658	29562.88
735.999	29516.55
736.339	29373.28
736.68	29536.21
737.021	29374.41
737.361	29187.07
737.702	29344.13
738.042	29327.86
738.383	29112.72
738.723	29183
739.063	29129.45
739.404	28998.6
739.744	29032.27
740.084	28980.52
740.424	28944.37
740.764	29084.25
741.104	28920.41
741.444	28742.11
741.784	28719.06
742.124	28725.16
742.464	28568.56
742.804	28652.17
743.143	28698.72
743.483	28656.24
743.823	28437.26
744.162	28418.96
744.502	28393.87
744.841	28193.88
745.181	28370.6
745.52	28262.58
745.86	28213.54
746.199	28158.4
746.538	28032.07
746.877	28122.24
747.216	28093.31
747.556	27887.22
747.895	28008.12
748.234	27776.71
748.573	27842.7
748.911	27834.34
749.25	27768.58
749.589	27690.39
749.928	27702.14
750.267	27667.79
750.605	27544.18
750.944	27433.22
751.283	27575.36
751.621	27544.4
751.96	27352.54
752.298	27261.7
752.636	27230.29
752.975	27109.84
753.313	27108.48
753.651	27125.66
753.989	26912.1
