Data from plate_porcelain_FLMS001491_091.txt Node
Date: Tue Feb 07 11:20:12 GMT 2017
User: dcchb
Spectrometer: FLMS00149
Trigger mode: 0
Integration Time (sec): 2.000000E-2
Scans to average: 10
Electric dark correction enabled: true
Nonlinearity correction enabled: false
Boxcar width: 0
XAxis mode: Wavelengths
Number of Pixels in Spectrum: 2048
>>>>>Begin Spectral Data<<<<<
341.393	-22.74
341.776	-22.74
342.16	-22.74
342.543	-35.39
342.927	-64.32
343.31	-68.84
343.693	-67.26
344.077	-72
344.46	-34.72
344.843	-71.33
345.226	-29.74
345.61	-29.97
345.993	-8.95
346.376	-9.86
346.759	4.38
347.142	30.82
347.525	41.44
347.908	50.7
348.291	57.26
348.674	74.66
349.057	133.41
349.44	131.61
349.823	154.43
350.206	181.77
350.588	219.74
350.971	232.85
351.354	256.8
351.737	273.07
352.119	275.11
352.502	304.26
352.884	321.66
353.267	310.13
353.65	334.77
354.032	341.09
354.414	349
354.797	354.88
355.179	342.67
355.562	354.88
355.944	367.31
356.326	377.7
356.709	385.84
357.091	395.33
357.473	403.24
357.855	389.91
358.238	374.09
358.62	383.8
359.002	384.26
359.384	412.96
359.766	406.85
360.148	378.38
360.53	393.52
360.912	386.52
361.294	395.33
361.676	417.93
362.057	407.08
362.439	402.33
362.821	383.35
363.203	396.23
363.584	415.67
363.966	391.03
364.348	382.67
364.729	412.5
365.111	392.16
365.493	385.61
365.874	402.56
366.256	390.13
366.637	390.58
367.019	408.21
367.4	412.96
367.781	411.83
368.163	414.99
368.544	407.31
368.925	417.7
369.306	406.4
369.688	410.7
370.069	406.85
370.45	427.87
370.831	409.34
371.212	412.96
371.593	417.25
371.974	420.64
372.355	408.21
372.736	433.52
373.117	417.25
373.498	420.19
373.879	436.46
374.26	437.59
374.641	411.6
375.021	442.11
375.402	439.17
375.783	447.76
376.163	463.8
376.544	484.14
376.925	449.56
377.305	452.05
377.686	442.56
378.066	453.63
378.447	484.59
378.827	511.03
379.208	490.92
379.588	470.81
379.968	476.23
380.349	498.6
380.729	499.73
381.109	494.08
381.489	515.1
381.87	511.48
382.25	527.75
382.63	538.38
383.01	526.62
383.39	525.04
383.77	535.44
384.15	536.57
384.53	544.25
384.91	572.95
385.29	552.39
385.67	562.33
386.049	581.76
386.429	581.76
386.809	594.87
387.189	590.13
387.568	607.3
387.948	613.63
388.328	616.57
388.707	617.92
389.087	607.98
389.466	632.61
389.846	630.8
390.225	655.43
390.605	644.81
390.984	643.46
391.363	675.55
391.743	673.51
392.122	666.96
392.501	693.4
392.881	693.63
393.26	735.88
393.639	707.41
394.018	731.36
394.397	728.88
394.776	730.46
395.155	744.47
395.534	776.34
395.913	776.79
396.292	790.8
396.671	775.43
397.05	790.35
397.429	786.28
397.808	805.71
398.186	801.19
398.565	837.12
398.944	818.59
399.323	803.68
399.701	842.32
400.08	821.98
400.458	867.41
400.837	885.71
401.215	885.71
401.594	877.12
401.972	885.94
402.351	926.39
402.729	932.72
403.107	944.69
403.486	925.26
403.864	970.45
404.242	973.39
404.62	972.49
404.999	991.25
405.377	993.96
405.755	1007.52
406.133	1020.17
406.511	1024.24
406.889	1066.95
407.267	1068.76
407.645	1083.67
408.023	1092.26
408.401	1105.82
408.779	1134.07
409.156	1143.56
409.534	1153.95
409.912	1167.74
410.29	1182.2
410.667	1210.9
411.045	1222.2
411.422	1260.16
411.8	1260.84
412.178	1271.69
412.555	1281.63
412.933	1292.03
413.31	1329.77
413.687	1334.51
414.065	1329.09
414.442	1377.68
414.819	1410.67
415.197	1431.23
415.574	1454.28
415.951	1475.07
416.328	1481.63
416.705	1466.26
417.082	1461.97
417.46	1522.53
417.837	1522.98
418.214	1536.99
418.591	1519.82
418.967	1554.85
419.344	1585.35
419.721	1633.26
420.098	1620.61
420.475	1646.82
420.852	1660.38
421.228	1699.93
421.605	1697.44
421.982	1734.28
422.358	1747.84
422.735	1775.41
423.111	1774.73
423.488	1834.16
423.864	1799.59
424.241	1843.43
424.617	1848.85
424.994	1861.5
425.37	1907.83
425.746	1910.77
426.123	1935.63
426.499	1939.92
426.875	2000.03
427.251	2012.46
427.627	2084.55
428.003	2056.53
428.379	2087.49
428.756	2166.81
429.132	2196.19
429.507	2205.9
429.883	2230.99
430.259	2290.87
430.635	2284.77
431.011	2291.32
431.387	2364.99
431.763	2414.94
432.138	2403.86
432.514	2476.86
432.89	2492.45
433.265	2526.12
433.641	2540.81
434.016	2604.76
434.392	2640.92
434.767	2689.28
435.143	2693.57
435.518	2722.73
435.894	2739.45
436.269	2798.66
436.644	2823.97
437.02	2881.82
437.395	2886.34
437.77	2906.22
438.145	2956.39
438.52	2981.02
438.895	3004.07
439.271	2995.49
439.646	3092.88
440.021	3096.5
440.395	3111.87
440.77	3122.49
441.145	3169.94
441.52	3246.78
441.895	3235.03
442.27	3258.08
442.645	3260.56
443.019	3329.49
443.394	3332.65
443.769	3380.79
444.143	3389.37
444.518	3490.39
444.892	3420.11
445.267	3497.85
445.641	3487.9
446.016	3532.65
446.39	3585.98
446.764	3612.87
447.139	3559.99
447.513	3660.33
447.887	3674.79
448.262	3665.75
448.636	3702.81
449.01	3789.14
449.384	3812.64
449.758	3807.67
450.132	3883.37
450.506	3929.47
450.88	3931.96
451.254	3940.32
451.628	4006.31
452.002	4095.8
452.376	4063.48
452.75	4126.53
453.123	4155.46
453.497	4220.09
453.871	4302.57
454.244	4337.6
454.618	4419.4
454.992	4473.41
455.365	4467.54
455.739	4568.78
456.112	4625.95
456.486	4686.52
456.859	4734.88
457.232	4774.2
457.606	4790.92
457.979	4880.41
458.352	4991.82
458.725	5027.07
459.099	5078.37
459.472	5158.37
459.845	5285.37
460.218	5283.79
460.591	5384.58
460.964	5373.05
461.337	5516.78
461.71	5520.62
462.083	5699.14
462.456	5698.01
462.829	5708.41
463.201	5869.31
463.574	5829.76
463.947	5936.43
464.32	6136.65
464.692	6141.62
465.065	6159.7
465.438	6251.22
465.81	6349.3
466.183	6414.83
466.555	6608.95
466.928	6584.09
467.3	6663.86
467.672	6777.53
468.045	6955.61
468.417	6994.48
468.789	7007.58
469.161	7043.52
469.534	7241.25
469.906	7398.31
470.278	7407.12
470.65	7566.44
471.022	7624.97
471.394	7838.75
471.766	7871.74
472.138	8005.98
472.51	8280.77
472.882	8367.77
473.253	8413.87
473.625	8550.59
473.997	8802.34
474.369	8835.78
474.74	8906.29
475.112	9171.14
475.484	9212.05
475.855	9447.97
476.227	9471.02
476.598	9756.89
476.97	9880.5
477.341	10050.67
477.713	10157.56
478.084	10234.62
478.455	10569.98
478.827	10692.46
479.198	10975.84
479.569	10974.71
479.94	11377.64
480.311	11501.25
480.682	11734.47
481.053	11874.8
481.424	12128.81
481.795	12310.72
482.166	12506.2
482.537	12642.24
482.908	12978.73
483.279	13065.05
483.65	13322.45
484.021	13646.05
484.391	13745.49
484.762	13948.42
485.133	14055.76
485.503	14192.93
485.874	14537.33
486.244	14697.78
486.615	14989.07
486.985	15170.53
487.356	15547.25
487.726	15493.24
488.097	15859.55
488.467	15915.82
488.837	16269.94
489.207	16571.4
489.578	16743.37
489.948	16841.68
490.318	17149.92
490.688	17254.77
491.058	17610.02
491.428	17796.45
491.798	17909.22
492.168	18295.87
492.538	18350.11
492.908	18614.28
493.278	18879.36
493.648	18950.55
494.017	19190.99
494.387	19399.12
494.757	19598.44
495.126	19712.11
495.496	19914.82
495.866	20098.31
496.235	20288.59
496.605	20458.98
496.974	20560.67
497.344	20732.65
497.713	20926.99
498.082	21095.58
498.452	21301.22
498.821	21480.42
499.19	21513.64
499.559	21739.85
499.928	21874.31
500.298	22081.54
500.667	22318.14
501.036	22230.01
501.405	22539.61
501.774	22586.84
502.143	22816.21
502.512	22918.35
502.88	23181.62
503.249	23232.92
503.618	23405.12
503.987	23518.11
504.356	23618.67
504.724	23812.34
505.093	23940.7
505.462	24123.52
505.83	24363.51
506.199	24486.9
506.567	24804.4
506.936	24768.93
507.304	25110.38
507.672	25281.91
508.041	25373.2
508.409	25550.83
508.777	25812.06
509.145	26032.85
509.514	26111.26
509.882	26351.71
510.25	26359.62
510.618	26464.47
510.986	26664.69
511.354	27096.32
511.722	27200.27
512.09	27345.58
512.458	27469.42
512.826	27836.19
513.193	27905.79
513.561	28060.82
513.929	28294.26
514.297	28467.81
514.664	28806.78
515.032	28836.84
515.4	29229.37
515.767	29312.99
516.135	29484.51
516.502	29389.37
516.869	29857.83
517.237	30025.28
517.604	30186.41
517.972	30514.54
518.339	30668.2
518.706	30747.98
519.073	30994.75
519.44	31175.31
519.808	31533.27
520.175	31712.92
520.542	32086.25
520.909	32219.35
521.276	32273.36
521.643	32695.04
522.009	32964.87
522.376	33165.09
522.743	33299.77
523.11	33704.28
523.477	33996.48
523.843	34271.73
524.21	34581.77
524.577	34792.39
524.943	34886.17
525.31	35157.8
525.676	35530.22
526.043	35665.59
526.409	35918.01
526.776	36332.46
527.142	36405.23
527.508	36755.28
527.874	36954.82
528.241	37009.28
528.607	37303.28
528.973	37607.23
529.339	37711.18
529.705	37966.09
530.071	38456.25
530.437	38655.79
530.803	38614.66
531.169	39092.39
531.535	39074.54
531.901	39257.13
532.267	39525.15
532.632	39598.14
532.998	39855.53
533.364	40139.82
533.73	40291.23
534.095	40627.04
534.461	40685.57
534.826	40925.56
535.192	41057.31
535.557	41353.35
535.923	41306.12
536.288	41367.36
536.653	41688.25
537.019	41775.03
537.384	41816.39
537.749	41954.91
538.114	42070.17
538.479	42271.06
538.845	42601
539.21	42579.53
539.575	42704.27
539.94	42978.16
540.305	43111.49
540.67	43099.74
541.034	43359.4
541.399	43476.46
541.764	43552.16
542.129	43698.82
542.494	43967.52
542.858	43960.28
543.223	44242.99
543.587	44445.7
543.952	44481.18
544.316	44685.92
544.681	44622.64
545.045	44853.82
545.41	44989.41
545.774	45208.84
546.138	45154.6
546.503	45468.27
546.867	45442.28
547.231	45809.05
547.595	45889.27
547.959	45873
548.324	45937.41
548.688	46034.58
549.052	46270.73
549.416	46423.95
549.779	46533.1
550.143	46661.91
550.507	46912.07
550.871	47090.37
551.235	47169.47
551.599	47486.75
551.962	47651.49
552.326	47511.15
552.689	47790.24
553.053	47799.73
553.417	47845.38
553.78	48326.5
554.143	48225.48
554.507	48451.92
554.87	48569.43
555.234	49000.38
555.597	48780.95
555.96	48969.64
556.323	49250.77
556.686	49087.83
557.05	49460.03
557.413	49591.32
557.776	49736.63
558.139	49898.66
558.502	50018.66
558.865	50175.04
559.228	50380.23
559.59	50488.47
559.953	50600.56
560.316	50739.09
560.679	50851.4
561.041	51108.35
561.404	51343.14
561.767	51503.14
562.129	51394.44
562.492	51808.89
562.854	51838.04
563.217	51830.36
563.579	51916.91
563.941	52211.82
564.304	52345.38
564.666	52501.76
565.028	52572.26
565.39	52748.3
565.753	52871.24
566.115	52982.87
566.477	53025.81
566.839	53145.81
567.201	53392.35
567.563	53402.75
567.925	53627.38
568.287	53664.66
568.648	53777.2
569.01	53913.92
569.372	54027.82
569.734	54008.16
570.095	54241.82
570.457	54320.24
570.819	54308.26
571.18	54413.34
571.542	54575.37
571.903	54622.38
572.265	54748.25
572.626	54803.16
572.987	54848.13
573.349	54991.86
573.71	55064.63
574.071	55058.3
574.432	55189.14
574.794	55362.02
575.155	55371.74
575.516	55298.52
575.877	55535.12
576.238	55549.13
576.599	55620.54
576.96	55574.22
577.32	55682.91
577.681	55736.47
578.042	55902.12
578.403	55863.02
578.763	55874.32
579.124	55857.83
579.485	56042.68
579.845	56098.5
580.206	56035.22
580.566	56174.88
580.927	56193.18
581.287	56205.16
581.648	56129.46
582.008	56289.23
582.368	56227.08
582.728	56273.41
583.089	56221.21
583.449	56210.13
583.809	56251.26
584.169	56324.25
584.529	56314.31
584.889	56460.3
585.249	56277.48
585.609	56255.1
585.969	56325.61
586.329	56304.37
586.688	56397.7
587.048	56372.84
587.408	56322.9
587.768	56331.26
588.127	56373.07
588.487	56363.57
588.846	56491.03
589.206	56424.82
589.565	56430.47
589.925	56528.09
590.284	56499.16
590.643	56419.17
591.003	56561.54
591.362	56548.43
591.721	56497.58
592.08	56585.26
592.44	56637.01
592.799	56636.11
593.158	56551.14
593.517	56584.36
593.876	56637.69
594.235	56516.79
594.593	56646.05
594.952	56630.23
595.311	56532.84
595.67	56599.73
596.029	56786.61
596.387	56791.36
596.746	56794.75
597.104	56676.79
597.463	56754.3
597.822	56839.72
598.18	56738.71
598.538	56773.73
598.897	56957.68
599.255	56698.71
599.613	57056.89
599.972	56842.66
600.33	56994.29
600.688	56882.43
601.046	57032.94
601.404	57061.86
601.762	57004.46
602.12	57095.08
602.478	57143.22
602.836	57114.29
603.194	57063.22
603.552	57066.38
603.91	56993.84
604.268	57116.78
604.625	57098.02
604.983	57221.63
605.341	57105.02
605.698	57249.43
606.056	57315.19
606.413	57307.05
606.771	57304.34
607.128	57352.48
607.485	57221.86
607.843	57227.28
608.2	57464.34
608.557	57527.16
608.914	57455.3
609.272	57580.27
609.629	57558.8
609.986	57645.35
610.343	57529.87
610.7	57671.79
611.057	57699.13
611.414	57707.04
611.771	57753.82
612.127	57818
612.484	57748.62
612.841	57869.3
613.198	57760.83
613.554	57790.66
613.911	57982.29
614.267	58014.38
614.624	57875.85
614.98	57983.42
615.337	58186.35
615.693	58016.86
616.05	58044.43
616.406	58123.53
616.762	58090.53
617.118	58015.96
617.475	58060.48
617.831	58211.66
618.187	58168.72
618.543	58106.13
618.899	58286.01
619.255	58313.13
619.611	58292.11
619.967	58305.44
620.323	58338.44
620.678	58232.9
621.034	58233.36
621.39	58245.33
621.746	58201.49
622.101	58469.96
622.457	58239.68
622.812	58297.53
623.168	58329.62
623.523	58389.06
623.879	58465.44
624.234	58334.37
624.589	58358.78
624.945	58353.8
625.3	58408.27
625.655	58355.61
626.01	58378.66
626.365	58412.11
626.72	58348.16
627.075	58344.09
627.43	58315.61
627.785	58259.34
628.14	58282.39
628.495	58263.86
628.85	58282.17
629.205	58185.22
629.559	58263.64
629.914	58293.02
630.269	58289.85
630.623	58156.97
630.978	58095.96
631.332	58264.54
631.687	58280.36
632.041	58104.55
632.396	58177.99
632.75	58021.61
633.104	58098.67
633.459	58007.6
633.813	57934.83
634.167	57907.04
634.521	57972.57
634.875	57934.61
635.229	57896.64
635.583	57769.19
635.937	57787.27
636.291	57758.34
636.645	57753.37
636.999	57674.05
637.352	57771
637.706	57567.84
638.06	57647.16
638.413	57584.56
638.767	57553.83
639.121	57585.92
639.474	57472.92
639.828	57441.29
640.181	57443.32
640.534	57454.62
640.888	57366.26
641.241	57246.94
641.594	57329.65
641.947	57408.29
642.301	57285.13
642.654	57313.61
643.007	57293.95
643.36	57186.83
643.713	57175.53
644.066	57246.49
644.419	57102.31
644.771	56858.48
645.124	56671.59
645.477	56595.88
645.83	56422.33
646.182	56372.61
646.535	56222.34
646.888	56313.86
647.24	56127.42
647.593	56283.35
647.945	56223.92
648.298	56128.1
648.65	56002.68
649.002	55943.7
649.355	56074.32
649.707	56031.61
650.059	56138.95
650.411	56422.33
650.763	56415.78
651.115	56717.01
651.467	56545.26
651.819	56517.02
652.171	56529.67
652.523	56418.26
652.875	56396.34
653.227	56268.21
653.578	56413.97
653.93	56360.41
654.282	56152.51
654.633	56189.34
654.985	56229.79
655.337	56300.53
655.688	56201.09
656.039	56305.72
656.391	56004.04
656.742	56077.71
657.094	56148.21
657.445	56240.87
657.796	56221.43
658.147	56089.46
658.498	56007.65
658.849	56059.63
659.2	56040.19
659.551	56029.8
659.902	56145.28
660.253	56070.02
660.604	56041.55
660.955	55828.9
661.306	56059.85
661.656	55912.96
662.007	55971.04
662.358	55849.01
662.708	55929.01
663.059	55883.59
663.409	55712.97
663.76	55924.94
664.11	55816.02
664.461	55882.46
664.811	55766.53
665.161	55731.05
665.511	55674.1
665.862	55797.49
666.212	55858.5
666.562	55799.75
666.912	55763.59
667.262	55729.24
667.612	55769.69
667.962	55729.24
668.312	55677.26
668.662	55811.95
669.011	55673.42
669.361	55622.8
669.711	55685.17
670.06	55609.24
670.41	55570.83
670.76	55530.6
671.109	55624.84
671.459	55545.74
671.808	55522.92
672.157	55629.36
672.507	55343.04
672.856	55379.42
673.205	55453.54
673.554	55552.75
673.904	55463.49
674.253	55559.75
674.602	55403.37
674.951	55081.57
675.3	54930.39
675.649	55349.14
675.998	55346.88
676.346	55268.91
676.695	55418.97
677.044	55125.19
677.393	55300.1
677.741	55291.29
678.09	55177.84
678.438	55030.05
678.787	55169.03
679.135	55192.08
679.484	54955.93
679.832	55114.12
680.181	54845.87
680.529	55003.61
680.877	54930.62
681.225	54860.11
681.573	55015.14
681.922	54883.61
682.27	54801.58
682.618	54781.02
682.966	54664.64
683.314	54665.31
683.661	54632.32
684.009	54485.43
684.357	54507.8
684.705	54441.37
685.053	54458.77
685.4	54315.72
685.748	54181.03
686.095	54177.87
686.443	53969.97
686.79	54021.94
687.138	54063.3
687.485	54124.09
687.832	53967.93
688.18	54012.9
688.527	53920.93
688.874	53805
689.221	53756.19
689.568	53619.01
689.915	53516.19
690.262	53581.05
690.609	53411.34
690.956	53334.05
691.303	53347.38
691.65	53071.46
691.997	53156.88
692.344	52921.86
692.69	52925.25
693.037	52891.35
693.383	52745.82
693.73	52781.3
694.077	52544.24
694.423	52626.95
694.769	52497.01
695.116	52362.55
695.462	52478.03
695.808	52294.98
696.155	52329.78
696.501	52087.53
696.847	52186.74
697.193	51852.73
697.539	51998.72
697.885	51765.73
698.231	51724.6
698.577	51757.37
698.923	51613.19
699.269	51399.41
699.614	51246.19
699.96	51230.6
700.306	51271.73
700.651	51139.76
700.997	50994.68
701.342	50880.78
701.688	50862.48
702.033	50690.73
702.379	50607.12
702.724	50560.56
703.069	50664.29
703.415	50194.92
703.76	50222.72
704.105	50164.19
704.45	50120.57
704.795	49857.98
705.14	49723.3
705.485	49817.31
705.83	49631.55
706.175	49781.37
706.52	49640.14
706.865	49512.68
707.209	49443.76
707.554	49274.04
707.899	49406.47
708.243	49222.97
708.588	49198.34
708.932	48929.87
709.277	48858.24
709.621	48899.36
709.966	48573.95
710.31	48717.45
710.654	48368.3
710.998	48481.97
711.342	48323.11
711.687	48365.14
712.031	48123.34
712.375	47971.7
712.719	48096.22
713.063	47961.76
713.407	48001.99
713.75	47736.91
714.094	47679.74
714.438	47650.36
714.782	47623.69
715.125	47353.87
715.469	47497.14
715.812	47151.61
716.156	47009.7
716.499	46988.45
716.843	47158.17
717.186	46843.82
717.53	47129.47
717.873	46977.61
718.216	46943.03
718.559	46789.59
718.902	46551.86
719.246	46769.93
719.589	46610.61
719.932	46420.79
720.275	46387.57
720.617	46332.65
720.96	46120
721.303	46097.4
721.646	46273.22
721.989	45957.75
722.331	46007.24
722.674	45878.65
723.016	45922.04
723.359	45868.48
723.701	45680.92
724.044	45494.26
724.386	45348.72
724.729	45551.88
725.071	45400.02
725.413	45356.86
725.755	45362.28
726.097	45130.2
726.439	44959.35
726.782	44887.49
727.124	45007.26
727.465	44834.61
727.807	44829.64
728.149	44718.46
728.491	44657.22
728.833	44854.95
729.175	44470.1
729.516	44535.41
729.858	44373.38
730.199	44470.33
730.541	44482.98
730.882	44229.88
731.224	44318.24
731.565	44123.9
731.906	44165.7
732.248	44175.87
732.589	43925.94
732.93	43736.79
733.271	43872.6
733.612	43852.49
733.953	43694.08
734.294	43587.87
734.635	43476.46
734.976	43437.13
735.317	43348.55
735.658	43319.17
735.999	43252.51
736.339	43120.31
736.68	43350.13
737.021	43083.02
737.361	42936.13
737.702	43092.06
738.042	43023.13
738.383	42988.11
738.723	42904.95
739.063	42628.34
739.404	42774.55
739.744	42571.17
740.084	42527.33
740.424	42618.63
740.764	42446.88
741.104	42521.68
741.444	42330.05
741.784	42170.28
742.124	42165.3
742.464	42045.76
742.804	41939.55
743.143	41951.52
743.483	41975.7
743.823	41661.36
744.162	41735.71
744.502	41783.39
744.841	41500.24
745.181	41715.15
745.52	41595.6
745.86	41673.11
746.199	41446.23
746.538	41283.29
746.877	41398.09
747.216	41357.87
747.556	41198.32
747.895	41018.22
748.234	40894.83
748.573	40857.99
748.911	40851.21
749.25	40751.56
749.589	40589.07
749.928	40642.63
750.267	40613.93
750.605	40446.03
750.944	40433.37
751.283	40302.98
751.621	40429.08
751.96	40043.1
752.298	40129.43
