Data from plate_ceramic_FLMS001491_023.txt Node
Date: Tue Feb 07 11:16:31 GMT 2017
User: dcchb
Spectrometer: FLMS00149
Trigger mode: 0
Integration Time (sec): 2.000000E-2
Scans to average: 10
Electric dark correction enabled: true
Nonlinearity correction enabled: false
Boxcar width: 0
XAxis mode: Wavelengths
Number of Pixels in Spectrum: 2048
>>>>>Begin Spectral Data<<<<<
341.393	-20.8
341.776	-20.8
342.16	-20.8
342.543	-64.19
342.927	-77.98
343.31	-75.72
343.693	-75.27
344.077	-64.19
344.46	-76.4
344.843	-54.48
345.226	-45.66
345.61	-23.74
345.993	-28.71
346.376	1.12
346.759	15.8
347.142	38.4
347.525	39.98
347.908	79.53
348.291	76.37
348.674	80.66
349.057	112.3
349.44	117.5
349.823	151.39
350.206	162.02
350.588	199.98
350.971	209.02
351.354	246.76
351.737	248.34
352.119	234.56
352.502	274.78
352.884	284.72
353.267	277.27
353.65	299.86
354.032	310.03
354.414	325.18
354.797	315.01
355.179	312.29
355.562	335.34
355.944	348.68
356.326	342.35
356.709	323.82
357.091	351.39
357.473	352.97
357.855	343.25
358.238	366.08
358.62	344.16
359.002	347.1
359.384	347.1
359.766	356.59
360.148	355.91
360.53	366.98
360.912	344.61
361.294	364.72
361.676	342.12
362.057	352.52
362.439	358.17
362.821	347.32
363.203	355.68
363.584	355
363.966	347.1
364.348	329.02
364.729	341.22
365.111	353.42
365.493	353.65
365.874	327.66
366.256	358.62
366.637	333.08
367.019	325.85
367.4	344.84
367.781	319.3
368.163	329.47
368.544	353.42
368.925	346.42
369.306	346.64
369.688	347.55
370.069	337.83
370.45	362.91
370.831	337.15
371.212	357.94
371.593	329.24
371.974	326.53
372.355	353.42
372.736	359.98
373.117	353.42
373.498	352.74
373.879	376.47
374.26	354.1
374.641	347.1
375.021	364.27
375.402	355.91
375.783	354.78
376.163	370.15
376.544	379.41
376.925	375.8
377.305	383.03
377.686	362.69
378.066	384.38
378.447	392.52
378.827	384.38
379.208	386.64
379.588	372.41
379.968	391.39
380.349	397.72
380.729	383.93
381.109	373.99
381.489	395
381.87	412.63
382.25	393.2
382.63	402.24
383.01	413.53
383.39	413.31
383.77	411.5
384.15	406.08
384.53	410.6
384.91	420.54
385.29	428.45
385.67	445.17
386.049	417.38
386.429	417.83
386.809	417.38
387.189	428.68
387.568	439.52
387.948	463.25
388.328	443.36
388.707	456.47
389.087	438.84
389.466	464.61
389.846	456.7
390.225	479.97
390.605	475
390.984	447.66
391.363	486.53
391.743	475.45
392.122	484.94
392.501	487.2
392.881	479.75
393.26	497.37
393.639	503.93
394.018	481.78
394.397	493.76
394.776	483.59
395.155	514.77
395.534	520.42
395.913	520.88
396.292	510.71
396.671	528.79
397.05	555.45
397.429	549.35
397.808	561.55
398.186	557.71
398.565	533.98
398.944	546.19
399.323	546.19
399.701	572.17
400.08	571.04
400.458	595.22
400.837	573.08
401.215	583.02
401.594	597.03
401.972	608.56
402.351	626.41
402.729	601.78
403.107	597.71
403.486	620.31
403.864	627.54
404.242	636.81
404.62	632.96
404.999	651.27
405.377	639.97
405.755	629.57
406.133	662.57
406.511	663.7
406.889	675.45
407.267	695.33
407.645	670.7
408.023	691.04
408.401	708.44
408.779	730.36
409.156	712.96
409.534	729.01
409.912	748.21
410.29	738.95
410.667	740.08
411.045	763.36
411.422	762.23
411.8	784.15
412.178	778.04
412.555	806.74
412.933	824.14
413.31	821.21
413.687	840.87
414.065	833.41
414.442	840.87
414.819	834.77
415.197	860.08
415.574	877.7
415.951	894.88
416.328	886.74
416.705	878.83
417.082	913.63
417.46	885.84
417.837	887.65
418.214	944.14
418.591	926.06
418.967	922
419.344	945.95
419.721	952.28
420.098	951.37
420.475	986.63
420.852	989.34
421.228	973.97
421.605	1011.03
421.982	1017.81
422.358	1007.87
422.735	1018.26
423.111	1025.95
423.488	1069.11
423.864	1072.95
424.241	1097.13
424.617	1084.48
424.994	1087.41
425.37	1122.67
425.746	1131.03
426.123	1138.49
426.499	1124.93
426.875	1134.19
427.251	1140.07
427.627	1186.17
428.003	1199.73
428.379	1211.48
428.756	1239.05
429.132	1255.77
429.507	1235.43
429.883	1270.23
430.259	1308.2
430.635	1310.01
431.011	1308.2
431.387	1330.35
431.763	1352.27
432.138	1371.02
432.514	1369.44
432.89	1399.5
433.265	1429.33
433.641	1450.8
434.016	1442.89
434.392	1466.84
434.767	1465.48
435.143	1498.93
435.518	1489.66
435.894	1544.8
436.269	1545.48
436.644	1542.32
437.02	1586.61
437.395	1563.11
437.77	1615.54
438.145	1618.25
438.52	1647.17
438.895	1690.56
439.271	1667.06
439.646	1682.88
440.021	1707.96
440.395	1696.44
440.77	1702.99
441.145	1749.54
441.52	1776.89
441.895	1755.19
442.27	1780.05
442.645	1762.88
443.019	1808.3
443.394	1817.57
443.769	1830.45
444.143	1822.31
444.518	1845.59
444.892	1840.39
445.267	1863.44
445.641	1893.5
446.016	1884.91
446.39	1881.74
446.764	1941.86
447.139	1926.94
447.513	1956.32
447.887	1962.65
448.262	1974.17
448.636	1961.74
449.01	2009.42
449.384	2013.27
449.758	2031.34
450.132	2073.6
450.506	2078.58
450.88	2096.43
451.254	2068.18
451.628	2123.09
452.002	2112.02
452.376	2162.87
452.75	2155.18
453.123	2158.8
453.497	2218.46
453.871	2265.46
454.244	2277.89
454.618	2286.93
454.992	2331
455.365	2346.36
455.739	2410.09
456.112	2416.42
456.486	2423.88
456.859	2460.26
457.232	2508.39
457.606	2463.2
457.979	2569.18
458.352	2599.47
458.725	2642.18
459.099	2637.43
459.472	2687.6
459.845	2725.79
460.218	2756.07
460.591	2754.26
460.964	2764.88
461.337	2839.23
461.71	2891.89
462.083	2956.97
462.456	2912.45
462.829	2969.4
463.201	3032
463.574	3005.56
463.947	3068.83
464.32	3130.98
464.692	3190.41
465.065	3195.61
465.438	3263.63
465.81	3291.42
466.183	3335.27
466.555	3379.33
466.928	3421.14
467.3	3407.13
467.672	3464.08
468.045	3608.25
468.417	3588.59
468.789	3585.43
469.161	3652.77
469.534	3691.41
469.906	3789.72
470.278	3838.75
470.65	3862.26
471.022	3913.56
471.394	3987.9
471.766	4017.28
472.138	4084.62
472.51	4172.76
472.882	4212.08
473.253	4308.12
473.625	4337.5
473.997	4386.76
474.369	4444.39
474.74	4503.14
475.112	4542.92
475.484	4688.9
475.855	4738.39
476.227	4790.14
476.598	4890.25
476.97	4936.35
477.341	5049.8
477.713	5127.08
478.084	5175.67
478.455	5327.76
478.827	5420.18
479.198	5488.88
479.569	5509.22
479.94	5691.36
480.311	5760.29
480.682	5864.01
481.053	5939.49
481.424	6052.26
481.795	6134.06
482.166	6210.44
482.537	6336.99
482.908	6438.23
483.279	6519.14
483.65	6593.48
484.021	6812.91
484.391	6799.58
484.762	6920.93
485.133	6930.2
485.503	7058.78
485.874	7224.88
486.244	7268.5
486.615	7420.13
486.985	7541.93
487.356	7667.81
487.726	7692.44
488.097	7926.33
488.467	7967.23
488.837	8086.78
489.207	8228.7
489.578	8343.95
489.948	8472.08
490.318	8519.54
490.688	8529.25
491.058	8626.43
491.428	8808.57
491.798	8900.54
492.168	9064.83
492.538	9106.64
492.908	9198.39
493.278	9309.12
493.648	9388.67
494.017	9552.73
494.387	9543.69
494.757	9635.89
495.126	9782.33
495.496	9839.28
495.866	9890.8
496.235	9990.68
496.605	10080.62
496.974	10194.52
497.344	10256.21
497.713	10339.15
498.082	10398.81
498.452	10535.75
498.821	10556.32
499.19	10638.35
499.559	10853.49
499.928	10876.99
500.298	10901.17
500.667	11008.06
501.036	10975.29
501.405	11084.89
501.774	11125.8
502.143	11241.05
502.512	11337.31
502.88	11425
503.249	11499.57
503.618	11536.63
503.987	11669.06
504.356	11721.94
504.724	11735.95
505.093	11812.33
505.462	11905.21
505.83	12010.74
506.199	12129.16
506.567	12348.14
506.936	12306.55
507.304	12442.82
507.672	12488.92
508.041	12532.54
508.409	12651.86
508.777	12732.98
509.145	12909.02
509.514	12970.49
509.882	13018.85
510.25	13075.57
510.618	13191.5
510.986	13251.84
511.354	13430.37
511.722	13433.98
512.09	13562.34
512.458	13646.86
512.826	13728.21
513.193	13826.29
513.561	13869.45
513.929	14044.59
514.297	14181.08
514.664	14160.29
515.032	14311.93
515.4	14419.27
515.767	14579.49
516.135	14561.64
516.502	14619.71
516.869	14858.58
517.237	14927.28
517.604	14870.33
517.972	15110.55
518.339	15253.82
518.706	15297.44
519.073	15430.09
519.44	15491.78
519.808	15701.72
520.175	15656.75
520.542	15947.82
520.909	15997.53
521.276	16042.73
521.643	16182.16
522.009	16390.29
522.376	16452.21
522.743	16616.05
523.11	16719.09
523.477	16984.17
523.843	16995.7
524.21	17161.12
524.577	17339.64
524.943	17432.3
525.31	17428.91
525.676	17677.26
526.043	17816.01
526.409	17869.35
526.776	17985.28
527.142	18171.03
527.508	18234.53
527.874	18440.63
528.241	18501.19
528.607	18633.39
528.973	18799.04
529.339	18801.98
529.705	19053.95
530.071	19149.09
530.437	19286.03
530.803	19394.05
531.169	19512.24
531.535	19492.58
531.901	19519.7
532.267	19682.41
532.632	19830.88
532.998	19904.77
533.364	20043.75
533.73	20104.09
534.095	20333.69
534.461	20420.24
534.826	20480.35
535.192	20617.75
535.557	20763.96
535.923	20827.46
536.288	20870.4
536.653	20961.24
537.019	20935.71
537.384	20991.52
537.749	21158.3
538.114	21137.06
538.479	21295.92
538.845	21448.46
539.21	21443.94
539.575	21625.86
539.94	21502.47
540.305	21798.73
540.67	21790.15
541.034	21878.96
541.399	22021.1
541.764	22001.22
542.129	22194.43
542.494	22240.08
542.858	22303.13
543.223	22338.38
543.587	22421.09
543.952	22490.02
544.316	22613.4
544.681	22526.85
545.045	22745.6
545.41	22793.74
545.774	22965.03
546.138	22968.42
546.503	23066.05
546.867	23084.35
547.231	23266.49
547.595	23275.98
547.959	23378.81
548.324	23335.19
548.688	23534.73
549.052	23635.3
549.416	23674.62
549.779	23796.65
550.143	23958
550.507	23975.85
550.871	24150.09
551.235	24152.12
551.599	24364.09
551.962	24437.76
552.326	24507.82
552.689	24568.61
553.053	24495.16
553.417	24562.73
553.78	24815.15
554.143	24851.08
554.507	25051.98
554.87	25084.3
555.234	25359.77
555.597	25195.26
555.96	25335.82
556.323	25501.46
556.686	25545.53
557.05	25669.82
557.413	25844.05
557.776	25964.95
558.139	26168.11
558.502	26149.81
558.865	26346.64
559.228	26433.64
559.59	26572.62
559.953	26482.91
560.316	26903.91
560.679	26939.39
561.041	27025.49
561.404	27239.5
561.767	27413.95
562.129	27371.02
562.492	27599.26
562.854	27686.04
563.217	27702.76
563.579	27717.45
563.941	28100.49
564.304	28171.45
564.666	28426.13
565.028	28293.71
565.39	28458.67
565.753	28609.63
566.115	28804.2
566.477	28815.5
566.839	28958.32
567.201	29145.43
567.563	29268.37
567.925	29475.37
568.287	29449.61
568.648	29542.26
569.01	29609.6
569.372	29858.64
569.734	29873.32
570.095	29977.05
570.457	30130.95
570.819	30229.02
571.18	30218.17
571.542	30502.69
571.903	30380.88
572.265	30577.03
572.626	30759.18
572.987	30725.51
573.349	30845.28
573.71	31085.5
574.071	31068.55
574.432	31223.12
574.794	31211.82
575.155	31414.08
575.516	31410.01
575.877	31498.59
576.238	31545.6
576.599	31655.88
576.96	31705.14
577.32	31667.18
577.681	31787.17
578.042	31930.22
578.403	31909.2
578.763	32058.58
579.124	32061.52
579.485	32155.52
579.845	32318.46
580.206	32174.73
580.566	32114.4
580.927	32287.05
581.287	32348.06
581.648	32315.29
582.008	32382.19
582.368	32341.96
582.728	32499.47
583.089	32365.69
583.449	32426.7
583.809	32513.93
584.169	32482.97
584.529	32527.72
584.889	32821.5
585.249	32586.47
585.609	32475.97
585.969	32713.02
586.329	32731.33
586.688	32669.41
587.048	32790.08
587.408	32568.4
587.768	32730.65
588.127	32649.07
588.487	32573.37
588.846	32881.83
589.206	32537.44
589.565	32706.02
589.925	32841.16
590.284	32721.39
590.643	32779.69
591.003	32896.3
591.362	32875.51
591.721	32792.12
592.08	32946.46
592.44	33235.27
592.799	33042.73
593.158	33009.97
593.517	33020.13
593.876	33010.87
594.235	32979.01
594.593	32993.24
594.952	33086.12
595.311	32956.86
595.67	33178.77
596.029	33315.04
596.387	33286.57
596.746	33372.22
597.104	33146.91
597.463	33155.27
597.822	33333.57
598.18	33174.48
598.538	33177.64
598.897	33341.71
599.255	33155.5
599.613	33609.95
599.972	33449.28
600.33	33375.61
600.688	33272.33
601.046	33527.69
601.404	33738.08
601.762	33633
602.12	33887
602.478	33675.03
602.836	33849.04
603.194	33598.88
603.552	33833.22
603.91	33516.39
604.268	33842.26
604.625	33665.77
604.983	33852.88
605.341	33596.84
605.698	33851.75
606.056	33861.47
606.413	33943.95
606.771	33987.11
607.128	34035.93
607.485	34048.81
607.843	33961.8
608.2	34204.96
608.557	34189.6
608.914	34239.99
609.272	34413.77
609.629	34392.08
609.986	34547.1
610.343	34325.86
610.7	34619.87
611.057	34423.49
611.414	34520.43
611.771	34528.57
612.127	34567.66
612.484	34674.33
612.841	34725.85
613.198	34565.63
613.554	34630.94
613.911	34810.6
614.267	34852.18
614.624	34838.84
614.98	34870.26
615.337	34972.85
615.693	34927.66
616.05	34947.99
616.406	35130.36
616.762	35113.19
617.118	35026.18
617.475	34980.99
617.831	35250.58
618.187	35231.15
618.543	35194.77
618.899	35511.37
619.255	35305.72
619.611	35290.13
619.967	35426.62
620.323	35525.83
620.678	35357.25
621.034	35083.36
621.39	35265.27
621.746	35321.09
622.101	35765.6
622.457	35239.96
622.812	35395.89
623.168	35524.25
623.523	35454.42
623.879	35568.09
624.234	35271.83
624.589	35556.57
624.945	35512.05
625.3	35434.99
625.655	35499.39
626.01	35416.91
626.365	35381.43
626.72	35406.29
627.075	35357.93
627.43	35397.25
627.785	35388.43
628.14	35415.78
628.495	35351.82
628.85	35345.05
629.205	35206.29
629.559	35526.51
629.914	35378.49
630.269	35376.91
630.623	35280.87
630.978	35218.72
631.332	35279.51
631.687	35340.75
632.041	35029.12
632.396	35024.83
632.75	35013.08
633.104	34968.33
633.459	34930.14
633.813	34870.03
634.167	34991.16
634.521	34776.7
634.875	34851.05
635.229	34790.26
635.583	34580.32
635.937	34698.06
636.291	34730.82
636.645	34731.5
636.999	34512.98
637.352	34773.31
637.706	34624.84
638.06	34615.57
638.413	34485.86
638.767	34373.77
639.121	34406.31
639.474	34183.95
639.828	34337.61
640.181	34223.27
640.534	34382.58
640.888	34196.6
641.241	34041.58
641.594	34140.11
641.947	34218.75
642.301	34023.95
642.654	34037.73
643.007	34065.08
643.36	33856.27
643.713	33969.71
644.066	34013.55
644.419	33680
644.771	33411.54
645.124	33116.18
645.477	33153.69
645.83	32753.25
646.182	32803.42
646.535	32726.36
646.888	32838.67
647.24	32661.95
647.593	32859.01
647.945	32736.07
648.298	32557.32
648.65	32479.81
649.002	32310.77
649.355	32633.25
649.707	32501.05
650.059	32592.35
650.411	32844.77
650.763	32985.56
651.115	33233.24
651.467	33140.81
651.819	33136.97
652.171	33028.95
652.523	32951.66
652.875	33116.86
653.227	32925.22
653.578	33106.46
653.93	33001.38
654.282	32861.04
654.633	32700.37
654.985	32818.78
655.337	32808.61
655.688	32751.89
656.039	32929.29
656.391	32664.21
656.742	32630.31
657.094	32765
657.445	32869.86
657.796	32703.98
658.147	32633.93
658.498	32622.18
658.849	32597.77
659.2	32617.66
659.551	32608.17
659.902	32614.04
660.253	32694.72
660.604	32654.04
660.955	32448.4
661.306	32471
661.656	32368.85
662.007	32383.54
662.358	32367.95
662.708	32387.61
663.059	32376.76
663.409	32176.09
663.76	32413.6
664.11	32236.88
664.461	32394.84
664.811	32409.98
665.161	32294.96
665.511	32200.95
665.862	32222.64
666.212	32272.36
666.562	32393.94
666.912	32222.19
667.262	32098.35
667.612	32113.72
667.962	32148.29
668.312	32091.8
668.662	32275.75
669.011	32170.21
669.361	32120.05
669.711	32021.29
670.06	32043.66
670.41	31965.7
670.76	32022.42
671.109	32083.66
671.459	32026.26
671.808	31990.56
672.157	31957.34
672.507	31665.82
672.856	31727.97
673.205	31858.81
673.554	31892.48
673.904	31828.08
674.253	31972.7
674.602	31800.51
674.951	31383.79
675.3	31268.99
675.649	31756.44
675.998	31553.96
676.346	31667.85
676.695	31791.24
677.044	31557.57
677.393	31639.61
677.741	31667.18
678.09	31598.25
678.438	31494.75
678.787	31460.4
679.135	31579.95
679.484	31301.76
679.832	31541.3
680.181	31225.38
680.529	31351.25
680.877	31189
681.225	31134.99
681.573	31323.91
681.922	31230.58
682.27	30962.34
682.618	31022.67
682.966	30969.79
683.314	31034.2
683.661	30918.04
684.009	30715.11
684.357	30714.43
684.705	30751.95
685.053	30674.89
685.4	30681.67
685.748	30470.82
686.095	30498.62
686.443	30386.08
686.79	30311.96
687.138	30417.49
687.485	30427.89
687.832	30118.97
688.18	30288
688.527	30084.17
688.874	30029.7
689.221	29896.6
689.568	30018.41
689.915	29838.52
690.262	29778.64
690.609	29764.4
690.956	29607.57
691.303	29665.19
691.65	29575.25
691.997	29511.53
692.344	29323.51
692.69	29286.67
693.037	29488.93
693.383	29190.4
693.73	29305.2
694.077	29096.4
694.423	29223.62
694.769	29145.43
695.116	28940.69
695.462	28919.68
695.808	28727.37
696.155	28784.77
696.501	28531.67
696.847	28366.02
697.193	28356.3
697.539	28418
697.885	28066.37
698.231	27977.33
698.577	28048.29
698.923	28080.38
699.269	27947.27
699.614	27811.23
699.96	27838.12
700.306	27784.57
700.651	27663.67
700.997	27550.45
701.342	27523.56
701.688	27512.93
702.033	27415.31
702.379	27319.04
702.724	27239.5
703.069	27293.73
703.415	27007.41
703.76	27013.74
704.105	27052.38
704.45	26953.85
704.795	26776
705.14	26761.32
705.485	26764.25
705.83	26538.5
706.175	26661.21
706.52	26594.31
706.865	26488.33
707.209	26492.4
707.554	26277.04
707.899	26427.54
708.243	26242.91
708.588	26228.9
708.932	26007.89
709.277	26041.34
709.621	26046.08
709.966	25818.52
710.31	25774
710.654	25673.66
710.998	25724.06
711.342	25729.03
711.687	25663.72
712.031	25573.1
712.375	25435.02
712.719	25538.52
713.063	25463.27
713.407	25578.97
713.75	25242.26
714.094	25327.91
714.438	25252.88
714.782	25253.56
715.125	25088.37
715.469	25150.96
715.812	24986.22
716.156	24940.8
716.499	24926.34
716.843	24943.74
717.186	24746.91
717.53	24914.81
717.873	24888.82
718.216	24741.71
718.559	24655.38
718.902	24492.9
719.246	24512.11
719.589	24386.92
719.932	24294.94
720.275	24323.64
720.617	24257.65
720.96	24280.03
721.303	24243.87
721.646	24211.78
721.989	24173.36
722.331	24168.16
722.674	24051.1
723.016	24056.3
723.359	23978.11
723.701	23987.6
724.044	23851.34
724.386	23778.57
724.729	23842.3
725.071	23675.3
725.413	23746.25
725.755	23717.33
726.097	23653.38
726.439	23525.47
726.782	23549.42
727.124	23633.04
727.465	23419.26
727.807	23483.44
728.149	23491.57
728.491	23456.77
728.833	23364.8
729.175	23278.47
729.516	23268.75
729.858	23250
730.199	23152.82
730.541	23153.95
730.882	23149.66
731.224	23127.51
731.565	22997.8
731.906	22921.87
732.248	22975.2
732.589	22858.14
732.93	22840.97
733.271	22832.83
733.612	22828.76
733.953	22889.33
734.294	22758.26
734.635	22699.28
734.976	22728.65
735.317	22606.17
735.658	22647.3
735.999	22613.85
736.339	22414.31
736.68	22527.3
737.021	22443.01
737.361	22289.8
737.702	22443.01
738.042	22326.86
738.383	22264.94
738.723	22415.89
739.063	22222.23
739.404	22340.42
739.744	22126.18
740.084	22115.34
740.424	22209.35
740.764	22076.92
741.104	22062.46
741.444	22047.54
741.784	21967.54
742.124	22091.16
742.464	21923.48
742.804	21856.13
743.143	21895.23
743.483	21874.89
743.823	21671.73
744.162	21625.63
744.502	21771.84
744.841	21670.83
745.181	21730.04
745.52	21603.26
745.86	21641.68
746.199	21491.62
746.538	21612.98
746.877	21597.84
747.216	21510.15
747.556	21461.12
747.895	21479.42
748.234	21224.06
748.573	21213.67
748.911	21206.43
749.25	21197.39
749.589	21154.23
749.928	21148.36
750.267	21162.37
750.605	21090.96
750.944	21020.9
751.283	20925.31
751.621	20989.26
751.96	20863.84
752.298	20906.78
752.636	20681.25
752.975	20610.74
753.313	20674.7
753.651	20807.12
753.989	20549.5
754.327	20475.61
754.666	20439.9
755.004	20488.71
